Data from SnStandardFlinnAPT0064_LampEnergy5.5_LIBS07252019.E.O._I.C._HRD10591_15-15-21-491.txt Node
Date: Thu Jul 25 15:15:21 EDT 2019
User: cochatt
Spectrometer: HR+D1059
Trigger mode: 1
Integration Time (sec): 1.000000E-1
Scans to average: 1
Electric dark correction enabled: true
Nonlinearity correction enabled: false
Boxcar width: 0
XAxis mode: Wavelengths
Number of Pixels in Spectrum: 2048
>>>>>Begin Spectral Data<<<<<
223.165	-23.31
223.4	-23.31
223.635	-23.31
223.869	-7.31
224.104	-21.31
224.338	-22.31
224.573	-22.31
224.808	-12.31
225.042	-12.31
225.277	-0.31
225.511	2.69
225.746	8.69
225.98	12.69
226.215	14.69
226.449	14.69
226.683	13.69
226.918	19.69
227.152	34.69
227.387	32.69
227.621	39.69
227.856	37.69
228.09	52.69
228.324	55.69
228.559	61.69
228.793	84.69
229.027	152.69
229.262	145.69
229.496	153.69
229.73	165.69
229.964	157.69
230.199	160.69
230.433	163.69
230.667	162.69
230.901	160.69
231.136	159.69
231.37	183.69
231.604	187.69
231.838	201.69
232.072	221.69
232.306	225.69
232.541	204.69
232.775	216.69
233.009	197.69
233.243	206.69
233.477	210.69
233.711	221.69
233.945	244.69
234.179	237.69
234.413	212.69
234.647	204.69
234.881	213.69
235.115	243.69
235.349	270.69
235.583	313.69
235.817	382.69
236.051	370.69
236.285	276.69
236.519	233.69
236.753	240.69
236.987	230.69
237.221	245.69
237.455	237.69
237.689	215.69
237.922	218.69
238.156	210.69
238.39	237.69
238.624	223.69
238.858	220.69
239.091	230.69
239.325	210.69
239.559	218.69
239.793	245.69
240.027	246.69
240.26	242.69
240.494	233.69
240.728	249.69
240.961	274.69
241.195	274.69
241.429	293.69
241.662	311.69
241.896	314.69
242.13	363.69
242.363	451.69
242.597	555.69
242.83	531.69
243.064	571.69
243.298	636.69
243.531	546.69
243.765	382.69
243.998	321.69
244.232	318.69
244.465	304.69
244.699	288.69
244.932	284.69
245.166	302.69
245.399	295.69
245.633	310.69
245.866	310.69
246.099	303.69
246.333	296.69
246.566	307.69
246.8	289.69
247.033	265.69
247.266	302.69
247.5	280.69
247.733	290.69
247.966	310.69
248.2	317.69
248.433	331.69
248.666	378.69
248.899	371.69
249.133	361.69
249.366	350.69
249.599	387.69
249.832	414.69
250.066	422.69
250.299	371.69
250.532	359.69
250.765	334.69
250.998	321.69
251.231	320.69
251.465	329.69
251.698	315.69
251.931	323.69
252.164	330.69
252.397	350.69
252.63	328.69
252.863	343.69
253.096	339.69
253.329	348.69
253.562	337.69
253.795	348.69
254.028	353.69
254.261	350.69
254.494	381.69
254.727	428.69
254.96	479.69
255.193	492.69
255.426	408.69
255.659	369.69
255.892	384.69
256.124	368.69
256.357	374.69
256.59	401.69
256.823	416.69
257.056	452.69
257.289	493.69
257.521	546.69
257.754	468.69
257.987	403.69
258.22	382.69
258.452	395.69
258.685	397.69
258.918	395.69
259.151	418.69
259.383	440.69
259.616	468.69
259.849	491.69
260.081	466.69
260.314	410.69
260.547	414.69
260.779	422.69
261.012	409.69
261.244	450.69
261.477	433.69
261.71	449.69
261.942	445.69
262.175	438.69
262.407	441.69
262.64	479.69
262.872	496.69
263.105	502.69
263.337	521.69
263.57	559.69
263.802	574.69
264.035	571.69
264.267	615.69
264.499	596.69
264.732	619.69
264.964	620.69
265.197	604.69
265.429	605.69
265.661	599.69
265.894	683.69
266.126	708.69
266.358	753.69
266.591	755.69
266.823	669.69
267.055	628.69
267.287	608.69
267.52	592.69
267.752	542.69
267.984	567.69
268.216	556.69
268.448	564.69
268.681	560.69
268.913	535.69
269.145	557.69
269.377	530.69
269.609	553.69
269.841	540.69
270.073	552.69
270.306	627.69
270.538	821.69
270.77	1151.69
271.002	1357.69
271.234	974.69
271.466	705.69
271.698	632.69
271.93	572.69
272.162	567.69
272.394	526.69
272.626	520.69
272.858	530.69
273.09	526.69
273.322	528.69
273.553	503.69
273.785	518.69
274.017	518.69
274.249	515.69
274.481	505.69
274.713	505.69
274.945	532.69
275.176	520.69
275.408	528.69
275.64	514.69
275.872	516.69
276.104	556.69
276.335	525.69
276.567	561.69
276.799	521.69
277.031	552.69
277.262	549.69
277.494	581.69
277.726	617.69
277.957	704.69
278.189	763.69
278.421	708.69
278.652	653.69
278.884	630.69
279.115	611.69
279.347	590.69
279.579	566.69
279.81	588.69
280.042	577.69
280.273	567.69
280.505	589.69
280.736	608.69
280.968	655.69
281.199	674.69
281.431	740.69
281.662	749.69
281.894	676.69
282.125	653.69
282.356	670.69
282.588	666.69
282.819	702.69
283.051	746.69
283.282	772.69
283.513	912.69
283.745	1280.69
283.976	1974.69
284.207	2736.69
284.439	2456.69
284.67	1544.69
284.901	1280.69
285.132	1232.69
285.364	1178.69
285.595	972.69
285.826	894.69
286.057	1036.69
286.288	1364.69
286.52	1721.69
286.751	1618.69
286.982	1093.69
287.213	872.69
287.444	779.69
287.675	739.69
287.906	723.69
288.138	715.69
288.369	698.69
288.6	690.69
288.831	677.69
289.062	692.69
289.293	707.69
289.524	699.69
289.755	723.69
289.986	728.69
290.217	722.69
290.448	693.69
290.679	708.69
290.91	676.69
291.141	723.69
291.371	763.69
291.602	794.69
291.833	757.69
292.064	674.69
292.295	674.69
292.526	695.69
292.757	652.69
292.987	672.69
293.218	651.69
293.449	664.69
293.68	666.69
293.91	651.69
294.141	635.69
294.372	665.69
294.603	661.69
294.833	650.69
295.064	634.69
295.295	652.69
295.525	653.69
295.756	661.69
295.987	651.69
296.217	660.69
296.448	641.69
296.679	642.69
296.909	669.69
297.14	676.69
297.37	665.69
297.601	669.69
297.831	664.69
298.062	674.69
298.292	666.69
298.523	696.69
298.753	708.69
298.984	710.69
299.214	707.69
299.445	714.69
299.675	711.69
299.905	746.69
300.136	778.69
300.366	839.69
300.597	1036.69
300.827	1320.69
301.057	1724.69
301.288	1748.69
301.518	1195.69
301.748	953.69
301.979	902.69
302.209	881.69
302.439	873.69
302.669	912.69
302.9	1068.69
303.13	1415.69
303.36	2010.69
303.59	2653.69
303.82	2345.69
304.051	1459.69
304.281	1096.69
304.511	977.69
304.741	908.69
304.971	841.69
305.201	820.69
305.431	795.69
305.661	805.69
305.891	753.69
306.121	775.69
306.352	765.69
306.582	762.69
306.812	744.69
307.042	758.69
307.272	776.69
307.502	736.69
307.731	728.69
307.961	769.69
308.191	766.69
308.421	756.69
308.651	771.69
308.881	721.69
309.111	749.69
309.341	765.69
309.571	744.69
309.8	755.69
310.03	768.69
310.26	769.69
310.49	761.69
310.72	795.69
310.949	775.69
311.179	808.69
311.409	792.69
311.639	764.69
311.868	788.69
312.098	788.69
312.328	805.69
312.557	808.69
312.787	786.69
313.017	788.69
313.246	804.69
313.476	832.69
313.706	797.69
313.935	833.69
314.165	912.69
314.394	956.69
314.624	891.69
314.853	877.69
315.083	843.69
315.312	865.69
315.542	906.69
315.771	878.69
316.001	887.69
316.23	920.69
316.46	960.69
316.689	1028.69
316.919	1191.69
317.148	1639.69
317.377	2389.69
317.607	3438.69
317.836	3555.69
318.065	2208.69
318.295	1501.69
318.524	1274.69
318.753	1092.69
318.983	1044.69
319.212	1000.69
319.441	980.69
319.67	986.69
319.9	948.69
320.129	955.69
320.358	949.69
320.587	920.69
320.816	948.69
321.046	940.69
321.275	937.69
321.504	948.69
321.733	977.69
321.962	983.69
322.191	973.69
322.42	984.69
322.649	976.69
322.878	973.69
323.108	1031.69
323.337	1017.69
323.566	1006.69
323.795	1061.69
324.024	1051.69
324.253	1061.69
324.482	1117.69
324.71	1144.69
324.939	1222.69
325.168	1221.69
325.397	1273.69
325.626	1476.69
325.855	1963.69
326.084	2955.69
326.313	4250.69
326.542	4548.69
326.77	2966.69
326.999	2041.69
327.228	1760.69
327.457	1714.69
327.686	1745.69
327.914	1846.69
328.143	2064.69
328.372	2402.69
328.6	2542.69
328.829	2422.69
329.058	2113.69
329.287	1938.69
329.515	1800.69
329.744	1642.69
329.972	1557.69
330.201	1526.69
330.43	1476.69
330.658	1432.69
330.887	1435.69
331.115	1397.69
331.344	1369.69
331.572	1346.69
331.801	1404.69
332.03	1400.69
332.258	1389.69
332.486	1460.69
332.715	1616.69
332.943	1908.69
333.172	2209.69
333.4	2251.69
333.629	1825.69
333.857	1694.69
334.085	1732.69
334.314	1759.69
334.542	1931.69
334.771	2190.69
334.999	2566.69
335.227	3142.69
335.455	3400.69
335.684	3209.69
335.912	2784.69
336.14	2462.69
336.369	2212.69
336.597	2044.69
336.825	1814.69
337.053	1757.69
337.281	1676.69
337.51	1606.69
337.738	1516.69
337.966	1470.69
338.194	1442.69
338.422	1394.69
338.65	1311.69
338.878	1324.69
339.106	1312.69
339.334	1261.69
339.562	1258.69
339.79	1242.69
340.018	1229.69
340.246	1237.69
340.474	1234.69
340.702	1194.69
340.93	1216.69
341.158	1220.69
341.386	1186.69
341.614	1198.69
341.842	1161.69
342.07	1164.69
342.298	1139.69
342.526	1147.69
342.754	1109.69
342.981	1104.69
343.209	1089.69
343.437	1165.69
343.665	1193.69
343.893	1156.69
344.12	1160.69
344.348	1160.69
344.576	1151.69
344.804	1098.69
345.031	1084.69
345.259	1092.69
345.487	1053.69
345.714	1040.69
345.942	1049.69
346.17	1066.69
346.397	1048.69
346.625	1049.69
346.853	1035.69
347.08	1024.69
347.308	1046.69
347.535	1046.69
347.763	1051.69
347.99	985.69
348.218	1004.69
348.445	1014.69
348.673	1013.69
348.9	1018.69
349.128	996.69
349.355	1022.69
349.583	999.69
349.81	983.69
350.037	987.69
350.265	1005.69
350.492	995.69
350.72	1000.69
350.947	988.69
351.174	992.69
351.402	995.69
351.629	986.69
351.856	968.69
352.083	1013.69
352.311	988.69
352.538	982.69
352.765	992.69
352.992	978.69
353.22	967.69
353.447	1004.69
353.674	1001.69
353.901	982.69
354.128	980.69
354.355	963.69
354.583	1012.69
354.81	986.69
355.037	1000.69
355.264	1034.69
355.491	1002.69
355.718	1019.69
355.945	1008.69
356.172	1018.69
356.399	1014.69
356.626	1048.69
356.853	1052.69
357.08	1027.69
357.307	1028.69
357.534	1049.69
357.761	1064.69
357.988	1051.69
358.215	1038.69
358.441	1030.69
358.668	1039.69
358.895	1048.69
359.122	1036.69
359.349	1045.69
359.576	1033.69
359.802	1076.69
360.029	1048.69
360.256	1060.69
360.483	1055.69
360.709	1074.69
360.936	1055.69
361.163	1067.69
361.39	1064.69
361.616	1060.69
361.843	1044.69
362.07	1062.69
362.296	1060.69
362.523	1049.69
362.749	1048.69
362.976	1036.69
363.203	1046.69
363.429	1044.69
363.656	1047.69
363.882	1065.69
364.109	1063.69
364.335	1079.69
364.562	1047.69
364.788	1058.69
365.015	1066.69
365.241	1078.69
365.468	1096.69
365.694	1101.69
365.92	1117.69
366.147	1088.69
366.373	1074.69
366.599	1081.69
366.826	1074.69
367.052	1072.69
367.278	1037.69
367.505	1093.69
367.731	1095.69
367.957	1088.69
368.184	1108.69
368.41	1098.69
368.636	1102.69
368.862	1102.69
369.089	1094.69
369.315	1085.69
369.541	1099.69
369.767	1112.69
369.993	1062.69
370.219	1072.69
370.445	1092.69
370.672	1115.69
370.898	1099.69
371.124	1092.69
371.35	1136.69
371.576	1116.69
371.802	1154.69
372.028	1140.69
372.254	1140.69
372.48	1142.69
372.706	1183.69
372.932	1158.69
373.158	1143.69
373.384	1161.69
373.61	1128.69
373.835	1166.69
374.061	1164.69
374.287	1192.69
374.513	1189.69
374.739	1176.69
374.965	1213.69
375.191	1180.69
375.416	1222.69
375.642	1184.69
375.868	1157.69
376.094	1187.69
376.319	1150.69
376.545	1138.69
376.771	1156.69
376.997	1108.69
377.222	1139.69
377.448	1112.69
377.674	1166.69
377.899	1129.69
378.125	1132.69
378.35	1125.69
378.576	1102.69
378.802	1141.69
379.027	1152.69
379.253	1194.69
379.478	1220.69
379.704	1408.69
379.929	1844.69
380.155	2589.69
380.38	2778.69
380.606	1832.69
380.831	1401.69
381.057	1281.69
381.282	1181.69
381.507	1171.69
381.733	1149.69
381.958	1099.69
382.184	1149.69
382.409	1151.69
382.634	1120.69
382.86	1138.69
383.085	1121.69
383.31	1123.69
383.535	1124.69
383.761	1148.69
383.986	1138.69
384.211	1142.69
384.436	1132.69
384.662	1165.69
384.887	1188.69
385.112	1149.69
385.337	1158.69
385.562	1197.69
385.787	1144.69
386.013	1184.69
386.238	1155.69
386.463	1188.69
386.688	1175.69
386.913	1120.69
387.138	1143.69
387.363	1160.69
387.588	1150.69
387.813	1146.69
388.038	1162.69
388.263	1157.69
388.488	1163.69
388.713	1158.69
388.938	1171.69
389.163	1139.69
389.387	1185.69
389.612	1142.69
389.837	1170.69
390.062	1165.69
390.287	1206.69
390.512	1155.69
390.736	1188.69
390.961	1208.69
391.186	1217.69
391.411	1217.69
391.636	1253.69
391.86	1215.69
392.085	1221.69
392.31	1208.69
392.534	1208.69
392.759	1193.69
392.984	1187.69
393.208	1191.69
393.433	1185.69
393.658	1208.69
393.882	1184.69
394.107	1174.69
394.331	1193.69
394.556	1197.69
394.78	1201.69
395.005	1180.69
395.229	1209.69
395.454	1220.69
395.678	1213.69
395.903	1204.69
396.127	1261.69
396.352	1215.69
396.576	1202.69
396.801	1187.69
397.025	1187.69
397.249	1224.69
397.474	1245.69
397.698	1242.69
397.922	1280.69
398.147	1216.69
398.371	1238.69
398.595	1306.69
398.82	1310.69
399.044	1349.69
399.268	1403.69
399.492	1520.69
399.717	1583.69
399.941	1566.69
400.165	1509.69
400.389	1452.69
400.613	1408.69
400.837	1319.69
401.062	1318.69
401.286	1291.69
401.51	1333.69
401.734	1308.69
401.958	1332.69
402.182	1294.69
402.406	1294.69
402.63	1321.69
402.854	1330.69
403.078	1329.69
403.302	1324.69
403.526	1328.69
403.75	1367.69
403.974	1356.69
404.198	1376.69
404.422	1364.69
404.645	1369.69
404.869	1368.69
405.093	1333.69
405.317	1360.69
405.541	1375.69
405.765	1356.69
405.988	1398.69
406.212	1371.69
406.436	1370.69
406.66	1417.69
406.883	1385.69
407.107	1426.69
407.331	1443.69
407.555	1471.69
407.778	1472.69
408.002	1440.69
408.226	1409.69
408.449	1418.69
408.673	1377.69
408.896	1366.69
409.12	1364.69
409.344	1346.69
409.567	1356.69
409.791	1361.69
410.014	1328.69
410.238	1345.69
410.461	1351.69
410.685	1326.69
410.908	1338.69
411.132	1320.69
411.355	1296.69
411.578	1302.69
411.802	1275.69
412.025	1260.69
412.249	1316.69
412.472	1299.69
412.695	1285.69
412.919	1243.69
413.142	1250.69
413.365	1270.69
413.589	1290.69
413.812	1264.69
414.035	1250.69
414.258	1265.69
414.482	1270.69
414.705	1281.69
414.928	1267.69
415.151	1256.69
415.374	1263.69
415.597	1240.69
415.821	1241.69
416.044	1203.69
416.267	1218.69
416.49	1204.69
416.713	1229.69
416.936	1238.69
417.159	1192.69
417.382	1211.69
417.605	1213.69
417.828	1212.69
418.051	1201.69
418.274	1248.69
418.497	1244.69
418.72	1273.69
418.943	1206.69
419.166	1296.69
419.389	1340.69
419.611	1367.69
419.834	1278.69
420.057	1282.69
420.28	1234.69
420.503	1221.69
420.726	1218.69
420.948	1230.69
421.171	1233.69
421.394	1231.69
421.617	1250.69
421.839	1228.69
422.062	1253.69
422.285	1204.69
422.507	1241.69
422.73	1249.69
422.953	1232.69
423.175	1239.69
423.398	1282.69
423.621	1227.69
423.843	1250.69
424.066	1244.69
424.288	1236.69
424.511	1228.69
424.733	1265.69
424.956	1214.69
425.178	1229.69
425.401	1211.69
425.623	1245.69
425.846	1208.69
426.068	1224.69
426.291	1193.69
426.513	1172.69
426.735	1189.69
426.958	1164.69
427.18	1150.69
427.402	1149.69
427.625	1180.69
427.847	1148.69
428.069	1137.69
428.292	1168.69
428.514	1127.69
428.736	1138.69
428.958	1131.69
429.181	1142.69
429.403	1142.69
429.625	1109.69
429.847	1159.69
430.069	1132.69
430.292	1193.69
430.514	1211.69
430.736	1184.69
430.958	1146.69
431.18	1162.69
431.402	1142.69
431.624	1127.69
431.846	1104.69
432.068	1107.69
432.29	1118.69
432.512	1091.69
432.734	1121.69
432.956	1114.69
433.178	1156.69
433.4	1126.69
433.622	1138.69
433.844	1132.69
434.066	1124.69
434.287	1106.69
434.509	1121.69
434.731	1163.69
434.953	1158.69
435.175	1191.69
435.397	1168.69
435.618	1152.69
435.84	1137.69
436.062	1127.69
436.284	1140.69
436.505	1125.69
436.727	1120.69
436.949	1169.69
437.17	1114.69
437.392	1088.69
437.614	1115.69
437.835	1089.69
438.057	1089.69
438.278	1079.69
438.5	1093.69
438.721	1120.69
438.943	1153.69
439.165	1133.69
439.386	1158.69
439.608	1163.69
439.829	1186.69
440.05	1160.69
440.272	1187.69
440.493	1167.69
440.715	1153.69
440.936	1159.69
441.158	1197.69
441.379	1188.69
441.6	1235.69
441.822	1238.69
442.043	1265.69
442.264	1300.69
442.486	1249.69
442.707	1253.69
442.928	1212.69
443.149	1231.69
443.371	1204.69
443.592	1228.69
443.813	1242.69
444.034	1249.69
444.255	1239.69
444.476	1267.69
444.698	1261.69
444.919	1325.69
445.14	1358.69
445.361	1320.69
445.582	1263.69
445.803	1244.69
446.024	1200.69
446.245	1237.69
446.466	1204.69
446.687	1206.69
446.908	1192.69
447.129	1190.69
447.35	1163.69
447.571	1169.69
447.792	1143.69
448.013	1126.69
448.234	1125.69
448.455	1125.69
448.675	1115.69
448.896	1140.69
449.117	1189.69
449.338	1227.69
449.559	1272.69
449.779	1176.69
450	1103.69
450.221	1090.69
450.442	1081.69
450.662	1089.69
450.883	1066.69
451.104	1115.69
451.324	1099.69
451.545	1101.69
451.766	1074.69
451.986	1096.69
452.207	1132.69
452.428	1316.69
452.648	1761.69
452.869	1507.69
453.089	1194.69
453.31	1175.69
453.53	1154.69
453.751	1181.69
453.971	1253.69
454.192	1216.69
454.412	1112.69
454.633	1084.69
454.853	1069.69
455.073	1050.69
455.294	1036.69
455.514	1030.69
455.734	1042.69
455.955	1030.69
456.175	1021.69
456.395	1009.69
456.616	1045.69
456.836	1047.69
457.056	1072.69
457.276	1045.69
457.497	1096.69
457.717	1088.69
457.937	1085.69
458.157	1068.69
458.377	1089.69
458.598	1110.69
458.818	1107.69
459.038	1092.69
459.258	1085.69
459.478	1092.69
459.698	1126.69
459.918	1152.69
460.138	1148.69
460.358	1190.69
460.578	1212.69
460.798	1220.69
461.018	1212.69
461.238	1219.69
461.458	1249.69
461.678	1238.69
461.898	1273.69
462.118	1244.69
462.338	1284.69
462.558	1312.69
462.777	1321.69
462.997	1393.69
463.217	1403.69
463.437	1464.69
463.657	1473.69
463.876	1460.69
464.096	1343.69
464.316	1326.69
464.536	1314.69
464.755	1320.69
464.975	1269.69
465.195	1228.69
465.414	1233.69
465.634	1149.69
465.854	1146.69
466.073	1163.69
466.293	1134.69
466.512	1134.69
466.732	1155.69
466.951	1166.69
467.171	1247.69
467.391	1214.69
467.61	1139.69
467.829	1107.69
468.049	1141.69
468.268	1110.69
468.488	1105.69
468.707	1090.69
468.927	1131.69
469.146	1106.69
469.365	1101.69
469.585	1114.69
469.804	1125.69
470.023	1187.69
470.243	1170.69
470.462	1201.69
470.681	1246.69
470.901	1366.69
471.12	1522.69
471.339	1509.69
471.558	1284.69
471.777	1212.69
471.997	1166.69
472.216	1154.69
472.435	1096.69
472.654	1094.69
472.873	1099.69
473.092	1117.69
473.311	1092.69
473.53	1121.69
473.749	1128.69
473.968	1132.69
474.187	1142.69
474.406	1108.69
474.625	1116.69
474.844	1123.69
475.063	1089.69
475.282	1121.69
475.501	1114.69
475.72	1121.69
475.939	1164.69
476.158	1147.69
476.377	1171.69
476.596	1205.69
476.814	1167.69
477.033	1146.69
477.252	1197.69
477.471	1193.69
477.69	1220.69
477.908	1261.69
478.127	1243.69
478.346	1301.69
478.564	1325.69
478.783	1308.69
479.002	1309.69
479.22	1330.69
479.439	1333.69
479.658	1312.69
479.876	1304.69
480.095	1302.69
480.313	1354.69
480.532	1352.69
480.751	1387.69
480.969	1338.69
481.188	1340.69
481.406	1320.69
481.624	1294.69
481.843	1300.69
482.061	1300.69
482.28	1344.69
482.498	1341.69
482.717	1325.69
482.935	1334.69
483.153	1386.69
483.372	1379.69
483.59	1412.69
483.808	1404.69
484.027	1436.69
484.245	1483.69
484.463	1636.69
484.681	1755.69
484.9	1644.69
485.118	1576.69
485.336	1491.69
485.554	1528.69
485.772	1596.69
485.99	1758.69
486.209	1906.69
486.427	1617.69
486.645	1492.69
486.863	1462.69
487.081	1435.69
487.299	1394.69
487.517	1399.69
487.735	1458.69
487.953	1428.69
488.171	1468.69
488.389	1417.69
488.607	1394.69
488.825	1404.69
489.043	1374.69
489.261	1378.69
489.479	1381.69
489.696	1370.69
489.914	1358.69
490.132	1367.69
490.35	1382.69
490.568	1428.69
490.786	1437.69
491.003	1460.69
491.221	1487.69
