Data from SnStandardFlinnAPT0064_LampEnergy5.5_LIBS07252019.E.O._I.C._HRD10591_15-14-46-491.txt Node
Date: Thu Jul 25 15:14:46 EDT 2019
User: cochatt
Spectrometer: HR+D1059
Trigger mode: 1
Integration Time (sec): 1.000000E-1
Scans to average: 1
Electric dark correction enabled: true
Nonlinearity correction enabled: false
Boxcar width: 0
XAxis mode: Wavelengths
Number of Pixels in Spectrum: 2048
>>>>>Begin Spectral Data<<<<<
223.165	-18.62
223.4	-18.62
223.635	-18.62
223.869	-10.62
224.104	-13.62
224.338	-7.62
224.573	-24.62
224.808	-11.62
225.042	-0.62
225.277	-10.62
225.511	4.38
225.746	-1.62
225.98	1.38
226.215	16.38
226.449	8.38
226.683	21.38
226.918	24.38
227.152	23.38
227.387	26.38
227.621	39.38
227.856	60.38
228.09	38.38
228.324	52.38
228.559	47.38
228.793	83.38
229.027	150.38
229.262	143.38
229.496	143.38
229.73	150.38
229.964	140.38
230.199	148.38
230.433	149.38
230.667	159.38
230.901	165.38
231.136	158.38
231.37	151.38
231.604	181.38
231.838	175.38
232.072	225.38
232.306	228.38
232.541	194.38
232.775	167.38
233.009	172.38
233.243	182.38
233.477	197.38
233.711	198.38
233.945	219.38
234.179	210.38
234.413	206.38
234.647	189.38
234.881	203.38
235.115	229.38
235.349	253.38
235.583	300.38
235.817	352.38
236.051	351.38
236.285	246.38
236.519	211.38
236.753	205.38
236.987	227.38
237.221	227.38
237.455	231.38
237.689	203.38
237.922	214.38
238.156	212.38
238.39	208.38
238.624	200.38
238.858	194.38
239.091	202.38
239.325	228.38
239.559	210.38
239.793	237.38
240.027	213.38
240.26	229.38
240.494	230.38
240.728	227.38
240.961	249.38
241.195	250.38
241.429	267.38
241.662	271.38
241.896	291.38
242.13	348.38
242.363	400.38
242.597	517.38
242.83	502.38
243.064	508.38
243.298	589.38
243.531	475.38
243.765	349.38
243.998	309.38
244.232	281.38
244.465	283.38
244.699	273.38
244.932	268.38
245.166	284.38
245.399	284.38
245.633	276.38
245.866	280.38
246.099	280.38
246.333	272.38
246.566	280.38
246.8	278.38
247.033	274.38
247.266	268.38
247.5	289.38
247.733	283.38
247.966	292.38
248.2	306.38
248.433	315.38
248.666	347.38
248.899	360.38
249.133	317.38
249.366	321.38
249.599	335.38
249.832	379.38
250.066	395.38
250.299	338.38
250.532	323.38
250.765	305.38
250.998	305.38
251.231	308.38
251.465	305.38
251.698	323.38
251.931	308.38
252.164	312.38
252.397	327.38
252.63	315.38
252.863	297.38
253.096	323.38
253.329	333.38
253.562	315.38
253.795	317.38
254.028	342.38
254.261	317.38
254.494	320.38
254.727	380.38
254.96	431.38
255.193	434.38
255.426	367.38
255.659	341.38
255.892	352.38
256.124	326.38
256.357	347.38
256.59	360.38
256.823	385.38
257.056	407.38
257.289	464.38
257.521	491.38
257.754	420.38
257.987	383.38
258.22	357.38
258.452	371.38
258.685	365.38
258.918	355.38
259.151	391.38
259.383	409.38
259.616	422.38
259.849	461.38
260.081	400.38
260.314	417.38
260.547	407.38
260.779	392.38
261.012	387.38
261.244	390.38
261.477	400.38
261.71	410.38
261.942	415.38
262.175	428.38
262.407	429.38
262.64	439.38
262.872	437.38
263.105	480.38
263.337	500.38
263.57	515.38
263.802	509.38
264.035	529.38
264.267	536.38
264.499	581.38
264.732	581.38
264.964	615.38
265.197	600.38
265.429	585.38
265.661	595.38
265.894	645.38
266.126	670.38
266.358	716.38
266.591	691.38
266.823	628.38
267.055	585.38
267.287	553.38
267.52	528.38
267.752	536.38
267.984	531.38
268.216	536.38
268.448	526.38
268.681	514.38
268.913	512.38
269.145	485.38
269.377	481.38
269.609	491.38
269.841	513.38
270.073	541.38
270.306	581.38
270.538	737.38
270.77	1035.38
271.002	1185.38
271.234	904.38
271.466	659.38
271.698	581.38
271.93	552.38
272.162	500.38
272.394	494.38
272.626	495.38
272.858	486.38
273.09	475.38
273.322	514.38
273.553	468.38
273.785	504.38
274.017	477.38
274.249	483.38
274.481	499.38
274.713	507.38
274.945	507.38
275.176	485.38
275.408	473.38
275.64	486.38
275.872	494.38
276.104	523.38
276.335	517.38
276.567	487.38
276.799	479.38
277.031	519.38
277.262	502.38
277.494	515.38
277.726	558.38
277.957	596.38
278.189	674.38
278.421	638.38
278.652	595.38
278.884	572.38
279.115	560.38
279.347	547.38
279.579	527.38
279.81	549.38
280.042	556.38
280.273	562.38
280.505	539.38
280.736	548.38
280.968	572.38
281.199	617.38
281.431	678.38
281.662	691.38
281.894	637.38
282.125	606.38
282.356	616.38
282.588	637.38
282.819	615.38
283.051	657.38
283.282	723.38
283.513	840.38
283.745	1156.38
283.976	1728.38
284.207	2358.38
284.439	2161.38
284.67	1435.38
284.901	1167.38
285.132	1121.38
285.364	1065.38
285.595	889.38
285.826	845.38
286.057	951.38
286.288	1204.38
286.52	1512.38
286.751	1470.38
286.982	1000.38
287.213	776.38
287.444	752.38
287.675	684.38
287.906	686.38
288.138	642.38
288.369	633.38
288.6	642.38
288.831	626.38
289.062	636.38
289.293	654.38
289.524	661.38
289.755	672.38
289.986	653.38
290.217	627.38
290.448	654.38
290.679	641.38
290.91	675.38
291.141	693.38
291.371	705.38
291.602	692.38
291.833	676.38
292.064	643.38
292.295	639.38
292.526	619.38
292.757	640.38
292.987	639.38
293.218	600.38
293.449	607.38
293.68	604.38
293.91	615.38
294.141	613.38
294.372	609.38
294.603	607.38
294.833	624.38
295.064	603.38
295.295	615.38
295.525	601.38
295.756	580.38
295.987	587.38
296.217	604.38
296.448	612.38
296.679	601.38
296.909	597.38
297.14	617.38
297.37	610.38
297.601	641.38
297.831	631.38
298.062	613.38
298.292	625.38
298.523	635.38
298.753	648.38
298.984	652.38
299.214	649.38
299.445	646.38
299.675	675.38
299.905	661.38
300.136	708.38
300.366	742.38
300.597	910.38
300.827	1189.38
301.057	1519.38
301.288	1521.38
301.518	1064.38
301.748	863.38
301.979	828.38
302.209	796.38
302.439	803.38
302.669	853.38
302.9	971.38
303.13	1248.38
303.36	1702.38
303.59	2243.38
303.82	2041.38
304.051	1335.38
304.281	1015.38
304.511	904.38
304.741	804.38
304.971	809.38
305.201	741.38
305.431	759.38
305.661	723.38
305.891	722.38
306.121	742.38
306.352	708.38
306.582	713.38
306.812	695.38
307.042	706.38
307.272	715.38
307.502	708.38
307.731	717.38
307.961	704.38
308.191	705.38
308.421	703.38
308.651	685.38
308.881	716.38
309.111	703.38
309.341	691.38
309.571	699.38
309.8	742.38
310.03	733.38
310.26	717.38
310.49	723.38
310.72	744.38
310.949	728.38
311.179	701.38
311.409	745.38
311.639	752.38
311.868	737.38
312.098	732.38
312.328	731.38
312.557	760.38
312.787	779.38
313.017	752.38
313.246	769.38
313.476	776.38
313.706	781.38
313.935	818.38
314.165	838.38
314.394	859.38
314.624	845.38
314.853	815.38
315.083	835.38
315.312	821.38
315.542	817.38
315.771	843.38
316.001	823.38
316.23	871.38
316.46	875.38
316.689	921.38
316.919	1097.38
317.148	1470.38
317.377	2115.38
317.607	2991.38
317.836	3112.38
318.065	1990.38
318.295	1366.38
318.524	1148.38
318.753	1030.38
318.983	979.38
319.212	936.38
319.441	916.38
319.67	895.38
319.9	870.38
320.129	874.38
320.358	856.38
320.587	869.38
320.816	888.38
321.046	884.38
321.275	900.38
321.504	892.38
321.733	901.38
321.962	935.38
322.191	920.38
322.42	918.38
322.649	917.38
322.878	943.38
323.108	951.38
323.337	968.38
323.566	964.38
323.795	965.38
324.024	950.38
324.253	994.38
324.482	1047.38
324.71	1058.38
324.939	1103.38
325.168	1118.38
325.397	1180.38
325.626	1348.38
325.855	1737.38
326.084	2589.38
326.313	3713.38
326.542	3981.38
326.77	2658.38
326.999	1851.38
327.228	1628.38
327.457	1571.38
327.686	1587.38
327.914	1695.38
328.143	1919.38
328.372	2206.38
328.6	2311.38
328.829	2216.38
329.058	1954.38
329.287	1783.38
329.515	1648.38
329.744	1575.38
329.972	1471.38
330.201	1408.38
330.43	1360.38
330.658	1319.38
330.887	1327.38
331.115	1283.38
331.344	1299.38
331.572	1306.38
331.801	1264.38
332.03	1297.38
332.258	1293.38
332.486	1351.38
332.715	1484.38
332.943	1697.38
333.172	1997.38
333.4	2005.38
333.629	1708.38
333.857	1604.38
334.085	1596.38
334.314	1674.38
334.542	1781.38
334.771	2021.38
334.999	2368.38
335.227	2826.38
335.455	3067.38
335.684	2930.38
335.912	2579.38
336.14	2265.38
336.369	2053.38
336.597	1861.38
336.825	1711.38
337.053	1645.38
337.281	1570.38
337.51	1455.38
337.738	1449.38
337.966	1350.38
338.194	1323.38
338.422	1289.38
338.65	1287.38
338.878	1239.38
339.106	1243.38
339.334	1219.38
339.562	1171.38
339.79	1197.38
340.018	1148.38
340.246	1159.38
340.474	1118.38
340.702	1115.38
340.93	1157.38
341.158	1135.38
341.386	1133.38
341.614	1142.38
341.842	1097.38
342.07	1096.38
342.298	1090.38
342.526	1036.38
342.754	1062.38
342.981	1040.38
343.209	1039.38
343.437	1073.38
343.665	1067.38
343.893	1087.38
344.12	1081.38
344.348	1069.38
344.576	1015.38
344.804	1055.38
345.031	1016.38
345.259	1007.38
345.487	1009.38
345.714	1012.38
345.942	958.38
346.17	989.38
346.397	983.38
346.625	958.38
346.853	990.38
347.08	966.38
347.308	967.38
347.535	960.38
347.763	958.38
347.99	956.38
348.218	949.38
348.445	946.38
348.673	936.38
348.9	934.38
349.128	953.38
349.355	965.38
349.583	960.38
349.81	928.38
350.037	934.38
350.265	936.38
350.492	951.38
350.72	939.38
350.947	928.38
351.174	911.38
351.402	923.38
351.629	926.38
351.856	927.38
352.083	936.38
352.311	902.38
352.538	950.38
352.765	925.38
352.992	905.38
353.22	935.38
353.447	937.38
353.674	927.38
353.901	926.38
354.128	919.38
354.355	935.38
354.583	939.38
354.81	947.38
355.037	942.38
355.264	953.38
355.491	945.38
355.718	939.38
355.945	944.38
356.172	955.38
356.399	967.38
356.626	968.38
356.853	950.38
357.08	989.38
357.307	964.38
357.534	988.38
357.761	984.38
357.988	983.38
358.215	979.38
358.441	992.38
358.668	990.38
358.895	993.38
359.122	976.38
359.349	973.38
359.576	980.38
359.802	968.38
360.029	998.38
360.256	1005.38
360.483	1001.38
360.709	1007.38
360.936	981.38
361.163	977.38
361.39	979.38
361.616	976.38
361.843	989.38
362.07	964.38
362.296	1006.38
362.523	990.38
362.749	1010.38
362.976	1033.38
363.203	1005.38
363.429	982.38
363.656	984.38
363.882	1013.38
364.109	994.38
364.335	955.38
364.562	990.38
364.788	1007.38
365.015	977.38
365.241	990.38
365.468	1004.38
365.694	1039.38
365.92	1045.38
366.147	1025.38
366.373	1020.38
366.599	1039.38
366.826	1014.38
367.052	987.38
367.278	1037.38
367.505	1026.38
367.731	1032.38
367.957	987.38
368.184	1014.38
368.41	1055.38
368.636	1017.38
368.862	1029.38
369.089	1021.38
369.315	1034.38
369.541	1040.38
369.767	1025.38
369.993	1053.38
370.219	1055.38
370.445	1033.38
370.672	1048.38
370.898	1039.38
371.124	1038.38
371.35	1053.38
371.576	1069.38
371.802	1055.38
372.028	1059.38
372.254	1055.38
372.48	1087.38
372.706	1100.38
372.932	1072.38
373.158	1097.38
373.384	1069.38
373.61	1094.38
373.835	1109.38
374.061	1101.38
374.287	1089.38
374.513	1104.38
374.739	1146.38
374.965	1136.38
375.191	1157.38
375.416	1100.38
375.642	1096.38
375.868	1080.38
376.094	1103.38
376.319	1083.38
376.545	1091.38
376.771	1073.38
376.997	1058.38
377.222	1089.38
377.448	1050.38
377.674	1057.38
377.899	1078.38
378.125	1069.38
378.35	1071.38
378.576	1051.38
378.802	1078.38
379.027	1085.38
379.253	1127.38
379.478	1140.38
379.704	1297.38
379.929	1623.38
380.155	2286.38
380.38	2434.38
380.606	1646.38
380.831	1271.38
381.057	1201.38
381.282	1115.38
381.507	1083.38
381.733	1053.38
381.958	1059.38
382.184	1049.38
382.409	1096.38
382.634	1070.38
382.86	1049.38
383.085	1046.38
383.31	1068.38
383.535	1066.38
383.761	1043.38
383.986	1069.38
384.211	1065.38
384.436	1059.38
384.662	1069.38
384.887	1075.38
385.112	1112.38
385.337	1101.38
385.562	1080.38
385.787	1095.38
386.013	1123.38
386.238	1097.38
386.463	1089.38
386.688	1140.38
386.913	1107.38
387.138	1115.38
387.363	1063.38
387.588	1080.38
387.813	1096.38
388.038	1080.38
388.263	1079.38
388.488	1126.38
388.713	1090.38
388.938	1086.38
389.163	1101.38
389.387	1079.38
389.612	1090.38
389.837	1092.38
390.062	1088.38
390.287	1097.38
390.512	1100.38
390.736	1090.38
390.961	1104.38
391.186	1101.38
391.411	1128.38
391.636	1148.38
391.86	1162.38
392.085	1159.38
392.31	1125.38
392.534	1131.38
392.759	1120.38
392.984	1103.38
393.208	1091.38
393.433	1091.38
393.658	1093.38
393.882	1077.38
394.107	1098.38
394.331	1105.38
394.556	1100.38
394.78	1104.38
395.005	1143.38
395.229	1135.38
395.454	1131.38
395.678	1128.38
395.903	1128.38
396.127	1123.38
396.352	1147.38
396.576	1140.38
396.801	1140.38
397.025	1143.38
397.249	1155.38
397.474	1176.38
397.698	1155.38
397.922	1161.38
398.147	1176.38
398.371	1171.38
398.595	1179.38
398.82	1235.38
399.044	1247.38
399.268	1340.38
399.492	1375.38
399.717	1436.38
399.941	1461.38
400.165	1371.38
400.389	1332.38
400.613	1266.38
400.837	1278.38
401.062	1230.38
401.286	1249.38
401.51	1214.38
401.734	1183.38
401.958	1174.38
402.182	1221.38
402.406	1223.38
402.63	1231.38
402.854	1279.38
403.078	1243.38
403.302	1248.38
403.526	1252.38
403.75	1283.38
403.974	1272.38
404.198	1279.38
404.422	1262.38
404.645	1260.38
404.869	1250.38
405.093	1254.38
405.317	1222.38
405.541	1279.38
405.765	1263.38
405.988	1284.38
406.212	1297.38
406.436	1305.38
406.66	1296.38
406.883	1286.38
407.107	1337.38
407.331	1357.38
407.555	1370.38
407.778	1343.38
408.002	1349.38
408.226	1334.38
408.449	1324.38
408.673	1297.38
408.896	1261.38
409.12	1263.38
409.344	1275.38
409.567	1236.38
409.791	1221.38
410.014	1252.38
410.238	1268.38
410.461	1253.38
410.685	1229.38
410.908	1237.38
411.132	1230.38
411.355	1203.38
411.578	1183.38
411.802	1185.38
412.025	1197.38
412.249	1245.38
412.472	1220.38
412.695	1189.38
412.919	1190.38
413.142	1176.38
413.365	1195.38
413.589	1198.38
413.812	1184.38
414.035	1176.38
414.258	1196.38
414.482	1212.38
414.705	1169.38
414.928	1159.38
415.151	1224.38
415.374	1183.38
415.597	1163.38
415.821	1149.38
416.044	1113.38
416.267	1161.38
416.49	1129.38
416.713	1175.38
416.936	1172.38
417.159	1147.38
417.382	1093.38
417.605	1135.38
417.828	1149.38
418.051	1138.38
418.274	1152.38
418.497	1149.38
418.72	1190.38
418.943	1182.38
419.166	1220.38
419.389	1238.38
419.611	1249.38
419.834	1215.38
420.057	1185.38
420.28	1162.38
420.503	1151.38
420.726	1128.38
420.948	1153.38
421.171	1139.38
421.394	1151.38
421.617	1166.38
421.839	1186.38
422.062	1154.38
422.285	1132.38
422.507	1187.38
422.73	1144.38
422.953	1175.38
423.175	1199.38
423.398	1204.38
423.621	1160.38
423.843	1156.38
424.066	1148.38
424.288	1160.38
424.511	1150.38
424.733	1173.38
424.956	1154.38
425.178	1135.38
425.401	1131.38
425.623	1144.38
425.846	1112.38
426.068	1103.38
426.291	1118.38
426.513	1088.38
426.735	1128.38
426.958	1100.38
427.18	1093.38
427.402	1097.38
427.625	1047.38
427.847	1090.38
428.069	1088.38
428.292	1095.38
428.514	1118.38
428.736	1064.38
428.958	1083.38
429.181	1069.38
429.403	1039.38
429.625	1060.38
429.847	1047.38
430.069	1092.38
430.292	1071.38
430.514	1113.38
430.736	1123.38
430.958	1086.38
431.18	1027.38
431.402	1041.38
431.624	1042.38
431.846	1053.38
432.068	1047.38
432.29	1041.38
432.512	1035.38
432.734	1044.38
432.956	1055.38
433.178	1078.38
433.4	1082.38
433.622	1074.38
433.844	1078.38
434.066	1087.38
434.287	1047.38
434.509	1060.38
434.731	1082.38
434.953	1078.38
435.175	1077.38
435.397	1095.38
435.618	1075.38
435.84	1035.38
436.062	1066.38
436.284	1056.38
436.505	1075.38
436.727	1061.38
436.949	1071.38
437.17	1056.38
437.392	1059.38
437.614	1040.38
437.835	999.38
438.057	987.38
438.278	1020.38
438.5	1052.38
438.721	1078.38
438.943	1075.38
439.165	1081.38
439.386	1077.38
439.608	1106.38
439.829	1099.38
440.05	1106.38
440.272	1150.38
440.493	1106.38
440.715	1102.38
440.936	1071.38
441.158	1114.38
441.379	1119.38
441.6	1143.38
441.822	1174.38
442.043	1174.38
442.264	1220.38
442.486	1137.38
442.707	1159.38
442.928	1136.38
443.149	1153.38
443.371	1125.38
443.592	1141.38
443.813	1133.38
444.034	1142.38
444.255	1191.38
444.476	1208.38
444.698	1208.38
444.919	1218.38
445.14	1303.38
445.361	1192.38
445.582	1167.38
445.803	1145.38
446.024	1119.38
446.245	1127.38
446.466	1147.38
446.687	1118.38
446.908	1129.38
447.129	1080.38
447.35	1097.38
447.571	1091.38
447.792	1072.38
448.013	1045.38
448.234	1051.38
448.455	1038.38
448.675	1060.38
448.896	1072.38
449.117	1070.38
449.338	1161.38
449.559	1172.38
449.779	1088.38
450	1035.38
450.221	1036.38
450.442	1029.38
450.662	1006.38
450.883	1027.38
451.104	990.38
451.324	991.38
451.545	1004.38
451.766	1017.38
451.986	1011.38
452.207	1062.38
452.428	1211.38
452.648	1558.38
452.869	1384.38
453.089	1128.38
453.31	1084.38
453.53	1105.38
453.751	1120.38
453.971	1156.38
454.192	1123.38
454.412	1024.38
454.633	999.38
454.853	984.38
455.073	963.38
455.294	975.38
455.514	977.38
455.734	972.38
455.955	966.38
456.175	957.38
456.395	957.38
456.616	965.38
456.836	981.38
457.056	969.38
457.276	967.38
457.497	1023.38
457.717	1037.38
457.937	1007.38
458.157	1009.38
458.377	1003.38
458.598	1010.38
458.818	1051.38
459.038	1039.38
459.258	1037.38
459.478	1074.38
459.698	1058.38
459.918	1088.38
460.138	1103.38
460.358	1140.38
460.578	1159.38
460.798	1152.38
461.018	1172.38
461.238	1173.38
461.458	1145.38
461.678	1177.38
461.898	1173.38
462.118	1166.38
462.338	1202.38
462.558	1229.38
462.777	1235.38
462.997	1261.38
463.217	1339.38
463.437	1346.38
463.657	1349.38
463.876	1357.38
464.096	1309.38
464.316	1232.38
464.536	1259.38
464.755	1207.38
464.975	1190.38
465.195	1172.38
465.414	1114.38
465.634	1093.38
465.854	1091.38
466.073	1065.38
466.293	1073.38
466.512	1070.38
466.732	1051.38
466.951	1099.38
467.171	1142.38
467.391	1145.38
467.61	1074.38
467.829	1068.38
468.049	1073.38
468.268	1061.38
468.488	1044.38
468.707	1011.38
468.927	1045.38
469.146	1021.38
469.365	1072.38
469.585	1061.38
469.804	1068.38
470.023	1065.38
470.243	1089.38
470.462	1116.38
470.681	1169.38
470.901	1236.38
471.12	1350.38
471.339	1354.38
471.558	1190.38
471.777	1143.38
471.997	1095.38
472.216	1056.38
472.435	1059.38
472.654	1036.38
472.873	1024.38
473.092	1048.38
473.311	1028.38
473.53	1061.38
473.749	1097.38
473.968	1093.38
474.187	1071.38
474.406	1039.38
474.625	1034.38
474.844	1017.38
475.063	1049.38
475.282	1056.38
475.501	1061.38
475.72	1048.38
475.939	1059.38
476.158	1083.38
476.377	1106.38
476.596	1083.38
476.814	1100.38
477.033	1088.38
477.252	1106.38
477.471	1124.38
477.69	1131.38
477.908	1165.38
478.127	1213.38
478.346	1189.38
478.564	1211.38
478.783	1224.38
479.002	1263.38
479.22	1239.38
479.439	1207.38
479.658	1240.38
479.876	1232.38
480.095	1239.38
480.313	1268.38
480.532	1273.38
480.751	1296.38
480.969	1236.38
481.188	1229.38
481.406	1272.38
481.624	1211.38
481.843	1197.38
482.061	1229.38
482.28	1216.38
482.498	1225.38
482.717	1232.38
482.935	1226.38
483.153	1261.38
483.372	1311.38
483.59	1307.38
483.808	1327.38
484.027	1351.38
484.245	1370.38
484.463	1492.38
484.681	1620.38
484.9	1512.38
485.118	1415.38
485.336	1391.38
485.554	1403.38
485.772	1473.38
485.99	1611.38
486.209	1755.38
486.427	1524.38
486.645	1382.38
486.863	1376.38
487.081	1320.38
487.299	1334.38
487.517	1290.38
487.735	1358.38
487.953	1354.38
488.171	1344.38
488.389	1354.38
488.607	1331.38
488.825	1310.38
489.043	1265.38
489.261	1273.38
489.479	1295.38
489.696	1297.38
489.914	1278.38
490.132	1293.38
490.35	1326.38
490.568	1319.38
490.786	1387.38
491.003	1348.38
491.221	1383.38
491.439	1396.38
491.657	1360.38
491.874	1391.38
492.092	1443.38
492.31	1435.38
