Data from SnStandardFlinnAPT0064_LampEnergy5.5_LIBS07252019.E.O._I.C._HRD10591_15-17-44-492.txt Node
Date: Thu Jul 25 15:17:44 EDT 2019
User: cochatt
Spectrometer: HR+D1059
Trigger mode: 1
Integration Time (sec): 1.000000E-1
Scans to average: 1
Electric dark correction enabled: true
Nonlinearity correction enabled: false
Boxcar width: 0
XAxis mode: Wavelengths
Number of Pixels in Spectrum: 2048
>>>>>Begin Spectral Data<<<<<
223.165	-25.81
223.4	-25.81
223.635	-25.81
223.869	-22.81
224.104	-12.81
224.338	-8.81
224.573	-12.81
224.808	-1.81
225.042	1.19
225.277	5.19
225.511	-7.81
225.746	4.19
225.98	-5.81
226.215	9.19
226.449	9.19
226.683	8.19
226.918	21.19
227.152	40.19
227.387	39.19
227.621	36.19
227.856	43.19
228.09	35.19
228.324	67.19
228.559	50.19
228.793	91.19
229.027	156.19
229.262	148.19
229.496	160.19
229.73	168.19
229.964	144.19
230.199	147.19
230.433	159.19
230.667	175.19
230.901	169.19
231.136	183.19
231.37	185.19
231.604	196.19
231.838	212.19
232.072	232.19
232.306	263.19
232.541	236.19
232.775	203.19
233.009	196.19
233.243	223.19
233.477	236.19
233.711	257.19
233.945	297.19
234.179	245.19
234.413	218.19
234.647	216.19
234.881	220.19
235.115	254.19
235.349	310.19
235.583	370.19
235.817	483.19
236.051	450.19
236.285	306.19
236.519	234.19
236.753	249.19
236.987	235.19
237.221	247.19
237.455	228.19
237.689	241.19
237.922	228.19
238.156	232.19
238.39	243.19
238.624	236.19
238.858	221.19
239.091	234.19
239.325	243.19
239.559	235.19
239.793	225.19
240.027	239.19
240.26	259.19
240.494	265.19
240.728	258.19
240.961	304.19
241.195	292.19
241.429	331.19
241.662	315.19
241.896	345.19
242.13	404.19
242.363	511.19
242.597	689.19
242.83	666.19
243.064	682.19
243.298	801.19
243.531	657.19
243.765	405.19
243.998	362.19
244.232	317.19
244.465	295.19
244.699	312.19
244.932	308.19
245.166	300.19
245.399	307.19
245.633	311.19
245.866	298.19
246.099	298.19
246.333	305.19
246.566	303.19
246.8	312.19
247.033	305.19
247.266	296.19
247.5	311.19
247.733	309.19
247.966	339.19
248.2	356.19
248.433	378.19
248.666	423.19
248.899	403.19
249.133	383.19
249.366	389.19
249.599	425.19
249.832	453.19
250.066	481.19
250.299	376.19
250.532	362.19
250.765	346.19
250.998	345.19
251.231	330.19
251.465	338.19
251.698	345.19
251.931	339.19
252.164	355.19
252.397	353.19
252.63	355.19
252.863	353.19
253.096	357.19
253.329	352.19
253.562	353.19
253.795	347.19
254.028	356.19
254.261	396.19
254.494	418.19
254.727	461.19
254.96	540.19
255.193	518.19
255.426	418.19
255.659	393.19
255.892	387.19
256.124	380.19
256.357	393.19
256.59	402.19
256.823	419.19
257.056	468.19
257.289	573.19
257.521	609.19
257.754	519.19
257.987	448.19
258.22	426.19
258.452	426.19
258.685	410.19
258.918	421.19
259.151	436.19
259.383	476.19
259.616	516.19
259.849	532.19
260.081	485.19
260.314	447.19
260.547	428.19
260.779	429.19
261.012	429.19
261.244	444.19
261.477	433.19
261.71	449.19
261.942	461.19
262.175	457.19
262.407	461.19
262.64	453.19
262.872	491.19
263.105	508.19
263.337	531.19
263.57	559.19
263.802	575.19
264.035	589.19
264.267	596.19
264.499	604.19
264.732	634.19
264.964	647.19
265.197	627.19
265.429	627.19
265.661	640.19
265.894	693.19
266.126	766.19
266.358	845.19
266.591	820.19
266.823	692.19
267.055	641.19
267.287	608.19
267.52	581.19
267.752	574.19
267.984	565.19
268.216	597.19
268.448	567.19
268.681	571.19
268.913	551.19
269.145	577.19
269.377	535.19
269.609	551.19
269.841	543.19
270.073	609.19
270.306	719.19
270.538	930.19
270.77	1355.19
271.002	1657.19
271.234	1166.19
271.466	763.19
271.698	635.19
271.93	612.19
272.162	562.19
272.394	551.19
272.626	568.19
272.858	565.19
273.09	543.19
273.322	535.19
273.553	529.19
273.785	541.19
274.017	544.19
274.249	560.19
274.481	544.19
274.713	536.19
274.945	548.19
275.176	535.19
275.408	550.19
275.64	561.19
275.872	551.19
276.104	556.19
276.335	546.19
276.567	533.19
276.799	572.19
277.031	557.19
277.262	563.19
277.494	583.19
277.726	661.19
277.957	786.19
278.189	858.19
278.421	799.19
278.652	724.19
278.884	675.19
279.115	625.19
279.347	625.19
279.579	613.19
279.81	616.19
280.042	593.19
280.273	613.19
280.505	618.19
280.736	659.19
280.968	675.19
281.199	715.19
281.431	811.19
281.662	853.19
281.894	726.19
282.125	688.19
282.356	710.19
282.588	705.19
282.819	700.19
283.051	730.19
283.282	837.19
283.513	1043.19
283.745	1510.19
283.976	2479.19
284.207	3471.19
284.439	3064.19
284.67	1803.19
284.901	1419.19
285.132	1442.19
285.364	1381.19
285.595	1069.19
285.826	980.19
286.057	1195.19
286.288	1675.19
286.52	2207.19
286.751	2049.19
286.982	1231.19
287.213	896.19
287.444	812.19
287.675	765.19
287.906	728.19
288.138	724.19
288.369	713.19
288.6	710.19
288.831	711.19
289.062	723.19
289.293	716.19
289.524	730.19
289.755	725.19
289.986	736.19
290.217	720.19
290.448	740.19
290.679	740.19
290.91	748.19
291.141	794.19
291.371	822.19
291.602	822.19
291.833	804.19
292.064	731.19
292.295	724.19
292.526	709.19
292.757	706.19
292.987	686.19
293.218	671.19
293.449	679.19
293.68	691.19
293.91	695.19
294.141	709.19
294.372	689.19
294.603	676.19
294.833	675.19
295.064	707.19
295.295	674.19
295.525	678.19
295.756	678.19
295.987	652.19
296.217	657.19
296.448	674.19
296.679	667.19
296.909	697.19
297.14	687.19
297.37	706.19
297.601	710.19
297.831	685.19
298.062	713.19
298.292	681.19
298.523	723.19
298.753	722.19
298.984	720.19
299.214	740.19
299.445	743.19
299.675	762.19
299.905	797.19
300.136	854.19
300.366	930.19
300.597	1160.19
300.827	1593.19
301.057	2174.19
301.288	2151.19
301.518	1366.19
301.748	1056.19
301.979	950.19
302.209	911.19
302.439	929.19
302.669	993.19
302.9	1206.19
303.13	1703.19
303.36	2566.19
303.59	3459.19
303.82	2920.19
304.051	1667.19
304.281	1189.19
304.511	996.19
304.741	880.19
304.971	860.19
305.201	850.19
305.431	850.19
305.661	832.19
305.891	804.19
306.121	807.19
306.352	787.19
306.582	780.19
306.812	795.19
307.042	817.19
307.272	781.19
307.502	777.19
307.731	794.19
307.961	800.19
308.191	785.19
308.421	756.19
308.651	767.19
308.881	775.19
309.111	789.19
309.341	779.19
309.571	793.19
309.8	785.19
310.03	805.19
310.26	818.19
310.49	803.19
310.72	804.19
310.949	787.19
311.179	791.19
311.409	826.19
311.639	836.19
311.868	825.19
312.098	812.19
312.328	825.19
312.557	845.19
312.787	842.19
313.017	836.19
313.246	858.19
313.476	834.19
313.706	893.19
313.935	948.19
314.165	975.19
314.394	1036.19
314.624	983.19
314.853	909.19
315.083	892.19
315.312	933.19
315.542	934.19
315.771	934.19
316.001	980.19
316.23	963.19
316.46	979.19
316.689	1112.19
316.919	1357.19
317.148	1951.19
317.377	3073.19
317.607	4492.19
317.836	4599.19
318.065	2619.19
318.295	1663.19
318.524	1363.19
318.753	1197.19
318.983	1109.19
319.212	1049.19
319.441	1033.19
319.67	1008.19
319.9	986.19
320.129	1014.19
320.358	1004.19
320.587	973.19
320.816	966.19
321.046	987.19
321.275	983.19
321.504	1020.19
321.733	1041.19
321.962	1027.19
322.191	1065.19
322.42	1071.19
322.649	1041.19
322.878	1051.19
323.108	1029.19
323.337	1064.19
323.566	1063.19
323.795	1077.19
324.024	1091.19
324.253	1114.19
324.482	1157.19
324.71	1231.19
324.939	1292.19
325.168	1313.19
325.397	1376.19
325.626	1629.19
325.855	2303.19
326.084	3704.19
326.313	5524.19
326.542	5832.19
326.77	3586.19
326.999	2233.19
327.228	1913.19
327.457	1842.19
327.686	1852.19
327.914	1946.19
328.143	2234.19
328.372	2673.19
328.6	2851.19
328.829	2582.19
329.058	2269.19
329.287	1984.19
329.515	1821.19
329.744	1701.19
329.972	1642.19
330.201	1565.19
330.43	1539.19
330.658	1461.19
330.887	1437.19
331.115	1422.19
331.344	1420.19
331.572	1420.19
331.801	1414.19
332.03	1409.19
332.258	1434.19
332.486	1538.19
332.715	1805.19
332.943	2164.19
333.172	2676.19
333.4	2593.19
333.629	1983.19
333.857	1793.19
334.085	1809.19
334.314	1872.19
334.542	2041.19
334.771	2268.19
334.999	2818.19
335.227	3434.19
335.455	3814.19
335.684	3558.19
335.912	2976.19
336.14	2537.19
336.369	2231.19
336.597	2064.19
336.825	1901.19
337.053	1797.19
337.281	1745.19
337.51	1613.19
337.738	1565.19
337.966	1507.19
338.194	1451.19
338.422	1422.19
338.65	1371.19
338.878	1393.19
339.106	1383.19
339.334	1339.19
339.562	1311.19
339.79	1267.19
340.018	1281.19
340.246	1279.19
340.474	1247.19
340.702	1258.19
340.93	1236.19
341.158	1245.19
341.386	1216.19
341.614	1240.19
341.842	1207.19
342.07	1213.19
342.298	1185.19
342.526	1166.19
342.754	1143.19
342.981	1191.19
343.209	1146.19
343.437	1157.19
343.665	1171.19
343.893	1225.19
344.12	1219.19
344.348	1167.19
344.576	1162.19
344.804	1160.19
345.031	1128.19
345.259	1135.19
345.487	1083.19
345.714	1091.19
345.942	1100.19
346.17	1099.19
346.397	1067.19
346.625	1101.19
346.853	1064.19
347.08	1085.19
347.308	1070.19
347.535	1068.19
347.763	1107.19
347.99	1050.19
348.218	1022.19
348.445	1082.19
348.673	1066.19
348.9	1050.19
349.128	1067.19
349.355	1041.19
349.583	1063.19
349.81	1048.19
350.037	1065.19
350.265	1020.19
350.492	1021.19
350.72	1044.19
350.947	1039.19
351.174	1017.19
351.402	1025.19
351.629	1009.19
351.856	1031.19
352.083	1045.19
352.311	1016.19
352.538	1043.19
352.765	1020.19
352.992	1042.19
353.22	1007.19
353.447	1004.19
353.674	1011.19
353.901	1031.19
354.128	1035.19
354.355	1024.19
354.583	1036.19
354.81	1026.19
355.037	1058.19
355.264	1068.19
355.491	1037.19
355.718	1033.19
355.945	1075.19
356.172	1071.19
356.399	1047.19
356.626	1050.19
356.853	1068.19
357.08	1069.19
357.307	1089.19
357.534	1110.19
357.761	1120.19
357.988	1084.19
358.215	1094.19
358.441	1104.19
358.668	1087.19
358.895	1085.19
359.122	1068.19
359.349	1109.19
359.576	1089.19
359.802	1074.19
360.029	1064.19
360.256	1084.19
360.483	1120.19
360.709	1106.19
360.936	1110.19
361.163	1103.19
361.39	1096.19
361.616	1065.19
361.843	1095.19
362.07	1083.19
362.296	1100.19
362.523	1092.19
362.749	1090.19
362.976	1089.19
363.203	1063.19
363.429	1081.19
363.656	1085.19
363.882	1105.19
364.109	1116.19
364.335	1097.19
364.562	1082.19
364.788	1082.19
365.015	1077.19
365.241	1106.19
365.468	1169.19
365.694	1218.19
365.92	1163.19
366.147	1109.19
366.373	1119.19
366.599	1109.19
366.826	1116.19
367.052	1099.19
367.278	1116.19
367.505	1091.19
367.731	1104.19
367.957	1128.19
368.184	1124.19
368.41	1120.19
368.636	1152.19
368.862	1135.19
369.089	1155.19
369.315	1129.19
369.541	1125.19
369.767	1144.19
369.993	1107.19
370.219	1109.19
370.445	1117.19
370.672	1132.19
370.898	1145.19
371.124	1160.19
371.35	1154.19
371.576	1155.19
371.802	1165.19
372.028	1168.19
372.254	1173.19
372.48	1207.19
372.706	1196.19
372.932	1161.19
373.158	1207.19
373.384	1195.19
373.61	1218.19
373.835	1213.19
374.061	1229.19
374.287	1195.19
374.513	1194.19
374.739	1221.19
374.965	1242.19
375.191	1269.19
375.416	1249.19
375.642	1193.19
375.868	1211.19
376.094	1221.19
376.319	1166.19
376.545	1199.19
376.771	1160.19
376.997	1146.19
377.222	1187.19
377.448	1170.19
377.674	1174.19
377.899	1183.19
378.125	1183.19
378.35	1187.19
378.576	1175.19
378.802	1187.19
379.027	1192.19
379.253	1256.19
379.478	1299.19
379.704	1500.19
379.929	2165.19
380.155	3302.19
380.38	3487.19
380.606	2059.19
380.831	1494.19
381.057	1358.19
381.282	1248.19
381.507	1201.19
381.733	1186.19
381.958	1171.19
382.184	1163.19
382.409	1187.19
382.634	1165.19
382.86	1153.19
383.085	1143.19
383.31	1147.19
383.535	1171.19
383.761	1180.19
383.986	1177.19
384.211	1178.19
384.436	1173.19
384.662	1191.19
384.887	1187.19
385.112	1193.19
385.337	1178.19
385.562	1206.19
385.787	1183.19
386.013	1193.19
386.238	1193.19
386.463	1183.19
386.688	1188.19
386.913	1179.19
387.138	1199.19
387.363	1204.19
387.588	1211.19
387.813	1212.19
388.038	1196.19
388.263	1181.19
388.488	1207.19
388.713	1217.19
388.938	1219.19
389.163	1186.19
389.387	1202.19
389.612	1204.19
389.837	1170.19
390.062	1212.19
390.287	1198.19
390.512	1229.19
390.736	1203.19
390.961	1233.19
391.186	1243.19
391.411	1288.19
391.636	1274.19
391.86	1258.19
392.085	1292.19
392.31	1206.19
392.534	1243.19
392.759	1231.19
392.984	1256.19
393.208	1228.19
393.433	1260.19
393.658	1238.19
393.882	1202.19
394.107	1223.19
394.331	1224.19
394.556	1244.19
394.78	1238.19
395.005	1264.19
395.229	1234.19
395.454	1276.19
395.678	1247.19
395.903	1230.19
396.127	1257.19
396.352	1231.19
396.576	1233.19
396.801	1234.19
397.025	1258.19
397.249	1258.19
397.474	1264.19
397.698	1263.19
397.922	1279.19
398.147	1305.19
398.371	1302.19
398.595	1314.19
398.82	1317.19
399.044	1403.19
399.268	1458.19
399.492	1553.19
399.717	1595.19
399.941	1597.19
400.165	1544.19
400.389	1504.19
400.613	1387.19
400.837	1351.19
401.062	1344.19
401.286	1359.19
401.51	1348.19
401.734	1331.19
401.958	1345.19
402.182	1352.19
402.406	1335.19
402.63	1299.19
402.854	1371.19
403.078	1351.19
403.302	1383.19
403.526	1364.19
403.75	1356.19
403.974	1359.19
404.198	1374.19
404.422	1369.19
404.645	1389.19
404.869	1363.19
405.093	1361.19
405.317	1370.19
405.541	1431.19
405.765	1425.19
405.988	1421.19
406.212	1446.19
406.436	1393.19
406.66	1417.19
406.883	1426.19
407.107	1420.19
407.331	1480.19
407.555	1474.19
407.778	1491.19
408.002	1458.19
408.226	1426.19
408.449	1455.19
408.673	1418.19
408.896	1440.19
409.12	1424.19
409.344	1412.19
409.567	1378.19
409.791	1382.19
410.014	1358.19
410.238	1317.19
410.461	1348.19
410.685	1336.19
410.908	1361.19
411.132	1327.19
411.355	1311.19
411.578	1352.19
411.802	1338.19
412.025	1344.19
412.249	1333.19
412.472	1327.19
412.695	1305.19
412.919	1285.19
413.142	1277.19
413.365	1294.19
413.589	1327.19
413.812	1301.19
414.035	1354.19
414.258	1308.19
414.482	1328.19
414.705	1307.19
414.928	1299.19
415.151	1301.19
415.374	1291.19
415.597	1281.19
415.821	1227.19
416.044	1258.19
416.267	1258.19
416.49	1239.19
416.713	1246.19
416.936	1237.19
417.159	1268.19
417.382	1251.19
417.605	1255.19
417.828	1252.19
418.051	1272.19
418.274	1286.19
418.497	1268.19
418.72	1298.19
418.943	1268.19
419.166	1343.19
419.389	1378.19
419.611	1372.19
419.834	1339.19
420.057	1317.19
420.28	1287.19
420.503	1280.19
420.726	1275.19
420.948	1237.19
421.171	1226.19
421.394	1258.19
421.617	1221.19
421.839	1286.19
422.062	1303.19
422.285	1282.19
422.507	1265.19
422.73	1275.19
422.953	1272.19
423.175	1304.19
423.398	1290.19
423.621	1282.19
423.843	1306.19
424.066	1248.19
424.288	1273.19
424.511	1256.19
424.733	1264.19
424.956	1219.19
425.178	1249.19
425.401	1228.19
425.623	1284.19
425.846	1224.19
426.068	1226.19
426.291	1192.19
426.513	1207.19
426.735	1217.19
426.958	1199.19
427.18	1164.19
427.402	1207.19
427.625	1210.19
427.847	1203.19
428.069	1162.19
428.292	1207.19
428.514	1192.19
428.736	1157.19
428.958	1143.19
429.181	1188.19
429.403	1164.19
429.625	1161.19
429.847	1135.19
430.069	1179.19
430.292	1218.19
430.514	1217.19
430.736	1243.19
430.958	1171.19
431.18	1174.19
431.402	1137.19
431.624	1141.19
431.846	1153.19
432.068	1144.19
432.29	1136.19
432.512	1137.19
432.734	1169.19
432.956	1155.19
433.178	1166.19
433.4	1191.19
433.622	1159.19
433.844	1176.19
434.066	1153.19
434.287	1155.19
434.509	1157.19
434.731	1172.19
434.953	1156.19
435.175	1210.19
435.397	1220.19
435.618	1175.19
435.84	1171.19
436.062	1163.19
436.284	1171.19
436.505	1139.19
436.727	1147.19
436.949	1174.19
437.17	1148.19
437.392	1127.19
437.614	1159.19
437.835	1079.19
438.057	1125.19
438.278	1120.19
438.5	1126.19
438.721	1141.19
438.943	1170.19
439.165	1203.19
439.386	1209.19
439.608	1215.19
439.829	1210.19
440.05	1236.19
440.272	1263.19
440.493	1197.19
440.715	1207.19
440.936	1197.19
441.158	1212.19
441.379	1214.19
441.6	1251.19
441.822	1268.19
442.043	1355.19
442.264	1398.19
442.486	1257.19
442.707	1238.19
442.928	1235.19
443.149	1225.19
443.371	1225.19
443.592	1263.19
443.813	1239.19
444.034	1296.19
444.255	1288.19
444.476	1291.19
444.698	1323.19
444.919	1328.19
445.14	1402.19
445.361	1317.19
445.582	1281.19
445.803	1252.19
446.024	1236.19
446.245	1275.19
446.466	1222.19
446.687	1243.19
446.908	1221.19
447.129	1210.19
447.35	1177.19
447.571	1157.19
447.792	1150.19
448.013	1179.19
448.234	1152.19
448.455	1123.19
448.675	1159.19
448.896	1183.19
449.117	1193.19
449.338	1301.19
449.559	1382.19
449.779	1239.19
450	1157.19
450.221	1142.19
450.442	1141.19
450.662	1132.19
450.883	1126.19
451.104	1119.19
451.324	1112.19
451.545	1108.19
451.766	1116.19
451.986	1149.19
452.207	1225.19
452.428	1455.19
452.648	2120.19
452.869	1791.19
453.089	1312.19
453.31	1210.19
453.53	1210.19
453.751	1288.19
453.971	1341.19
454.192	1366.19
454.412	1174.19
454.633	1080.19
454.853	1082.19
455.073	1075.19
455.294	1097.19
455.514	1068.19
455.734	1058.19
455.955	1050.19
456.175	1040.19
456.395	1099.19
456.616	1068.19
456.836	1088.19
457.056	1058.19
457.276	1082.19
457.497	1167.19
457.717	1163.19
457.937	1132.19
458.157	1115.19
458.377	1085.19
458.598	1102.19
458.818	1149.19
459.038	1138.19
459.258	1121.19
459.478	1178.19
459.698	1162.19
459.918	1175.19
460.138	1185.19
460.358	1205.19
460.578	1251.19
460.798	1237.19
461.018	1267.19
461.238	1268.19
461.458	1261.19
461.678	1253.19
461.898	1320.19
462.118	1310.19
462.338	1328.19
462.558	1315.19
462.777	1364.19
462.997	1409.19
463.217	1447.19
463.437	1490.19
463.657	1516.19
463.876	1547.19
464.096	1440.19
464.316	1384.19
464.536	1356.19
464.755	1349.19
464.975	1285.19
465.195	1276.19
465.414	1235.19
465.634	1170.19
465.854	1170.19
466.073	1155.19
466.293	1156.19
466.512	1171.19
466.732	1151.19
466.951	1235.19
467.171	1339.19
467.391	1308.19
467.61	1199.19
467.829	1146.19
468.049	1154.19
468.268	1153.19
468.488	1145.19
468.707	1128.19
468.927	1132.19
469.146	1091.19
469.365	1142.19
469.585	1171.19
469.804	1181.19
470.023	1209.19
470.243	1220.19
470.462	1230.19
470.681	1299.19
470.901	1409.19
471.12	1681.19
471.339	1666.19
471.558	1388.19
471.777	1226.19
471.997	1219.19
472.216	1174.19
472.435	1169.19
472.654	1142.19
472.873	1124.19
473.092	1135.19
473.311	1176.19
473.53	1151.19
473.749	1160.19
473.968	1213.19
474.187	1149.19
474.406	1123.19
474.625	1137.19
474.844	1142.19
475.063	1111.19
475.282	1149.19
475.501	1153.19
475.72	1151.19
475.939	1168.19
476.158	1185.19
476.377	1223.19
476.596	1189.19
476.814	1191.19
477.033	1178.19
477.252	1194.19
477.471	1187.19
477.69	1265.19
477.908	1253.19
478.127	1312.19
478.346	1297.19
478.564	1331.19
478.783	1321.19
479.002	1363.19
479.22	1348.19
479.439	1317.19
479.658	1340.19
479.876	1369.19
480.095	1391.19
480.313	1425.19
480.532	1392.19
480.751	1388.19
480.969	1365.19
481.188	1374.19
481.406	1281.19
481.624	1332.19
481.843	1350.19
482.061	1399.19
482.28	1340.19
482.498	1320.19
482.717	1341.19
482.935	1395.19
483.153	1386.19
483.372	1399.19
483.59	1453.19
483.808	1425.19
484.027	1446.19
484.245	1549.19
484.463	1728.19
484.681	1941.19
484.9	1723.19
485.118	1628.19
485.336	1561.19
485.554	1549.19
485.772	1638.19
485.99	1939.19
486.209	2144.19
486.427	1745.19
486.645	1523.19
486.863	1521.19
487.081	1460.19
487.299	1471.19
487.517	1419.19
487.735	1471.19
487.953	1510.19
488.171	1476.19
488.389	1482.19
488.607	1404.19
488.825	1404.19
489.043	1409.19
489.261	1405.19
489.479	1392.19
489.696	1412.19
489.914	1425.19
490.132	1418.19
490.35	1437.19
490.568	1468.19
490.786	1474.19
