Data from SnStandardFlinnAPT0064_QswitchEnergy10_LIBS07252019.E.O._I.C._HRD10591_15-28-34-973.txt Node
Date: Thu Jul 25 15:28:34 EDT 2019
User: cochatt
Spectrometer: HR+D1059
Trigger mode: 1
Integration Time (sec): 1.000000E-1
Scans to average: 1
Electric dark correction enabled: true
Nonlinearity correction enabled: false
Boxcar width: 0
XAxis mode: Wavelengths
Number of Pixels in Spectrum: 2048
>>>>>Begin Spectral Data<<<<<
223.165	-18.94
223.4	-18.94
223.635	-18.94
223.869	-6.94
224.104	-19.94
224.338	-4.94
224.573	-13.94
224.808	-16.94
225.042	-6.94
225.277	-14.94
225.511	-4.94
225.746	3.06
225.98	10.06
226.215	13.06
226.449	21.06
226.683	10.06
226.918	25.06
227.152	26.06
227.387	42.06
227.621	33.06
227.856	28.06
228.09	42.06
228.324	55.06
228.559	53.06
228.793	55.06
229.027	72.06
229.262	79.06
229.496	73.06
229.73	84.06
229.964	62.06
230.199	66.06
230.433	83.06
230.667	93.06
230.901	78.06
231.136	94.06
231.37	98.06
231.604	93.06
231.838	91.06
232.072	119.06
232.306	111.06
232.541	87.06
232.775	80.06
233.009	86.06
233.243	83.06
233.477	87.06
233.711	85.06
233.945	112.06
234.179	106.06
234.413	73.06
234.647	79.06
234.881	86.06
235.115	80.06
235.349	107.06
235.583	103.06
235.817	149.06
236.051	139.06
236.285	99.06
236.519	87.06
236.753	79.06
236.987	83.06
237.221	77.06
237.455	73.06
237.689	72.06
237.922	76.06
238.156	75.06
238.39	94.06
238.624	86.06
238.858	96.06
239.091	68.06
239.325	66.06
239.559	86.06
239.793	87.06
240.027	84.06
240.26	77.06
240.494	93.06
240.728	89.06
240.961	80.06
241.195	88.06
241.429	91.06
241.662	90.06
241.896	90.06
242.13	99.06
242.363	121.06
242.597	161.06
242.83	137.06
243.064	132.06
243.298	181.06
243.531	153.06
243.765	102.06
243.998	85.06
244.232	85.06
244.465	84.06
244.699	86.06
244.932	75.06
245.166	72.06
245.399	94.06
245.633	87.06
245.866	91.06
246.099	85.06
246.333	79.06
246.566	82.06
246.8	83.06
247.033	84.06
247.266	73.06
247.5	77.06
247.733	82.06
247.966	80.06
248.2	92.06
248.433	112.06
248.666	139.06
248.899	116.06
249.133	93.06
249.366	100.06
249.599	110.06
249.832	126.06
250.066	134.06
250.299	97.06
250.532	85.06
250.765	83.06
250.998	94.06
251.231	71.06
251.465	76.06
251.698	88.06
251.931	89.06
252.164	82.06
252.397	95.06
252.63	107.06
252.863	93.06
253.096	106.06
253.329	86.06
253.562	89.06
253.795	86.06
254.028	95.06
254.261	100.06
254.494	94.06
254.727	132.06
254.96	162.06
255.193	146.06
255.426	101.06
255.659	100.06
255.892	86.06
256.124	102.06
256.357	95.06
256.59	99.06
256.823	87.06
257.056	123.06
257.289	149.06
257.521	183.06
257.754	118.06
257.987	85.06
258.22	83.06
258.452	85.06
258.685	93.06
258.918	91.06
259.151	97.06
259.383	122.06
259.616	143.06
259.849	160.06
260.081	112.06
260.314	107.06
260.547	92.06
260.779	90.06
261.012	93.06
261.244	87.06
261.477	85.06
261.71	86.06
261.942	88.06
262.175	86.06
262.407	72.06
262.64	88.06
262.872	87.06
263.105	87.06
263.337	82.06
263.57	78.06
263.802	89.06
264.035	85.06
264.267	75.06
264.499	65.06
264.732	76.06
264.964	86.06
265.197	80.06
265.429	99.06
265.661	95.06
265.894	100.06
266.126	123.06
266.358	159.06
266.591	137.06
266.823	117.06
267.055	79.06
267.287	98.06
267.52	70.06
267.752	88.06
267.984	75.06
268.216	92.06
268.448	88.06
268.681	97.06
268.913	95.06
269.145	84.06
269.377	96.06
269.609	77.06
269.841	94.06
270.073	102.06
270.306	127.06
270.538	202.06
270.77	337.06
271.002	391.06
271.234	205.06
271.466	119.06
271.698	98.06
271.93	101.06
272.162	104.06
272.394	91.06
272.626	86.06
272.858	82.06
273.09	81.06
273.322	91.06
273.553	84.06
273.785	87.06
274.017	83.06
274.249	97.06
274.481	88.06
274.713	80.06
274.945	87.06
275.176	90.06
275.408	95.06
275.64	96.06
275.872	93.06
276.104	92.06
276.335	109.06
276.567	97.06
276.799	93.06
277.031	93.06
277.262	97.06
277.494	111.06
277.726	124.06
277.957	191.06
278.189	258.06
278.421	254.06
278.652	198.06
278.884	187.06
279.115	136.06
279.347	103.06
279.579	101.06
279.81	101.06
280.042	106.06
280.273	106.06
280.505	116.06
280.736	109.06
280.968	115.06
281.199	190.06
281.431	261.06
281.662	274.06
281.894	183.06
282.125	114.06
282.356	112.06
282.588	116.06
282.819	118.06
283.051	110.06
283.282	132.06
283.513	192.06
283.745	314.06
283.976	596.06
284.207	827.06
284.439	606.06
284.67	290.06
284.901	252.06
285.132	374.06
285.364	419.06
285.595	248.06
285.826	193.06
286.057	279.06
286.288	437.06
286.52	656.06
286.751	522.06
286.982	212.06
287.213	115.06
287.444	107.06
287.675	104.06
287.906	111.06
288.138	99.06
288.369	93.06
288.6	92.06
288.831	86.06
289.062	100.06
289.293	107.06
289.524	108.06
289.755	90.06
289.986	88.06
290.217	101.06
290.448	95.06
290.679	98.06
290.91	148.06
291.141	181.06
291.371	279.06
291.602	332.06
291.833	219.06
292.064	129.06
292.295	105.06
292.526	84.06
292.757	85.06
292.987	74.06
293.218	96.06
293.449	101.06
293.68	88.06
293.91	96.06
294.141	85.06
294.372	91.06
294.603	98.06
294.833	95.06
295.064	97.06
295.295	93.06
295.525	85.06
295.756	106.06
295.987	102.06
296.217	100.06
296.448	105.06
296.679	97.06
296.909	100.06
297.14	110.06
297.37	90.06
297.601	103.06
297.831	106.06
298.062	98.06
298.292	101.06
298.523	105.06
298.753	95.06
298.984	100.06
299.214	100.06
299.445	108.06
299.675	114.06
299.905	127.06
300.136	135.06
300.366	170.06
300.597	298.06
300.827	491.06
301.057	726.06
301.288	642.06
301.518	275.06
301.748	157.06
301.979	123.06
302.209	148.06
302.439	152.06
302.669	176.06
302.9	305.06
303.13	553.06
303.36	961.06
303.59	1340.06
303.82	902.06
304.051	327.06
304.281	170.06
304.511	129.06
304.741	119.06
304.971	117.06
305.201	107.06
305.431	123.06
305.661	113.06
305.891	91.06
306.121	103.06
306.352	122.06
306.582	102.06
306.812	101.06
307.042	102.06
307.272	108.06
307.502	111.06
307.731	104.06
307.961	105.06
308.191	96.06
308.421	106.06
308.651	122.06
308.881	101.06
309.111	97.06
309.341	109.06
309.571	119.06
309.8	99.06
310.03	106.06
310.26	116.06
310.49	129.06
310.72	104.06
310.949	112.06
311.179	115.06
311.409	103.06
311.639	115.06
311.868	119.06
312.098	101.06
312.328	117.06
312.557	119.06
312.787	103.06
313.017	113.06
313.246	141.06
313.476	122.06
313.706	135.06
313.935	179.06
314.165	217.06
314.394	254.06
314.624	200.06
314.853	127.06
315.083	130.06
315.312	146.06
315.542	151.06
315.771	142.06
316.001	133.06
316.23	163.06
316.46	159.06
316.689	208.06
316.919	266.06
317.148	535.06
317.377	949.06
317.607	1597.06
317.836	1488.06
318.065	588.06
318.295	239.06
318.524	168.06
318.753	163.06
318.983	129.06
319.212	138.06
319.441	133.06
319.67	126.06
319.9	120.06
320.129	121.06
320.358	133.06
320.587	118.06
320.816	120.06
321.046	131.06
321.275	122.06
321.504	123.06
321.733	164.06
321.962	173.06
322.191	179.06
322.42	143.06
322.649	145.06
322.878	118.06
323.108	134.06
323.337	118.06
323.566	131.06
323.795	131.06
324.024	138.06
324.253	160.06
324.482	185.06
324.71	232.06
324.939	290.06
325.168	244.06
325.397	200.06
325.626	284.06
325.855	533.06
326.084	1011.06
326.313	1716.06
326.542	1663.06
326.77	664.06
326.999	281.06
327.228	230.06
327.457	250.06
327.686	253.06
327.914	174.06
328.143	146.06
328.372	139.06
328.6	129.06
328.829	126.06
329.058	120.06
329.287	115.06
329.515	130.06
329.744	130.06
329.972	122.06
330.201	124.06
330.43	122.06
330.658	121.06
330.887	115.06
331.115	114.06
331.344	119.06
331.572	125.06
331.801	137.06
332.03	136.06
332.258	147.06
332.486	194.06
332.715	315.06
332.943	549.06
333.172	847.06
333.4	725.06
333.629	269.06
333.857	159.06
334.085	154.06
334.314	134.06
334.542	124.06
334.771	118.06
334.999	120.06
335.227	125.06
335.455	135.06
335.684	129.06
335.912	117.06
336.14	115.06
336.369	109.06
336.597	116.06
336.825	113.06
337.053	110.06
337.281	105.06
337.51	121.06
337.738	123.06
337.966	107.06
338.194	125.06
338.422	114.06
338.65	114.06
338.878	132.06
339.106	127.06
339.334	129.06
339.562	125.06
339.79	116.06
340.018	124.06
340.246	110.06
340.474	122.06
340.702	104.06
340.93	104.06
341.158	122.06
341.386	128.06
341.614	106.06
341.842	118.06
342.07	136.06
342.298	122.06
342.526	122.06
342.754	117.06
342.981	123.06
343.209	120.06
343.437	116.06
343.665	122.06
343.893	121.06
344.12	119.06
344.348	122.06
344.576	121.06
344.804	110.06
345.031	127.06
345.259	123.06
345.487	99.06
345.714	111.06
345.942	117.06
346.17	115.06
346.397	115.06
346.625	107.06
346.853	102.06
347.08	116.06
347.308	117.06
347.535	102.06
347.763	112.06
347.99	115.06
348.218	107.06
348.445	114.06
348.673	116.06
348.9	111.06
349.128	136.06
349.355	127.06
349.583	121.06
349.81	116.06
350.037	106.06
350.265	121.06
350.492	133.06
350.72	121.06
350.947	111.06
351.174	122.06
351.402	116.06
351.629	115.06
351.856	125.06
352.083	116.06
352.311	115.06
352.538	118.06
352.765	125.06
352.992	113.06
353.22	127.06
353.447	113.06
353.674	109.06
353.901	117.06
354.128	98.06
354.355	105.06
354.583	131.06
354.81	106.06
355.037	100.06
355.264	106.06
355.491	122.06
355.718	108.06
355.945	122.06
356.172	122.06
356.399	116.06
356.626	107.06
356.853	109.06
357.08	123.06
357.307	109.06
357.534	114.06
357.761	104.06
357.988	104.06
358.215	105.06
358.441	114.06
358.668	117.06
358.895	127.06
359.122	122.06
359.349	116.06
359.576	123.06
359.802	135.06
360.029	123.06
360.256	120.06
360.483	108.06
360.709	123.06
360.936	122.06
361.163	136.06
361.39	101.06
361.616	117.06
361.843	120.06
362.07	125.06
362.296	119.06
362.523	108.06
362.749	103.06
362.976	104.06
363.203	100.06
363.429	102.06
363.656	115.06
363.882	118.06
364.109	130.06
364.335	133.06
364.562	115.06
364.788	109.06
365.015	120.06
365.241	138.06
365.468	209.06
365.694	310.06
365.92	241.06
366.147	118.06
366.373	99.06
366.599	87.06
366.826	98.06
367.052	115.06
367.278	109.06
367.505	105.06
367.731	109.06
367.957	99.06
368.184	129.06
368.41	135.06
368.636	126.06
368.862	121.06
369.089	106.06
369.315	114.06
369.541	106.06
369.767	120.06
369.993	120.06
370.219	104.06
370.445	111.06
370.672	109.06
370.898	105.06
371.124	119.06
371.35	118.06
371.576	111.06
371.802	109.06
372.028	108.06
372.254	122.06
372.48	112.06
372.706	125.06
372.932	120.06
373.158	113.06
373.384	123.06
373.61	126.06
373.835	143.06
374.061	114.06
374.287	136.06
374.513	103.06
374.739	125.06
374.965	114.06
375.191	114.06
375.416	115.06
375.642	131.06
375.868	121.06
376.094	114.06
376.319	119.06
376.545	113.06
376.771	119.06
376.997	119.06
377.222	113.06
377.448	122.06
377.674	119.06
377.899	106.06
378.125	107.06
378.35	126.06
378.576	121.06
378.802	139.06
379.027	130.06
379.253	148.06
379.478	195.06
379.704	314.06
379.929	837.06
380.155	1713.06
380.38	1802.06
380.606	577.06
380.831	217.06
381.057	139.06
381.282	125.06
381.507	101.06
381.733	114.06
381.958	105.06
382.184	115.06
382.409	112.06
382.634	118.06
382.86	111.06
383.085	106.06
383.31	115.06
383.535	106.06
383.761	110.06
383.986	114.06
384.211	122.06
384.436	118.06
384.662	98.06
384.887	117.06
385.112	104.06
385.337	103.06
385.562	105.06
385.787	111.06
386.013	113.06
386.238	110.06
386.463	109.06
386.688	106.06
386.913	121.06
387.138	115.06
387.363	117.06
387.588	99.06
387.813	121.06
388.038	113.06
388.263	111.06
388.488	125.06
388.713	116.06
388.938	113.06
389.163	110.06
389.387	107.06
389.612	105.06
389.837	106.06
390.062	92.06
390.287	122.06
390.512	112.06
390.736	116.06
390.961	120.06
391.186	117.06
391.411	105.06
391.636	113.06
391.86	103.06
392.085	94.06
392.31	113.06
392.534	107.06
392.759	99.06
392.984	118.06
393.208	117.06
393.433	162.06
393.658	157.06
393.882	121.06
394.107	105.06
394.331	103.06
394.556	92.06
394.78	113.06
395.005	115.06
395.229	102.06
395.454	100.06
395.678	105.06
395.903	123.06
396.127	95.06
396.352	114.06
396.576	110.06
396.801	114.06
397.025	138.06
397.249	107.06
397.474	92.06
397.698	104.06
397.922	98.06
398.147	110.06
398.371	112.06
398.595	105.06
398.82	99.06
399.044	112.06
399.268	103.06
399.492	106.06
399.717	100.06
399.941	119.06
400.165	113.06
400.389	109.06
400.613	99.06
400.837	99.06
401.062	94.06
401.286	99.06
401.51	93.06
401.734	102.06
401.958	98.06
402.182	84.06
402.406	101.06
402.63	106.06
402.854	99.06
403.078	96.06
403.302	99.06
403.526	110.06
403.75	113.06
403.974	77.06
404.198	87.06
404.422	105.06
404.645	113.06
404.869	108.06
405.093	106.06
405.317	115.06
405.541	98.06
405.765	139.06
405.988	159.06
406.212	113.06
406.436	106.06
406.66	102.06
406.883	90.06
407.107	113.06
407.331	79.06
407.555	93.06
407.778	99.06
408.002	99.06
408.226	98.06
408.449	110.06
408.673	106.06
408.896	95.06
409.12	99.06
409.344	106.06
409.567	95.06
409.791	106.06
410.014	94.06
410.238	106.06
410.461	107.06
410.685	112.06
410.908	94.06
411.132	106.06
411.355	98.06
411.578	100.06
411.802	98.06
412.025	88.06
412.249	117.06
412.472	111.06
412.695	114.06
412.919	102.06
413.142	107.06
413.365	99.06
413.589	99.06
413.812	110.06
414.035	121.06
414.258	112.06
414.482	105.06
414.705	116.06
414.928	110.06
415.151	97.06
415.374	109.06
415.597	102.06
415.821	108.06
416.044	111.06
416.267	94.06
416.49	95.06
416.713	112.06
416.936	102.06
417.159	104.06
417.382	84.06
417.605	90.06
417.828	93.06
418.051	98.06
418.274	97.06
418.497	113.06
418.72	101.06
418.943	94.06
419.166	123.06
419.389	115.06
419.611	106.06
419.834	107.06
420.057	112.06
420.28	106.06
420.503	103.06
420.726	112.06
420.948	97.06
421.171	102.06
421.394	97.06
421.617	96.06
421.839	97.06
422.062	110.06
422.285	106.06
422.507	128.06
422.73	141.06
422.953	151.06
423.175	105.06
423.398	101.06
423.621	98.06
423.843	105.06
424.066	101.06
424.288	92.06
424.511	95.06
424.733	93.06
424.956	101.06
425.178	92.06
425.401	84.06
425.623	96.06
425.846	112.06
426.068	101.06
426.291	104.06
426.513	93.06
426.735	110.06
426.958	108.06
427.18	99.06
427.402	115.06
427.625	87.06
427.847	94.06
428.069	97.06
428.292	114.06
428.514	105.06
428.736	89.06
428.958	95.06
429.181	98.06
429.403	103.06
429.625	98.06
429.847	110.06
430.069	103.06
430.292	105.06
430.514	110.06
430.736	100.06
430.958	98.06
431.18	103.06
431.402	114.06
431.624	102.06
431.846	86.06
432.068	107.06
432.29	109.06
432.512	107.06
432.734	97.06
432.956	95.06
433.178	99.06
433.4	103.06
433.622	97.06
433.844	104.06
434.066	98.06
434.287	103.06
434.509	101.06
434.731	101.06
434.953	96.06
435.175	80.06
435.397	92.06
435.618	97.06
435.84	81.06
436.062	98.06
436.284	94.06
436.505	102.06
436.727	110.06
436.949	109.06
437.17	104.06
437.392	113.06
437.614	107.06
437.835	93.06
438.057	111.06
438.278	104.06
438.5	90.06
438.721	93.06
438.943	101.06
439.165	95.06
439.386	98.06
439.608	98.06
439.829	99.06
440.05	118.06
440.272	118.06
440.493	117.06
440.715	114.06
440.936	105.06
441.158	107.06
441.379	122.06
441.6	94.06
441.822	115.06
442.043	121.06
442.264	135.06
442.486	129.06
442.707	114.06
442.928	88.06
443.149	97.06
443.371	100.06
443.592	95.06
443.813	98.06
444.034	111.06
444.255	98.06
444.476	87.06
444.698	90.06
444.919	98.06
445.14	167.06
445.361	148.06
445.582	106.06
445.803	98.06
446.024	103.06
446.245	117.06
446.466	121.06
446.687	115.06
446.908	94.06
447.129	81.06
447.35	119.06
447.571	106.06
447.792	95.06
448.013	97.06
448.234	109.06
448.455	102.06
448.675	96.06
448.896	115.06
449.117	113.06
449.338	135.06
449.559	158.06
449.779	124.06
450	102.06
450.221	89.06
450.442	125.06
450.662	123.06
450.883	116.06
451.104	112.06
451.324	131.06
451.545	125.06
451.766	123.06
451.986	136.06
452.207	228.06
452.428	614.06
452.648	1505.06
452.869	856.06
453.089	225.06
453.31	141.06
453.53	127.06
453.751	163.06
453.971	160.06
454.192	148.06
454.412	125.06
454.633	98.06
454.853	103.06
455.073	94.06
455.294	89.06
455.514	95.06
455.734	98.06
455.955	105.06
456.175	93.06
456.395	94.06
456.616	103.06
456.836	105.06
457.056	101.06
457.276	105.06
457.497	130.06
457.717	127.06
457.937	91.06
458.157	103.06
458.377	95.06
458.598	86.06
458.818	94.06
459.038	91.06
459.258	94.06
459.478	82.06
459.698	89.06
459.918	96.06
460.138	86.06
460.358	90.06
460.578	79.06
460.798	89.06
461.018	91.06
461.238	92.06
461.458	87.06
461.678	99.06
461.898	90.06
462.118	106.06
462.338	100.06
462.558	101.06
462.777	104.06
462.997	95.06
463.217	111.06
463.437	136.06
463.657	195.06
463.876	185.06
464.096	127.06
464.316	101.06
464.536	106.06
464.755	101.06
464.975	88.06
465.195	104.06
465.414	103.06
465.634	98.06
465.854	89.06
466.073	101.06
466.293	92.06
466.512	91.06
466.732	125.06
466.951	118.06
467.171	141.06
467.391	143.06
467.61	114.06
467.829	98.06
468.049	103.06
468.268	95.06
468.488	88.06
468.707	94.06
468.927	99.06
469.146	90.06
469.365	100.06
469.585	107.06
469.804	110.06
470.023	94.06
470.243	98.06
470.462	103.06
470.681	112.06
470.901	131.06
471.12	182.06
471.339	213.06
471.558	137.06
471.777	129.06
471.997	90.06
472.216	106.06
472.435	84.06
472.654	98.06
472.873	104.06
473.092	94.06
473.311	107.06
473.53	104.06
473.749	87.06
473.968	111.06
474.187	109.06
474.406	87.06
474.625	100.06
474.844	97.06
475.063	93.06
475.282	90.06
475.501	94.06
475.72	98.06
475.939	95.06
476.158	117.06
476.377	104.06
476.596	106.06
476.814	96.06
477.033	103.06
477.252	115.06
477.471	110.06
477.69	85.06
477.908	106.06
478.127	104.06
478.346	98.06
478.564	91.06
478.783	113.06
479.002	105.06
479.22	102.06
479.439	91.06
479.658	109.06
479.876	94.06
480.095	97.06
480.313	98.06
480.532	94.06
480.751	89.06
480.969	102.06
481.188	91.06
481.406	125.06
481.624	100.06
481.843	125.06
482.061	119.06
482.28	103.06
482.498	93.06
482.717	107.06
482.935	98.06
483.153	91.06
483.372	90.06
483.59	94.06
483.808	104.06
484.027	104.06
484.245	128.06
484.463	179.06
484.681	237.06
484.9	159.06
485.118	133.06
485.336	115.06
485.554	104.06
485.772	127.06
485.99	192.06
486.209	242.06
486.427	165.06
486.645	130.06
486.863	118.06
487.081	116.06
487.299	99.06
487.517	98.06
487.735	103.06
487.953	100.06
488.171	107.06
488.389	97.06
488.607	106.06
488.825	107.06
489.043	97.06
489.261	102.06
489.479	83.06
489.696	100.06
489.914	95.06
490.132	96.06
490.35	121.06
490.568	103.06
490.786	97.06
491.003	122.06
491.221	120.06
491.439	119.06
491.657	111.06
491.874	110.06
492.092	115.06
492.31	121.06
492.527	113.06
492.745	88.06
492.963	109.06
493.18	98.06
493.398	98.06
493.615	111.06
493.833	113.06
494.05	116.06
494.268	98.06
494.485	109.06
494.703	101.06
494.92	103.06
495.138	102.06
495.355	105.06
495.573	131.06
495.79	126.06
496.008	107.06
496.225	108.06
496.442	119.06
496.66	134.06
496.877	163.06
497.094	173.06
497.312	113.06
497.529	99.06
497.746	85.06
497.963	101.06
498.181	116.06
498.398	104.06
498.615	108.06
498.832	113.06
499.049	116.06
499.267	143.06
499.484	157.06
499.701	123.06
499.918	109.06
500.135	104.06
500.352	103.06
500.569	111.06
500.786	111.06
501.003	94.06
501.22	105.06
501.437	96.06
501.654	97.06
501.871	94.06
502.088	106.06
502.305	107.06
502.522	113.06
502.739	102.06
502.956	96.06
503.172	104.06
503.389	99.06
503.606	101.06
503.823	106.06
504.04	111.06
504.256	113.06
504.473	115.06
504.69	99.06
504.907	98.06
505.123	119.06
505.34	103.06
505.557	112.06
505.773	104.06
505.99	115.06
506.207	99.06
506.423	111.06
506.64	108.06
506.856	90.06
507.073	98.06
