Data from SnStandardFlinnAPT0064_QswitchEnergy10_LIBS07252019.E.O._I.C._HRD10591_15-27-21-973.txt Node
Date: Thu Jul 25 15:27:21 EDT 2019
User: cochatt
Spectrometer: HR+D1059
Trigger mode: 1
Integration Time (sec): 1.000000E-1
Scans to average: 1
Electric dark correction enabled: true
Nonlinearity correction enabled: false
Boxcar width: 0
XAxis mode: Wavelengths
Number of Pixels in Spectrum: 2048
>>>>>Begin Spectral Data<<<<<
223.165	-7.75
223.4	-7.75
223.635	-7.75
223.869	-10.75
224.104	-21.75
224.338	-10.75
224.573	-21.75
224.808	-3.75
225.042	-27.75
225.277	-23.75
225.511	-4.75
225.746	4.25
225.98	8.25
226.215	8.25
226.449	22.25
226.683	30.25
226.918	19.25
227.152	40.25
227.387	44.25
227.621	37.25
227.856	42.25
228.09	36.25
228.324	37.25
228.559	53.25
228.793	57.25
229.027	76.25
229.262	81.25
229.496	80.25
229.73	59.25
229.964	80.25
230.199	79.25
230.433	72.25
230.667	80.25
230.901	49.25
231.136	70.25
231.37	88.25
231.604	93.25
231.838	100.25
232.072	108.25
232.306	122.25
232.541	99.25
232.775	89.25
233.009	83.25
233.243	86.25
233.477	93.25
233.711	109.25
233.945	106.25
234.179	97.25
234.413	89.25
234.647	73.25
234.881	84.25
235.115	85.25
235.349	89.25
235.583	108.25
235.817	125.25
236.051	120.25
236.285	102.25
236.519	81.25
236.753	84.25
236.987	87.25
237.221	82.25
237.455	79.25
237.689	82.25
237.922	83.25
238.156	92.25
238.39	80.25
238.624	73.25
238.858	90.25
239.091	83.25
239.325	66.25
239.559	75.25
239.793	71.25
240.027	77.25
240.26	73.25
240.494	82.25
240.728	85.25
240.961	95.25
241.195	109.25
241.429	107.25
241.662	94.25
241.896	85.25
242.13	108.25
242.363	128.25
242.597	171.25
242.83	162.25
243.064	130.25
243.298	168.25
243.531	145.25
243.765	107.25
243.998	86.25
244.232	82.25
244.465	83.25
244.699	70.25
244.932	73.25
245.166	80.25
245.399	73.25
245.633	68.25
245.866	80.25
246.099	82.25
246.333	73.25
246.566	76.25
246.8	75.25
247.033	72.25
247.266	88.25
247.5	87.25
247.733	83.25
247.966	94.25
248.2	106.25
248.433	105.25
248.666	124.25
248.899	123.25
249.133	79.25
249.366	95.25
249.599	101.25
249.832	119.25
250.066	116.25
250.299	95.25
250.532	85.25
250.765	87.25
250.998	79.25
251.231	71.25
251.465	84.25
251.698	84.25
251.931	71.25
252.164	94.25
252.397	99.25
252.63	117.25
252.863	108.25
253.096	91.25
253.329	75.25
253.562	90.25
253.795	86.25
254.028	84.25
254.261	89.25
254.494	103.25
254.727	121.25
254.96	140.25
255.193	136.25
255.426	102.25
255.659	81.25
255.892	95.25
256.124	98.25
256.357	102.25
256.59	91.25
256.823	107.25
257.056	115.25
257.289	142.25
257.521	167.25
257.754	123.25
257.987	93.25
258.22	89.25
258.452	96.25
258.685	84.25
258.918	88.25
259.151	84.25
259.383	100.25
259.616	121.25
259.849	124.25
260.081	101.25
260.314	79.25
260.547	87.25
260.779	95.25
261.012	80.25
261.244	82.25
261.477	90.25
261.71	87.25
261.942	71.25
262.175	86.25
262.407	83.25
262.64	83.25
262.872	68.25
263.105	90.25
263.337	79.25
263.57	90.25
263.802	93.25
264.035	88.25
264.267	97.25
264.499	84.25
264.732	88.25
264.964	87.25
265.197	97.25
265.429	96.25
265.661	98.25
265.894	105.25
266.126	128.25
266.358	149.25
266.591	151.25
266.823	94.25
267.055	93.25
267.287	98.25
267.52	80.25
267.752	93.25
267.984	83.25
268.216	78.25
268.448	80.25
268.681	89.25
268.913	82.25
269.145	89.25
269.377	101.25
269.609	101.25
269.841	96.25
270.073	90.25
270.306	128.25
270.538	177.25
270.77	306.25
271.002	374.25
271.234	185.25
271.466	116.25
271.698	104.25
271.93	83.25
272.162	86.25
272.394	80.25
272.626	92.25
272.858	94.25
273.09	97.25
273.322	95.25
273.553	96.25
273.785	75.25
274.017	72.25
274.249	79.25
274.481	100.25
274.713	78.25
274.945	83.25
275.176	91.25
275.408	75.25
275.64	83.25
275.872	93.25
276.104	109.25
276.335	111.25
276.567	91.25
276.799	100.25
277.031	96.25
277.262	102.25
277.494	114.25
277.726	138.25
277.957	178.25
278.189	245.25
278.421	220.25
278.652	200.25
278.884	166.25
279.115	138.25
279.347	118.25
279.579	94.25
279.81	91.25
280.042	109.25
280.273	100.25
280.505	111.25
280.736	103.25
280.968	116.25
281.199	153.25
281.431	228.25
281.662	255.25
281.894	149.25
282.125	112.25
282.356	98.25
282.588	97.25
282.819	104.25
283.051	133.25
283.282	156.25
283.513	187.25
283.745	316.25
283.976	523.25
284.207	768.25
284.439	581.25
284.67	263.25
284.901	249.25
285.132	342.25
285.364	399.25
285.595	215.25
285.826	172.25
286.057	243.25
286.288	404.25
286.52	589.25
286.751	467.25
286.982	207.25
287.213	120.25
287.444	118.25
287.675	99.25
287.906	92.25
288.138	90.25
288.369	88.25
288.6	94.25
288.831	106.25
289.062	97.25
289.293	87.25
289.524	104.25
289.755	91.25
289.986	76.25
290.217	89.25
290.448	109.25
290.679	88.25
290.91	115.25
291.141	157.25
291.371	219.25
291.602	246.25
291.833	181.25
292.064	113.25
292.295	101.25
292.526	103.25
292.757	91.25
292.987	99.25
293.218	87.25
293.449	100.25
293.68	105.25
293.91	93.25
294.141	96.25
294.372	99.25
294.603	92.25
294.833	72.25
295.064	84.25
295.295	92.25
295.525	92.25
295.756	100.25
295.987	109.25
296.217	90.25
296.448	82.25
296.679	99.25
296.909	100.25
297.14	89.25
297.37	116.25
297.601	100.25
297.831	92.25
298.062	95.25
298.292	107.25
298.523	96.25
298.753	100.25
298.984	108.25
299.214	99.25
299.445	105.25
299.675	114.25
299.905	110.25
300.136	126.25
300.366	162.25
300.597	289.25
300.827	442.25
301.057	665.25
301.288	626.25
301.518	267.25
301.748	155.25
301.979	127.25
302.209	131.25
302.439	135.25
302.669	155.25
302.9	249.25
303.13	481.25
303.36	823.25
303.59	1161.25
303.82	804.25
304.051	305.25
304.281	171.25
304.511	123.25
304.741	115.25
304.971	106.25
305.201	106.25
305.431	117.25
305.661	93.25
305.891	92.25
306.121	106.25
306.352	111.25
306.582	107.25
306.812	100.25
307.042	129.25
307.272	111.25
307.502	112.25
307.731	114.25
307.961	115.25
308.191	117.25
308.421	109.25
308.651	95.25
308.881	96.25
309.111	98.25
309.341	120.25
309.571	109.25
309.8	111.25
310.03	122.25
310.26	109.25
310.49	108.25
310.72	102.25
310.949	103.25
311.179	109.25
311.409	106.25
311.639	101.25
311.868	103.25
312.098	103.25
312.328	99.25
312.557	121.25
312.787	115.25
313.017	117.25
313.246	114.25
313.476	109.25
313.706	111.25
313.935	141.25
314.165	197.25
314.394	206.25
314.624	173.25
314.853	115.25
315.083	125.25
315.312	105.25
315.542	117.25
315.771	125.25
316.001	141.25
316.23	135.25
316.46	152.25
316.689	178.25
316.919	235.25
317.148	481.25
317.377	881.25
317.607	1432.25
317.836	1365.25
318.065	515.25
318.295	210.25
318.524	157.25
318.753	143.25
318.983	123.25
319.212	121.25
319.441	129.25
319.67	111.25
319.9	115.25
320.129	126.25
320.358	117.25
320.587	122.25
320.816	117.25
321.046	112.25
321.275	121.25
321.504	128.25
321.733	139.25
321.962	148.25
322.191	162.25
322.42	137.25
322.649	120.25
322.878	118.25
323.108	101.25
323.337	121.25
323.566	121.25
323.795	124.25
324.024	135.25
324.253	134.25
324.482	166.25
324.71	205.25
324.939	267.25
325.168	233.25
325.397	165.25
325.626	255.25
325.855	463.25
326.084	911.25
326.313	1539.25
326.542	1523.25
326.77	612.25
326.999	241.25
327.228	213.25
327.457	208.25
327.686	222.25
327.914	154.25
328.143	142.25
328.372	138.25
328.6	116.25
328.829	124.25
329.058	116.25
329.287	119.25
329.515	100.25
329.744	103.25
329.972	98.25
330.201	99.25
330.43	105.25
330.658	103.25
330.887	113.25
331.115	117.25
331.344	102.25
331.572	116.25
331.801	119.25
332.03	116.25
332.258	130.25
332.486	172.25
332.715	272.25
332.943	467.25
333.172	727.25
333.4	631.25
333.629	238.25
333.857	159.25
334.085	128.25
334.314	127.25
334.542	117.25
334.771	117.25
334.999	121.25
335.227	124.25
335.455	116.25
335.684	98.25
335.912	112.25
336.14	100.25
336.369	95.25
336.597	107.25
336.825	103.25
337.053	119.25
337.281	103.25
337.51	105.25
337.738	92.25
337.966	94.25
338.194	108.25
338.422	120.25
338.65	121.25
338.878	118.25
339.106	120.25
339.334	123.25
339.562	109.25
339.79	113.25
340.018	115.25
340.246	116.25
340.474	112.25
340.702	115.25
340.93	100.25
341.158	108.25
341.386	100.25
341.614	123.25
341.842	123.25
342.07	107.25
342.298	122.25
342.526	121.25
342.754	109.25
342.981	117.25
343.209	106.25
343.437	111.25
343.665	112.25
343.893	111.25
344.12	111.25
344.348	121.25
344.576	95.25
344.804	113.25
345.031	116.25
345.259	119.25
345.487	109.25
345.714	111.25
345.942	106.25
346.17	101.25
346.397	122.25
346.625	111.25
346.853	96.25
347.08	103.25
347.308	110.25
347.535	99.25
347.763	91.25
347.99	94.25
348.218	100.25
348.445	115.25
348.673	116.25
348.9	126.25
349.128	127.25
349.355	122.25
349.583	103.25
349.81	120.25
350.037	113.25
350.265	124.25
350.492	107.25
350.72	101.25
350.947	110.25
351.174	131.25
351.402	89.25
351.629	121.25
351.856	113.25
352.083	97.25
352.311	103.25
352.538	100.25
352.765	109.25
352.992	107.25
353.22	95.25
353.447	91.25
353.674	101.25
353.901	119.25
354.128	123.25
354.355	98.25
354.583	103.25
354.81	108.25
355.037	101.25
355.264	104.25
355.491	99.25
355.718	86.25
355.945	103.25
356.172	113.25
356.399	116.25
356.626	107.25
356.853	104.25
357.08	91.25
357.307	112.25
357.534	111.25
357.761	104.25
357.988	113.25
358.215	97.25
358.441	99.25
358.668	98.25
358.895	111.25
359.122	104.25
359.349	115.25
359.576	119.25
359.802	109.25
360.029	111.25
360.256	115.25
360.483	103.25
360.709	99.25
360.936	116.25
361.163	108.25
361.39	115.25
361.616	108.25
361.843	115.25
362.07	107.25
362.296	119.25
362.523	103.25
362.749	113.25
362.976	101.25
363.203	105.25
363.429	124.25
363.656	103.25
363.882	115.25
364.109	117.25
364.335	108.25
364.562	100.25
364.788	100.25
365.015	120.25
365.241	136.25
365.468	177.25
365.694	204.25
365.92	204.25
366.147	115.25
366.373	100.25
366.599	84.25
366.826	105.25
367.052	106.25
367.278	101.25
367.505	101.25
367.731	101.25
367.957	98.25
368.184	90.25
368.41	123.25
368.636	117.25
368.862	109.25
369.089	119.25
369.315	107.25
369.541	106.25
369.767	117.25
369.993	118.25
370.219	108.25
370.445	115.25
370.672	111.25
370.898	108.25
371.124	104.25
371.35	115.25
371.576	115.25
371.802	112.25
372.028	99.25
372.254	108.25
372.48	132.25
372.706	114.25
372.932	101.25
373.158	114.25
373.384	119.25
373.61	112.25
373.835	109.25
374.061	122.25
374.287	112.25
374.513	103.25
374.739	121.25
374.965	91.25
375.191	102.25
375.416	103.25
375.642	112.25
375.868	99.25
376.094	94.25
376.319	121.25
376.545	113.25
376.771	113.25
376.997	111.25
377.222	101.25
377.448	107.25
377.674	75.25
377.899	96.25
378.125	96.25
378.35	102.25
378.576	108.25
378.802	121.25
379.027	128.25
379.253	141.25
379.478	190.25
379.704	289.25
379.929	736.25
380.155	1524.25
380.38	1573.25
380.606	508.25
380.831	184.25
381.057	132.25
381.282	130.25
381.507	117.25
381.733	109.25
381.958	98.25
382.184	104.25
382.409	111.25
382.634	105.25
382.86	120.25
383.085	92.25
383.31	119.25
383.535	102.25
383.761	99.25
383.986	95.25
384.211	91.25
384.436	106.25
384.662	102.25
384.887	127.25
385.112	105.25
385.337	100.25
385.562	108.25
385.787	103.25
386.013	118.25
386.238	107.25
386.463	96.25
386.688	102.25
386.913	100.25
387.138	101.25
387.363	100.25
387.588	99.25
387.813	105.25
388.038	112.25
388.263	87.25
388.488	99.25
388.713	104.25
388.938	94.25
389.163	106.25
389.387	101.25
389.612	87.25
389.837	100.25
390.062	108.25
390.287	88.25
390.512	93.25
390.736	94.25
390.961	101.25
391.186	105.25
391.411	99.25
391.636	89.25
391.86	84.25
392.085	96.25
392.31	102.25
392.534	93.25
392.759	106.25
392.984	103.25
393.208	103.25
393.433	123.25
393.658	124.25
393.882	100.25
394.107	102.25
394.331	100.25
394.556	90.25
394.78	92.25
395.005	97.25
395.229	85.25
395.454	99.25
395.678	76.25
395.903	107.25
396.127	116.25
396.352	94.25
396.576	100.25
396.801	102.25
397.025	116.25
397.249	113.25
397.474	104.25
397.698	100.25
397.922	105.25
398.147	95.25
398.371	100.25
398.595	96.25
398.82	108.25
399.044	99.25
399.268	96.25
399.492	85.25
399.717	99.25
399.941	99.25
400.165	96.25
400.389	100.25
400.613	95.25
400.837	97.25
401.062	82.25
401.286	107.25
401.51	96.25
401.734	98.25
401.958	119.25
402.182	103.25
402.406	117.25
402.63	99.25
402.854	95.25
403.078	100.25
403.302	103.25
403.526	111.25
403.75	93.25
403.974	100.25
404.198	88.25
404.422	89.25
404.645	93.25
404.869	101.25
405.093	84.25
405.317	97.25
405.541	92.25
405.765	129.25
405.988	141.25
406.212	117.25
406.436	88.25
406.66	96.25
406.883	99.25
407.107	95.25
407.331	75.25
407.555	87.25
407.778	113.25
408.002	90.25
408.226	111.25
408.449	105.25
408.673	109.25
408.896	104.25
409.12	106.25
409.344	104.25
409.567	101.25
409.791	97.25
410.014	100.25
410.238	97.25
410.461	105.25
410.685	88.25
410.908	85.25
411.132	100.25
411.355	93.25
411.578	85.25
411.802	96.25
412.025	121.25
412.249	88.25
412.472	100.25
412.695	97.25
412.919	92.25
413.142	97.25
413.365	104.25
413.589	93.25
413.812	100.25
414.035	105.25
414.258	118.25
414.482	99.25
414.705	111.25
414.928	113.25
415.151	96.25
415.374	93.25
415.597	106.25
415.821	101.25
416.044	94.25
416.267	92.25
416.49	88.25
416.713	89.25
416.936	91.25
417.159	82.25
417.382	97.25
417.605	88.25
417.828	89.25
418.051	92.25
418.274	95.25
418.497	109.25
418.72	107.25
418.943	98.25
419.166	92.25
419.389	103.25
419.611	104.25
419.834	117.25
420.057	106.25
420.28	100.25
420.503	115.25
420.726	100.25
420.948	91.25
421.171	93.25
421.394	108.25
421.617	93.25
421.839	106.25
422.062	112.25
422.285	94.25
422.507	96.25
422.73	120.25
422.953	124.25
423.175	100.25
423.398	96.25
423.621	84.25
423.843	88.25
424.066	100.25
424.288	95.25
424.511	91.25
424.733	99.25
424.956	92.25
425.178	99.25
425.401	99.25
425.623	85.25
425.846	83.25
426.068	90.25
426.291	90.25
426.513	88.25
426.735	111.25
426.958	91.25
427.18	94.25
427.402	96.25
427.625	90.25
427.847	82.25
428.069	92.25
428.292	98.25
428.514	103.25
428.736	98.25
428.958	106.25
429.181	96.25
429.403	87.25
429.625	99.25
429.847	104.25
430.069	102.25
430.292	100.25
430.514	96.25
430.736	100.25
430.958	95.25
431.18	88.25
431.402	90.25
431.624	94.25
431.846	90.25
432.068	98.25
432.29	94.25
432.512	91.25
432.734	100.25
432.956	91.25
433.178	94.25
433.4	91.25
433.622	90.25
433.844	101.25
434.066	88.25
434.287	87.25
434.509	96.25
434.731	90.25
434.953	87.25
435.175	99.25
435.397	102.25
435.618	87.25
435.84	95.25
436.062	89.25
436.284	101.25
436.505	97.25
436.727	89.25
436.949	95.25
437.17	91.25
437.392	85.25
437.614	77.25
437.835	89.25
438.057	92.25
438.278	87.25
438.5	97.25
438.721	95.25
438.943	92.25
439.165	111.25
439.386	102.25
439.608	110.25
439.829	108.25
440.05	108.25
440.272	113.25
440.493	106.25
440.715	102.25
440.936	94.25
441.158	80.25
441.379	97.25
441.6	101.25
441.822	117.25
442.043	125.25
442.264	130.25
442.486	105.25
442.707	98.25
442.928	104.25
443.149	97.25
443.371	85.25
443.592	81.25
443.813	85.25
444.034	81.25
444.255	100.25
444.476	99.25
444.698	91.25
444.919	97.25
445.14	175.25
445.361	144.25
445.582	97.25
445.803	105.25
446.024	91.25
446.245	108.25
446.466	88.25
446.687	114.25
446.908	104.25
447.129	96.25
447.35	96.25
447.571	80.25
447.792	91.25
448.013	103.25
448.234	106.25
448.455	92.25
448.675	91.25
448.896	113.25
449.117	103.25
449.338	123.25
449.559	155.25
449.779	124.25
450	113.25
450.221	94.25
450.442	101.25
450.662	111.25
450.883	113.25
451.104	115.25
451.324	111.25
451.545	102.25
451.766	121.25
451.986	143.25
452.207	207.25
452.428	512.25
452.648	1272.25
452.869	721.25
453.089	187.25
453.31	127.25
453.53	114.25
453.751	130.25
453.971	164.25
454.192	166.25
454.412	114.25
454.633	94.25
454.853	89.25
455.073	98.25
455.294	100.25
455.514	106.25
455.734	82.25
455.955	81.25
456.175	92.25
456.395	102.25
456.616	97.25
456.836	106.25
457.056	95.25
457.276	104.25
457.497	121.25
457.717	127.25
457.937	95.25
458.157	97.25
458.377	85.25
458.598	78.25
458.818	95.25
459.038	88.25
459.258	84.25
459.478	80.25
459.698	76.25
459.918	88.25
460.138	81.25
460.358	87.25
460.578	85.25
460.798	93.25
461.018	96.25
461.238	93.25
461.458	82.25
461.678	96.25
461.898	89.25
462.118	102.25
462.338	99.25
462.558	87.25
462.777	91.25
462.997	96.25
463.217	113.25
463.437	129.25
463.657	189.25
463.876	189.25
464.096	131.25
464.316	112.25
464.536	89.25
464.755	101.25
464.975	86.25
465.195	94.25
465.414	100.25
465.634	109.25
465.854	92.25
466.073	82.25
466.293	87.25
466.512	85.25
466.732	102.25
466.951	119.25
467.171	142.25
467.391	125.25
467.61	121.25
467.829	105.25
468.049	97.25
468.268	94.25
468.488	91.25
468.707	95.25
468.927	103.25
469.146	86.25
469.365	107.25
469.585	89.25
469.804	95.25
470.023	87.25
470.243	81.25
470.462	99.25
470.681	116.25
470.901	135.25
471.12	182.25
471.339	204.25
471.558	132.25
471.777	93.25
471.997	89.25
472.216	91.25
472.435	93.25
472.654	87.25
472.873	97.25
473.092	100.25
473.311	99.25
473.53	102.25
473.749	98.25
473.968	105.25
474.187	113.25
474.406	87.25
474.625	97.25
474.844	99.25
475.063	87.25
475.282	103.25
475.501	92.25
475.72	93.25
475.939	89.25
476.158	93.25
476.377	119.25
476.596	107.25
476.814	92.25
477.033	93.25
477.252	96.25
477.471	85.25
477.69	90.25
477.908	87.25
478.127	88.25
478.346	85.25
478.564	98.25
478.783	88.25
479.002	95.25
479.22	96.25
479.439	102.25
479.658	94.25
479.876	89.25
480.095	89.25
480.313	95.25
480.532	95.25
480.751	92.25
480.969	83.25
481.188	81.25
481.406	94.25
481.624	85.25
481.843	119.25
482.061	113.25
482.28	104.25
482.498	103.25
482.717	94.25
482.935	97.25
483.153	110.25
483.372	89.25
483.59	93.25
483.808	91.25
484.027	104.25
484.245	127.25
484.463	176.25
484.681	250.25
484.9	153.25
485.118	121.25
485.336	99.25
485.554	103.25
485.772	120.25
485.99	198.25
486.209	250.25
486.427	165.25
486.645	119.25
486.863	108.25
487.081	99.25
487.299	94.25
487.517	93.25
487.735	86.25
487.953	102.25
488.171	92.25
488.389	107.25
488.607	99.25
488.825	84.25
489.043	95.25
489.261	108.25
489.479	95.25
489.696	95.25
489.914	96.25
490.132	96.25
490.35	88.25
490.568	105.25
490.786	110.25
491.003	97.25
491.221	122.25
491.439	127.25
491.657	100.25
491.874	103.25
492.092	98.25
492.31	92.25
492.527	94.25
492.745	93.25
492.963	122.25
493.18	109.25
493.398	105.25
493.615	106.25
493.833	95.25
494.05	115.25
494.268	111.25
494.485	99.25
494.703	98.25
494.92	104.25
495.138	105.25
495.355	101.25
495.573	96.25
495.79	111.25
496.008	115.25
496.225	121.25
496.442	104.25
496.66	123.25
496.877	161.25
497.094	163.25
497.312	104.25
497.529	89.25
497.746	97.25
497.963	107.25
498.181	93.25
498.398	104.25
498.615	109.25
498.832	103.25
499.049	107.25
499.267	126.25
499.484	150.25
499.701	110.25
499.918	107.25
500.135	106.25
500.352	110.25
500.569	116.25
500.786	100.25
501.003	105.25
501.22	99.25
501.437	100.25
501.654	114.25
501.871	102.25
502.088	101.25
502.305	99.25
502.522	85.25
502.739	92.25
502.956	96.25
503.172	111.25
503.389	96.25
503.606	98.25
503.823	101.25
504.04	112.25
504.256	92.25
504.473	96.25
504.69	105.25
504.907	107.25
505.123	121.25
505.34	108.25
505.557	107.25
505.773	100.25
505.99	100.25
506.207	90.25
506.423	95.25
506.64	115.25
506.856	104.25
507.073	101.25
507.289	95.25
507.506	95.25
507.722	102.25
507.939	106.25
508.155	93.25
508.372	107.25
508.588	84.25
508.805	95.25
