Data from SnStandardFlinnAPT0064_QswitchEnergy10_LIBS07252019.E.O._I.C._HRD10591_15-26-27-972.txt Node
Date: Thu Jul 25 15:26:27 EDT 2019
User: cochatt
Spectrometer: HR+D1059
Trigger mode: 1
Integration Time (sec): 1.000000E-1
Scans to average: 1
Electric dark correction enabled: true
Nonlinearity correction enabled: false
Boxcar width: 0
XAxis mode: Wavelengths
Number of Pixels in Spectrum: 2048
>>>>>Begin Spectral Data<<<<<
223.165	-8.81
223.4	-8.81
223.635	-8.81
223.869	-20.81
224.104	-31.81
224.338	-15.81
224.573	-18.81
224.808	-9.81
225.042	-0.81
225.277	-11.81
225.511	4.19
225.746	-16.81
225.98	24.19
226.215	10.19
226.449	17.19
226.683	20.19
226.918	21.19
227.152	38.19
227.387	27.19
227.621	32.19
227.856	44.19
228.09	34.19
228.324	46.19
228.559	52.19
228.793	55.19
229.027	59.19
229.262	71.19
229.496	51.19
229.73	67.19
229.964	63.19
230.199	81.19
230.433	68.19
230.667	79.19
230.901	78.19
231.136	78.19
231.37	87.19
231.604	79.19
231.838	91.19
232.072	113.19
232.306	109.19
232.541	97.19
232.775	81.19
233.009	84.19
233.243	91.19
233.477	80.19
233.711	98.19
233.945	101.19
234.179	104.19
234.413	80.19
234.647	76.19
234.881	81.19
235.115	85.19
235.349	78.19
235.583	101.19
235.817	135.19
236.051	123.19
236.285	97.19
236.519	72.19
236.753	66.19
236.987	71.19
237.221	70.19
237.455	74.19
237.689	66.19
237.922	77.19
238.156	75.19
238.39	78.19
238.624	90.19
238.858	77.19
239.091	69.19
239.325	98.19
239.559	67.19
239.793	84.19
240.027	75.19
240.26	86.19
240.494	73.19
240.728	77.19
240.961	80.19
241.195	96.19
241.429	87.19
241.662	83.19
241.896	88.19
242.13	94.19
242.363	115.19
242.597	145.19
242.83	132.19
243.064	121.19
243.298	167.19
243.531	145.19
243.765	66.19
243.998	75.19
244.232	76.19
244.465	84.19
244.699	73.19
244.932	83.19
245.166	76.19
245.399	76.19
245.633	79.19
245.866	83.19
246.099	71.19
246.333	67.19
246.566	73.19
246.8	94.19
247.033	91.19
247.266	71.19
247.5	75.19
247.733	73.19
247.966	72.19
248.2	93.19
248.433	112.19
248.666	115.19
248.899	114.19
249.133	87.19
249.366	88.19
249.599	95.19
249.832	130.19
250.066	127.19
250.299	93.19
250.532	85.19
250.765	83.19
250.998	71.19
251.231	73.19
251.465	76.19
251.698	74.19
251.931	77.19
252.164	85.19
252.397	88.19
252.63	89.19
252.863	98.19
253.096	84.19
253.329	88.19
253.562	97.19
253.795	86.19
254.028	79.19
254.261	81.19
254.494	90.19
254.727	119.19
254.96	137.19
255.193	114.19
255.426	94.19
255.659	96.19
255.892	83.19
256.124	102.19
256.357	95.19
256.59	78.19
256.823	92.19
257.056	104.19
257.289	144.19
257.521	157.19
257.754	105.19
257.987	90.19
258.22	65.19
258.452	103.19
258.685	84.19
258.918	85.19
259.151	94.19
259.383	97.19
259.616	115.19
259.849	135.19
260.081	101.19
260.314	87.19
260.547	75.19
260.779	82.19
261.012	76.19
261.244	72.19
261.477	81.19
261.71	91.19
261.942	81.19
262.175	77.19
262.407	76.19
262.64	74.19
262.872	85.19
263.105	79.19
263.337	68.19
263.57	95.19
263.802	83.19
264.035	86.19
264.267	79.19
264.499	76.19
264.732	80.19
264.964	89.19
265.197	73.19
265.429	90.19
265.661	93.19
265.894	87.19
266.126	119.19
266.358	141.19
266.591	137.19
266.823	84.19
267.055	73.19
267.287	96.19
267.52	88.19
267.752	83.19
267.984	76.19
268.216	87.19
268.448	88.19
268.681	94.19
268.913	83.19
269.145	77.19
269.377	85.19
269.609	78.19
269.841	87.19
270.073	112.19
270.306	109.19
270.538	157.19
270.77	292.19
271.002	334.19
271.234	183.19
271.466	108.19
271.698	80.19
271.93	95.19
272.162	87.19
272.394	85.19
272.626	69.19
272.858	86.19
273.09	83.19
273.322	89.19
273.553	79.19
273.785	79.19
274.017	61.19
274.249	89.19
274.481	84.19
274.713	70.19
274.945	75.19
275.176	87.19
275.408	98.19
275.64	103.19
275.872	86.19
276.104	87.19
276.335	102.19
276.567	86.19
276.799	92.19
277.031	102.19
277.262	87.19
277.494	88.19
277.726	113.19
277.957	150.19
278.189	240.19
278.421	213.19
278.652	173.19
278.884	151.19
279.115	130.19
279.347	111.19
279.579	97.19
279.81	95.19
280.042	90.19
280.273	101.19
280.505	101.19
280.736	96.19
280.968	112.19
281.199	154.19
281.431	207.19
281.662	218.19
281.894	139.19
282.125	122.19
282.356	110.19
282.588	102.19
282.819	97.19
283.051	119.19
283.282	130.19
283.513	173.19
283.745	280.19
283.976	469.19
284.207	723.19
284.439	526.19
284.67	246.19
284.901	228.19
285.132	307.19
285.364	344.19
285.595	214.19
285.826	150.19
286.057	223.19
286.288	352.19
286.52	555.19
286.751	432.19
286.982	167.19
287.213	106.19
287.444	105.19
287.675	91.19
287.906	83.19
288.138	79.19
288.369	92.19
288.6	92.19
288.831	89.19
289.062	99.19
289.293	88.19
289.524	88.19
289.755	80.19
289.986	92.19
290.217	92.19
290.448	96.19
290.679	88.19
290.91	104.19
291.141	147.19
291.371	195.19
291.602	239.19
291.833	175.19
292.064	104.19
292.295	88.19
292.526	96.19
292.757	77.19
292.987	70.19
293.218	88.19
293.449	87.19
293.68	87.19
293.91	88.19
294.141	87.19
294.372	68.19
294.603	100.19
294.833	84.19
295.064	91.19
295.295	98.19
295.525	82.19
295.756	77.19
295.987	103.19
296.217	85.19
296.448	93.19
296.679	96.19
296.909	92.19
297.14	91.19
297.37	82.19
297.601	100.19
297.831	94.19
298.062	101.19
298.292	91.19
298.523	99.19
298.753	92.19
298.984	105.19
299.214	101.19
299.445	110.19
299.675	115.19
299.905	116.19
300.136	127.19
300.366	135.19
300.597	244.19
300.827	400.19
301.057	619.19
301.288	540.19
301.518	213.19
301.748	124.19
301.979	126.19
302.209	113.19
302.439	119.19
302.669	141.19
302.9	236.19
303.13	442.19
303.36	752.19
303.59	1044.19
303.82	720.19
304.051	257.19
304.281	138.19
304.511	109.19
304.741	119.19
304.971	91.19
305.201	107.19
305.431	93.19
305.661	108.19
305.891	111.19
306.121	92.19
306.352	103.19
306.582	117.19
306.812	111.19
307.042	105.19
307.272	105.19
307.502	102.19
307.731	103.19
307.961	99.19
308.191	91.19
308.421	94.19
308.651	104.19
308.881	103.19
309.111	89.19
309.341	104.19
309.571	90.19
309.8	96.19
310.03	101.19
310.26	94.19
310.49	96.19
310.72	107.19
310.949	96.19
311.179	99.19
311.409	95.19
311.639	95.19
311.868	96.19
312.098	103.19
312.328	107.19
312.557	111.19
312.787	109.19
313.017	107.19
313.246	113.19
313.476	98.19
313.706	112.19
313.935	134.19
314.165	166.19
314.394	199.19
314.624	159.19
314.853	118.19
315.083	110.19
315.312	108.19
315.542	129.19
315.771	108.19
316.001	126.19
316.23	146.19
316.46	134.19
316.689	151.19
316.919	217.19
317.148	447.19
317.377	791.19
317.607	1279.19
317.836	1193.19
318.065	471.19
318.295	183.19
318.524	143.19
318.753	121.19
318.983	120.19
319.212	117.19
319.441	99.19
319.67	135.19
319.9	116.19
320.129	98.19
320.358	111.19
320.587	109.19
320.816	124.19
321.046	111.19
321.275	114.19
321.504	127.19
321.733	128.19
321.962	150.19
322.191	161.19
322.42	120.19
322.649	114.19
322.878	108.19
323.108	112.19
323.337	117.19
323.566	111.19
323.795	131.19
324.024	136.19
324.253	121.19
324.482	150.19
324.71	188.19
324.939	228.19
325.168	209.19
325.397	181.19
325.626	230.19
325.855	417.19
326.084	821.19
326.313	1361.19
326.542	1393.19
326.77	554.19
326.999	227.19
327.228	193.19
327.457	191.19
327.686	188.19
327.914	139.19
328.143	125.19
328.372	117.19
328.6	110.19
328.829	122.19
329.058	109.19
329.287	117.19
329.515	109.19
329.744	106.19
329.972	113.19
330.201	117.19
330.43	99.19
330.658	111.19
330.887	99.19
331.115	112.19
331.344	109.19
331.572	114.19
331.801	92.19
332.03	119.19
332.258	121.19
332.486	161.19
332.715	263.19
332.943	443.19
333.172	648.19
333.4	597.19
333.629	210.19
333.857	133.19
334.085	115.19
334.314	114.19
334.542	114.19
334.771	97.19
334.999	121.19
335.227	107.19
335.455	109.19
335.684	111.19
335.912	117.19
336.14	97.19
336.369	106.19
336.597	93.19
336.825	96.19
337.053	98.19
337.281	88.19
337.51	107.19
337.738	101.19
337.966	102.19
338.194	104.19
338.422	121.19
338.65	115.19
338.878	107.19
339.106	107.19
339.334	112.19
339.562	122.19
339.79	109.19
340.018	102.19
340.246	96.19
340.474	99.19
340.702	109.19
340.93	96.19
341.158	101.19
341.386	112.19
341.614	104.19
341.842	101.19
342.07	89.19
342.298	117.19
342.526	113.19
342.754	119.19
342.981	109.19
343.209	105.19
343.437	129.19
343.665	103.19
343.893	96.19
344.12	108.19
344.348	107.19
344.576	94.19
344.804	107.19
345.031	105.19
345.259	102.19
345.487	103.19
345.714	84.19
345.942	102.19
346.17	99.19
346.397	92.19
346.625	92.19
346.853	85.19
347.08	90.19
347.308	102.19
347.535	94.19
347.763	88.19
347.99	98.19
348.218	100.19
348.445	99.19
348.673	111.19
348.9	93.19
349.128	103.19
349.355	113.19
349.583	110.19
349.81	108.19
350.037	115.19
350.265	107.19
350.492	109.19
350.72	94.19
350.947	95.19
351.174	109.19
351.402	108.19
351.629	100.19
351.856	115.19
352.083	95.19
352.311	97.19
352.538	117.19
352.765	99.19
352.992	107.19
353.22	97.19
353.447	105.19
353.674	98.19
353.901	99.19
354.128	89.19
354.355	87.19
354.583	95.19
354.81	89.19
355.037	110.19
355.264	101.19
355.491	100.19
355.718	104.19
355.945	86.19
356.172	93.19
356.399	91.19
356.626	98.19
356.853	92.19
357.08	107.19
357.307	106.19
357.534	91.19
357.761	108.19
357.988	90.19
358.215	91.19
358.441	84.19
358.668	102.19
358.895	112.19
359.122	115.19
359.349	107.19
359.576	108.19
359.802	104.19
360.029	94.19
360.256	99.19
360.483	119.19
360.709	87.19
360.936	89.19
361.163	101.19
361.39	108.19
361.616	99.19
361.843	115.19
362.07	103.19
362.296	92.19
362.523	96.19
362.749	114.19
362.976	116.19
363.203	96.19
363.429	86.19
363.656	110.19
363.882	91.19
364.109	101.19
364.335	114.19
364.562	113.19
364.788	93.19
365.015	114.19
365.241	135.19
365.468	156.19
365.694	200.19
365.92	181.19
366.147	112.19
366.373	117.19
366.599	97.19
366.826	100.19
367.052	100.19
367.278	100.19
367.505	105.19
367.731	97.19
367.957	114.19
368.184	99.19
368.41	100.19
368.636	109.19
368.862	119.19
369.089	107.19
369.315	83.19
369.541	92.19
369.767	90.19
369.993	110.19
370.219	79.19
370.445	109.19
370.672	102.19
370.898	97.19
371.124	96.19
371.35	101.19
371.576	106.19
371.802	94.19
372.028	99.19
372.254	118.19
372.48	105.19
372.706	114.19
372.932	112.19
373.158	99.19
373.384	115.19
373.61	110.19
373.835	110.19
374.061	120.19
374.287	92.19
374.513	112.19
374.739	109.19
374.965	94.19
375.191	94.19
375.416	103.19
375.642	108.19
375.868	113.19
376.094	101.19
376.319	91.19
376.545	115.19
376.771	95.19
376.997	108.19
377.222	110.19
377.448	111.19
377.674	102.19
377.899	98.19
378.125	82.19
378.35	103.19
378.576	107.19
378.802	97.19
379.027	123.19
379.253	134.19
379.478	169.19
379.704	280.19
379.929	672.19
380.155	1351.19
380.38	1401.19
380.606	495.19
380.831	172.19
381.057	122.19
381.282	120.19
381.507	101.19
381.733	107.19
381.958	99.19
382.184	97.19
382.409	84.19
382.634	105.19
382.86	96.19
383.085	103.19
383.31	100.19
383.535	90.19
383.761	107.19
383.986	103.19
384.211	104.19
384.436	102.19
384.662	104.19
384.887	103.19
385.112	80.19
385.337	111.19
385.562	90.19
385.787	97.19
386.013	117.19
386.238	93.19
386.463	99.19
386.688	95.19
386.913	100.19
387.138	102.19
387.363	94.19
387.588	114.19
387.813	97.19
388.038	93.19
388.263	103.19
388.488	99.19
388.713	102.19
388.938	104.19
389.163	93.19
389.387	92.19
389.612	89.19
389.837	92.19
390.062	103.19
390.287	86.19
390.512	100.19
390.736	102.19
390.961	85.19
391.186	99.19
391.411	92.19
391.636	81.19
391.86	91.19
392.085	88.19
392.31	81.19
392.534	97.19
392.759	102.19
392.984	97.19
393.208	97.19
393.433	118.19
393.658	131.19
393.882	93.19
394.107	91.19
394.331	89.19
394.556	99.19
394.78	94.19
395.005	89.19
395.229	101.19
395.454	116.19
395.678	94.19
395.903	83.19
396.127	95.19
396.352	88.19
396.576	100.19
396.801	96.19
397.025	100.19
397.249	110.19
397.474	103.19
397.698	105.19
397.922	96.19
398.147	88.19
398.371	100.19
398.595	91.19
398.82	82.19
399.044	84.19
399.268	91.19
399.492	87.19
399.717	96.19
399.941	100.19
400.165	96.19
400.389	79.19
400.613	89.19
400.837	92.19
401.062	108.19
401.286	88.19
401.51	97.19
401.734	96.19
401.958	89.19
402.182	92.19
402.406	83.19
402.63	113.19
402.854	98.19
403.078	99.19
403.302	108.19
403.526	85.19
403.75	94.19
403.974	86.19
404.198	96.19
404.422	96.19
404.645	91.19
404.869	109.19
405.093	93.19
405.317	94.19
405.541	96.19
405.765	112.19
405.988	125.19
406.212	102.19
406.436	97.19
406.66	93.19
406.883	99.19
407.107	108.19
407.331	96.19
407.555	94.19
407.778	84.19
408.002	101.19
408.226	94.19
408.449	111.19
408.673	107.19
408.896	93.19
409.12	86.19
409.344	95.19
409.567	88.19
409.791	91.19
410.014	91.19
410.238	103.19
410.461	86.19
410.685	95.19
410.908	91.19
411.132	94.19
411.355	115.19
411.578	109.19
411.802	96.19
412.025	89.19
412.249	89.19
412.472	101.19
412.695	100.19
412.919	112.19
413.142	99.19
413.365	103.19
413.589	105.19
413.812	78.19
414.035	98.19
414.258	93.19
414.482	91.19
414.705	97.19
414.928	103.19
415.151	100.19
415.374	96.19
415.597	96.19
415.821	91.19
416.044	92.19
416.267	91.19
416.49	108.19
416.713	102.19
416.936	95.19
417.159	94.19
417.382	89.19
417.605	85.19
417.828	82.19
418.051	84.19
418.274	89.19
418.497	103.19
418.72	110.19
418.943	98.19
419.166	96.19
419.389	102.19
419.611	92.19
419.834	86.19
420.057	91.19
420.28	92.19
420.503	96.19
420.726	105.19
420.948	95.19
421.171	97.19
421.394	93.19
421.617	94.19
421.839	82.19
422.062	96.19
422.285	92.19
422.507	95.19
422.73	114.19
422.953	121.19
423.175	116.19
423.398	111.19
423.621	85.19
423.843	86.19
424.066	100.19
424.288	87.19
424.511	97.19
424.733	123.19
424.956	109.19
425.178	99.19
425.401	93.19
425.623	86.19
425.846	91.19
426.068	95.19
426.291	85.19
426.513	100.19
426.735	85.19
426.958	111.19
427.18	107.19
427.402	96.19
427.625	90.19
427.847	78.19
428.069	75.19
428.292	92.19
428.514	107.19
428.736	96.19
428.958	102.19
429.181	113.19
429.403	96.19
429.625	93.19
429.847	96.19
430.069	101.19
430.292	106.19
430.514	96.19
430.736	93.19
430.958	93.19
431.18	93.19
431.402	83.19
431.624	87.19
431.846	88.19
432.068	99.19
432.29	90.19
432.512	78.19
432.734	79.19
432.956	95.19
433.178	98.19
433.4	97.19
433.622	88.19
433.844	84.19
434.066	86.19
434.287	89.19
434.509	76.19
434.731	88.19
434.953	101.19
435.175	87.19
435.397	86.19
435.618	76.19
435.84	96.19
436.062	82.19
436.284	98.19
436.505	87.19
436.727	102.19
436.949	96.19
437.17	87.19
437.392	85.19
437.614	82.19
437.835	81.19
438.057	102.19
438.278	89.19
438.5	91.19
438.721	98.19
438.943	84.19
439.165	99.19
439.386	110.19
439.608	88.19
439.829	106.19
440.05	115.19
440.272	114.19
440.493	88.19
440.715	81.19
440.936	107.19
441.158	89.19
441.379	84.19
441.6	92.19
441.822	95.19
442.043	104.19
442.264	119.19
442.486	102.19
442.707	101.19
442.928	94.19
443.149	92.19
443.371	89.19
443.592	72.19
443.813	101.19
444.034	97.19
444.255	93.19
444.476	99.19
444.698	95.19
444.919	92.19
445.14	209.19
445.361	153.19
445.582	105.19
445.803	99.19
446.024	85.19
446.245	107.19
446.466	103.19
446.687	101.19
446.908	118.19
447.129	107.19
447.35	100.19
447.571	109.19
447.792	86.19
448.013	83.19
448.234	85.19
448.455	101.19
448.675	100.19
448.896	103.19
449.117	117.19
449.338	112.19
449.559	124.19
449.779	128.19
450	103.19
450.221	102.19
450.442	103.19
450.662	109.19
450.883	105.19
451.104	105.19
451.324	105.19
451.545	103.19
451.766	113.19
451.986	127.19
452.207	187.19
452.428	483.19
452.648	1118.19
452.869	661.19
453.089	189.19
453.31	108.19
453.53	132.19
453.751	149.19
453.971	163.19
454.192	145.19
454.412	98.19
454.633	81.19
454.853	99.19
455.073	95.19
455.294	87.19
455.514	93.19
455.734	86.19
455.955	95.19
456.175	95.19
456.395	93.19
456.616	99.19
456.836	102.19
457.056	87.19
457.276	108.19
457.497	109.19
457.717	120.19
457.937	93.19
458.157	93.19
458.377	82.19
458.598	77.19
458.818	76.19
459.038	94.19
459.258	93.19
459.478	87.19
459.698	81.19
459.918	81.19
460.138	85.19
460.358	91.19
460.578	89.19
460.798	84.19
461.018	107.19
461.238	88.19
461.458	85.19
461.678	93.19
461.898	90.19
462.118	83.19
462.338	94.19
462.558	89.19
462.777	93.19
462.997	100.19
463.217	92.19
463.437	108.19
463.657	172.19
463.876	176.19
464.096	108.19
464.316	94.19
464.536	95.19
464.755	97.19
464.975	82.19
465.195	83.19
465.414	87.19
465.634	108.19
465.854	88.19
466.073	85.19
466.293	97.19
466.512	94.19
466.732	87.19
466.951	110.19
467.171	123.19
467.391	114.19
467.61	109.19
467.829	99.19
468.049	110.19
468.268	107.19
468.488	96.19
468.707	87.19
468.927	80.19
469.146	102.19
469.365	84.19
469.585	88.19
469.804	100.19
470.023	101.19
470.243	110.19
470.462	96.19
470.681	92.19
470.901	114.19
471.12	175.19
471.339	185.19
471.558	124.19
471.777	108.19
471.997	114.19
472.216	98.19
472.435	87.19
472.654	110.19
472.873	99.19
473.092	77.19
473.311	84.19
473.53	108.19
473.749	85.19
473.968	93.19
474.187	95.19
474.406	92.19
474.625	91.19
474.844	88.19
475.063	91.19
475.282	90.19
475.501	93.19
475.72	100.19
475.939	94.19
476.158	95.19
476.377	117.19
476.596	93.19
476.814	93.19
477.033	96.19
477.252	85.19
477.471	103.19
477.69	93.19
477.908	92.19
478.127	104.19
478.346	92.19
478.564	92.19
478.783	101.19
479.002	107.19
479.22	100.19
479.439	99.19
479.658	97.19
479.876	95.19
480.095	101.19
480.313	79.19
480.532	86.19
480.751	96.19
480.969	97.19
481.188	95.19
481.406	99.19
481.624	91.19
481.843	106.19
482.061	109.19
482.28	95.19
482.498	105.19
482.717	93.19
482.935	88.19
483.153	106.19
483.372	99.19
483.59	101.19
483.808	90.19
484.027	99.19
484.245	114.19
484.463	147.19
484.681	226.19
484.9	135.19
485.118	109.19
485.336	103.19
485.554	109.19
485.772	119.19
485.99	152.19
486.209	229.19
486.427	163.19
486.645	103.19
486.863	98.19
487.081	108.19
487.299	100.19
487.517	111.19
487.735	101.19
487.953	84.19
488.171	85.19
488.389	91.19
488.607	91.19
488.825	85.19
489.043	83.19
489.261	104.19
489.479	92.19
489.696	82.19
489.914	96.19
490.132	89.19
490.35	97.19
490.568	85.19
490.786	96.19
491.003	85.19
491.221	116.19
491.439	111.19
491.657	99.19
491.874	104.19
492.092	102.19
492.31	100.19
492.527	97.19
492.745	87.19
492.963	94.19
493.18	107.19
493.398	100.19
493.615	103.19
493.833	108.19
494.05	91.19
494.268	96.19
494.485	94.19
494.703	102.19
494.92	92.19
495.138	106.19
495.355	101.19
495.573	91.19
495.79	93.19
496.008	114.19
496.225	101.19
496.442	115.19
496.66	111.19
496.877	142.19
497.094	147.19
497.312	112.19
497.529	94.19
497.746	96.19
497.963	100.19
498.181	110.19
498.398	98.19
498.615	103.19
498.832	99.19
499.049	101.19
499.267	142.19
499.484	159.19
499.701	110.19
499.918	110.19
500.135	85.19
500.352	109.19
500.569	98.19
500.786	94.19
501.003	111.19
501.22	91.19
501.437	98.19
501.654	81.19
501.871	98.19
502.088	93.19
502.305	95.19
502.522	87.19
502.739	101.19
502.956	96.19
503.172	95.19
503.389	94.19
503.606	90.19
503.823	107.19
504.04	95.19
504.256	90.19
504.473	90.19
504.69	88.19
504.907	107.19
505.123	101.19
505.34	100.19
505.557	88.19
505.773	89.19
505.99	101.19
506.207	97.19
506.423	115.19
506.64	102.19
506.856	103.19
507.073	104.19
507.289	93.19
507.506	92.19
507.722	99.19
507.939	86.19
508.155	90.19
508.372	103.19
508.588	86.19
508.805	92.19
509.021	97.19
509.238	105.19
509.454	116.19
509.67	139.19
509.887	103.19
510.103	86.19
510.319	91.19
510.536	89.19
510.752	85.19
