Data from SnStandardFlinnAPT0064_LampEnergy10_LIBS07252019.E.O._I.C._HRD10591_15-20-34-494.txt Node
Date: Thu Jul 25 15:20:34 EDT 2019
User: cochatt
Spectrometer: HR+D1059
Trigger mode: 1
Integration Time (sec): 1.000000E-1
Scans to average: 1
Electric dark correction enabled: true
Nonlinearity correction enabled: false
Boxcar width: 0
XAxis mode: Wavelengths
Number of Pixels in Spectrum: 2048
>>>>>Begin Spectral Data<<<<<
223.165	-23.62
223.4	-23.62
223.635	-23.62
223.869	-25.62
224.104	-17.62
224.338	-11.62
224.573	-21.62
224.808	-17.62
225.042	-6.62
225.277	7.38
225.511	6.38
225.746	15.38
225.98	3.38
226.215	11.38
226.449	13.38
226.683	20.38
226.918	14.38
227.152	32.38
227.387	31.38
227.621	54.38
227.856	44.38
228.09	42.38
228.324	55.38
228.559	67.38
228.793	116.38
229.027	316.38
229.262	340.38
229.496	305.38
229.73	293.38
229.964	291.38
230.199	323.38
230.433	311.38
230.667	334.38
230.901	310.38
231.136	316.38
231.37	370.38
231.604	411.38
231.838	444.38
232.072	526.38
232.306	575.38
232.541	490.38
232.775	435.38
233.009	400.38
233.243	414.38
233.477	447.38
233.711	502.38
233.945	586.38
234.179	525.38
234.413	464.38
234.647	436.38
234.881	463.38
235.115	511.38
235.349	633.38
235.583	784.38
235.817	1011.38
236.051	1022.38
236.285	662.38
236.519	534.38
236.753	500.38
236.987	511.38
237.221	532.38
237.455	535.38
237.689	473.38
237.922	458.38
238.156	467.38
238.39	506.38
238.624	513.38
238.858	494.38
239.091	467.38
239.325	500.38
239.559	487.38
239.793	496.38
240.027	514.38
240.26	527.38
240.494	540.38
240.728	574.38
240.961	634.38
241.195	662.38
241.429	703.38
241.662	742.38
241.896	816.38
242.13	953.38
242.363	1279.38
242.597	1678.38
242.83	1572.38
243.064	1562.38
243.298	1848.38
243.531	1511.38
243.765	991.38
243.998	787.38
244.232	720.38
244.465	674.38
244.699	672.38
244.932	637.38
245.166	672.38
245.399	688.38
245.633	690.38
245.866	679.38
246.099	675.38
246.333	660.38
246.566	638.38
246.8	624.38
247.033	647.38
247.266	634.38
247.5	642.38
247.733	648.38
247.966	716.38
248.2	758.38
248.433	864.38
248.666	1020.38
248.899	963.38
249.133	859.38
249.366	862.38
249.599	958.38
249.832	1095.38
250.066	1122.38
250.299	881.38
250.532	798.38
250.765	736.38
250.998	725.38
251.231	726.38
251.465	737.38
251.698	738.38
251.931	739.38
252.164	746.38
252.397	764.38
252.63	795.38
252.863	811.38
253.096	785.38
253.329	775.38
253.562	769.38
253.795	780.38
254.028	789.38
254.261	817.38
254.494	862.38
254.727	1024.38
254.96	1230.38
255.193	1266.38
255.426	985.38
255.659	868.38
255.892	847.38
256.124	862.38
256.357	898.38
256.59	885.38
256.823	998.38
257.056	1126.38
257.289	1357.38
257.521	1494.38
257.754	1210.38
257.987	985.38
258.22	918.38
258.452	880.38
258.685	895.38
258.918	944.38
259.151	969.38
259.383	1074.38
259.616	1214.38
259.849	1281.38
260.081	1072.38
260.314	998.38
260.547	927.38
260.779	934.38
261.012	971.38
261.244	953.38
261.477	976.38
261.71	978.38
261.942	1014.38
262.175	999.38
262.407	1020.38
262.64	1044.38
262.872	1110.38
263.105	1136.38
263.337	1203.38
263.57	1273.38
263.802	1331.38
264.035	1311.38
264.267	1322.38
264.499	1369.38
264.732	1443.38
264.964	1434.38
265.197	1432.38
265.429	1420.38
265.661	1433.38
265.894	1558.38
266.126	1795.38
266.358	1949.38
266.591	1935.38
266.823	1617.38
267.055	1447.38
267.287	1353.38
267.52	1297.38
267.752	1276.38
267.984	1262.38
268.216	1242.38
268.448	1255.38
268.681	1246.38
268.913	1211.38
269.145	1208.38
269.377	1227.38
269.609	1236.38
269.841	1283.38
270.073	1406.38
270.306	1608.38
270.538	2214.38
270.77	3289.38
271.002	4085.38
271.234	2838.38
271.466	1844.38
271.698	1534.38
271.93	1397.38
272.162	1321.38
272.394	1287.38
272.626	1250.38
272.858	1261.38
273.09	1227.38
273.322	1202.38
273.553	1216.38
273.785	1199.38
274.017	1187.38
274.249	1221.38
274.481	1222.38
274.713	1193.38
274.945	1191.38
275.176	1222.38
275.408	1204.38
275.64	1242.38
275.872	1222.38
276.104	1263.38
276.335	1288.38
276.567	1283.38
276.799	1266.38
277.031	1310.38
277.262	1335.38
277.494	1386.38
277.726	1553.38
277.957	1842.38
278.189	2102.38
278.421	1992.38
278.652	1803.38
278.884	1639.38
279.115	1518.38
279.347	1411.38
279.579	1396.38
279.81	1377.38
280.042	1408.38
280.273	1406.38
280.505	1408.38
280.736	1503.38
280.968	1586.38
281.199	1768.38
281.431	2006.38
281.662	2140.38
281.894	1828.38
282.125	1647.38
282.356	1624.38
282.588	1673.38
282.819	1730.38
283.051	1825.38
283.282	2006.38
283.513	2511.38
283.745	3643.38
283.976	5839.38
284.207	8337.38
284.439	7481.38
284.67	4607.38
284.901	3792.38
285.132	3832.38
285.364	3570.38
285.595	2699.38
285.826	2432.38
286.057	2878.38
286.288	3967.38
286.52	5264.38
286.751	4986.38
286.982	3055.38
287.213	2308.38
287.444	2025.38
287.675	1863.38
287.906	1818.38
288.138	1738.38
288.369	1682.38
288.6	1680.38
288.831	1659.38
289.062	1633.38
289.293	1662.38
289.524	1651.38
289.755	1641.38
289.986	1691.38
290.217	1703.38
290.448	1718.38
290.679	1733.38
290.91	1751.38
291.141	1863.38
291.371	2035.38
291.602	2121.38
291.833	1893.38
292.064	1714.38
292.295	1673.38
292.526	1680.38
292.757	1619.38
292.987	1564.38
293.218	1604.38
293.449	1614.38
293.68	1582.38
293.91	1558.38
294.141	1604.38
294.372	1562.38
294.603	1567.38
294.833	1553.38
295.064	1578.38
295.295	1586.38
295.525	1518.38
295.756	1538.38
295.987	1522.38
296.217	1542.38
296.448	1531.38
296.679	1552.38
296.909	1530.38
297.14	1609.38
297.37	1633.38
297.601	1636.38
297.831	1567.38
298.062	1650.38
298.292	1648.38
298.523	1691.38
298.753	1685.38
298.984	1665.38
299.214	1717.38
299.445	1754.38
299.675	1769.38
299.905	1864.38
300.136	1904.38
300.366	2194.38
300.597	2792.38
300.827	3878.38
301.057	5331.38
301.288	5365.38
301.518	3402.38
301.748	2603.38
301.979	2358.38
302.209	2241.38
302.439	2291.38
302.669	2445.38
302.9	2965.38
303.13	4270.38
303.36	6249.38
303.59	8487.38
303.82	7344.38
304.051	4232.38
304.281	3054.38
304.511	2518.38
304.741	2330.38
304.971	2179.38
305.201	2057.38
305.431	2033.38
305.661	1979.38
305.891	1916.38
306.121	1854.38
306.352	1896.38
306.582	1894.38
306.812	1828.38
307.042	1833.38
307.272	1866.38
307.502	1804.38
307.731	1805.38
307.961	1776.38
308.191	1784.38
308.421	1776.38
308.651	1790.38
308.881	1781.38
309.111	1776.38
309.341	1810.38
309.571	1838.38
309.8	1827.38
310.03	1866.38
310.26	1866.38
310.49	1854.38
310.72	1847.38
310.949	1852.38
311.179	1879.38
311.409	1884.38
311.639	1916.38
311.868	1900.38
312.098	1952.38
312.328	1948.38
312.557	1946.38
312.787	1976.38
313.017	1976.38
313.246	1974.38
313.476	1945.38
313.706	2101.38
313.935	2181.38
314.165	2332.38
314.394	2491.38
314.624	2378.38
314.853	2186.38
315.083	2150.38
315.312	2184.38
315.542	2178.38
315.771	2190.38
316.001	2200.38
316.23	2324.38
316.46	2449.38
316.689	2698.38
316.919	3263.38
317.148	4663.38
317.377	7300.38
317.607	10726.38
317.836	11052.38
318.065	6791.38
318.295	4305.38
318.524	3454.38
318.753	3014.38
318.983	2735.38
319.212	2579.38
319.441	2535.38
319.67	2430.38
319.9	2376.38
320.129	2384.38
320.358	2316.38
320.587	2296.38
320.816	2312.38
321.046	2339.38
321.275	2363.38
321.504	2328.38
321.733	2399.38
321.962	2499.38
322.191	2532.38
322.42	2499.38
322.649	2517.38
322.878	2460.38
323.108	2472.38
323.337	2548.38
323.566	2582.38
323.795	2593.38
324.024	2654.38
324.253	2713.38
324.482	2864.38
324.71	2954.38
324.939	3195.38
325.168	3243.38
325.397	3401.38
325.626	4054.38
325.855	5705.38
326.084	9032.38
326.313	12999.38
326.542	13620.38
326.77	9196.38
326.999	5983.38
327.228	4978.38
327.457	4820.38
327.686	4758.38
327.914	5122.38
328.143	6042.38
328.372	7235.38
328.6	7931.38
328.829	6979.38
329.058	5844.38
329.287	5054.38
329.515	4642.38
329.744	4315.38
329.972	4044.38
330.201	3854.38
330.43	3708.38
330.658	3619.38
330.887	3572.38
331.115	3510.38
331.344	3537.38
331.572	3438.38
331.801	3495.38
332.03	3480.38
332.258	3467.38
332.486	3777.38
332.715	4277.38
332.943	5311.38
333.172	6644.38
333.4	6631.38
333.629	5017.38
333.857	4473.38
334.085	4527.38
334.314	4662.38
334.542	5097.38
334.771	6068.38
334.999	7442.38
335.227	9415.38
335.455	10534.38
335.684	9441.38
335.912	7662.38
336.14	6424.38
336.369	5698.38
336.597	5170.38
336.825	4790.38
337.053	4550.38
337.281	4219.38
337.51	4032.38
337.738	3782.38
337.966	3658.38
338.194	3549.38
338.422	3424.38
338.65	3380.38
338.878	3321.38
339.106	3226.38
339.334	3146.38
339.562	3140.38
339.79	3092.38
340.018	3072.38
340.246	2992.38
340.474	3006.38
340.702	3051.38
340.93	3034.38
341.158	3023.38
341.386	3027.38
341.614	2979.38
341.842	2906.38
342.07	2829.38
342.298	2782.38
342.526	2736.38
342.754	2697.38
342.981	2660.38
343.209	2695.38
343.437	2738.38
343.665	2804.38
343.893	2813.38
344.12	2789.38
344.348	2807.38
344.576	2692.38
344.804	2706.38
345.031	2577.38
345.259	2611.38
345.487	2571.38
345.714	2582.38
345.942	2516.38
346.17	2535.38
346.397	2474.38
346.625	2524.38
346.853	2498.38
347.08	2482.38
347.308	2548.38
347.535	2496.38
347.763	2483.38
347.99	2442.38
348.218	2475.38
348.445	2431.38
348.673	2430.38
348.9	2431.38
349.128	2417.38
349.355	2439.38
349.583	2411.38
349.81	2418.38
350.037	2377.38
350.265	2376.38
350.492	2344.38
350.72	2363.38
350.947	2374.38
351.174	2392.38
351.402	2423.38
351.629	2401.38
351.856	2398.38
352.083	2373.38
352.311	2337.38
352.538	2361.38
352.765	2350.38
352.992	2385.38
353.22	2341.38
353.447	2356.38
353.674	2342.38
353.901	2413.38
354.128	2378.38
354.355	2359.38
354.583	2379.38
354.81	2420.38
355.037	2423.38
355.264	2404.38
355.491	2438.38
355.718	2404.38
355.945	2407.38
356.172	2462.38
356.399	2446.38
356.626	2486.38
356.853	2514.38
357.08	2476.38
357.307	2577.38
357.534	2581.38
357.761	2548.38
357.988	2580.38
358.215	2545.38
358.441	2554.38
358.668	2480.38
358.895	2558.38
359.122	2464.38
359.349	2498.38
359.576	2531.38
359.802	2514.38
360.029	2505.38
360.256	2533.38
360.483	2506.38
360.709	2536.38
360.936	2513.38
361.163	2536.38
361.39	2530.38
361.616	2549.38
361.843	2511.38
362.07	2523.38
362.296	2546.38
362.523	2538.38
362.749	2548.38
362.976	2517.38
363.203	2518.38
363.429	2489.38
363.656	2534.38
363.882	2505.38
364.109	2506.38
364.335	2509.38
364.562	2527.38
364.788	2523.38
365.015	2508.38
365.241	2588.38
365.468	2793.38
365.694	2923.38
365.92	2830.38
366.147	2660.38
366.373	2551.38
366.599	2625.38
366.826	2564.38
367.052	2585.38
367.278	2610.38
367.505	2587.38
367.731	2624.38
367.957	2566.38
368.184	2638.38
368.41	2648.38
368.636	2645.38
368.862	2610.38
369.089	2615.38
369.315	2603.38
369.541	2596.38
369.767	2594.38
369.993	2572.38
370.219	2581.38
370.445	2624.38
370.672	2671.38
370.898	2670.38
371.124	2650.38
371.35	2691.38
371.576	2734.38
371.802	2723.38
372.028	2661.38
372.254	2738.38
372.48	2727.38
372.706	2725.38
372.932	2721.38
373.158	2784.38
373.384	2789.38
373.61	2768.38
373.835	2774.38
374.061	2798.38
374.287	2771.38
374.513	2836.38
374.739	2880.38
374.965	2872.38
375.191	2915.38
375.416	2888.38
375.642	2816.38
375.868	2842.38
376.094	2809.38
376.319	2762.38
376.545	2758.38
376.771	2719.38
376.997	2700.38
377.222	2692.38
377.448	2677.38
377.674	2722.38
377.899	2710.38
378.125	2751.38
378.35	2702.38
378.576	2693.38
378.802	2743.38
379.027	2783.38
379.253	2838.38
379.478	3017.38
379.704	3614.38
379.929	5152.38
380.155	8140.38
380.38	8730.38
380.606	5337.38
380.831	3734.38
381.057	3211.38
381.282	2929.38
381.507	2791.38
381.733	2822.38
381.958	2764.38
382.184	2734.38
382.409	2711.38
382.634	2683.38
382.86	2708.38
383.085	2665.38
383.31	2656.38
383.535	2652.38
383.761	2682.38
383.986	2680.38
384.211	2724.38
384.436	2730.38
384.662	2710.38
384.887	2739.38
385.112	2752.38
385.337	2812.38
385.562	2754.38
385.787	2755.38
386.013	2739.38
386.238	2775.38
386.463	2767.38
386.688	2767.38
386.913	2745.38
387.138	2762.38
387.363	2790.38
387.588	2772.38
387.813	2726.38
388.038	2715.38
388.263	2741.38
388.488	2783.38
388.713	2766.38
388.938	2722.38
389.163	2694.38
389.387	2740.38
389.612	2726.38
389.837	2718.38
390.062	2700.38
390.287	2768.38
390.512	2775.38
390.736	2857.38
390.961	2898.38
391.186	2849.38
391.411	2899.38
391.636	2835.38
391.86	2855.38
392.085	2892.38
392.31	2847.38
392.534	2832.38
392.759	2773.38
392.984	2779.38
393.208	2782.38
393.433	2836.38
393.658	2806.38
393.882	2787.38
394.107	2760.38
394.331	2802.38
394.556	2762.38
394.78	2790.38
395.005	2828.38
395.229	2797.38
395.454	2810.38
395.678	2855.38
395.903	2841.38
396.127	2880.38
396.352	2840.38
396.576	2855.38
396.801	2850.38
397.025	2868.38
397.249	2895.38
397.474	2868.38
397.698	2892.38
397.922	2939.38
398.147	2887.38
398.371	2944.38
398.595	3006.38
398.82	3084.38
399.044	3183.38
399.268	3324.38
399.492	3519.38
399.717	3636.38
399.941	3662.38
400.165	3486.38
400.389	3374.38
400.613	3214.38
400.837	3164.38
401.062	3122.38
401.286	3020.38
401.51	3015.38
401.734	3061.38
401.958	3072.38
402.182	3078.38
402.406	3038.38
402.63	3063.38
402.854	3105.38
403.078	3056.38
403.302	3131.38
403.526	3140.38
403.75	3111.38
403.974	3172.38
404.198	3102.38
404.422	3175.38
404.645	3178.38
404.869	3128.38
405.093	3160.38
405.317	3109.38
405.541	3220.38
405.765	3213.38
405.988	3270.38
406.212	3270.38
406.436	3225.38
406.66	3293.38
406.883	3270.38
407.107	3383.38
407.331	3398.38
407.555	3424.38
407.778	3427.38
408.002	3429.38
408.226	3390.38
408.449	3402.38
408.673	3305.38
408.896	3230.38
409.12	3216.38
409.344	3210.38
409.567	3191.38
409.791	3186.38
410.014	3163.38
410.238	3104.38
410.461	3149.38
410.685	3107.38
410.908	3050.38
411.132	3059.38
411.355	2991.38
411.578	3026.38
411.802	3016.38
412.025	2994.38
412.249	3041.38
412.472	2994.38
412.695	2980.38
412.919	2952.38
413.142	2962.38
413.365	3003.38
413.589	3014.38
413.812	2993.38
414.035	2992.38
414.258	2990.38
414.482	2950.38
414.705	2964.38
414.928	2963.38
415.151	2999.38
415.374	2974.38
415.597	2881.38
415.821	2872.38
416.044	2887.38
416.267	2882.38
416.49	2847.38
416.713	2896.38
416.936	2897.38
417.159	2866.38
417.382	2781.38
417.605	2866.38
417.828	2830.38
418.051	2875.38
418.274	2890.38
418.497	2864.38
418.72	2943.38
418.943	2838.38
419.166	3019.38
419.389	3181.38
419.611	3114.38
419.834	3032.38
420.057	3001.38
420.28	2851.38
420.503	2842.38
420.726	2866.38
420.948	2858.38
421.171	2855.38
421.394	2843.38
421.617	2847.38
421.839	2896.38
422.062	2936.38
422.285	2822.38
422.507	2900.38
422.73	2966.38
422.953	2928.38
423.175	2940.38
423.398	2968.38
423.621	2843.38
423.843	2898.38
424.066	2871.38
424.288	2865.38
424.511	2901.38
424.733	2800.38
424.956	2817.38
425.178	2852.38
425.401	2759.38
425.623	2788.38
425.846	2748.38
426.068	2816.38
426.291	2731.38
426.513	2722.38
426.735	2706.38
426.958	2757.38
427.18	2700.38
427.402	2738.38
427.625	2731.38
427.847	2652.38
428.069	2650.38
428.292	2696.38
428.514	2625.38
428.736	2664.38
428.958	2680.38
429.181	2594.38
429.403	2631.38
429.625	2624.38
429.847	2647.38
430.069	2715.38
430.292	2787.38
430.514	2866.38
430.736	2834.38
430.958	2676.38
431.18	2644.38
431.402	2634.38
431.624	2586.38
431.846	2581.38
432.068	2573.38
432.29	2624.38
432.512	2606.38
432.734	2651.38
432.956	2566.38
433.178	2622.38
433.4	2612.38
433.622	2648.38
433.844	2653.38
434.066	2626.38
434.287	2649.38
434.509	2648.38
434.731	2736.38
434.953	2735.38
435.175	2734.38
435.397	2755.38
435.618	2675.38
435.84	2654.38
436.062	2535.38
436.284	2610.38
436.505	2586.38
436.727	2592.38
436.949	2609.38
437.17	2626.38
437.392	2584.38
437.614	2530.38
437.835	2532.38
438.057	2520.38
438.278	2486.38
438.5	2563.38
438.721	2588.38
438.943	2683.38
439.165	2751.38
439.386	2757.38
439.608	2684.38
439.829	2682.38
440.05	2833.38
440.272	2823.38
440.493	2715.38
440.715	2699.38
440.936	2720.38
441.158	2710.38
441.379	2777.38
441.6	2901.38
441.822	2926.38
442.043	3098.38
442.264	3212.38
442.486	2981.38
442.707	2862.38
442.928	2791.38
443.149	2819.38
443.371	2810.38
443.592	2798.38
443.813	2848.38
444.034	2874.38
444.255	2856.38
444.476	2933.38
444.698	2972.38
444.919	3048.38
445.14	3070.38
445.361	2922.38
445.582	2897.38
445.803	2795.38
446.024	2784.38
446.245	2747.38
446.466	2803.38
446.687	2755.38
446.908	2744.38
447.129	2702.38
447.35	2642.38
447.571	2622.38
447.792	2545.38
448.013	2552.38
448.234	2592.38
448.455	2606.38
448.675	2651.38
448.896	2686.38
449.117	2798.38
449.338	2936.38
449.559	3145.38
449.779	2862.38
450	2568.38
450.221	2469.38
450.442	2538.38
450.662	2530.38
450.883	2510.38
451.104	2506.38
451.324	2525.38
451.545	2541.38
451.766	2536.38
451.986	2576.38
452.207	2803.38
452.428	3670.38
452.648	5511.38
452.869	4578.38
453.089	3178.38
453.31	2953.38
453.53	2947.38
453.751	3050.38
453.971	3251.38
454.192	3140.38
454.412	2735.38
454.633	2560.38
454.853	2542.38
455.073	2479.38
455.294	2425.38
455.514	2386.38
455.734	2408.38
455.955	2344.38
456.175	2355.38
456.395	2407.38
456.616	2417.38
456.836	2488.38
457.056	2447.38
457.276	2456.38
457.497	2654.38
457.717	2616.38
457.937	2561.38
458.157	2526.38
458.377	2543.38
458.598	2535.38
458.818	2598.38
459.038	2576.38
459.258	2598.38
459.478	2648.38
459.698	2681.38
459.918	2696.38
460.138	2704.38
460.358	2800.38
460.578	2809.38
460.798	2843.38
461.018	2879.38
461.238	2842.38
461.458	2849.38
461.678	2876.38
461.898	3022.38
462.118	3004.38
462.338	2990.38
462.558	3051.38
462.777	3149.38
462.997	3188.38
463.217	3330.38
463.437	3455.38
463.657	3602.38
463.876	3580.38
464.096	3335.38
464.316	3204.38
464.536	3151.38
464.755	3050.38
464.975	2969.38
465.195	2928.38
465.414	2863.38
465.634	2775.38
465.854	2683.38
466.073	2704.38
466.293	2680.38
466.512	2589.38
466.732	2681.38
466.951	2802.38
467.171	2984.38
467.391	2936.38
467.61	2667.38
467.829	2602.38
468.049	2578.38
468.268	2511.38
468.488	2573.38
468.707	2573.38
468.927	2579.38
469.146	2598.38
469.365	2608.38
469.585	2627.38
469.804	2663.38
470.023	2708.38
470.243	2737.38
470.462	2847.38
470.681	3029.38
470.901	3346.38
471.12	3803.38
471.339	3882.38
471.558	3172.38
471.777	2928.38
471.997	2754.38
472.216	2661.38
472.435	2630.38
472.654	2595.38
472.873	2561.38
473.092	2611.38
473.311	2590.38
473.53	2619.38
473.749	2683.38
473.968	2767.38
474.187	2617.38
474.406	2572.38
474.625	2600.38
474.844	2617.38
475.063	2612.38
475.282	2624.38
475.501	2593.38
475.72	2622.38
475.939	2679.38
476.158	2696.38
476.377	2742.38
476.596	2704.38
476.814	2694.38
477.033	2688.38
477.252	2756.38
477.471	2778.38
477.69	2888.38
477.908	2938.38
478.127	2924.38
478.346	2915.38
478.564	2974.38
478.783	3002.38
479.002	3085.38
479.22	3066.38
479.439	3102.38
479.658	3074.38
479.876	3133.38
480.095	3139.38
480.313	3142.38
480.532	3220.38
480.751	3190.38
480.969	3160.38
481.188	3124.38
481.406	3174.38
481.624	3043.38
481.843	3111.38
482.061	3238.38
482.28	3201.38
482.498	3166.38
482.717	3169.38
482.935	3172.38
483.153	3216.38
483.372	3282.38
483.59	3239.38
483.808	3371.38
484.027	3449.38
484.245	3668.38
484.463	4105.38
484.681	4608.38
484.9	4150.38
485.118	3850.38
485.336	3761.38
485.554	3742.38
485.772	4024.38
485.99	4600.38
486.209	4987.38
486.427	4125.38
486.645	3660.38
486.863	3488.38
487.081	3437.38
487.299	3380.38
487.517	3278.38
487.735	3360.38
