Data from SnStandardFlinnAPT0064_QswitchEnergy10_LIBS07252019.E.O._I.C._HRD10591_15-27-45-973.txt Node
Date: Thu Jul 25 15:27:45 EDT 2019
User: cochatt
Spectrometer: HR+D1059
Trigger mode: 1
Integration Time (sec): 1.000000E-1
Scans to average: 1
Electric dark correction enabled: true
Nonlinearity correction enabled: false
Boxcar width: 0
XAxis mode: Wavelengths
Number of Pixels in Spectrum: 2048
>>>>>Begin Spectral Data<<<<<
223.165	-12.44
223.4	-12.44
223.635	-12.44
223.869	-25.44
224.104	-15.44
224.338	-22.44
224.573	-1.44
224.808	-14.44
225.042	-12.44
225.277	4.56
225.511	-9.44
225.746	7.56
225.98	2.56
226.215	6.56
226.449	17.56
226.683	21.56
226.918	19.56
227.152	33.56
227.387	34.56
227.621	34.56
227.856	49.56
228.09	43.56
228.324	49.56
228.559	44.56
228.793	52.56
229.027	68.56
229.262	85.56
229.496	73.56
229.73	85.56
229.964	83.56
230.199	81.56
230.433	78.56
230.667	89.56
230.901	84.56
231.136	81.56
231.37	110.56
231.604	106.56
231.838	99.56
232.072	108.56
232.306	118.56
232.541	100.56
232.775	94.56
233.009	90.56
233.243	87.56
233.477	92.56
233.711	102.56
233.945	120.56
234.179	92.56
234.413	97.56
234.647	101.56
234.881	97.56
235.115	106.56
235.349	97.56
235.583	103.56
235.817	148.56
236.051	127.56
236.285	105.56
236.519	90.56
236.753	97.56
236.987	80.56
237.221	83.56
237.455	77.56
237.689	63.56
237.922	93.56
238.156	85.56
238.39	73.56
238.624	90.56
238.858	91.56
239.091	82.56
239.325	85.56
239.559	82.56
239.793	93.56
240.027	92.56
240.26	82.56
240.494	106.56
240.728	93.56
240.961	84.56
241.195	104.56
241.429	86.56
241.662	88.56
241.896	107.56
242.13	99.56
242.363	127.56
242.597	163.56
242.83	150.56
243.064	133.56
243.298	176.56
243.531	147.56
243.765	107.56
243.998	98.56
244.232	80.56
244.465	80.56
244.699	77.56
244.932	85.56
245.166	78.56
245.399	82.56
245.633	104.56
245.866	87.56
246.099	78.56
246.333	75.56
246.566	84.56
246.8	86.56
247.033	91.56
247.266	83.56
247.5	94.56
247.733	88.56
247.966	100.56
248.2	84.56
248.433	91.56
248.666	125.56
248.899	118.56
249.133	97.56
249.366	105.56
249.599	106.56
249.832	115.56
250.066	124.56
250.299	93.56
250.532	98.56
250.765	75.56
250.998	69.56
251.231	76.56
251.465	97.56
251.698	87.56
251.931	69.56
252.164	74.56
252.397	85.56
252.63	116.56
252.863	113.56
253.096	101.56
253.329	98.56
253.562	98.56
253.795	87.56
254.028	96.56
254.261	92.56
254.494	100.56
254.727	127.56
254.96	145.56
255.193	141.56
255.426	98.56
255.659	88.56
255.892	92.56
256.124	107.56
256.357	111.56
256.59	87.56
256.823	99.56
257.056	113.56
257.289	143.56
257.521	173.56
257.754	134.56
257.987	96.56
258.22	89.56
258.452	90.56
258.685	99.56
258.918	93.56
259.151	88.56
259.383	116.56
259.616	141.56
259.849	159.56
260.081	123.56
260.314	94.56
260.547	87.56
260.779	78.56
261.012	81.56
261.244	94.56
261.477	103.56
261.71	75.56
261.942	94.56
262.175	90.56
262.407	96.56
262.64	99.56
262.872	94.56
263.105	84.56
263.337	101.56
263.57	91.56
263.802	94.56
264.035	104.56
264.267	89.56
264.499	95.56
264.732	93.56
264.964	86.56
265.197	97.56
265.429	93.56
265.661	103.56
265.894	101.56
266.126	133.56
266.358	173.56
266.591	154.56
266.823	106.56
267.055	105.56
267.287	82.56
267.52	99.56
267.752	89.56
267.984	91.56
268.216	87.56
268.448	95.56
268.681	85.56
268.913	88.56
269.145	90.56
269.377	89.56
269.609	103.56
269.841	110.56
270.073	114.56
270.306	135.56
270.538	199.56
270.77	348.56
271.002	393.56
271.234	212.56
271.466	116.56
271.698	103.56
271.93	98.56
272.162	104.56
272.394	98.56
272.626	83.56
272.858	90.56
273.09	78.56
273.322	94.56
273.553	86.56
273.785	97.56
274.017	92.56
274.249	73.56
274.481	93.56
274.713	91.56
274.945	103.56
275.176	96.56
275.408	82.56
275.64	80.56
275.872	74.56
276.104	113.56
276.335	108.56
276.567	98.56
276.799	95.56
277.031	92.56
277.262	108.56
277.494	109.56
277.726	133.56
277.957	188.56
278.189	259.56
278.421	248.56
278.652	198.56
278.884	201.56
279.115	147.56
279.347	118.56
279.579	109.56
279.81	103.56
280.042	107.56
280.273	101.56
280.505	105.56
280.736	106.56
280.968	133.56
281.199	182.56
281.431	273.56
281.662	268.56
281.894	160.56
282.125	109.56
282.356	118.56
282.588	112.56
282.819	107.56
283.051	118.56
283.282	154.56
283.513	201.56
283.745	310.56
283.976	577.56
284.207	853.56
284.439	602.56
284.67	260.56
284.901	273.56
285.132	366.56
285.364	393.56
285.595	231.56
285.826	193.56
286.057	270.56
286.288	426.56
286.52	629.56
286.751	534.56
286.982	226.56
287.213	130.56
287.444	110.56
287.675	99.56
287.906	80.56
288.138	107.56
288.369	97.56
288.6	105.56
288.831	89.56
289.062	105.56
289.293	99.56
289.524	91.56
289.755	99.56
289.986	86.56
290.217	90.56
290.448	114.56
290.679	102.56
290.91	128.56
291.141	177.56
291.371	258.56
291.602	297.56
291.833	208.56
292.064	121.56
292.295	113.56
292.526	100.56
292.757	104.56
292.987	82.56
293.218	86.56
293.449	101.56
293.68	94.56
293.91	100.56
294.141	88.56
294.372	76.56
294.603	98.56
294.833	84.56
295.064	86.56
295.295	79.56
295.525	94.56
295.756	92.56
295.987	106.56
296.217	79.56
296.448	95.56
296.679	96.56
296.909	92.56
297.14	93.56
297.37	100.56
297.601	106.56
297.831	105.56
298.062	105.56
298.292	111.56
298.523	106.56
298.753	107.56
298.984	99.56
299.214	107.56
299.445	107.56
299.675	119.56
299.905	117.56
300.136	119.56
300.366	176.56
300.597	289.56
300.827	483.56
301.057	715.56
301.288	655.56
301.518	278.56
301.748	164.56
301.979	135.56
302.209	136.56
302.439	139.56
302.669	174.56
302.9	305.56
303.13	512.56
303.36	922.56
303.59	1272.56
303.82	865.56
304.051	320.56
304.281	154.56
304.511	135.56
304.741	126.56
304.971	121.56
305.201	116.56
305.431	108.56
305.661	120.56
305.891	97.56
306.121	110.56
306.352	117.56
306.582	132.56
306.812	112.56
307.042	119.56
307.272	114.56
307.502	98.56
307.731	126.56
307.961	111.56
308.191	108.56
308.421	110.56
308.651	100.56
308.881	109.56
309.111	101.56
309.341	113.56
309.571	118.56
309.8	103.56
310.03	105.56
310.26	112.56
310.49	120.56
310.72	111.56
310.949	122.56
311.179	97.56
311.409	106.56
311.639	124.56
311.868	121.56
312.098	112.56
312.328	117.56
312.557	112.56
312.787	123.56
313.017	129.56
313.246	115.56
313.476	138.56
313.706	129.56
313.935	152.56
314.165	220.56
314.394	261.56
314.624	214.56
314.853	139.56
315.083	137.56
315.312	122.56
315.542	136.56
315.771	142.56
316.001	129.56
316.23	147.56
316.46	152.56
316.689	176.56
316.919	285.56
317.148	524.56
317.377	951.56
317.607	1525.56
317.836	1458.56
318.065	556.56
318.295	250.56
318.524	163.56
318.753	153.56
318.983	143.56
319.212	115.56
319.441	99.56
319.67	116.56
319.9	119.56
320.129	119.56
320.358	118.56
320.587	113.56
320.816	131.56
321.046	115.56
321.275	129.56
321.504	136.56
321.733	150.56
321.962	181.56
322.191	164.56
322.42	131.56
322.649	148.56
322.878	125.56
323.108	120.56
323.337	133.56
323.566	125.56
323.795	124.56
324.024	141.56
324.253	141.56
324.482	189.56
324.71	260.56
324.939	293.56
325.168	248.56
325.397	192.56
325.626	256.56
325.855	513.56
326.084	991.56
326.313	1680.56
326.542	1648.56
326.77	650.56
326.999	281.56
327.228	233.56
327.457	243.56
327.686	240.56
327.914	163.56
328.143	154.56
328.372	130.56
328.6	129.56
328.829	113.56
329.058	135.56
329.287	125.56
329.515	129.56
329.744	126.56
329.972	123.56
330.201	123.56
330.43	119.56
330.658	124.56
330.887	120.56
331.115	114.56
331.344	123.56
331.572	122.56
331.801	126.56
332.03	132.56
332.258	136.56
332.486	188.56
332.715	291.56
332.943	527.56
333.172	816.56
333.4	702.56
333.629	270.56
333.857	168.56
334.085	130.56
334.314	121.56
334.542	124.56
334.771	108.56
334.999	117.56
335.227	128.56
335.455	138.56
335.684	117.56
335.912	138.56
336.14	112.56
336.369	124.56
336.597	112.56
336.825	105.56
337.053	123.56
337.281	112.56
337.51	112.56
337.738	129.56
337.966	119.56
338.194	123.56
338.422	120.56
338.65	111.56
338.878	122.56
339.106	121.56
339.334	117.56
339.562	116.56
339.79	116.56
340.018	132.56
340.246	116.56
340.474	123.56
340.702	119.56
340.93	123.56
341.158	115.56
341.386	132.56
341.614	140.56
341.842	119.56
342.07	109.56
342.298	106.56
342.526	126.56
342.754	133.56
342.981	107.56
343.209	117.56
343.437	139.56
343.665	108.56
343.893	123.56
344.12	118.56
344.348	129.56
344.576	133.56
344.804	118.56
345.031	114.56
345.259	114.56
345.487	104.56
345.714	101.56
345.942	113.56
346.17	117.56
346.397	128.56
346.625	109.56
346.853	97.56
347.08	106.56
347.308	116.56
347.535	100.56
347.763	112.56
347.99	110.56
348.218	123.56
348.445	114.56
348.673	104.56
348.9	120.56
349.128	134.56
349.355	126.56
349.583	131.56
349.81	123.56
350.037	125.56
350.265	112.56
350.492	108.56
350.72	113.56
350.947	125.56
351.174	126.56
351.402	113.56
351.629	120.56
351.856	112.56
352.083	109.56
352.311	103.56
352.538	113.56
352.765	123.56
352.992	105.56
353.22	116.56
353.447	99.56
353.674	107.56
353.901	105.56
354.128	118.56
354.355	108.56
354.583	108.56
354.81	120.56
355.037	114.56
355.264	109.56
355.491	103.56
355.718	108.56
355.945	106.56
356.172	119.56
356.399	109.56
356.626	95.56
356.853	109.56
357.08	124.56
357.307	119.56
357.534	129.56
357.761	120.56
357.988	106.56
358.215	110.56
358.441	105.56
358.668	116.56
358.895	122.56
359.122	113.56
359.349	114.56
359.576	133.56
359.802	128.56
360.029	117.56
360.256	120.56
360.483	121.56
360.709	116.56
360.936	116.56
361.163	117.56
361.39	124.56
361.616	120.56
361.843	122.56
362.07	100.56
362.296	132.56
362.523	109.56
362.749	116.56
362.976	112.56
363.203	132.56
363.429	107.56
363.656	106.56
363.882	108.56
364.109	117.56
364.335	128.56
364.562	108.56
364.788	105.56
365.015	125.56
365.241	135.56
365.468	218.56
365.694	276.56
365.92	210.56
366.147	120.56
366.373	103.56
366.599	99.56
366.826	109.56
367.052	118.56
367.278	104.56
367.505	103.56
367.731	109.56
367.957	97.56
368.184	103.56
368.41	123.56
368.636	143.56
368.862	116.56
369.089	102.56
369.315	113.56
369.541	106.56
369.767	113.56
369.993	108.56
370.219	104.56
370.445	112.56
370.672	106.56
370.898	133.56
371.124	132.56
371.35	100.56
371.576	100.56
371.802	119.56
372.028	118.56
372.254	132.56
372.48	125.56
372.706	121.56
372.932	120.56
373.158	116.56
373.384	124.56
373.61	130.56
373.835	114.56
374.061	109.56
374.287	111.56
374.513	113.56
374.739	129.56
374.965	118.56
375.191	128.56
375.416	123.56
375.642	118.56
375.868	120.56
376.094	116.56
376.319	107.56
376.545	101.56
376.771	109.56
376.997	108.56
377.222	108.56
377.448	105.56
377.674	118.56
377.899	104.56
378.125	120.56
378.35	114.56
378.576	107.56
378.802	108.56
379.027	126.56
379.253	141.56
379.478	176.56
379.704	323.56
379.929	779.56
380.155	1658.56
380.38	1739.56
380.606	576.56
380.831	213.56
381.057	150.56
381.282	125.56
381.507	115.56
381.733	112.56
381.958	128.56
382.184	109.56
382.409	103.56
382.634	108.56
382.86	110.56
383.085	106.56
383.31	91.56
383.535	108.56
383.761	119.56
383.986	98.56
384.211	111.56
384.436	120.56
384.662	90.56
384.887	105.56
385.112	123.56
385.337	118.56
385.562	118.56
385.787	124.56
386.013	104.56
386.238	113.56
386.463	111.56
386.688	114.56
386.913	122.56
387.138	115.56
387.363	115.56
387.588	98.56
387.813	128.56
388.038	106.56
388.263	122.56
388.488	107.56
388.713	118.56
388.938	108.56
389.163	113.56
389.387	107.56
389.612	99.56
389.837	106.56
390.062	95.56
390.287	115.56
390.512	112.56
390.736	97.56
390.961	105.56
391.186	108.56
391.411	106.56
391.636	96.56
391.86	91.56
392.085	107.56
392.31	98.56
392.534	105.56
392.759	103.56
392.984	118.56
393.208	126.56
393.433	147.56
393.658	141.56
393.882	106.56
394.107	113.56
394.331	112.56
394.556	104.56
394.78	115.56
395.005	103.56
395.229	104.56
395.454	102.56
395.678	112.56
395.903	110.56
396.127	104.56
396.352	105.56
396.576	115.56
396.801	122.56
397.025	137.56
397.249	128.56
397.474	105.56
397.698	93.56
397.922	92.56
398.147	96.56
398.371	90.56
398.595	121.56
398.82	103.56
399.044	101.56
399.268	101.56
399.492	93.56
399.717	87.56
399.941	103.56
400.165	103.56
400.389	101.56
400.613	109.56
400.837	107.56
401.062	107.56
401.286	109.56
401.51	106.56
401.734	100.56
401.958	112.56
402.182	100.56
402.406	88.56
402.63	104.56
402.854	114.56
403.078	98.56
403.302	96.56
403.526	117.56
403.75	95.56
403.974	98.56
404.198	101.56
404.422	98.56
404.645	101.56
404.869	99.56
405.093	109.56
405.317	109.56
405.541	123.56
405.765	126.56
405.988	166.56
406.212	117.56
406.436	103.56
406.66	93.56
406.883	113.56
407.107	102.56
407.331	108.56
407.555	94.56
407.778	86.56
408.002	90.56
408.226	111.56
408.449	118.56
408.673	112.56
408.896	90.56
409.12	97.56
409.344	100.56
409.567	97.56
409.791	99.56
410.014	103.56
410.238	109.56
410.461	117.56
410.685	92.56
410.908	91.56
411.132	93.56
411.355	111.56
411.578	96.56
411.802	93.56
412.025	99.56
412.249	106.56
412.472	102.56
412.695	92.56
412.919	98.56
413.142	112.56
413.365	105.56
413.589	111.56
413.812	104.56
414.035	92.56
414.258	98.56
414.482	98.56
414.705	115.56
414.928	124.56
415.151	102.56
415.374	114.56
415.597	111.56
415.821	102.56
416.044	96.56
416.267	89.56
416.49	89.56
416.713	88.56
416.936	124.56
417.159	89.56
417.382	96.56
417.605	94.56
417.828	95.56
418.051	114.56
418.274	99.56
418.497	109.56
418.72	108.56
418.943	107.56
419.166	104.56
419.389	116.56
419.611	120.56
419.834	108.56
420.057	102.56
420.28	104.56
420.503	110.56
420.726	97.56
420.948	96.56
421.171	80.56
421.394	94.56
421.617	104.56
421.839	105.56
422.062	86.56
422.285	92.56
422.507	107.56
422.73	135.56
422.953	153.56
423.175	104.56
423.398	100.56
423.621	104.56
423.843	91.56
424.066	99.56
424.288	101.56
424.511	105.56
424.733	107.56
424.956	105.56
425.178	108.56
425.401	96.56
425.623	100.56
425.846	107.56
426.068	83.56
426.291	91.56
426.513	100.56
426.735	98.56
426.958	92.56
427.18	103.56
427.402	116.56
427.625	120.56
427.847	86.56
428.069	84.56
428.292	97.56
428.514	122.56
428.736	118.56
428.958	115.56
429.181	110.56
429.403	98.56
429.625	95.56
429.847	101.56
430.069	121.56
430.292	116.56
430.514	110.56
430.736	110.56
430.958	96.56
431.18	97.56
431.402	81.56
431.624	95.56
431.846	99.56
432.068	99.56
432.29	99.56
432.512	100.56
432.734	99.56
432.956	98.56
433.178	92.56
433.4	99.56
433.622	97.56
433.844	106.56
434.066	93.56
434.287	103.56
434.509	100.56
434.731	102.56
434.953	100.56
435.175	105.56
435.397	92.56
435.618	106.56
435.84	85.56
436.062	97.56
436.284	97.56
436.505	94.56
436.727	98.56
436.949	95.56
437.17	100.56
437.392	91.56
437.614	108.56
437.835	93.56
438.057	98.56
438.278	103.56
438.5	103.56
438.721	123.56
438.943	101.56
439.165	125.56
439.386	123.56
439.608	108.56
439.829	101.56
440.05	108.56
440.272	141.56
440.493	109.56
440.715	96.56
440.936	87.56
441.158	105.56
441.379	89.56
441.6	97.56
441.822	121.56
442.043	118.56
442.264	127.56
442.486	128.56
442.707	89.56
442.928	105.56
443.149	100.56
443.371	103.56
443.592	99.56
443.813	82.56
444.034	89.56
444.255	97.56
444.476	107.56
444.698	96.56
444.919	112.56
445.14	194.56
445.361	128.56
445.582	106.56
445.803	98.56
446.024	103.56
446.245	109.56
446.466	107.56
446.687	124.56
446.908	95.56
447.129	98.56
447.35	95.56
447.571	100.56
447.792	117.56
448.013	105.56
448.234	89.56
448.455	102.56
448.675	86.56
448.896	90.56
449.117	105.56
449.338	137.56
449.559	140.56
449.779	129.56
450	109.56
450.221	116.56
450.442	118.56
450.662	121.56
450.883	114.56
451.104	125.56
451.324	127.56
451.545	112.56
451.766	130.56
451.986	148.56
452.207	218.56
452.428	609.56
452.648	1458.56
452.869	837.56
453.089	244.56
453.31	126.56
453.53	144.56
453.751	148.56
453.971	169.56
454.192	156.56
454.412	132.56
454.633	94.56
454.853	90.56
455.073	103.56
455.294	96.56
455.514	108.56
455.734	103.56
455.955	105.56
456.175	89.56
456.395	100.56
456.616	98.56
456.836	94.56
457.056	95.56
457.276	101.56
457.497	124.56
457.717	124.56
457.937	117.56
458.157	94.56
458.377	100.56
458.598	103.56
458.818	93.56
459.038	96.56
459.258	99.56
459.478	93.56
459.698	102.56
459.918	84.56
460.138	96.56
460.358	95.56
460.578	94.56
460.798	77.56
461.018	91.56
461.238	100.56
461.458	103.56
461.678	100.56
461.898	92.56
462.118	102.56
462.338	105.56
462.558	95.56
462.777	108.56
462.997	99.56
463.217	101.56
463.437	141.56
463.657	190.56
463.876	203.56
464.096	136.56
464.316	119.56
464.536	101.56
464.755	81.56
464.975	105.56
465.195	93.56
465.414	114.56
465.634	90.56
465.854	96.56
466.073	99.56
466.293	90.56
466.512	94.56
466.732	98.56
466.951	102.56
467.171	149.56
467.391	146.56
467.61	108.56
467.829	98.56
468.049	95.56
468.268	95.56
468.488	110.56
468.707	99.56
468.927	85.56
469.146	84.56
469.365	114.56
469.585	102.56
469.804	91.56
470.023	100.56
470.243	97.56
470.462	112.56
470.681	120.56
470.901	117.56
471.12	187.56
471.339	208.56
471.558	138.56
471.777	102.56
471.997	86.56
472.216	88.56
472.435	102.56
472.654	100.56
472.873	98.56
473.092	97.56
473.311	100.56
473.53	97.56
473.749	109.56
473.968	92.56
474.187	88.56
474.406	96.56
474.625	107.56
474.844	109.56
475.063	89.56
475.282	99.56
475.501	106.56
475.72	91.56
475.939	98.56
476.158	95.56
476.377	110.56
476.596	99.56
476.814	103.56
477.033	104.56
477.252	96.56
477.471	112.56
477.69	109.56
477.908	96.56
478.127	100.56
478.346	105.56
478.564	99.56
478.783	100.56
479.002	97.56
479.22	93.56
479.439	113.56
479.658	94.56
479.876	116.56
480.095	83.56
480.313	105.56
480.532	105.56
480.751	103.56
480.969	107.56
481.188	99.56
481.406	98.56
481.624	115.56
481.843	134.56
482.061	122.56
482.28	99.56
482.498	105.56
482.717	102.56
482.935	100.56
483.153	108.56
483.372	103.56
483.59	110.56
483.808	99.56
484.027	119.56
484.245	124.56
484.463	183.56
484.681	224.56
484.9	149.56
485.118	122.56
485.336	124.56
485.554	100.56
485.772	132.56
485.99	208.56
486.209	259.56
486.427	166.56
486.645	110.56
486.863	118.56
487.081	112.56
487.299	100.56
487.517	96.56
487.735	100.56
487.953	103.56
488.171	110.56
488.389	109.56
488.607	90.56
488.825	98.56
489.043	114.56
489.261	115.56
489.479	90.56
489.696	102.56
489.914	86.56
490.132	99.56
490.35	98.56
490.568	86.56
490.786	110.56
491.003	127.56
491.221	107.56
491.439	114.56
491.657	107.56
491.874	109.56
492.092	107.56
492.31	102.56
492.527	113.56
492.745	91.56
492.963	110.56
493.18	117.56
493.398	111.56
493.615	101.56
493.833	92.56
494.05	114.56
494.268	110.56
494.485	98.56
494.703	112.56
494.92	107.56
495.138	100.56
495.355	80.56
495.573	119.56
495.79	103.56
496.008	116.56
496.225	97.56
496.442	118.56
496.66	106.56
496.877	156.56
497.094	156.56
497.312	118.56
497.529	117.56
497.746	96.56
497.963	114.56
498.181	102.56
498.398	97.56
498.615	88.56
498.832	94.56
499.049	121.56
499.267	140.56
499.484	170.56
499.701	120.56
499.918	122.56
500.135	101.56
500.352	112.56
500.569	99.56
500.786	125.56
501.003	121.56
501.22	108.56
501.437	107.56
501.654	109.56
501.871	95.56
502.088	107.56
502.305	119.56
502.522	124.56
502.739	107.56
502.956	101.56
503.172	118.56
503.389	116.56
503.606	93.56
503.823	110.56
504.04	104.56
504.256	109.56
504.473	109.56
504.69	107.56
504.907	121.56
505.123	120.56
505.34	107.56
505.557	105.56
505.773	102.56
505.99	89.56
506.207	114.56
506.423	130.56
506.64	131.56
