Data from SnStandardFlinnAPT0064_QswitchEnergy10_LIBS07252019.E.O._I.C._HRD10591_15-26-47-973.txt Node
Date: Thu Jul 25 15:26:47 EDT 2019
User: cochatt
Spectrometer: HR+D1059
Trigger mode: 1
Integration Time (sec): 1.000000E-1
Scans to average: 1
Electric dark correction enabled: true
Nonlinearity correction enabled: false
Boxcar width: 0
XAxis mode: Wavelengths
Number of Pixels in Spectrum: 2048
>>>>>Begin Spectral Data<<<<<
223.165	-25.31
223.4	-25.31
223.635	-25.31
223.869	-17.31
224.104	-15.31
224.338	-22.31
224.573	-3.31
224.808	-15.31
225.042	-3.31
225.277	-8.31
225.511	-4.31
225.746	1.69
225.98	8.69
226.215	28.69
226.449	14.69
226.683	9.69
226.918	24.69
227.152	26.69
227.387	36.69
227.621	36.69
227.856	46.69
228.09	48.69
228.324	42.69
228.559	50.69
228.793	65.69
229.027	71.69
229.262	74.69
229.496	70.69
229.73	71.69
229.964	69.69
230.199	84.69
230.433	73.69
230.667	80.69
230.901	94.69
231.136	92.69
231.37	80.69
231.604	81.69
231.838	103.69
232.072	122.69
232.306	114.69
232.541	79.69
232.775	96.69
233.009	84.69
233.243	95.69
233.477	85.69
233.711	96.69
233.945	99.69
234.179	82.69
234.413	88.69
234.647	82.69
234.881	89.69
235.115	79.69
235.349	83.69
235.583	109.69
235.817	115.69
236.051	124.69
236.285	96.69
236.519	88.69
236.753	80.69
236.987	66.69
237.221	79.69
237.455	74.69
237.689	69.69
237.922	99.69
238.156	58.69
238.39	90.69
238.624	87.69
238.858	97.69
239.091	68.69
239.325	66.69
239.559	75.69
239.793	70.69
240.027	93.69
240.26	86.69
240.494	88.69
240.728	72.69
240.961	97.69
241.195	97.69
241.429	97.69
241.662	71.69
241.896	91.69
242.13	102.69
242.363	116.69
242.597	166.69
242.83	134.69
243.064	136.69
243.298	173.69
243.531	153.69
243.765	109.69
243.998	78.69
244.232	79.69
244.465	81.69
244.699	80.69
244.932	92.69
245.166	86.69
245.399	82.69
245.633	75.69
245.866	79.69
246.099	93.69
246.333	82.69
246.566	85.69
246.8	66.69
247.033	84.69
247.266	94.69
247.5	82.69
247.733	82.69
247.966	78.69
248.2	90.69
248.433	106.69
248.666	127.69
248.899	118.69
249.133	82.69
249.366	95.69
249.599	101.69
249.832	122.69
250.066	126.69
250.299	97.69
250.532	84.69
250.765	89.69
250.998	82.69
251.231	80.69
251.465	78.69
251.698	86.69
251.931	70.69
252.164	89.69
252.397	84.69
252.63	82.69
252.863	102.69
253.096	89.69
253.329	79.69
253.562	82.69
253.795	78.69
254.028	85.69
254.261	78.69
254.494	97.69
254.727	113.69
254.96	136.69
255.193	134.69
255.426	104.69
255.659	92.69
255.892	101.69
256.124	91.69
256.357	93.69
256.59	91.69
256.823	99.69
257.056	93.69
257.289	157.69
257.521	186.69
257.754	113.69
257.987	71.69
258.22	79.69
258.452	87.69
258.685	75.69
258.918	77.69
259.151	88.69
259.383	91.69
259.616	140.69
259.849	149.69
260.081	108.69
260.314	90.69
260.547	66.69
260.779	72.69
261.012	92.69
261.244	82.69
261.477	91.69
261.71	65.69
261.942	81.69
262.175	79.69
262.407	73.69
262.64	92.69
262.872	86.69
263.105	86.69
263.337	93.69
263.57	92.69
263.802	77.69
264.035	75.69
264.267	67.69
264.499	91.69
264.732	82.69
264.964	92.69
265.197	68.69
265.429	88.69
265.661	78.69
265.894	102.69
266.126	119.69
266.358	146.69
266.591	151.69
266.823	101.69
267.055	88.69
267.287	93.69
267.52	82.69
267.752	89.69
267.984	97.69
268.216	76.69
268.448	72.69
268.681	93.69
268.913	96.69
269.145	85.69
269.377	98.69
269.609	85.69
269.841	95.69
270.073	98.69
270.306	127.69
270.538	190.69
270.77	313.69
271.002	371.69
271.234	196.69
271.466	108.69
271.698	102.69
271.93	94.69
272.162	103.69
272.394	78.69
272.626	91.69
272.858	85.69
273.09	89.69
273.322	81.69
273.553	78.69
273.785	87.69
274.017	90.69
274.249	87.69
274.481	93.69
274.713	79.69
274.945	82.69
275.176	92.69
275.408	99.69
275.64	84.69
275.872	93.69
276.104	94.69
276.335	89.69
276.567	88.69
276.799	90.69
277.031	93.69
277.262	98.69
277.494	105.69
277.726	118.69
277.957	180.69
278.189	246.69
278.421	225.69
278.652	188.69
278.884	182.69
279.115	134.69
279.347	99.69
279.579	101.69
279.81	93.69
280.042	104.69
280.273	86.69
280.505	92.69
280.736	121.69
280.968	112.69
281.199	180.69
281.431	247.69
281.662	256.69
281.894	166.69
282.125	104.69
282.356	98.69
282.588	117.69
282.819	113.69
283.051	107.69
283.282	135.69
283.513	175.69
283.745	321.69
283.976	532.69
284.207	816.69
284.439	600.69
284.67	274.69
284.901	275.69
285.132	368.69
285.364	371.69
285.595	223.69
285.826	169.69
286.057	258.69
286.288	423.69
286.52	616.69
286.751	486.69
286.982	204.69
287.213	132.69
287.444	106.69
287.675	109.69
287.906	105.69
288.138	99.69
288.369	95.69
288.6	105.69
288.831	86.69
289.062	87.69
289.293	93.69
289.524	88.69
289.755	95.69
289.986	89.69
290.217	89.69
290.448	98.69
290.679	93.69
290.91	114.69
291.141	180.69
291.371	249.69
291.602	297.69
291.833	209.69
292.064	124.69
292.295	96.69
292.526	87.69
292.757	85.69
292.987	71.69
293.218	72.69
293.449	91.69
293.68	88.69
293.91	85.69
294.141	81.69
294.372	94.69
294.603	84.69
294.833	92.69
295.064	74.69
295.295	93.69
295.525	101.69
295.756	90.69
295.987	103.69
296.217	102.69
296.448	90.69
296.679	80.69
296.909	107.69
297.14	97.69
297.37	108.69
297.601	96.69
297.831	107.69
298.062	88.69
298.292	105.69
298.523	109.69
298.753	102.69
298.984	112.69
299.214	94.69
299.445	98.69
299.675	119.69
299.905	115.69
300.136	125.69
300.366	165.69
300.597	288.69
300.827	447.69
301.057	659.69
301.288	606.69
301.518	256.69
301.748	149.69
301.979	128.69
302.209	125.69
302.439	130.69
302.669	164.69
302.9	272.69
303.13	514.69
303.36	875.69
303.59	1210.69
303.82	819.69
304.051	297.69
304.281	148.69
304.511	120.69
304.741	114.69
304.971	112.69
305.201	89.69
305.431	90.69
305.661	103.69
305.891	106.69
306.121	111.69
306.352	111.69
306.582	104.69
306.812	122.69
307.042	117.69
307.272	105.69
307.502	99.69
307.731	95.69
307.961	98.69
308.191	104.69
308.421	96.69
308.651	97.69
308.881	93.69
309.111	97.69
309.341	98.69
309.571	99.69
309.8	116.69
310.03	103.69
310.26	108.69
310.49	102.69
310.72	104.69
310.949	100.69
311.179	105.69
311.409	93.69
311.639	98.69
311.868	119.69
312.098	94.69
312.328	119.69
312.557	122.69
312.787	118.69
313.017	131.69
313.246	121.69
313.476	120.69
313.706	121.69
313.935	134.69
314.165	213.69
314.394	233.69
314.624	181.69
314.853	136.69
315.083	118.69
315.312	120.69
315.542	127.69
315.771	123.69
316.001	121.69
316.23	128.69
316.46	146.69
316.689	165.69
316.919	274.69
317.148	493.69
317.377	903.69
317.607	1517.69
317.836	1439.69
318.065	535.69
318.295	218.69
318.524	177.69
318.753	133.69
318.983	120.69
319.212	115.69
319.441	115.69
319.67	96.69
319.9	124.69
320.129	125.69
320.358	120.69
320.587	123.69
320.816	133.69
321.046	126.69
321.275	116.69
321.504	124.69
321.733	135.69
321.962	159.69
322.191	153.69
322.42	144.69
322.649	135.69
322.878	121.69
323.108	105.69
323.337	118.69
323.566	132.69
323.795	119.69
324.024	119.69
324.253	158.69
324.482	176.69
324.71	240.69
324.939	285.69
325.168	240.69
325.397	190.69
325.626	252.69
325.855	480.69
326.084	944.69
326.313	1584.69
326.542	1554.69
326.77	610.69
326.999	277.69
327.228	206.69
327.457	234.69
327.686	224.69
327.914	155.69
328.143	144.69
328.372	142.69
328.6	113.69
328.829	105.69
329.058	108.69
329.287	116.69
329.515	109.69
329.744	110.69
329.972	102.69
330.201	112.69
330.43	111.69
330.658	108.69
330.887	106.69
331.115	102.69
331.344	122.69
331.572	119.69
331.801	119.69
332.03	115.69
332.258	134.69
332.486	167.69
332.715	284.69
332.943	494.69
333.172	782.69
333.4	660.69
333.629	227.69
333.857	140.69
334.085	127.69
334.314	116.69
334.542	117.69
334.771	121.69
334.999	109.69
335.227	111.69
335.455	120.69
335.684	108.69
335.912	110.69
336.14	101.69
336.369	106.69
336.597	113.69
336.825	112.69
337.053	118.69
337.281	105.69
337.51	109.69
337.738	108.69
337.966	109.69
338.194	110.69
338.422	104.69
338.65	99.69
338.878	101.69
339.106	119.69
339.334	122.69
339.562	117.69
339.79	113.69
340.018	97.69
340.246	107.69
340.474	104.69
340.702	110.69
340.93	118.69
341.158	117.69
341.386	112.69
341.614	115.69
341.842	132.69
342.07	115.69
342.298	106.69
342.526	123.69
342.754	118.69
342.981	108.69
343.209	115.69
343.437	131.69
343.665	105.69
343.893	96.69
344.12	108.69
344.348	98.69
344.576	112.69
344.804	114.69
345.031	111.69
345.259	102.69
345.487	102.69
345.714	128.69
345.942	108.69
346.17	105.69
346.397	117.69
346.625	99.69
346.853	101.69
347.08	105.69
347.308	113.69
347.535	113.69
347.763	95.69
347.99	110.69
348.218	97.69
348.445	112.69
348.673	112.69
348.9	118.69
349.128	122.69
349.355	117.69
349.583	113.69
349.81	112.69
350.037	111.69
350.265	108.69
350.492	117.69
350.72	105.69
350.947	102.69
351.174	99.69
351.402	99.69
351.629	101.69
351.856	116.69
352.083	101.69
352.311	98.69
352.538	101.69
352.765	111.69
352.992	103.69
353.22	97.69
353.447	105.69
353.674	105.69
353.901	110.69
354.128	110.69
354.355	89.69
354.583	107.69
354.81	104.69
355.037	106.69
355.264	106.69
355.491	103.69
355.718	106.69
355.945	100.69
356.172	116.69
356.399	111.69
356.626	90.69
356.853	109.69
357.08	106.69
357.307	110.69
357.534	109.69
357.761	78.69
357.988	80.69
358.215	104.69
358.441	92.69
358.668	104.69
358.895	120.69
359.122	114.69
359.349	119.69
359.576	120.69
359.802	114.69
360.029	110.69
360.256	109.69
360.483	101.69
360.709	94.69
360.936	97.69
361.163	117.69
361.39	109.69
361.616	109.69
361.843	124.69
362.07	110.69
362.296	106.69
362.523	98.69
362.749	104.69
362.976	100.69
363.203	104.69
363.429	94.69
363.656	103.69
363.882	126.69
364.109	115.69
364.335	96.69
364.562	119.69
364.788	109.69
365.015	117.69
365.241	120.69
365.468	190.69
365.694	261.69
365.92	201.69
366.147	110.69
366.373	98.69
366.599	102.69
366.826	88.69
367.052	87.69
367.278	86.69
367.505	95.69
367.731	91.69
367.957	88.69
368.184	92.69
368.41	119.69
368.636	112.69
368.862	106.69
369.089	102.69
369.315	113.69
369.541	108.69
369.767	95.69
369.993	104.69
370.219	98.69
370.445	110.69
370.672	110.69
370.898	90.69
371.124	100.69
371.35	119.69
371.576	120.69
371.802	100.69
372.028	96.69
372.254	96.69
372.48	114.69
372.706	118.69
372.932	110.69
373.158	114.69
373.384	108.69
373.61	116.69
373.835	129.69
374.061	122.69
374.287	112.69
374.513	108.69
374.739	114.69
374.965	100.69
375.191	100.69
375.416	106.69
375.642	115.69
375.868	119.69
376.094	81.69
376.319	101.69
376.545	114.69
376.771	100.69
376.997	106.69
377.222	108.69
377.448	96.69
377.674	88.69
377.899	113.69
378.125	119.69
378.35	106.69
378.576	111.69
378.802	120.69
379.027	112.69
379.253	142.69
379.478	188.69
379.704	320.69
379.929	757.69
380.155	1576.69
380.38	1646.69
380.606	546.69
380.831	192.69
381.057	144.69
381.282	123.69
381.507	123.69
381.733	116.69
381.958	108.69
382.184	104.69
382.409	108.69
382.634	105.69
382.86	99.69
383.085	112.69
383.31	107.69
383.535	96.69
383.761	101.69
383.986	112.69
384.211	97.69
384.436	102.69
384.662	109.69
384.887	100.69
385.112	112.69
385.337	100.69
385.562	116.69
385.787	110.69
386.013	112.69
386.238	106.69
386.463	117.69
386.688	102.69
386.913	117.69
387.138	92.69
387.363	90.69
387.588	109.69
387.813	112.69
388.038	97.69
388.263	96.69
388.488	104.69
388.713	100.69
388.938	105.69
389.163	101.69
389.387	98.69
389.612	101.69
389.837	96.69
390.062	103.69
390.287	108.69
390.512	112.69
390.736	101.69
390.961	96.69
391.186	88.69
391.411	88.69
391.636	102.69
391.86	113.69
392.085	86.69
392.31	104.69
392.534	103.69
392.759	107.69
392.984	105.69
393.208	110.69
393.433	130.69
393.658	140.69
393.882	89.69
394.107	90.69
394.331	100.69
394.556	96.69
394.78	110.69
395.005	89.69
395.229	94.69
395.454	103.69
395.678	92.69
395.903	84.69
396.127	93.69
396.352	108.69
396.576	104.69
396.801	126.69
397.025	121.69
397.249	115.69
397.474	99.69
397.698	87.69
397.922	107.69
398.147	103.69
398.371	97.69
398.595	101.69
398.82	103.69
399.044	91.69
399.268	91.69
399.492	97.69
399.717	100.69
399.941	86.69
400.165	79.69
400.389	90.69
400.613	104.69
400.837	88.69
401.062	89.69
401.286	98.69
401.51	103.69
401.734	90.69
401.958	94.69
402.182	95.69
402.406	90.69
402.63	91.69
402.854	104.69
403.078	94.69
403.302	75.69
403.526	89.69
403.75	90.69
403.974	80.69
404.198	97.69
404.422	99.69
404.645	94.69
404.869	92.69
405.093	101.69
405.317	106.69
405.541	102.69
405.765	124.69
405.988	157.69
406.212	101.69
406.436	100.69
406.66	93.69
406.883	105.69
407.107	98.69
407.331	110.69
407.555	90.69
407.778	92.69
408.002	111.69
408.226	93.69
408.449	96.69
408.673	90.69
408.896	95.69
409.12	101.69
409.344	96.69
409.567	101.69
409.791	100.69
410.014	96.69
410.238	101.69
410.461	122.69
410.685	95.69
410.908	97.69
411.132	98.69
411.355	85.69
411.578	97.69
411.802	101.69
412.025	88.69
412.249	105.69
412.472	94.69
412.695	91.69
412.919	98.69
413.142	103.69
413.365	105.69
413.589	93.69
413.812	95.69
414.035	113.69
414.258	90.69
414.482	104.69
414.705	92.69
414.928	88.69
415.151	98.69
415.374	104.69
415.597	84.69
415.821	106.69
416.044	88.69
416.267	93.69
416.49	90.69
416.713	105.69
416.936	89.69
417.159	97.69
417.382	99.69
417.605	96.69
417.828	100.69
418.051	94.69
418.274	99.69
418.497	108.69
418.72	106.69
418.943	103.69
419.166	93.69
419.389	121.69
419.611	114.69
419.834	98.69
420.057	112.69
420.28	101.69
420.503	105.69
420.726	110.69
420.948	81.69
421.171	108.69
421.394	95.69
421.617	90.69
421.839	91.69
422.062	93.69
422.285	99.69
422.507	99.69
422.73	120.69
422.953	134.69
423.175	113.69
423.398	97.69
423.621	99.69
423.843	90.69
424.066	87.69
424.288	97.69
424.511	95.69
424.733	101.69
424.956	96.69
425.178	87.69
425.401	91.69
425.623	104.69
425.846	75.69
426.068	97.69
426.291	84.69
426.513	80.69
426.735	98.69
426.958	93.69
427.18	96.69
427.402	106.69
427.625	86.69
427.847	94.69
428.069	95.69
428.292	94.69
428.514	100.69
428.736	109.69
428.958	98.69
429.181	87.69
429.403	90.69
429.625	88.69
429.847	103.69
430.069	111.69
430.292	104.69
430.514	110.69
430.736	104.69
430.958	104.69
431.18	90.69
431.402	102.69
431.624	108.69
431.846	99.69
432.068	99.69
432.29	83.69
432.512	99.69
432.734	81.69
432.956	99.69
433.178	87.69
433.4	100.69
433.622	98.69
433.844	97.69
434.066	114.69
434.287	98.69
434.509	97.69
434.731	93.69
434.953	83.69
435.175	101.69
435.397	86.69
435.618	91.69
435.84	85.69
436.062	82.69
436.284	98.69
436.505	97.69
436.727	95.69
436.949	88.69
437.17	89.69
437.392	82.69
437.614	87.69
437.835	79.69
438.057	90.69
438.278	105.69
438.5	84.69
438.721	95.69
438.943	113.69
439.165	104.69
439.386	108.69
439.608	96.69
439.829	99.69
440.05	116.69
440.272	130.69
440.493	100.69
440.715	88.69
440.936	107.69
441.158	98.69
441.379	99.69
441.6	86.69
441.822	110.69
442.043	117.69
442.264	120.69
442.486	105.69
442.707	96.69
442.928	96.69
443.149	94.69
443.371	89.69
443.592	89.69
443.813	98.69
444.034	100.69
444.255	100.69
444.476	101.69
444.698	101.69
444.919	90.69
445.14	204.69
445.361	150.69
445.582	96.69
445.803	92.69
446.024	93.69
446.245	100.69
446.466	103.69
446.687	108.69
446.908	112.69
447.129	90.69
447.35	99.69
447.571	104.69
447.792	94.69
448.013	102.69
448.234	105.69
448.455	101.69
448.675	102.69
448.896	99.69
449.117	99.69
449.338	122.69
449.559	146.69
449.779	116.69
450	114.69
450.221	112.69
450.442	131.69
450.662	122.69
450.883	117.69
451.104	116.69
451.324	122.69
451.545	108.69
451.766	112.69
451.986	146.69
452.207	215.69
452.428	558.69
452.648	1380.69
452.869	774.69
453.089	205.69
453.31	122.69
453.53	108.69
453.751	154.69
453.971	153.69
454.192	154.69
454.412	116.69
454.633	108.69
454.853	97.69
455.073	78.69
455.294	109.69
455.514	89.69
455.734	92.69
455.955	96.69
456.175	87.69
456.395	100.69
456.616	98.69
456.836	93.69
457.056	93.69
457.276	93.69
457.497	132.69
457.717	120.69
457.937	96.69
458.157	80.69
458.377	89.69
458.598	97.69
458.818	90.69
459.038	92.69
459.258	78.69
459.478	80.69
459.698	92.69
459.918	82.69
460.138	93.69
460.358	90.69
460.578	88.69
460.798	102.69
461.018	86.69
461.238	94.69
461.458	100.69
461.678	89.69
461.898	84.69
462.118	81.69
462.338	99.69
462.558	99.69
462.777	100.69
462.997	95.69
463.217	113.69
463.437	128.69
463.657	171.69
463.876	187.69
464.096	138.69
464.316	109.69
464.536	98.69
464.755	98.69
464.975	85.69
465.195	90.69
465.414	80.69
465.634	81.69
465.854	85.69
466.073	88.69
466.293	94.69
466.512	89.69
466.732	92.69
466.951	118.69
467.171	134.69
467.391	141.69
467.61	110.69
467.829	92.69
468.049	103.69
468.268	100.69
468.488	96.69
468.707	96.69
468.927	101.69
469.146	104.69
469.365	96.69
469.585	92.69
469.804	103.69
470.023	97.69
470.243	104.69
470.462	100.69
470.681	105.69
470.901	128.69
471.12	186.69
471.339	204.69
471.558	125.69
471.777	113.69
471.997	105.69
472.216	90.69
472.435	107.69
472.654	94.69
472.873	97.69
473.092	94.69
473.311	82.69
473.53	78.69
473.749	101.69
473.968	104.69
474.187	94.69
474.406	88.69
474.625	91.69
474.844	85.69
475.063	85.69
475.282	84.69
475.501	97.69
475.72	97.69
475.939	98.69
476.158	103.69
476.377	116.69
476.596	94.69
476.814	92.69
477.033	97.69
477.252	107.69
477.471	94.69
477.69	106.69
477.908	99.69
478.127	104.69
478.346	108.69
478.564	103.69
478.783	92.69
479.002	106.69
479.22	92.69
479.439	96.69
479.658	94.69
479.876	100.69
480.095	88.69
480.313	104.69
480.532	87.69
480.751	82.69
480.969	95.69
481.188	98.69
481.406	108.69
481.624	94.69
481.843	90.69
482.061	114.69
482.28	95.69
482.498	100.69
482.717	81.69
482.935	103.69
483.153	96.69
483.372	115.69
483.59	102.69
483.808	98.69
484.027	100.69
484.245	127.69
484.463	159.69
484.681	238.69
484.9	166.69
485.118	119.69
485.336	112.69
485.554	111.69
485.772	129.69
485.99	191.69
486.209	238.69
486.427	137.69
486.645	100.69
486.863	115.69
487.081	88.69
487.299	87.69
487.517	100.69
487.735	106.69
487.953	101.69
488.171	99.69
488.389	114.69
488.607	88.69
488.825	92.69
489.043	88.69
489.261	102.69
489.479	120.69
489.696	93.69
489.914	88.69
490.132	86.69
490.35	106.69
490.568	88.69
490.786	89.69
491.003	116.69
491.221	88.69
491.439	116.69
491.657	108.69
491.874	105.69
492.092	104.69
492.31	117.69
492.527	114.69
492.745	83.69
492.963	108.69
493.18	101.69
493.398	130.69
493.615	117.69
493.833	110.69
494.05	96.69
494.268	106.69
494.485	95.69
494.703	99.69
494.92	104.69
495.138	94.69
495.355	101.69
495.573	106.69
495.79	91.69
496.008	105.69
496.225	104.69
496.442	106.69
496.66	124.69
496.877	159.69
497.094	154.69
497.312	97.69
497.529	105.69
497.746	96.69
497.963	100.69
498.181	105.69
498.398	100.69
498.615	112.69
498.832	103.69
499.049	105.69
499.267	122.69
499.484	167.69
499.701	131.69
499.918	105.69
500.135	89.69
500.352	120.69
500.569	101.69
500.786	114.69
501.003	95.69
501.22	106.69
501.437	102.69
501.654	103.69
501.871	101.69
502.088	104.69
502.305	105.69
502.522	104.69
502.739	82.69
502.956	106.69
503.172	82.69
503.389	101.69
503.606	89.69
503.823	105.69
504.04	106.69
504.256	83.69
504.473	102.69
504.69	97.69
504.907	116.69
505.123	124.69
505.34	92.69
505.557	100.69
505.773	93.69
505.99	94.69
506.207	90.69
506.423	102.69
506.64	97.69
506.856	93.69
507.073	96.69
507.289	83.69
507.506	101.69
507.722	103.69
507.939	89.69
508.155	87.69
508.372	97.69
508.588	95.69
508.805	100.69
509.021	108.69
