Data from SnStandardFlinnAPT0064_LampEnergy10_LIBS07252019.E.O._I.C._HRD10591_15-19-46-493.txt Node
Date: Thu Jul 25 15:19:46 EDT 2019
User: cochatt
Spectrometer: HR+D1059
Trigger mode: 1
Integration Time (sec): 1.000000E-1
Scans to average: 1
Electric dark correction enabled: true
Nonlinearity correction enabled: false
Boxcar width: 0
XAxis mode: Wavelengths
Number of Pixels in Spectrum: 2048
>>>>>Begin Spectral Data<<<<<
223.165	-25.5
223.4	-25.5
223.635	-25.5
223.869	-26.5
224.104	-20.5
224.338	-25.5
224.573	-9.5
224.808	-11.5
225.042	-4.5
225.277	-9.5
225.511	-1.5
225.746	2.5
225.98	3.5
226.215	15.5
226.449	18.5
226.683	22.5
226.918	24.5
227.152	47.5
227.387	44.5
227.621	23.5
227.856	48.5
228.09	50.5
228.324	50.5
228.559	68.5
228.793	128.5
229.027	313.5
229.262	330.5
229.496	304.5
229.73	277.5
229.964	293.5
230.199	308.5
230.433	303.5
230.667	306.5
230.901	335.5
231.136	338.5
231.37	355.5
231.604	379.5
231.838	454.5
232.072	525.5
232.306	547.5
232.541	485.5
232.775	431.5
233.009	404.5
233.243	421.5
233.477	468.5
233.711	544.5
233.945	600.5
234.179	526.5
234.413	448.5
234.647	470.5
234.881	485.5
235.115	529.5
235.349	636.5
235.583	814.5
235.817	1044.5
236.051	985.5
236.285	669.5
236.519	522.5
236.753	508.5
236.987	521.5
237.221	549.5
237.455	493.5
237.689	463.5
237.922	465.5
238.156	477.5
238.39	477.5
238.624	488.5
238.858	479.5
239.091	495.5
239.325	490.5
239.559	512.5
239.793	514.5
240.027	545.5
240.26	566.5
240.494	577.5
240.728	573.5
240.961	629.5
241.195	665.5
241.429	701.5
241.662	738.5
241.896	818.5
242.13	960.5
242.363	1268.5
242.597	1621.5
242.83	1592.5
243.064	1572.5
243.298	1868.5
243.531	1525.5
243.765	964.5
243.998	778.5
244.232	690.5
244.465	664.5
244.699	664.5
244.932	666.5
245.166	672.5
245.399	696.5
245.633	656.5
245.866	718.5
246.099	688.5
246.333	656.5
246.566	636.5
246.8	651.5
247.033	627.5
247.266	640.5
247.5	664.5
247.733	660.5
247.966	660.5
248.2	777.5
248.433	880.5
248.666	1021.5
248.899	964.5
249.133	836.5
249.366	872.5
249.599	978.5
249.832	1107.5
250.066	1100.5
250.299	874.5
250.532	782.5
250.765	787.5
250.998	730.5
251.231	738.5
251.465	717.5
251.698	744.5
251.931	728.5
252.164	724.5
252.397	777.5
252.63	774.5
252.863	788.5
253.096	786.5
253.329	760.5
253.562	754.5
253.795	773.5
254.028	776.5
254.261	815.5
254.494	900.5
254.727	1031.5
254.96	1247.5
255.193	1252.5
255.426	931.5
255.659	865.5
255.892	849.5
256.124	865.5
256.357	895.5
256.59	905.5
256.823	997.5
257.056	1142.5
257.289	1395.5
257.521	1525.5
257.754	1239.5
257.987	966.5
258.22	905.5
258.452	917.5
258.685	919.5
258.918	936.5
259.151	986.5
259.383	1090.5
259.616	1229.5
259.849	1322.5
260.081	1112.5
260.314	996.5
260.547	948.5
260.779	936.5
261.012	951.5
261.244	964.5
261.477	958.5
261.71	989.5
261.942	969.5
262.175	977.5
262.407	1030.5
262.64	1022.5
262.872	1046.5
263.105	1108.5
263.337	1162.5
263.57	1248.5
263.802	1240.5
264.035	1278.5
264.267	1338.5
264.499	1332.5
264.732	1372.5
264.964	1401.5
265.197	1388.5
265.429	1368.5
265.661	1396.5
265.894	1519.5
266.126	1696.5
266.358	1918.5
266.591	1897.5
266.823	1547.5
267.055	1385.5
267.287	1336.5
267.52	1289.5
267.752	1295.5
267.984	1247.5
268.216	1237.5
268.448	1224.5
268.681	1212.5
268.913	1215.5
269.145	1212.5
269.377	1204.5
269.609	1216.5
269.841	1286.5
270.073	1377.5
270.306	1596.5
270.538	2190.5
270.77	3257.5
271.002	3973.5
271.234	2855.5
271.466	1921.5
271.698	1557.5
271.93	1414.5
272.162	1321.5
272.394	1284.5
272.626	1264.5
272.858	1224.5
273.09	1219.5
273.322	1218.5
273.553	1198.5
273.785	1192.5
274.017	1179.5
274.249	1175.5
274.481	1180.5
274.713	1199.5
274.945	1200.5
275.176	1241.5
275.408	1181.5
275.64	1224.5
275.872	1207.5
276.104	1233.5
276.335	1252.5
276.567	1270.5
276.799	1256.5
277.031	1304.5
277.262	1314.5
277.494	1414.5
277.726	1565.5
277.957	1862.5
278.189	2157.5
278.421	2043.5
278.652	1798.5
278.884	1698.5
279.115	1489.5
279.347	1400.5
279.579	1392.5
279.81	1422.5
280.042	1358.5
280.273	1440.5
280.505	1427.5
280.736	1479.5
280.968	1625.5
281.199	1743.5
281.431	2066.5
281.662	2159.5
281.894	1789.5
282.125	1631.5
282.356	1651.5
282.588	1668.5
282.819	1725.5
283.051	1853.5
283.282	2036.5
283.513	2513.5
283.745	3672.5
283.976	5731.5
284.207	8150.5
284.439	7535.5
284.67	4784.5
284.901	3920.5
285.132	3920.5
285.364	3714.5
285.595	2770.5
285.826	2498.5
286.057	2921.5
286.288	3948.5
286.52	5257.5
286.751	4989.5
286.982	3174.5
287.213	2341.5
287.444	2048.5
287.675	1853.5
287.906	1759.5
288.138	1774.5
288.369	1690.5
288.6	1698.5
288.831	1648.5
289.062	1642.5
289.293	1654.5
289.524	1654.5
289.755	1669.5
289.986	1694.5
290.217	1665.5
290.448	1668.5
290.679	1719.5
290.91	1781.5
291.141	1880.5
291.371	2021.5
291.602	2083.5
291.833	1921.5
292.064	1743.5
292.295	1669.5
292.526	1663.5
292.757	1631.5
292.987	1610.5
293.218	1568.5
293.449	1604.5
293.68	1591.5
293.91	1576.5
294.141	1559.5
294.372	1538.5
294.603	1550.5
294.833	1559.5
295.064	1554.5
295.295	1563.5
295.525	1546.5
295.756	1506.5
295.987	1522.5
296.217	1536.5
296.448	1547.5
296.679	1582.5
296.909	1580.5
297.14	1572.5
297.37	1561.5
297.601	1621.5
297.831	1615.5
298.062	1614.5
298.292	1638.5
298.523	1681.5
298.753	1672.5
298.984	1685.5
299.214	1747.5
299.445	1741.5
299.675	1746.5
299.905	1841.5
300.136	1876.5
300.366	2156.5
300.597	2806.5
300.827	3958.5
301.057	5399.5
301.288	5351.5
301.518	3537.5
301.748	2669.5
301.979	2392.5
302.209	2310.5
302.439	2314.5
302.669	2460.5
302.9	2965.5
303.13	4256.5
303.36	6286.5
303.59	8468.5
303.82	7433.5
304.051	4381.5
304.281	3122.5
304.511	2632.5
304.741	2342.5
304.971	2226.5
305.201	2132.5
305.431	1990.5
305.661	1965.5
305.891	1875.5
306.121	1880.5
306.352	1865.5
306.582	1855.5
306.812	1811.5
307.042	1808.5
307.272	1821.5
307.502	1790.5
307.731	1790.5
307.961	1783.5
308.191	1796.5
308.421	1776.5
308.651	1780.5
308.881	1773.5
309.111	1796.5
309.341	1778.5
309.571	1777.5
309.8	1830.5
310.03	1860.5
310.26	1810.5
310.49	1828.5
310.72	1865.5
310.949	1833.5
311.179	1849.5
311.409	1878.5
311.639	1858.5
311.868	1870.5
312.098	1857.5
312.328	1918.5
312.557	1935.5
312.787	1959.5
313.017	1951.5
313.246	1961.5
313.476	2044.5
313.706	2056.5
313.935	2164.5
314.165	2360.5
314.394	2466.5
314.624	2313.5
314.853	2133.5
315.083	2151.5
315.312	2080.5
315.542	2163.5
315.771	2176.5
316.001	2248.5
316.23	2340.5
316.46	2440.5
316.689	2681.5
316.919	3296.5
317.148	4701.5
317.377	7170.5
317.607	10604.5
317.836	11118.5
318.065	6935.5
318.295	4417.5
318.524	3544.5
318.753	3046.5
318.983	2814.5
319.212	2580.5
319.441	2502.5
319.67	2452.5
319.9	2393.5
320.129	2345.5
320.358	2369.5
320.587	2322.5
320.816	2317.5
321.046	2333.5
321.275	2323.5
321.504	2359.5
321.733	2368.5
321.962	2535.5
322.191	2506.5
322.42	2501.5
322.649	2460.5
322.878	2466.5
323.108	2428.5
323.337	2513.5
323.566	2523.5
323.795	2593.5
324.024	2677.5
324.253	2678.5
324.482	2863.5
324.71	2974.5
324.939	3234.5
325.168	3292.5
325.397	3479.5
325.626	4105.5
325.855	5691.5
326.084	8903.5
326.313	12837.5
326.542	13586.5
326.77	9373.5
326.999	6150.5
327.228	5097.5
327.457	4840.5
327.686	4840.5
327.914	5185.5
328.143	6010.5
328.372	7125.5
328.6	7810.5
328.829	6985.5
329.058	5839.5
329.287	5045.5
329.515	4624.5
329.744	4288.5
329.972	4001.5
330.201	3805.5
330.43	3729.5
330.658	3520.5
330.887	3529.5
331.115	3452.5
331.344	3420.5
331.572	3402.5
331.801	3469.5
332.03	3384.5
332.258	3518.5
332.486	3726.5
332.715	4259.5
332.943	5304.5
333.172	6651.5
333.4	6647.5
333.629	5049.5
333.857	4483.5
334.085	4484.5
334.314	4624.5
334.542	5076.5
334.771	5936.5
334.999	7344.5
335.227	9191.5
335.455	10278.5
335.684	9399.5
335.912	7596.5
336.14	6472.5
336.369	5656.5
336.597	5148.5
336.825	4805.5
337.053	4457.5
337.281	4140.5
337.51	4019.5
337.738	3763.5
337.966	3664.5
338.194	3549.5
338.422	3431.5
338.65	3361.5
338.878	3202.5
339.106	3201.5
339.334	3176.5
339.562	3080.5
339.79	3041.5
340.018	2971.5
340.246	2922.5
340.474	2959.5
340.702	2929.5
340.93	2979.5
341.158	2941.5
341.386	2928.5
341.614	2895.5
341.842	2836.5
342.07	2756.5
342.298	2803.5
342.526	2740.5
342.754	2721.5
342.981	2627.5
343.209	2663.5
343.437	2733.5
343.665	2688.5
343.893	2734.5
344.12	2750.5
344.348	2719.5
344.576	2654.5
344.804	2639.5
345.031	2589.5
345.259	2529.5
345.487	2529.5
345.714	2519.5
345.942	2453.5
346.17	2525.5
346.397	2498.5
346.625	2472.5
346.853	2432.5
347.08	2476.5
347.308	2428.5
347.535	2467.5
347.763	2475.5
347.99	2420.5
348.218	2423.5
348.445	2453.5
348.673	2351.5
348.9	2438.5
349.128	2385.5
349.355	2386.5
349.583	2384.5
349.81	2356.5
350.037	2344.5
350.265	2317.5
350.492	2377.5
350.72	2348.5
350.947	2363.5
351.174	2350.5
351.402	2374.5
351.629	2337.5
351.856	2299.5
352.083	2309.5
352.311	2305.5
352.538	2340.5
352.765	2361.5
352.992	2338.5
353.22	2315.5
353.447	2350.5
353.674	2309.5
353.901	2361.5
354.128	2336.5
354.355	2318.5
354.583	2336.5
354.81	2363.5
355.037	2382.5
355.264	2382.5
355.491	2394.5
355.718	2424.5
355.945	2394.5
356.172	2384.5
356.399	2424.5
356.626	2424.5
356.853	2433.5
357.08	2431.5
357.307	2497.5
357.534	2536.5
357.761	2545.5
357.988	2553.5
358.215	2493.5
358.441	2511.5
358.668	2470.5
358.895	2501.5
359.122	2474.5
359.349	2465.5
359.576	2467.5
359.802	2466.5
360.029	2484.5
360.256	2448.5
360.483	2521.5
360.709	2485.5
360.936	2455.5
361.163	2484.5
361.39	2489.5
361.616	2494.5
361.843	2536.5
362.07	2512.5
362.296	2521.5
362.523	2509.5
362.749	2520.5
362.976	2508.5
363.203	2524.5
363.429	2509.5
363.656	2485.5
363.882	2481.5
364.109	2504.5
364.335	2477.5
364.562	2440.5
364.788	2473.5
365.015	2550.5
365.241	2579.5
365.468	2788.5
365.694	2886.5
365.92	2798.5
366.147	2584.5
366.373	2538.5
366.599	2521.5
366.826	2525.5
367.052	2480.5
367.278	2612.5
367.505	2562.5
367.731	2509.5
367.957	2572.5
368.184	2586.5
368.41	2583.5
368.636	2688.5
368.862	2591.5
369.089	2533.5
369.315	2552.5
369.541	2546.5
369.767	2553.5
369.993	2546.5
370.219	2527.5
370.445	2594.5
370.672	2631.5
370.898	2593.5
371.124	2558.5
371.35	2616.5
371.576	2620.5
371.802	2660.5
372.028	2657.5
372.254	2670.5
372.48	2647.5
372.706	2708.5
372.932	2692.5
373.158	2708.5
373.384	2707.5
373.61	2700.5
373.835	2708.5
374.061	2701.5
374.287	2735.5
374.513	2750.5
374.739	2786.5
374.965	2779.5
375.191	2789.5
375.416	2815.5
375.642	2762.5
375.868	2812.5
376.094	2754.5
376.319	2736.5
376.545	2701.5
376.771	2628.5
376.997	2661.5
377.222	2691.5
377.448	2628.5
377.674	2634.5
377.899	2629.5
378.125	2607.5
378.35	2659.5
378.576	2669.5
378.802	2685.5
379.027	2707.5
379.253	2832.5
379.478	2997.5
379.704	3561.5
379.929	5201.5
380.155	8080.5
380.38	8855.5
380.606	5482.5
380.831	3700.5
381.057	3202.5
381.282	2984.5
381.507	2854.5
381.733	2804.5
381.958	2693.5
382.184	2695.5
382.409	2612.5
382.634	2604.5
382.86	2582.5
383.085	2622.5
383.31	2609.5
383.535	2630.5
383.761	2625.5
383.986	2653.5
384.211	2694.5
384.436	2710.5
384.662	2668.5
384.887	2733.5
385.112	2641.5
385.337	2696.5
385.562	2724.5
385.787	2699.5
386.013	2684.5
386.238	2712.5
386.463	2724.5
386.688	2729.5
386.913	2651.5
387.138	2708.5
387.363	2734.5
387.588	2656.5
387.813	2662.5
388.038	2641.5
388.263	2709.5
388.488	2728.5
388.713	2668.5
388.938	2686.5
389.163	2692.5
389.387	2743.5
389.612	2710.5
389.837	2711.5
390.062	2684.5
390.287	2721.5
390.512	2753.5
390.736	2792.5
390.961	2798.5
391.186	2759.5
391.411	2835.5
391.636	2781.5
391.86	2816.5
392.085	2853.5
392.31	2836.5
392.534	2764.5
392.759	2809.5
392.984	2766.5
393.208	2745.5
393.433	2783.5
393.658	2804.5
393.882	2692.5
394.107	2753.5
394.331	2720.5
394.556	2774.5
394.78	2737.5
395.005	2743.5
395.229	2747.5
395.454	2838.5
395.678	2825.5
395.903	2802.5
396.127	2817.5
396.352	2817.5
396.576	2788.5
396.801	2773.5
397.025	2861.5
397.249	2823.5
397.474	2824.5
397.698	2844.5
397.922	2872.5
398.147	2884.5
398.371	2911.5
398.595	2943.5
398.82	3024.5
399.044	3132.5
399.268	3232.5
399.492	3402.5
399.717	3580.5
399.941	3531.5
400.165	3412.5
400.389	3324.5
400.613	3162.5
400.837	3058.5
401.062	3030.5
401.286	2997.5
401.51	2958.5
401.734	2972.5
401.958	2962.5
402.182	2970.5
402.406	3012.5
402.63	3010.5
402.854	3010.5
403.078	2988.5
403.302	3031.5
403.526	3039.5
403.75	3100.5
403.974	3072.5
404.198	3038.5
404.422	3118.5
404.645	3088.5
404.869	3036.5
405.093	3142.5
405.317	3120.5
405.541	3165.5
405.765	3106.5
405.988	3202.5
406.212	3229.5
406.436	3138.5
406.66	3215.5
406.883	3180.5
407.107	3289.5
407.331	3391.5
407.555	3395.5
407.778	3364.5
408.002	3284.5
408.226	3266.5
408.449	3293.5
408.673	3209.5
408.896	3144.5
409.12	3147.5
409.344	3143.5
409.567	3125.5
409.791	3121.5
410.014	3078.5
410.238	3060.5
410.461	3038.5
410.685	3022.5
410.908	2997.5
411.132	3029.5
411.355	2936.5
411.578	2965.5
411.802	2952.5
412.025	2904.5
412.249	3012.5
412.472	2953.5
412.695	2896.5
412.919	2890.5
413.142	2994.5
413.365	2912.5
413.589	2986.5
413.812	2961.5
414.035	2881.5
414.258	2938.5
414.482	2893.5
414.705	2917.5
414.928	2906.5
415.151	2885.5
415.374	2880.5
415.597	2867.5
415.821	2790.5
416.044	2816.5
416.267	2774.5
416.49	2756.5
416.713	2794.5
416.936	2846.5
417.159	2762.5
417.382	2740.5
417.605	2750.5
417.828	2771.5
418.051	2774.5
418.274	2857.5
418.497	2843.5
418.72	2863.5
418.943	2780.5
419.166	2953.5
419.389	3128.5
419.611	3050.5
419.834	2960.5
420.057	2902.5
420.28	2870.5
420.503	2802.5
420.726	2774.5
420.948	2775.5
421.171	2776.5
421.394	2772.5
421.617	2800.5
421.839	2809.5
422.062	2843.5
422.285	2750.5
422.507	2889.5
422.73	2917.5
422.953	2904.5
423.175	2922.5
423.398	2885.5
423.621	2840.5
423.843	2853.5
424.066	2863.5
424.288	2765.5
424.511	2777.5
424.733	2822.5
424.956	2773.5
425.178	2789.5
425.401	2745.5
425.623	2772.5
425.846	2769.5
426.068	2723.5
426.291	2702.5
426.513	2688.5
426.735	2678.5
426.958	2723.5
427.18	2681.5
427.402	2672.5
427.625	2696.5
427.847	2595.5
428.069	2588.5
428.292	2713.5
428.514	2584.5
428.736	2587.5
428.958	2606.5
429.181	2519.5
429.403	2579.5
429.625	2529.5
429.847	2580.5
430.069	2656.5
430.292	2753.5
430.514	2824.5
430.736	2793.5
430.958	2613.5
431.18	2617.5
431.402	2571.5
431.624	2523.5
431.846	2564.5
432.068	2537.5
432.29	2580.5
432.512	2537.5
432.734	2591.5
432.956	2583.5
433.178	2635.5
433.4	2600.5
433.622	2599.5
433.844	2558.5
434.066	2590.5
434.287	2617.5
434.509	2560.5
434.731	2695.5
434.953	2695.5
435.175	2739.5
435.397	2702.5
435.618	2594.5
435.84	2632.5
436.062	2520.5
436.284	2589.5
436.505	2502.5
436.727	2586.5
436.949	2543.5
437.17	2590.5
437.392	2524.5
437.614	2503.5
437.835	2478.5
438.057	2463.5
438.278	2469.5
438.5	2531.5
438.721	2571.5
438.943	2606.5
439.165	2680.5
439.386	2660.5
439.608	2698.5
439.829	2704.5
440.05	2757.5
440.272	2876.5
440.493	2662.5
440.715	2672.5
440.936	2683.5
441.158	2716.5
441.379	2692.5
441.6	2777.5
441.822	2848.5
442.043	3011.5
442.264	3096.5
442.486	2945.5
442.707	2883.5
442.928	2740.5
443.149	2784.5
443.371	2736.5
443.592	2705.5
443.813	2778.5
444.034	2801.5
444.255	2778.5
444.476	2840.5
444.698	2880.5
444.919	2979.5
445.14	2977.5
445.361	2900.5
445.582	2843.5
445.803	2732.5
446.024	2655.5
446.245	2711.5
446.466	2758.5
446.687	2674.5
446.908	2692.5
447.129	2658.5
447.35	2581.5
447.571	2568.5
447.792	2521.5
448.013	2553.5
448.234	2502.5
448.455	2533.5
448.675	2584.5
448.896	2624.5
449.117	2689.5
449.338	2922.5
449.559	3033.5
449.779	2758.5
450	2586.5
450.221	2435.5
450.442	2474.5
450.662	2526.5
450.883	2485.5
451.104	2493.5
451.324	2462.5
451.545	2516.5
451.766	2488.5
451.986	2592.5
452.207	2816.5
452.428	3661.5
452.648	5642.5
452.869	4688.5
453.089	3237.5
453.31	2980.5
453.53	2930.5
453.751	3004.5
453.971	3156.5
454.192	3027.5
454.412	2662.5
454.633	2527.5
454.853	2470.5
455.073	2401.5
455.294	2358.5
455.514	2403.5
455.734	2346.5
455.955	2332.5
456.175	2331.5
456.395	2373.5
456.616	2372.5
456.836	2434.5
457.056	2418.5
457.276	2429.5
457.497	2578.5
457.717	2598.5
457.937	2478.5
458.157	2486.5
458.377	2514.5
458.598	2520.5
458.818	2537.5
459.038	2540.5
459.258	2524.5
459.478	2565.5
459.698	2595.5
459.918	2670.5
460.138	2736.5
460.358	2726.5
460.578	2746.5
460.798	2797.5
461.018	2753.5
461.238	2774.5
461.458	2816.5
461.678	2804.5
461.898	2908.5
462.118	2944.5
462.338	2988.5
462.558	2951.5
462.777	3050.5
462.997	3120.5
463.217	3303.5
463.437	3385.5
463.657	3424.5
463.876	3462.5
464.096	3269.5
464.316	3128.5
464.536	3124.5
464.755	3052.5
464.975	2968.5
465.195	2888.5
465.414	2779.5
465.634	2710.5
465.854	2714.5
466.073	2643.5
466.293	2637.5
466.512	2617.5
466.732	2646.5
466.951	2783.5
467.171	2967.5
467.391	2904.5
467.61	2630.5
467.829	2602.5
468.049	2545.5
468.268	2503.5
468.488	2456.5
468.707	2518.5
468.927	2541.5
469.146	2486.5
469.365	2569.5
469.585	2541.5
469.804	2643.5
470.023	2727.5
470.243	2752.5
470.462	2848.5
470.681	3007.5
470.901	3296.5
471.12	3753.5
471.339	3743.5
471.558	3101.5
471.777	2801.5
471.997	2751.5
472.216	2657.5
472.435	2600.5
472.654	2583.5
472.873	2563.5
473.092	2523.5
473.311	2538.5
473.53	2569.5
473.749	2633.5
473.968	2788.5
474.187	2599.5
474.406	2544.5
474.625	2554.5
474.844	2537.5
475.063	2533.5
475.282	2577.5
475.501	2588.5
475.72	2588.5
475.939	2624.5
476.158	2684.5
476.377	2735.5
476.596	2698.5
476.814	2679.5
477.033	2678.5
477.252	2697.5
477.471	2769.5
477.69	2824.5
477.908	2881.5
478.127	2906.5
478.346	2876.5
478.564	2931.5
478.783	2966.5
479.002	2987.5
479.22	3004.5
479.439	3066.5
479.658	3040.5
479.876	3089.5
480.095	3171.5
480.313	3202.5
480.532	3198.5
480.751	3152.5
480.969	3146.5
481.188	3084.5
481.406	3054.5
481.624	3084.5
481.843	3141.5
482.061	3180.5
482.28	3111.5
482.498	3122.5
482.717	3147.5
482.935	3134.5
483.153	3136.5
483.372	3159.5
483.59	3248.5
483.808	3330.5
484.027	3418.5
484.245	3569.5
484.463	4022.5
484.681	4459.5
484.9	4050.5
485.118	3784.5
485.336	3704.5
485.554	3785.5
485.772	4020.5
485.99	4501.5
486.209	4773.5
486.427	4105.5
486.645	3692.5
486.863	3504.5
487.081	3420.5
487.299	3334.5
487.517	3304.5
487.735	3282.5
487.953	3309.5
488.171	3260.5
488.389	3252.5
488.607	3264.5
488.825	3154.5
489.043	3190.5
489.261	3171.5
489.479	3207.5
489.696	3233.5
489.914	3173.5
490.132	3269.5
490.35	3207.5
490.568	3234.5
490.786	3217.5
491.003	3259.5
491.221	3352.5
491.439	3299.5
491.657	3269.5
491.874	3278.5
492.092	3367.5
492.31	3344.5
492.527	3376.5
492.745	3328.5
492.963	3356.5
493.18	3332.5
493.398	3365.5
493.615	3310.5
493.833	3313.5
494.05	3330.5
494.268	3356.5
494.485	3344.5
494.703	3279.5
494.92	3364.5
495.138	3336.5
495.355	3367.5
495.573	3374.5
495.79	3380.5
496.008	3462.5
496.225	3467.5
496.442	3476.5
496.66	3597.5
496.877	3804.5
497.094	3828.5
497.312	3637.5
497.529	3596.5
497.746	3635.5
497.963	3749.5
498.181	3860.5
498.398	3875.5
498.615	3976.5
498.832	4087.5
499.049	4334.5
499.267	4642.5
499.484	4919.5
499.701	4938.5
499.918	5048.5
500.135	5306.5
500.352	5537.5
500.569	5652.5
500.786	5572.5
501.003	5407.5
501.22	5143.5
501.437	4941.5
501.654	4697.5
501.871	4451.5
502.088	4313.5
502.305	4131.5
502.522	3990.5
502.739	3878.5
502.956	3732.5
503.172	3688.5
503.389	3613.5
503.606	3569.5
503.823	3500.5
