Data from SnStandardFlinnAPT0064_LampEnergy10_LIBS07252019.E.O._I.C._HRD10591_15-20-49-494.txt Node
Date: Thu Jul 25 15:20:49 EDT 2019
User: cochatt
Spectrometer: HR+D1059
Trigger mode: 1
Integration Time (sec): 1.000000E-1
Scans to average: 1
Electric dark correction enabled: true
Nonlinearity correction enabled: false
Boxcar width: 0
XAxis mode: Wavelengths
Number of Pixels in Spectrum: 2048
>>>>>Begin Spectral Data<<<<<
223.165	-15.5
223.4	-15.5
223.635	-15.5
223.869	-13.5
224.104	-12.5
224.338	-11.5
224.573	-14.5
224.808	-4.5
225.042	-10.5
225.277	-13.5
225.511	-0.5
225.746	-0.5
225.98	6.5
226.215	9.5
226.449	11.5
226.683	21.5
226.918	26.5
227.152	21.5
227.387	31.5
227.621	8.5
227.856	46.5
228.09	48.5
228.324	53.5
228.559	45.5
228.793	107.5
229.027	307.5
229.262	341.5
229.496	293.5
229.73	302.5
229.964	302.5
230.199	272.5
230.433	306.5
230.667	309.5
230.901	316.5
231.136	313.5
231.37	355.5
231.604	385.5
231.838	434.5
232.072	508.5
232.306	542.5
232.541	473.5
232.775	411.5
233.009	427.5
233.243	435.5
233.477	465.5
233.711	514.5
233.945	562.5
234.179	501.5
234.413	447.5
234.647	455.5
234.881	467.5
235.115	515.5
235.349	621.5
235.583	780.5
235.817	1006.5
236.051	970.5
236.285	645.5
236.519	532.5
236.753	497.5
236.987	506.5
237.221	534.5
237.455	517.5
237.689	468.5
237.922	446.5
238.156	471.5
238.39	482.5
238.624	490.5
238.858	492.5
239.091	493.5
239.325	476.5
239.559	495.5
239.793	482.5
240.027	547.5
240.26	548.5
240.494	583.5
240.728	558.5
240.961	597.5
241.195	646.5
241.429	656.5
241.662	705.5
241.896	785.5
242.13	948.5
242.363	1284.5
242.597	1638.5
242.83	1564.5
243.064	1561.5
243.298	1813.5
243.531	1506.5
243.765	956.5
243.998	771.5
244.232	722.5
244.465	668.5
244.699	650.5
244.932	643.5
245.166	678.5
245.399	692.5
245.633	684.5
245.866	676.5
246.099	678.5
246.333	654.5
246.566	671.5
246.8	638.5
247.033	652.5
247.266	638.5
247.5	655.5
247.733	674.5
247.966	709.5
248.2	776.5
248.433	876.5
248.666	971.5
248.899	974.5
249.133	851.5
249.366	886.5
249.599	965.5
249.832	1065.5
250.066	1060.5
250.299	866.5
250.532	789.5
250.765	738.5
250.998	759.5
251.231	721.5
251.465	737.5
251.698	732.5
251.931	752.5
252.164	751.5
252.397	768.5
252.63	774.5
252.863	796.5
253.096	795.5
253.329	782.5
253.562	764.5
253.795	783.5
254.028	818.5
254.261	837.5
254.494	865.5
254.727	1006.5
254.96	1245.5
255.193	1223.5
255.426	975.5
255.659	876.5
255.892	845.5
256.124	833.5
256.357	885.5
256.59	907.5
256.823	965.5
257.056	1140.5
257.289	1331.5
257.521	1516.5
257.754	1182.5
257.987	993.5
258.22	928.5
258.452	911.5
258.685	916.5
258.918	941.5
259.151	975.5
259.383	1080.5
259.616	1235.5
259.849	1294.5
260.081	1103.5
260.314	1006.5
260.547	954.5
260.779	944.5
261.012	958.5
261.244	992.5
261.477	957.5
261.71	989.5
261.942	1013.5
262.175	998.5
262.407	1054.5
262.64	1053.5
262.872	1110.5
263.105	1136.5
263.337	1194.5
263.57	1284.5
263.802	1296.5
264.035	1311.5
264.267	1352.5
264.499	1380.5
264.732	1435.5
264.964	1447.5
265.197	1439.5
265.429	1442.5
265.661	1492.5
265.894	1597.5
266.126	1752.5
266.358	1966.5
266.591	1922.5
266.823	1586.5
267.055	1454.5
267.287	1397.5
267.52	1312.5
267.752	1292.5
267.984	1270.5
268.216	1258.5
268.448	1222.5
268.681	1218.5
268.913	1222.5
269.145	1218.5
269.377	1223.5
269.609	1254.5
269.841	1279.5
270.073	1382.5
270.306	1631.5
270.538	2147.5
270.77	3225.5
271.002	3930.5
271.234	2796.5
271.466	1904.5
271.698	1565.5
271.93	1426.5
272.162	1332.5
272.394	1296.5
272.626	1261.5
272.858	1248.5
273.09	1234.5
273.322	1226.5
273.553	1210.5
273.785	1234.5
274.017	1182.5
274.249	1228.5
274.481	1206.5
274.713	1211.5
274.945	1199.5
275.176	1206.5
275.408	1214.5
275.64	1208.5
275.872	1246.5
276.104	1285.5
276.335	1281.5
276.567	1297.5
276.799	1291.5
277.031	1309.5
277.262	1341.5
277.494	1390.5
277.726	1569.5
277.957	1886.5
278.189	2120.5
278.421	1988.5
278.652	1751.5
278.884	1633.5
279.115	1475.5
279.347	1454.5
279.579	1426.5
279.81	1406.5
280.042	1396.5
280.273	1429.5
280.505	1465.5
280.736	1494.5
280.968	1630.5
281.199	1782.5
281.431	2068.5
281.662	2095.5
281.894	1832.5
282.125	1639.5
282.356	1631.5
282.588	1685.5
282.819	1723.5
283.051	1839.5
283.282	2030.5
283.513	2510.5
283.745	3589.5
283.976	5707.5
284.207	7997.5
284.439	7370.5
284.67	4510.5
284.901	3699.5
285.132	3775.5
285.364	3617.5
285.595	2714.5
285.826	2462.5
286.057	2855.5
286.288	3911.5
286.52	5262.5
286.751	4914.5
286.982	3074.5
287.213	2270.5
287.444	1997.5
287.675	1871.5
287.906	1831.5
288.138	1743.5
288.369	1698.5
288.6	1710.5
288.831	1706.5
289.062	1680.5
289.293	1691.5
289.524	1701.5
289.755	1717.5
289.986	1724.5
290.217	1722.5
290.448	1741.5
290.679	1750.5
290.91	1791.5
291.141	1898.5
291.371	2044.5
291.602	2164.5
291.833	1930.5
292.064	1736.5
292.295	1664.5
292.526	1655.5
292.757	1611.5
292.987	1616.5
293.218	1612.5
293.449	1604.5
293.68	1578.5
293.91	1553.5
294.141	1566.5
294.372	1534.5
294.603	1563.5
294.833	1568.5
295.064	1587.5
295.295	1567.5
295.525	1607.5
295.756	1571.5
295.987	1514.5
296.217	1584.5
296.448	1608.5
296.679	1587.5
296.909	1578.5
297.14	1610.5
297.37	1630.5
297.601	1664.5
297.831	1667.5
298.062	1605.5
298.292	1670.5
298.523	1676.5
298.753	1714.5
298.984	1714.5
299.214	1711.5
299.445	1730.5
299.675	1768.5
299.905	1864.5
300.136	1933.5
300.366	2172.5
300.597	2759.5
300.827	3912.5
301.057	5249.5
301.288	5270.5
301.518	3365.5
301.748	2574.5
301.979	2402.5
302.209	2305.5
302.439	2324.5
302.669	2469.5
302.9	2998.5
303.13	4195.5
303.36	6244.5
303.59	8219.5
303.82	7126.5
304.051	4212.5
304.281	3088.5
304.511	2538.5
304.741	2326.5
304.971	2211.5
305.201	2109.5
305.431	2005.5
305.661	1960.5
305.891	1883.5
306.121	1904.5
306.352	1864.5
306.582	1883.5
306.812	1879.5
307.042	1807.5
307.272	1889.5
307.502	1841.5
307.731	1861.5
307.961	1842.5
308.191	1803.5
308.421	1802.5
308.651	1812.5
308.881	1821.5
309.111	1855.5
309.341	1803.5
309.571	1830.5
309.8	1842.5
310.03	1858.5
310.26	1869.5
310.49	1869.5
310.72	1860.5
310.949	1895.5
311.179	1906.5
311.409	1934.5
311.639	1930.5
311.868	1958.5
312.098	1942.5
312.328	1958.5
312.557	1972.5
312.787	1989.5
313.017	1943.5
313.246	2018.5
313.476	2005.5
313.706	2063.5
313.935	2194.5
314.165	2341.5
314.394	2468.5
314.624	2414.5
314.853	2199.5
315.083	2155.5
315.312	2147.5
315.542	2218.5
315.771	2213.5
316.001	2245.5
316.23	2323.5
316.46	2461.5
316.689	2709.5
316.919	3268.5
317.148	4572.5
317.377	7128.5
317.607	10504.5
317.836	10818.5
318.065	6604.5
318.295	4324.5
318.524	3477.5
318.753	3005.5
318.983	2752.5
319.212	2591.5
319.441	2487.5
319.67	2458.5
319.9	2432.5
320.129	2414.5
320.358	2352.5
320.587	2360.5
320.816	2342.5
321.046	2352.5
321.275	2395.5
321.504	2389.5
321.733	2464.5
321.962	2495.5
322.191	2518.5
322.42	2535.5
322.649	2476.5
322.878	2494.5
323.108	2478.5
323.337	2563.5
323.566	2589.5
323.795	2654.5
324.024	2676.5
324.253	2774.5
324.482	2855.5
324.71	3004.5
324.939	3205.5
325.168	3298.5
325.397	3422.5
325.626	4017.5
325.855	5654.5
326.084	8773.5
326.313	12724.5
326.542	13449.5
326.77	9107.5
326.999	6025.5
327.228	4978.5
327.457	4766.5
327.686	4866.5
327.914	5122.5
328.143	6095.5
328.372	7296.5
328.6	7934.5
328.829	7098.5
329.058	5899.5
329.287	5150.5
329.515	4677.5
329.744	4342.5
329.972	4064.5
330.201	3877.5
330.43	3740.5
330.658	3634.5
330.887	3600.5
331.115	3503.5
331.344	3483.5
331.572	3488.5
331.801	3547.5
332.03	3523.5
332.258	3553.5
332.486	3764.5
332.715	4346.5
332.943	5320.5
333.172	6607.5
333.4	6568.5
333.629	5023.5
333.857	4558.5
334.085	4553.5
334.314	4785.5
334.542	5205.5
334.771	6149.5
334.999	7509.5
335.227	9464.5
335.455	10738.5
335.684	9591.5
335.912	7827.5
336.14	6570.5
336.369	5798.5
336.597	5286.5
336.825	4867.5
337.053	4574.5
337.281	4326.5
337.51	4007.5
337.738	3840.5
337.966	3704.5
338.194	3608.5
338.422	3459.5
338.65	3365.5
338.878	3308.5
339.106	3243.5
339.334	3296.5
339.562	3191.5
339.79	3130.5
340.018	3088.5
340.246	3014.5
340.474	3065.5
340.702	3091.5
340.93	3062.5
341.158	3003.5
341.386	3087.5
341.614	2992.5
341.842	2953.5
342.07	2890.5
342.298	2779.5
342.526	2792.5
342.754	2741.5
342.981	2722.5
343.209	2686.5
343.437	2789.5
343.665	2798.5
343.893	2796.5
344.12	2852.5
344.348	2795.5
344.576	2726.5
344.804	2727.5
345.031	2656.5
345.259	2658.5
345.487	2587.5
345.714	2578.5
345.942	2589.5
346.17	2558.5
346.397	2575.5
346.625	2507.5
346.853	2490.5
347.08	2515.5
347.308	2541.5
347.535	2540.5
347.763	2435.5
347.99	2525.5
348.218	2504.5
348.445	2443.5
348.673	2442.5
348.9	2440.5
349.128	2505.5
349.355	2443.5
349.583	2491.5
349.81	2440.5
350.037	2378.5
350.265	2415.5
350.492	2405.5
350.72	2405.5
350.947	2417.5
351.174	2418.5
351.402	2434.5
351.629	2427.5
351.856	2380.5
352.083	2388.5
352.311	2399.5
352.538	2395.5
352.765	2376.5
352.992	2343.5
353.22	2370.5
353.447	2319.5
353.674	2387.5
353.901	2423.5
354.128	2404.5
354.355	2371.5
354.583	2393.5
354.81	2413.5
355.037	2466.5
355.264	2422.5
355.491	2437.5
355.718	2437.5
355.945	2435.5
356.172	2477.5
356.399	2469.5
356.626	2483.5
356.853	2500.5
357.08	2544.5
357.307	2557.5
357.534	2568.5
357.761	2614.5
357.988	2570.5
358.215	2570.5
358.441	2581.5
358.668	2511.5
358.895	2596.5
359.122	2526.5
359.349	2554.5
359.576	2576.5
359.802	2558.5
360.029	2559.5
360.256	2545.5
360.483	2583.5
360.709	2563.5
360.936	2580.5
361.163	2580.5
361.39	2564.5
361.616	2583.5
361.843	2617.5
362.07	2568.5
362.296	2621.5
362.523	2587.5
362.749	2566.5
362.976	2575.5
363.203	2542.5
363.429	2557.5
363.656	2562.5
363.882	2589.5
364.109	2542.5
364.335	2563.5
364.562	2501.5
364.788	2552.5
365.015	2592.5
365.241	2642.5
365.468	2784.5
365.694	2966.5
365.92	2867.5
366.147	2668.5
366.373	2628.5
366.599	2606.5
366.826	2595.5
367.052	2608.5
367.278	2645.5
367.505	2636.5
367.731	2668.5
367.957	2644.5
368.184	2655.5
368.41	2672.5
368.636	2714.5
368.862	2651.5
369.089	2652.5
369.315	2686.5
369.541	2650.5
369.767	2636.5
369.993	2644.5
370.219	2636.5
370.445	2692.5
370.672	2702.5
370.898	2644.5
371.124	2718.5
371.35	2704.5
371.576	2770.5
371.802	2760.5
372.028	2734.5
372.254	2764.5
372.48	2727.5
372.706	2784.5
372.932	2795.5
373.158	2768.5
373.384	2814.5
373.61	2779.5
373.835	2842.5
374.061	2760.5
374.287	2838.5
374.513	2884.5
374.739	2900.5
374.965	2907.5
375.191	2845.5
375.416	2947.5
375.642	2875.5
375.868	2910.5
376.094	2831.5
376.319	2804.5
376.545	2820.5
376.771	2750.5
376.997	2723.5
377.222	2778.5
377.448	2738.5
377.674	2755.5
377.899	2793.5
378.125	2764.5
378.35	2706.5
378.576	2735.5
378.802	2728.5
379.027	2810.5
379.253	2916.5
379.478	3099.5
379.704	3604.5
379.929	5160.5
380.155	7935.5
380.38	8542.5
380.606	5257.5
380.831	3699.5
381.057	3277.5
381.282	2977.5
381.507	2852.5
381.733	2847.5
381.958	2751.5
382.184	2738.5
382.409	2730.5
382.634	2706.5
382.86	2694.5
383.085	2691.5
383.31	2714.5
383.535	2736.5
383.761	2690.5
383.986	2714.5
384.211	2737.5
384.436	2762.5
384.662	2735.5
384.887	2799.5
385.112	2742.5
385.337	2810.5
385.562	2772.5
385.787	2778.5
386.013	2782.5
386.238	2791.5
386.463	2728.5
386.688	2799.5
386.913	2750.5
387.138	2764.5
387.363	2791.5
387.588	2767.5
387.813	2753.5
388.038	2730.5
388.263	2810.5
388.488	2790.5
388.713	2771.5
388.938	2806.5
389.163	2756.5
389.387	2766.5
389.612	2770.5
389.837	2721.5
390.062	2801.5
390.287	2829.5
390.512	2829.5
390.736	2901.5
390.961	2928.5
391.186	2876.5
391.411	2930.5
391.636	2944.5
391.86	2940.5
392.085	2904.5
392.31	2924.5
392.534	2845.5
392.759	2851.5
392.984	2844.5
393.208	2847.5
393.433	2870.5
393.658	2808.5
393.882	2798.5
394.107	2815.5
394.331	2823.5
394.556	2814.5
394.78	2884.5
395.005	2858.5
395.229	2827.5
395.454	2911.5
395.678	2941.5
395.903	2896.5
396.127	2828.5
396.352	2851.5
396.576	2866.5
396.801	2846.5
397.025	2855.5
397.249	2884.5
397.474	2922.5
397.698	2894.5
397.922	2989.5
398.147	2956.5
398.371	3015.5
398.595	3011.5
398.82	3148.5
399.044	3164.5
399.268	3314.5
399.492	3570.5
399.717	3686.5
399.941	3682.5
400.165	3464.5
400.389	3362.5
400.613	3243.5
400.837	3191.5
401.062	3160.5
401.286	3088.5
401.51	3039.5
401.734	3009.5
401.958	3034.5
402.182	3078.5
402.406	3035.5
402.63	3060.5
402.854	3140.5
403.078	3094.5
403.302	3131.5
403.526	3124.5
403.75	3165.5
403.974	3174.5
404.198	3125.5
404.422	3187.5
404.645	3190.5
404.869	3125.5
405.093	3189.5
405.317	3147.5
405.541	3254.5
405.765	3267.5
405.988	3300.5
406.212	3295.5
406.436	3266.5
406.66	3297.5
406.883	3295.5
407.107	3374.5
407.331	3468.5
407.555	3543.5
407.778	3445.5
408.002	3420.5
408.226	3401.5
408.449	3392.5
408.673	3291.5
408.896	3254.5
409.12	3200.5
409.344	3276.5
409.567	3247.5
409.791	3249.5
410.014	3183.5
410.238	3139.5
410.461	3214.5
410.685	3132.5
410.908	3122.5
411.132	3075.5
411.355	3046.5
411.578	3092.5
411.802	3099.5
412.025	3051.5
412.249	3072.5
412.472	3038.5
412.695	3023.5
412.919	3038.5
413.142	3006.5
413.365	3012.5
413.589	3040.5
413.812	2992.5
414.035	2982.5
414.258	2995.5
414.482	3028.5
414.705	3007.5
414.928	3040.5
415.151	3067.5
415.374	2983.5
415.597	2923.5
415.821	2910.5
416.044	2816.5
416.267	2880.5
416.49	2899.5
416.713	2890.5
416.936	2910.5
417.159	2828.5
417.382	2808.5
417.605	2848.5
417.828	2872.5
418.051	2935.5
418.274	2900.5
418.497	2874.5
418.72	3019.5
418.943	2942.5
419.166	3039.5
419.389	3188.5
419.611	3194.5
419.834	3090.5
420.057	2973.5
420.28	2927.5
420.503	2899.5
420.726	2881.5
420.948	2861.5
421.171	2882.5
421.394	2902.5
421.617	2863.5
421.839	2926.5
422.062	2983.5
422.285	2907.5
422.507	2855.5
422.73	2952.5
422.953	2984.5
423.175	2998.5
423.398	2912.5
423.621	2885.5
423.843	2923.5
424.066	2951.5
424.288	2875.5
424.511	2871.5
424.733	2866.5
424.956	2840.5
425.178	2854.5
425.401	2878.5
425.623	2882.5
425.846	2779.5
426.068	2816.5
426.291	2781.5
426.513	2760.5
426.735	2739.5
426.958	2734.5
427.18	2705.5
427.402	2734.5
427.625	2698.5
427.847	2704.5
428.069	2661.5
428.292	2740.5
428.514	2675.5
428.736	2679.5
428.958	2723.5
429.181	2679.5
429.403	2594.5
429.625	2638.5
429.847	2667.5
430.069	2770.5
430.292	2835.5
430.514	2873.5
430.736	2869.5
430.958	2749.5
431.18	2639.5
431.402	2649.5
431.624	2576.5
431.846	2591.5
432.068	2626.5
432.29	2643.5
432.512	2562.5
432.734	2622.5
432.956	2589.5
433.178	2638.5
433.4	2673.5
433.622	2654.5
433.844	2724.5
434.066	2659.5
434.287	2634.5
434.509	2702.5
434.731	2753.5
434.953	2749.5
435.175	2801.5
435.397	2786.5
435.618	2680.5
435.84	2701.5
436.062	2640.5
436.284	2618.5
436.505	2596.5
436.727	2643.5
436.949	2639.5
437.17	2609.5
437.392	2602.5
437.614	2560.5
437.835	2538.5
438.057	2556.5
438.278	2586.5
438.5	2577.5
438.721	2627.5
438.943	2708.5
439.165	2741.5
439.386	2744.5
439.608	2704.5
439.829	2740.5
440.05	2804.5
440.272	2892.5
440.493	2772.5
440.715	2721.5
440.936	2701.5
441.158	2781.5
441.379	2795.5
441.6	2882.5
441.822	2929.5
442.043	3122.5
442.264	3182.5
442.486	2990.5
442.707	2880.5
442.928	2835.5
443.149	2824.5
443.371	2838.5
443.592	2835.5
443.813	2849.5
444.034	2851.5
444.255	2884.5
444.476	2936.5
444.698	3035.5
444.919	3033.5
445.14	3092.5
445.361	2946.5
445.582	2892.5
445.803	2846.5
446.024	2799.5
446.245	2811.5
446.466	2812.5
446.687	2733.5
446.908	2796.5
447.129	2718.5
447.35	2634.5
447.571	2648.5
447.792	2599.5
448.013	2631.5
448.234	2580.5
448.455	2593.5
448.675	2687.5
448.896	2720.5
449.117	2786.5
449.338	3016.5
449.559	3184.5
449.779	2827.5
450	2630.5
450.221	2590.5
450.442	2577.5
450.662	2540.5
450.883	2518.5
451.104	2570.5
451.324	2556.5
451.545	2531.5
451.766	2595.5
451.986	2614.5
452.207	2785.5
452.428	3611.5
452.648	5429.5
452.869	4640.5
453.089	3202.5
453.31	2988.5
453.53	2971.5
453.751	3016.5
453.971	3219.5
454.192	3148.5
454.412	2734.5
454.633	2589.5
454.853	2527.5
455.073	2488.5
455.294	2476.5
455.514	2433.5
455.734	2471.5
455.955	2410.5
456.175	2403.5
456.395	2414.5
456.616	2410.5
456.836	2546.5
457.056	2498.5
457.276	2474.5
457.497	2599.5
457.717	2672.5
457.937	2553.5
458.157	2544.5
458.377	2590.5
458.598	2561.5
458.818	2603.5
459.038	2637.5
459.258	2606.5
459.478	2703.5
459.698	2710.5
459.918	2693.5
460.138	2740.5
460.358	2837.5
460.578	2814.5
460.798	2863.5
461.018	2890.5
461.238	2881.5
461.458	2901.5
461.678	2890.5
461.898	2944.5
462.118	2998.5
462.338	3076.5
462.558	3047.5
462.777	3144.5
462.997	3269.5
463.217	3374.5
463.437	3462.5
463.657	3564.5
463.876	3549.5
464.096	3370.5
464.316	3204.5
464.536	3140.5
464.755	3077.5
464.975	2956.5
465.195	2916.5
465.414	2864.5
465.634	2751.5
465.854	2742.5
466.073	2752.5
466.293	2679.5
466.512	2675.5
466.732	2695.5
466.951	2832.5
467.171	2970.5
467.391	2916.5
467.61	2714.5
467.829	2623.5
468.049	2648.5
468.268	2567.5
468.488	2589.5
468.707	2574.5
468.927	2599.5
469.146	2513.5
469.365	2632.5
469.585	2650.5
469.804	2754.5
470.023	2723.5
470.243	2769.5
470.462	2837.5
470.681	3024.5
470.901	3320.5
471.12	3767.5
471.339	3838.5
471.558	3241.5
471.777	2889.5
471.997	2786.5
472.216	2667.5
472.435	2680.5
472.654	2639.5
472.873	2610.5
473.092	2638.5
473.311	2657.5
473.53	2658.5
473.749	2691.5
473.968	2797.5
474.187	2616.5
474.406	2593.5
474.625	2648.5
474.844	2586.5
475.063	2657.5
475.282	2671.5
475.501	2654.5
475.72	2658.5
475.939	2701.5
476.158	2751.5
476.377	2800.5
476.596	2738.5
476.814	2740.5
477.033	2746.5
477.252	2802.5
477.471	2788.5
477.69	2853.5
477.908	2940.5
478.127	2966.5
478.346	2933.5
478.564	3026.5
478.783	3013.5
479.002	3076.5
479.22	3099.5
479.439	3095.5
479.658	3104.5
479.876	3120.5
480.095	3175.5
480.313	3269.5
480.532	3225.5
480.751	3247.5
480.969	3200.5
481.188	3181.5
481.406	3118.5
481.624	3130.5
481.843	3218.5
482.061	3215.5
482.28	3173.5
482.498	3183.5
482.717	3215.5
482.935	3236.5
483.153	3244.5
483.372	3257.5
483.59	3274.5
483.808	3309.5
484.027	3409.5
484.245	3592.5
484.463	4102.5
484.681	4537.5
484.9	4160.5
485.118	3862.5
485.336	3751.5
485.554	3812.5
485.772	4053.5
485.99	4631.5
486.209	4907.5
486.427	4114.5
486.645	3706.5
486.863	3566.5
487.081	3488.5
487.299	3444.5
487.517	3382.5
487.735	3423.5
487.953	3430.5
488.171	3378.5
488.389	3314.5
488.607	3290.5
488.825	3301.5
489.043	3234.5
489.261	3222.5
489.479	3268.5
489.696	3277.5
489.914	3320.5
490.132	3243.5
490.35	3356.5
490.568	3353.5
490.786	3347.5
491.003	3389.5
491.221	3397.5
491.439	3403.5
491.657	3426.5
491.874	3478.5
492.092	3380.5
492.31	3462.5
492.527	3452.5
492.745	3450.5
492.963	3469.5
493.18	3397.5
493.398	3380.5
493.615	3411.5
493.833	3468.5
494.05	3427.5
494.268	3473.5
494.485	3510.5
494.703	3509.5
494.92	3483.5
495.138	3394.5
495.355	3460.5
495.573	3480.5
495.79	3482.5
496.008	3473.5
496.225	3483.5
496.442	3595.5
496.66	3703.5
496.877	3855.5
497.094	3852.5
497.312	3709.5
497.529	3756.5
497.746	3792.5
497.963	3844.5
498.181	3944.5
498.398	3990.5
498.615	4104.5
498.832	4286.5
499.049	4419.5
499.267	4844.5
499.484	5047.5
499.701	5070.5
499.918	5160.5
500.135	5514.5
500.352	5687.5
500.569	5827.5
500.786	5738.5
501.003	5578.5
501.22	5346.5
501.437	5078.5
501.654	4768.5
501.871	4550.5
502.088	4402.5
502.305	4299.5
502.522	4129.5
502.739	4033.5
502.956	3866.5
503.172	3840.5
503.389	3717.5
503.606	3635.5
503.823	3603.5
