Data from SnStandardFlinnAPT0064_QswitchEnergy10_LIBS07252019.E.O._I.C._HRD10591_15-27-42-973.txt Node
Date: Thu Jul 25 15:27:42 EDT 2019
User: cochatt
Spectrometer: HR+D1059
Trigger mode: 1
Integration Time (sec): 1.000000E-1
Scans to average: 1
Electric dark correction enabled: true
Nonlinearity correction enabled: false
Boxcar width: 0
XAxis mode: Wavelengths
Number of Pixels in Spectrum: 2048
>>>>>Begin Spectral Data<<<<<
223.165	-20.12
223.4	-20.12
223.635	-20.12
223.869	-27.12
224.104	-23.12
224.338	-8.12
224.573	-15.12
224.808	-8.12
225.042	-1.12
225.277	-21.12
225.511	12.88
225.746	-2.12
225.98	8.88
226.215	17.88
226.449	10.88
226.683	25.88
226.918	21.88
227.152	27.88
227.387	27.88
227.621	42.88
227.856	52.88
228.09	42.88
228.324	40.88
228.559	51.88
228.793	63.88
229.027	75.88
229.262	81.88
229.496	65.88
229.73	77.88
229.964	76.88
230.199	63.88
230.433	60.88
230.667	64.88
230.901	76.88
231.136	76.88
231.37	88.88
231.604	82.88
231.838	102.88
232.072	103.88
232.306	113.88
232.541	99.88
232.775	91.88
233.009	81.88
233.243	79.88
233.477	85.88
233.711	86.88
233.945	102.88
234.179	64.88
234.413	88.88
234.647	83.88
234.881	83.88
235.115	67.88
235.349	92.88
235.583	96.88
235.817	129.88
236.051	124.88
236.285	85.88
236.519	88.88
236.753	83.88
236.987	107.88
237.221	67.88
237.455	81.88
237.689	91.88
237.922	80.88
238.156	63.88
238.39	76.88
238.624	71.88
238.858	80.88
239.091	84.88
239.325	79.88
239.559	67.88
239.793	78.88
240.027	92.88
240.26	96.88
240.494	74.88
240.728	82.88
240.961	87.88
241.195	96.88
241.429	96.88
241.662	89.88
241.896	87.88
242.13	98.88
242.363	119.88
242.597	150.88
242.83	129.88
243.064	135.88
243.298	151.88
243.531	141.88
243.765	99.88
243.998	93.88
244.232	79.88
244.465	66.88
244.699	70.88
244.932	69.88
245.166	83.88
245.399	77.88
245.633	89.88
245.866	72.88
246.099	82.88
246.333	77.88
246.566	64.88
246.8	85.88
247.033	85.88
247.266	67.88
247.5	82.88
247.733	73.88
247.966	93.88
248.2	89.88
248.433	105.88
248.666	134.88
248.899	118.88
249.133	96.88
249.366	97.88
249.599	103.88
249.832	124.88
250.066	119.88
250.299	97.88
250.532	67.88
250.765	80.88
250.998	77.88
251.231	89.88
251.465	88.88
251.698	84.88
251.931	96.88
252.164	90.88
252.397	90.88
252.63	88.88
252.863	111.88
253.096	80.88
253.329	86.88
253.562	90.88
253.795	94.88
254.028	100.88
254.261	73.88
254.494	89.88
254.727	127.88
254.96	139.88
255.193	132.88
255.426	113.88
255.659	85.88
255.892	87.88
256.124	95.88
256.357	92.88
256.59	96.88
256.823	88.88
257.056	112.88
257.289	140.88
257.521	149.88
257.754	123.88
257.987	88.88
258.22	104.88
258.452	74.88
258.685	82.88
258.918	92.88
259.151	89.88
259.383	101.88
259.616	121.88
259.849	137.88
260.081	116.88
260.314	104.88
260.547	92.88
260.779	83.88
261.012	75.88
261.244	91.88
261.477	78.88
261.71	86.88
261.942	87.88
262.175	81.88
262.407	91.88
262.64	72.88
262.872	89.88
263.105	84.88
263.337	95.88
263.57	92.88
263.802	89.88
264.035	100.88
264.267	83.88
264.499	91.88
264.732	98.88
264.964	95.88
265.197	66.88
265.429	81.88
265.661	87.88
265.894	98.88
266.126	122.88
266.358	147.88
266.591	139.88
266.823	104.88
267.055	97.88
267.287	53.88
267.52	70.88
267.752	81.88
267.984	102.88
268.216	86.88
268.448	91.88
268.681	93.88
268.913	91.88
269.145	85.88
269.377	104.88
269.609	87.88
269.841	101.88
270.073	90.88
270.306	117.88
270.538	171.88
270.77	299.88
271.002	351.88
271.234	185.88
271.466	113.88
271.698	101.88
271.93	91.88
272.162	94.88
272.394	95.88
272.626	95.88
272.858	79.88
273.09	78.88
273.322	76.88
273.553	88.88
273.785	79.88
274.017	77.88
274.249	80.88
274.481	79.88
274.713	75.88
274.945	83.88
275.176	73.88
275.408	96.88
275.64	80.88
275.872	106.88
276.104	96.88
276.335	105.88
276.567	100.88
276.799	82.88
277.031	87.88
277.262	97.88
277.494	103.88
277.726	122.88
277.957	177.88
278.189	234.88
278.421	213.88
278.652	181.88
278.884	172.88
279.115	135.88
279.347	112.88
279.579	103.88
279.81	99.88
280.042	100.88
280.273	93.88
280.505	96.88
280.736	111.88
280.968	127.88
281.199	160.88
281.431	205.88
281.662	222.88
281.894	147.88
282.125	127.88
282.356	119.88
282.588	107.88
282.819	129.88
283.051	130.88
283.282	132.88
283.513	188.88
283.745	291.88
283.976	519.88
284.207	727.88
284.439	558.88
284.67	245.88
284.901	227.88
285.132	337.88
285.364	339.88
285.595	215.88
285.826	171.88
286.057	236.88
286.288	399.88
286.52	583.88
286.751	444.88
286.982	193.88
287.213	127.88
287.444	108.88
287.675	87.88
287.906	86.88
288.138	101.88
288.369	92.88
288.6	77.88
288.831	93.88
289.062	92.88
289.293	100.88
289.524	100.88
289.755	100.88
289.986	93.88
290.217	99.88
290.448	109.88
290.679	106.88
290.91	111.88
291.141	158.88
291.371	220.88
291.602	273.88
291.833	184.88
292.064	101.88
292.295	102.88
292.526	101.88
292.757	99.88
292.987	96.88
293.218	89.88
293.449	104.88
293.68	88.88
293.91	90.88
294.141	97.88
294.372	89.88
294.603	95.88
294.833	91.88
295.064	95.88
295.295	88.88
295.525	94.88
295.756	99.88
295.987	107.88
296.217	95.88
296.448	83.88
296.679	93.88
296.909	108.88
297.14	92.88
297.37	101.88
297.601	93.88
297.831	109.88
298.062	80.88
298.292	104.88
298.523	101.88
298.753	101.88
298.984	115.88
299.214	95.88
299.445	95.88
299.675	113.88
299.905	111.88
300.136	118.88
300.366	162.88
300.597	241.88
300.827	436.88
301.057	653.88
301.288	601.88
301.518	245.88
301.748	149.88
301.979	141.88
302.209	127.88
302.439	131.88
302.669	172.88
302.9	242.88
303.13	475.88
303.36	817.88
303.59	1160.88
303.82	778.88
304.051	289.88
304.281	149.88
304.511	116.88
304.741	110.88
304.971	121.88
305.201	112.88
305.431	130.88
305.661	112.88
305.891	102.88
306.121	115.88
306.352	112.88
306.582	97.88
306.812	122.88
307.042	122.88
307.272	118.88
307.502	102.88
307.731	97.88
307.961	113.88
308.191	89.88
308.421	117.88
308.651	108.88
308.881	103.88
309.111	105.88
309.341	95.88
309.571	113.88
309.8	107.88
310.03	117.88
310.26	112.88
310.49	106.88
310.72	113.88
310.949	101.88
311.179	91.88
311.409	96.88
311.639	113.88
311.868	105.88
312.098	107.88
312.328	122.88
312.557	114.88
312.787	101.88
313.017	113.88
313.246	121.88
313.476	114.88
313.706	115.88
313.935	133.88
314.165	185.88
314.394	222.88
314.624	163.88
314.853	131.88
315.083	105.88
315.312	123.88
315.542	125.88
315.771	129.88
316.001	124.88
316.23	139.88
316.46	135.88
316.689	183.88
316.919	280.88
317.148	468.88
317.377	861.88
317.607	1389.88
317.836	1291.88
318.065	499.88
318.295	212.88
318.524	155.88
318.753	124.88
318.983	124.88
319.212	122.88
319.441	123.88
319.67	111.88
319.9	129.88
320.129	113.88
320.358	102.88
320.587	120.88
320.816	117.88
321.046	115.88
321.275	117.88
321.504	129.88
321.733	135.88
321.962	156.88
322.191	159.88
322.42	142.88
322.649	124.88
322.878	123.88
323.108	119.88
323.337	142.88
323.566	140.88
323.795	122.88
324.024	118.88
324.253	145.88
324.482	180.88
324.71	218.88
324.939	283.88
325.168	215.88
325.397	193.88
325.626	235.88
325.855	459.88
326.084	854.88
326.313	1495.88
326.542	1471.88
326.77	543.88
326.999	245.88
327.228	191.88
327.457	255.88
327.686	225.88
327.914	156.88
328.143	125.88
328.372	131.88
328.6	116.88
328.829	119.88
329.058	113.88
329.287	128.88
329.515	128.88
329.744	116.88
329.972	120.88
330.201	100.88
330.43	111.88
330.658	106.88
330.887	120.88
331.115	104.88
331.344	112.88
331.572	97.88
331.801	116.88
332.03	131.88
332.258	137.88
332.486	181.88
332.715	266.88
332.943	471.88
333.172	743.88
333.4	632.88
333.629	239.88
333.857	135.88
334.085	138.88
334.314	123.88
334.542	120.88
334.771	128.88
334.999	123.88
335.227	130.88
335.455	117.88
335.684	125.88
335.912	116.88
336.14	101.88
336.369	111.88
336.597	109.88
336.825	101.88
337.053	111.88
337.281	117.88
337.51	109.88
337.738	103.88
337.966	112.88
338.194	106.88
338.422	133.88
338.65	112.88
338.878	97.88
339.106	132.88
339.334	111.88
339.562	120.88
339.79	99.88
340.018	117.88
340.246	124.88
340.474	108.88
340.702	105.88
340.93	114.88
341.158	108.88
341.386	105.88
341.614	122.88
341.842	131.88
342.07	111.88
342.298	108.88
342.526	101.88
342.754	126.88
342.981	101.88
343.209	103.88
343.437	132.88
343.665	112.88
343.893	106.88
344.12	117.88
344.348	119.88
344.576	105.88
344.804	118.88
345.031	109.88
345.259	113.88
345.487	121.88
345.714	109.88
345.942	117.88
346.17	105.88
346.397	92.88
346.625	111.88
346.853	107.88
347.08	83.88
347.308	102.88
347.535	98.88
347.763	104.88
347.99	96.88
348.218	125.88
348.445	104.88
348.673	107.88
348.9	111.88
349.128	118.88
349.355	107.88
349.583	108.88
349.81	119.88
350.037	120.88
350.265	108.88
350.492	119.88
350.72	106.88
350.947	87.88
351.174	117.88
351.402	121.88
351.629	118.88
351.856	112.88
352.083	115.88
352.311	106.88
352.538	111.88
352.765	108.88
352.992	119.88
353.22	121.88
353.447	99.88
353.674	97.88
353.901	102.88
354.128	107.88
354.355	98.88
354.583	113.88
354.81	113.88
355.037	100.88
355.264	111.88
355.491	97.88
355.718	114.88
355.945	95.88
356.172	95.88
356.399	100.88
356.626	98.88
356.853	120.88
357.08	119.88
357.307	117.88
357.534	108.88
357.761	108.88
357.988	103.88
358.215	116.88
358.441	115.88
358.668	106.88
358.895	109.88
359.122	117.88
359.349	104.88
359.576	127.88
359.802	108.88
360.029	121.88
360.256	119.88
360.483	101.88
360.709	99.88
360.936	123.88
361.163	127.88
361.39	115.88
361.616	118.88
361.843	115.88
362.07	116.88
362.296	105.88
362.523	103.88
362.749	107.88
362.976	101.88
363.203	116.88
363.429	117.88
363.656	105.88
363.882	113.88
364.109	121.88
364.335	111.88
364.562	103.88
364.788	85.88
365.015	112.88
365.241	124.88
365.468	190.88
365.694	218.88
365.92	183.88
366.147	112.88
366.373	115.88
366.599	99.88
366.826	98.88
367.052	105.88
367.278	96.88
367.505	102.88
367.731	103.88
367.957	111.88
368.184	114.88
368.41	127.88
368.636	117.88
368.862	108.88
369.089	95.88
369.315	106.88
369.541	103.88
369.767	101.88
369.993	106.88
370.219	105.88
370.445	95.88
370.672	97.88
370.898	105.88
371.124	103.88
371.35	119.88
371.576	102.88
371.802	92.88
372.028	116.88
372.254	127.88
372.48	116.88
372.706	117.88
372.932	109.88
373.158	106.88
373.384	117.88
373.61	115.88
373.835	107.88
374.061	105.88
374.287	104.88
374.513	112.88
374.739	103.88
374.965	111.88
375.191	115.88
375.416	107.88
375.642	93.88
375.868	121.88
376.094	108.88
376.319	104.88
376.545	109.88
376.771	116.88
376.997	101.88
377.222	111.88
377.448	118.88
377.674	117.88
377.899	118.88
378.125	103.88
378.35	103.88
378.576	99.88
378.802	117.88
379.027	118.88
379.253	137.88
379.478	164.88
379.704	299.88
379.929	719.88
380.155	1456.88
380.38	1487.88
380.606	498.88
380.831	176.88
381.057	140.88
381.282	125.88
381.507	111.88
381.733	96.88
381.958	98.88
382.184	104.88
382.409	106.88
382.634	103.88
382.86	107.88
383.085	99.88
383.31	105.88
383.535	85.88
383.761	112.88
383.986	99.88
384.211	97.88
384.436	100.88
384.662	94.88
384.887	88.88
385.112	112.88
385.337	99.88
385.562	88.88
385.787	102.88
386.013	108.88
386.238	104.88
386.463	99.88
386.688	96.88
386.913	115.88
387.138	97.88
387.363	99.88
387.588	113.88
387.813	105.88
388.038	102.88
388.263	95.88
388.488	92.88
388.713	107.88
388.938	92.88
389.163	92.88
389.387	110.88
389.612	122.88
389.837	100.88
390.062	98.88
390.287	119.88
390.512	105.88
390.736	91.88
390.961	103.88
391.186	106.88
391.411	101.88
391.636	97.88
391.86	105.88
392.085	107.88
392.31	103.88
392.534	95.88
392.759	100.88
392.984	101.88
393.208	114.88
393.433	154.88
393.658	148.88
393.882	117.88
394.107	93.88
394.331	94.88
394.556	91.88
394.78	99.88
395.005	97.88
395.229	82.88
395.454	99.88
395.678	94.88
395.903	104.88
396.127	102.88
396.352	113.88
396.576	101.88
396.801	123.88
397.025	148.88
397.249	122.88
397.474	90.88
397.698	101.88
397.922	115.88
398.147	105.88
398.371	97.88
398.595	105.88
398.82	92.88
399.044	91.88
399.268	99.88
399.492	101.88
399.717	106.88
399.941	106.88
400.165	92.88
400.389	90.88
400.613	90.88
400.837	113.88
401.062	83.88
401.286	90.88
401.51	100.88
401.734	83.88
401.958	96.88
402.182	95.88
402.406	94.88
402.63	100.88
402.854	92.88
403.078	90.88
403.302	87.88
403.526	103.88
403.75	87.88
403.974	86.88
404.198	93.88
404.422	92.88
404.645	96.88
404.869	97.88
405.093	92.88
405.317	91.88
405.541	101.88
405.765	126.88
405.988	136.88
406.212	105.88
406.436	94.88
406.66	96.88
406.883	88.88
407.107	101.88
407.331	96.88
407.555	105.88
407.778	95.88
408.002	91.88
408.226	92.88
408.449	100.88
408.673	121.88
408.896	93.88
409.12	80.88
409.344	98.88
409.567	95.88
409.791	99.88
410.014	105.88
410.238	105.88
410.461	115.88
410.685	99.88
410.908	89.88
411.132	110.88
411.355	102.88
411.578	104.88
411.802	102.88
412.025	89.88
412.249	96.88
412.472	89.88
412.695	92.88
412.919	101.88
413.142	106.88
413.365	93.88
413.589	113.88
413.812	95.88
414.035	114.88
414.258	94.88
414.482	99.88
414.705	93.88
414.928	100.88
415.151	93.88
415.374	107.88
415.597	97.88
415.821	100.88
416.044	105.88
416.267	108.88
416.49	96.88
416.713	100.88
416.936	106.88
417.159	97.88
417.382	107.88
417.605	91.88
417.828	100.88
418.051	86.88
418.274	111.88
418.497	93.88
418.72	90.88
418.943	104.88
419.166	116.88
419.389	102.88
419.611	103.88
419.834	99.88
420.057	84.88
420.28	86.88
420.503	105.88
420.726	84.88
420.948	103.88
421.171	88.88
421.394	98.88
421.617	90.88
421.839	101.88
422.062	91.88
422.285	101.88
422.507	97.88
422.73	127.88
422.953	134.88
423.175	117.88
423.398	99.88
423.621	87.88
423.843	87.88
424.066	100.88
424.288	97.88
424.511	105.88
424.733	95.88
424.956	100.88
425.178	97.88
425.401	99.88
425.623	89.88
425.846	81.88
426.068	95.88
426.291	93.88
426.513	94.88
426.735	77.88
426.958	105.88
427.18	92.88
427.402	91.88
427.625	88.88
427.847	109.88
428.069	92.88
428.292	102.88
428.514	103.88
428.736	89.88
428.958	90.88
429.181	111.88
429.403	95.88
429.625	90.88
429.847	101.88
430.069	108.88
430.292	108.88
430.514	111.88
430.736	106.88
430.958	103.88
431.18	100.88
431.402	104.88
431.624	94.88
431.846	99.88
432.068	95.88
432.29	92.88
432.512	99.88
432.734	89.88
432.956	89.88
433.178	87.88
433.4	96.88
433.622	93.88
433.844	87.88
434.066	97.88
434.287	98.88
434.509	91.88
434.731	90.88
434.953	85.88
435.175	81.88
435.397	80.88
435.618	98.88
435.84	101.88
436.062	75.88
436.284	90.88
436.505	103.88
436.727	91.88
436.949	96.88
437.17	90.88
437.392	88.88
437.614	88.88
437.835	80.88
438.057	98.88
438.278	93.88
438.5	95.88
438.721	84.88
438.943	108.88
439.165	113.88
439.386	97.88
439.608	107.88
439.829	94.88
440.05	130.88
440.272	117.88
440.493	101.88
440.715	92.88
440.936	90.88
441.158	99.88
441.379	105.88
441.6	106.88
441.822	119.88
442.043	113.88
442.264	123.88
442.486	121.88
442.707	109.88
442.928	95.88
443.149	96.88
443.371	104.88
443.592	96.88
443.813	91.88
444.034	94.88
444.255	93.88
444.476	99.88
444.698	109.88
444.919	89.88
445.14	188.88
445.361	135.88
445.582	100.88
445.803	90.88
446.024	90.88
446.245	108.88
446.466	104.88
446.687	109.88
446.908	98.88
447.129	99.88
447.35	95.88
447.571	80.88
447.792	93.88
448.013	97.88
448.234	96.88
448.455	103.88
448.675	78.88
448.896	107.88
449.117	116.88
449.338	121.88
449.559	152.88
449.779	119.88
450	101.88
450.221	111.88
450.442	123.88
450.662	120.88
450.883	120.88
451.104	105.88
451.324	127.88
451.545	123.88
451.766	123.88
451.986	136.88
452.207	195.88
452.428	514.88
452.648	1235.88
452.869	698.88
453.089	199.88
453.31	108.88
453.53	111.88
453.751	135.88
453.971	173.88
454.192	160.88
454.412	101.88
454.633	97.88
454.853	94.88
455.073	97.88
455.294	96.88
455.514	107.88
455.734	97.88
455.955	95.88
456.175	91.88
456.395	89.88
456.616	86.88
456.836	106.88
457.056	98.88
457.276	100.88
457.497	114.88
457.717	113.88
457.937	103.88
458.157	99.88
458.377	88.88
458.598	90.88
458.818	82.88
459.038	88.88
459.258	94.88
459.478	87.88
459.698	92.88
459.918	81.88
460.138	87.88
460.358	92.88
460.578	84.88
460.798	97.88
461.018	99.88
461.238	89.88
461.458	97.88
461.678	114.88
461.898	102.88
462.118	87.88
462.338	86.88
462.558	95.88
462.777	85.88
462.997	107.88
463.217	108.88
463.437	144.88
463.657	181.88
463.876	189.88
464.096	107.88
464.316	108.88
464.536	108.88
464.755	106.88
464.975	93.88
465.195	91.88
465.414	82.88
465.634	86.88
465.854	80.88
466.073	92.88
466.293	96.88
466.512	89.88
466.732	89.88
466.951	108.88
467.171	130.88
467.391	148.88
467.61	131.88
467.829	104.88
468.049	88.88
468.268	107.88
468.488	88.88
468.707	87.88
468.927	99.88
469.146	98.88
469.365	95.88
469.585	97.88
469.804	107.88
470.023	96.88
470.243	110.88
470.462	117.88
470.681	113.88
470.901	121.88
471.12	183.88
471.339	202.88
471.558	118.88
471.777	119.88
471.997	108.88
472.216	88.88
472.435	100.88
472.654	103.88
472.873	108.88
473.092	101.88
473.311	98.88
473.53	97.88
473.749	98.88
473.968	113.88
474.187	87.88
474.406	99.88
474.625	89.88
474.844	93.88
475.063	96.88
475.282	104.88
475.501	89.88
475.72	115.88
475.939	103.88
476.158	103.88
476.377	119.88
476.596	100.88
476.814	97.88
477.033	90.88
477.252	99.88
477.471	73.88
477.69	101.88
477.908	95.88
478.127	89.88
478.346	81.88
478.564	98.88
478.783	109.88
479.002	101.88
479.22	92.88
479.439	95.88
479.658	98.88
479.876	76.88
480.095	106.88
480.313	90.88
480.532	111.88
480.751	113.88
480.969	99.88
481.188	97.88
481.406	94.88
481.624	99.88
481.843	102.88
482.061	104.88
482.28	98.88
482.498	95.88
482.717	91.88
482.935	105.88
483.153	100.88
483.372	105.88
483.59	107.88
483.808	111.88
484.027	109.88
484.245	121.88
484.463	174.88
484.681	203.88
484.9	127.88
485.118	119.88
485.336	94.88
485.554	113.88
485.772	111.88
485.99	178.88
486.209	241.88
486.427	162.88
486.645	125.88
486.863	97.88
487.081	93.88
487.299	111.88
487.517	98.88
487.735	107.88
487.953	112.88
488.171	97.88
488.389	87.88
488.607	104.88
488.825	104.88
489.043	109.88
489.261	87.88
489.479	100.88
489.696	95.88
489.914	98.88
490.132	100.88
490.35	106.88
490.568	103.88
490.786	97.88
491.003	86.88
491.221	106.88
491.439	102.88
491.657	93.88
491.874	96.88
492.092	111.88
492.31	116.88
492.527	114.88
492.745	99.88
492.963	107.88
493.18	95.88
493.398	104.88
493.615	80.88
493.833	92.88
494.05	95.88
494.268	91.88
494.485	119.88
494.703	85.88
494.92	88.88
495.138	102.88
495.355	95.88
495.573	106.88
495.79	106.88
496.008	92.88
496.225	100.88
496.442	121.88
496.66	114.88
496.877	141.88
497.094	147.88
497.312	103.88
497.529	98.88
497.746	98.88
497.963	117.88
498.181	112.88
498.398	107.88
498.615	93.88
498.832	108.88
499.049	103.88
499.267	145.88
499.484	168.88
499.701	114.88
499.918	91.88
500.135	104.88
500.352	98.88
500.569	95.88
500.786	100.88
501.003	106.88
501.22	101.88
501.437	116.88
501.654	103.88
501.871	104.88
502.088	92.88
502.305	90.88
502.522	85.88
502.739	85.88
502.956	100.88
503.172	115.88
503.389	106.88
503.606	90.88
503.823	104.88
504.04	99.88
504.256	85.88
504.473	93.88
504.69	112.88
504.907	115.88
505.123	137.88
505.34	99.88
505.557	113.88
505.773	107.88
505.99	104.88
506.207	115.88
506.423	92.88
506.64	116.88
506.856	105.88
507.073	99.88
507.289	96.88
507.506	100.88
507.722	115.88
507.939	98.88
508.155	99.88
508.372	95.88
508.588	96.88
508.805	97.88
