Data from SnStandardFlinnAPT0064_QswitchEnergy10_LIBS07252019.E.O._I.C._HRD10591_15-26-18-972.txt Node
Date: Thu Jul 25 15:26:18 EDT 2019
User: cochatt
Spectrometer: HR+D1059
Trigger mode: 1
Integration Time (sec): 1.000000E-1
Scans to average: 1
Electric dark correction enabled: true
Nonlinearity correction enabled: false
Boxcar width: 0
XAxis mode: Wavelengths
Number of Pixels in Spectrum: 2048
>>>>>Begin Spectral Data<<<<<
223.165	-28.38
223.4	-28.38
223.635	-28.38
223.869	-9.38
224.104	-22.38
224.338	-11.38
224.573	-16.38
224.808	-15.38
225.042	-0.38
225.277	-3.38
225.511	-8.38
225.746	-3.38
225.98	10.62
226.215	5.62
226.449	17.62
226.683	27.62
226.918	19.62
227.152	37.62
227.387	49.62
227.621	33.62
227.856	42.62
228.09	54.62
228.324	51.62
228.559	53.62
228.793	57.62
229.027	64.62
229.262	73.62
229.496	77.62
229.73	74.62
229.964	75.62
230.199	78.62
230.433	81.62
230.667	78.62
230.901	78.62
231.136	83.62
231.37	73.62
231.604	83.62
231.838	91.62
232.072	118.62
232.306	123.62
232.541	111.62
232.775	89.62
233.009	66.62
233.243	88.62
233.477	89.62
233.711	96.62
233.945	102.62
234.179	103.62
234.413	81.62
234.647	66.62
234.881	81.62
235.115	97.62
235.349	105.62
235.583	107.62
235.817	122.62
236.051	137.62
236.285	101.62
236.519	75.62
236.753	77.62
236.987	90.62
237.221	96.62
237.455	83.62
237.689	95.62
237.922	84.62
238.156	71.62
238.39	92.62
238.624	84.62
238.858	85.62
239.091	84.62
239.325	86.62
239.559	81.62
239.793	86.62
240.027	88.62
240.26	82.62
240.494	76.62
240.728	73.62
240.961	84.62
241.195	100.62
241.429	92.62
241.662	92.62
241.896	93.62
242.13	104.62
242.363	122.62
242.597	179.62
242.83	139.62
243.064	144.62
243.298	179.62
243.531	163.62
243.765	96.62
243.998	79.62
244.232	89.62
244.465	80.62
244.699	81.62
244.932	90.62
245.166	87.62
245.399	88.62
245.633	75.62
245.866	104.62
246.099	85.62
246.333	79.62
246.566	75.62
246.8	93.62
247.033	81.62
247.266	66.62
247.5	84.62
247.733	88.62
247.966	77.62
248.2	98.62
248.433	103.62
248.666	137.62
248.899	119.62
249.133	96.62
249.366	91.62
249.599	99.62
249.832	139.62
250.066	119.62
250.299	103.62
250.532	95.62
250.765	88.62
250.998	86.62
251.231	84.62
251.465	86.62
251.698	63.62
251.931	66.62
252.164	77.62
252.397	89.62
252.63	93.62
252.863	113.62
253.096	89.62
253.329	89.62
253.562	93.62
253.795	91.62
254.028	93.62
254.261	89.62
254.494	100.62
254.727	105.62
254.96	136.62
255.193	139.62
255.426	96.62
255.659	93.62
255.892	85.62
256.124	97.62
256.357	89.62
256.59	87.62
256.823	105.62
257.056	116.62
257.289	145.62
257.521	190.62
257.754	125.62
257.987	105.62
258.22	87.62
258.452	88.62
258.685	85.62
258.918	87.62
259.151	89.62
259.383	108.62
259.616	149.62
259.849	149.62
260.081	119.62
260.314	80.62
260.547	83.62
260.779	91.62
261.012	85.62
261.244	76.62
261.477	72.62
261.71	93.62
261.942	81.62
262.175	87.62
262.407	81.62
262.64	71.62
262.872	75.62
263.105	89.62
263.337	84.62
263.57	80.62
263.802	80.62
264.035	92.62
264.267	92.62
264.499	94.62
264.732	83.62
264.964	96.62
265.197	83.62
265.429	83.62
265.661	96.62
265.894	93.62
266.126	129.62
266.358	152.62
266.591	135.62
266.823	94.62
267.055	96.62
267.287	89.62
267.52	84.62
267.752	87.62
267.984	78.62
268.216	77.62
268.448	86.62
268.681	89.62
268.913	97.62
269.145	86.62
269.377	96.62
269.609	95.62
269.841	77.62
270.073	103.62
270.306	121.62
270.538	215.62
270.77	296.62
271.002	367.62
271.234	197.62
271.466	103.62
271.698	91.62
271.93	77.62
272.162	71.62
272.394	88.62
272.626	105.62
272.858	102.62
273.09	94.62
273.322	74.62
273.553	83.62
273.785	79.62
274.017	89.62
274.249	95.62
274.481	99.62
274.713	95.62
274.945	93.62
275.176	83.62
275.408	74.62
275.64	97.62
275.872	89.62
276.104	80.62
276.335	110.62
276.567	112.62
276.799	90.62
277.031	95.62
277.262	92.62
277.494	97.62
277.726	123.62
277.957	179.62
278.189	260.62
278.421	249.62
278.652	213.62
278.884	194.62
279.115	147.62
279.347	114.62
279.579	88.62
279.81	95.62
280.042	86.62
280.273	106.62
280.505	104.62
280.736	108.62
280.968	127.62
281.199	185.62
281.431	262.62
281.662	277.62
281.894	177.62
282.125	112.62
282.356	102.62
282.588	109.62
282.819	111.62
283.051	123.62
283.282	147.62
283.513	179.62
283.745	309.62
283.976	539.62
284.207	794.62
284.439	639.62
284.67	289.62
284.901	277.62
285.132	369.62
285.364	380.62
285.595	222.62
285.826	170.62
286.057	234.62
286.288	378.62
286.52	613.62
286.751	489.62
286.982	203.62
287.213	127.62
287.444	125.62
287.675	103.62
287.906	101.62
288.138	103.62
288.369	84.62
288.6	97.62
288.831	95.62
289.062	100.62
289.293	96.62
289.524	105.62
289.755	75.62
289.986	82.62
290.217	95.62
290.448	97.62
290.679	90.62
290.91	131.62
291.141	170.62
291.371	244.62
291.602	314.62
291.833	220.62
292.064	119.62
292.295	93.62
292.526	97.62
292.757	92.62
292.987	79.62
293.218	106.62
293.449	104.62
293.68	102.62
293.91	92.62
294.141	85.62
294.372	91.62
294.603	102.62
294.833	104.62
295.064	91.62
295.295	99.62
295.525	101.62
295.756	101.62
295.987	104.62
296.217	91.62
296.448	96.62
296.679	90.62
296.909	101.62
297.14	93.62
297.37	94.62
297.601	88.62
297.831	87.62
298.062	94.62
298.292	109.62
298.523	100.62
298.753	93.62
298.984	111.62
299.214	100.62
299.445	116.62
299.675	121.62
299.905	115.62
300.136	129.62
300.366	154.62
300.597	256.62
300.827	434.62
301.057	667.62
301.288	609.62
301.518	245.62
301.748	154.62
301.979	122.62
302.209	143.62
302.439	138.62
302.669	157.62
302.9	255.62
303.13	497.62
303.36	888.62
303.59	1242.62
303.82	845.62
304.051	308.62
304.281	150.62
304.511	135.62
304.741	115.62
304.971	118.62
305.201	107.62
305.431	123.62
305.661	107.62
305.891	90.62
306.121	90.62
306.352	104.62
306.582	109.62
306.812	95.62
307.042	109.62
307.272	101.62
307.502	87.62
307.731	96.62
307.961	97.62
308.191	98.62
308.421	104.62
308.651	95.62
308.881	113.62
309.111	108.62
309.341	108.62
309.571	118.62
309.8	100.62
310.03	102.62
310.26	99.62
310.49	119.62
310.72	110.62
310.949	111.62
311.179	102.62
311.409	105.62
311.639	113.62
311.868	99.62
312.098	108.62
312.328	121.62
312.557	111.62
312.787	122.62
313.017	114.62
313.246	112.62
313.476	133.62
313.706	136.62
313.935	149.62
314.165	213.62
314.394	241.62
314.624	190.62
314.853	137.62
315.083	123.62
315.312	124.62
315.542	146.62
315.771	134.62
316.001	125.62
316.23	133.62
316.46	137.62
316.689	164.62
316.919	259.62
317.148	472.62
317.377	913.62
317.607	1478.62
317.836	1392.62
318.065	536.62
318.295	228.62
318.524	149.62
318.753	145.62
318.983	128.62
319.212	96.62
319.441	110.62
319.67	139.62
319.9	124.62
320.129	113.62
320.358	120.62
320.587	122.62
320.816	107.62
321.046	131.62
321.275	124.62
321.504	124.62
321.733	140.62
321.962	161.62
322.191	166.62
322.42	140.62
322.649	134.62
322.878	121.62
323.108	122.62
323.337	120.62
323.566	119.62
323.795	127.62
324.024	128.62
324.253	127.62
324.482	164.62
324.71	235.62
324.939	289.62
325.168	234.62
325.397	172.62
325.626	272.62
325.855	486.62
326.084	932.62
326.313	1623.62
326.542	1597.62
326.77	636.62
326.999	261.62
327.228	196.62
327.457	232.62
327.686	239.62
327.914	147.62
328.143	151.62
328.372	123.62
328.6	121.62
328.829	118.62
329.058	107.62
329.287	129.62
329.515	125.62
329.744	123.62
329.972	123.62
330.201	109.62
330.43	106.62
330.658	95.62
330.887	118.62
331.115	93.62
331.344	123.62
331.572	106.62
331.801	123.62
332.03	137.62
332.258	131.62
332.486	180.62
332.715	286.62
332.943	496.62
333.172	764.62
333.4	679.62
333.629	255.62
333.857	135.62
334.085	127.62
334.314	124.62
334.542	124.62
334.771	124.62
334.999	121.62
335.227	116.62
335.455	108.62
335.684	109.62
335.912	124.62
336.14	129.62
336.369	109.62
336.597	117.62
336.825	118.62
337.053	107.62
337.281	108.62
337.51	105.62
337.738	110.62
337.966	92.62
338.194	89.62
338.422	118.62
338.65	107.62
338.878	103.62
339.106	117.62
339.334	121.62
339.562	117.62
339.79	125.62
340.018	106.62
340.246	100.62
340.474	108.62
340.702	105.62
340.93	96.62
341.158	101.62
341.386	125.62
341.614	123.62
341.842	116.62
342.07	131.62
342.298	122.62
342.526	103.62
342.754	109.62
342.981	120.62
343.209	98.62
343.437	108.62
343.665	121.62
343.893	111.62
344.12	102.62
344.348	116.62
344.576	121.62
344.804	106.62
345.031	103.62
345.259	103.62
345.487	115.62
345.714	100.62
345.942	117.62
346.17	111.62
346.397	111.62
346.625	112.62
346.853	106.62
347.08	106.62
347.308	100.62
347.535	101.62
347.763	102.62
347.99	96.62
348.218	106.62
348.445	115.62
348.673	104.62
348.9	123.62
349.128	117.62
349.355	122.62
349.583	123.62
349.81	106.62
350.037	93.62
350.265	114.62
350.492	102.62
350.72	101.62
350.947	123.62
351.174	94.62
351.402	119.62
351.629	119.62
351.856	112.62
352.083	96.62
352.311	113.62
352.538	117.62
352.765	109.62
352.992	93.62
353.22	103.62
353.447	98.62
353.674	96.62
353.901	103.62
354.128	103.62
354.355	109.62
354.583	100.62
354.81	107.62
355.037	107.62
355.264	104.62
355.491	113.62
355.718	115.62
355.945	94.62
356.172	95.62
356.399	97.62
356.626	110.62
356.853	97.62
357.08	112.62
357.307	106.62
357.534	94.62
357.761	101.62
357.988	103.62
358.215	97.62
358.441	111.62
358.668	101.62
358.895	127.62
359.122	127.62
359.349	107.62
359.576	103.62
359.802	95.62
360.029	111.62
360.256	125.62
360.483	108.62
360.709	115.62
360.936	122.62
361.163	104.62
361.39	104.62
361.616	96.62
361.843	97.62
362.07	100.62
362.296	116.62
362.523	98.62
362.749	103.62
362.976	106.62
363.203	99.62
363.429	105.62
363.656	107.62
363.882	116.62
364.109	124.62
364.335	120.62
364.562	103.62
364.788	100.62
365.015	125.62
365.241	129.62
365.468	190.62
365.694	266.62
365.92	216.62
366.147	120.62
366.373	98.62
366.599	115.62
366.826	85.62
367.052	97.62
367.278	85.62
367.505	88.62
367.731	111.62
367.957	104.62
368.184	95.62
368.41	116.62
368.636	125.62
368.862	109.62
369.089	111.62
369.315	102.62
369.541	106.62
369.767	113.62
369.993	122.62
370.219	116.62
370.445	113.62
370.672	109.62
370.898	96.62
371.124	111.62
371.35	97.62
371.576	104.62
371.802	120.62
372.028	100.62
372.254	107.62
372.48	108.62
372.706	105.62
372.932	109.62
373.158	98.62
373.384	124.62
373.61	113.62
373.835	104.62
374.061	112.62
374.287	120.62
374.513	102.62
374.739	112.62
374.965	111.62
375.191	107.62
375.416	107.62
375.642	106.62
375.868	117.62
376.094	108.62
376.319	105.62
376.545	100.62
376.771	93.62
376.997	92.62
377.222	120.62
377.448	94.62
377.674	104.62
377.899	114.62
378.125	113.62
378.35	124.62
378.576	108.62
378.802	115.62
379.027	130.62
379.253	139.62
379.478	180.62
379.704	314.62
379.929	762.62
380.155	1600.62
380.38	1685.62
380.606	533.62
380.831	199.62
381.057	121.62
381.282	126.62
381.507	124.62
381.733	102.62
381.958	99.62
382.184	112.62
382.409	87.62
382.634	113.62
382.86	121.62
383.085	112.62
383.31	104.62
383.535	106.62
383.761	106.62
383.986	103.62
384.211	92.62
384.436	83.62
384.662	104.62
384.887	111.62
385.112	98.62
385.337	100.62
385.562	105.62
385.787	111.62
386.013	97.62
386.238	111.62
386.463	109.62
386.688	109.62
386.913	106.62
387.138	102.62
387.363	102.62
387.588	107.62
387.813	121.62
388.038	107.62
388.263	106.62
388.488	101.62
388.713	121.62
388.938	112.62
389.163	91.62
389.387	88.62
389.612	93.62
389.837	109.62
390.062	109.62
390.287	104.62
390.512	97.62
390.736	105.62
390.961	84.62
391.186	106.62
391.411	99.62
391.636	91.62
391.86	102.62
392.085	108.62
392.31	106.62
392.534	87.62
392.759	91.62
392.984	101.62
393.208	119.62
393.433	129.62
393.658	153.62
393.882	108.62
394.107	95.62
394.331	105.62
394.556	86.62
394.78	103.62
395.005	102.62
395.229	93.62
395.454	106.62
395.678	99.62
395.903	109.62
396.127	103.62
396.352	110.62
396.576	93.62
396.801	93.62
397.025	120.62
397.249	101.62
397.474	103.62
397.698	95.62
397.922	92.62
398.147	96.62
398.371	95.62
398.595	99.62
398.82	100.62
399.044	95.62
399.268	124.62
399.492	87.62
399.717	106.62
399.941	99.62
400.165	94.62
400.389	85.62
400.613	99.62
400.837	89.62
401.062	97.62
401.286	99.62
401.51	105.62
401.734	101.62
401.958	83.62
402.182	99.62
402.406	89.62
402.63	92.62
402.854	103.62
403.078	96.62
403.302	93.62
403.526	102.62
403.75	91.62
403.974	105.62
404.198	92.62
404.422	98.62
404.645	100.62
404.869	106.62
405.093	99.62
405.317	109.62
405.541	88.62
405.765	120.62
405.988	139.62
406.212	125.62
406.436	103.62
406.66	99.62
406.883	97.62
407.107	101.62
407.331	95.62
407.555	97.62
407.778	93.62
408.002	100.62
408.226	97.62
408.449	99.62
408.673	113.62
408.896	106.62
409.12	96.62
409.344	95.62
409.567	100.62
409.791	98.62
410.014	92.62
410.238	119.62
410.461	100.62
410.685	96.62
410.908	103.62
411.132	104.62
411.355	97.62
411.578	105.62
411.802	98.62
412.025	101.62
412.249	97.62
412.472	96.62
412.695	89.62
412.919	92.62
413.142	92.62
413.365	103.62
413.589	90.62
413.812	101.62
414.035	110.62
414.258	126.62
414.482	88.62
414.705	108.62
414.928	100.62
415.151	103.62
415.374	91.62
415.597	116.62
415.821	99.62
416.044	113.62
416.267	81.62
416.49	104.62
416.713	95.62
416.936	85.62
417.159	91.62
417.382	89.62
417.605	100.62
417.828	88.62
418.051	105.62
418.274	107.62
418.497	96.62
418.72	100.62
418.943	110.62
419.166	116.62
419.389	124.62
419.611	106.62
419.834	98.62
420.057	96.62
420.28	97.62
420.503	104.62
420.726	102.62
420.948	101.62
421.171	87.62
421.394	97.62
421.617	95.62
421.839	108.62
422.062	107.62
422.285	99.62
422.507	98.62
422.73	123.62
422.953	129.62
423.175	132.62
423.398	108.62
423.621	104.62
423.843	94.62
424.066	99.62
424.288	101.62
424.511	94.62
424.733	95.62
424.956	100.62
425.178	98.62
425.401	84.62
425.623	101.62
425.846	100.62
426.068	88.62
426.291	99.62
426.513	91.62
426.735	97.62
426.958	97.62
427.18	91.62
427.402	109.62
427.625	99.62
427.847	85.62
428.069	85.62
428.292	96.62
428.514	106.62
428.736	96.62
428.958	97.62
429.181	103.62
429.403	107.62
429.625	92.62
429.847	100.62
430.069	114.62
430.292	111.62
430.514	91.62
430.736	106.62
430.958	105.62
431.18	98.62
431.402	89.62
431.624	81.62
431.846	94.62
432.068	88.62
432.29	90.62
432.512	98.62
432.734	92.62
432.956	98.62
433.178	104.62
433.4	76.62
433.622	83.62
433.844	79.62
434.066	103.62
434.287	97.62
434.509	93.62
434.731	104.62
434.953	105.62
435.175	87.62
435.397	88.62
435.618	106.62
435.84	99.62
436.062	105.62
436.284	111.62
436.505	104.62
436.727	84.62
436.949	89.62
437.17	86.62
437.392	76.62
437.614	88.62
437.835	100.62
438.057	90.62
438.278	87.62
438.5	95.62
438.721	92.62
438.943	90.62
439.165	117.62
439.386	99.62
439.608	102.62
439.829	108.62
440.05	126.62
440.272	128.62
440.493	96.62
440.715	111.62
440.936	92.62
441.158	95.62
441.379	104.62
441.6	105.62
441.822	99.62
442.043	118.62
442.264	133.62
442.486	113.62
442.707	94.62
442.928	104.62
443.149	91.62
443.371	99.62
443.592	101.62
443.813	99.62
444.034	84.62
444.255	91.62
444.476	81.62
444.698	87.62
444.919	95.62
445.14	208.62
445.361	137.62
445.582	95.62
445.803	76.62
446.024	114.62
446.245	106.62
446.466	119.62
446.687	103.62
446.908	93.62
447.129	103.62
447.35	89.62
447.571	103.62
447.792	94.62
448.013	112.62
448.234	105.62
448.455	81.62
448.675	97.62
448.896	95.62
449.117	112.62
449.338	131.62
449.559	160.62
449.779	128.62
450	103.62
450.221	111.62
450.442	108.62
450.662	119.62
450.883	106.62
451.104	119.62
451.324	119.62
451.545	110.62
451.766	118.62
451.986	140.62
452.207	213.62
452.428	579.62
452.648	1397.62
452.869	809.62
453.089	201.62
453.31	113.62
453.53	144.62
453.751	153.62
453.971	147.62
454.192	150.62
454.412	107.62
454.633	108.62
454.853	109.62
455.073	98.62
455.294	89.62
455.514	105.62
455.734	91.62
455.955	93.62
456.175	101.62
456.395	83.62
456.616	94.62
456.836	93.62
457.056	97.62
457.276	105.62
457.497	112.62
457.717	127.62
457.937	91.62
458.157	100.62
458.377	98.62
458.598	86.62
458.818	91.62
459.038	95.62
459.258	93.62
459.478	92.62
459.698	91.62
459.918	85.62
460.138	83.62
460.358	85.62
460.578	89.62
460.798	83.62
461.018	90.62
461.238	91.62
461.458	102.62
461.678	91.62
461.898	86.62
462.118	99.62
462.338	86.62
462.558	96.62
462.777	85.62
462.997	104.62
463.217	107.62
463.437	128.62
463.657	189.62
463.876	188.62
464.096	137.62
464.316	100.62
464.536	93.62
464.755	89.62
464.975	97.62
465.195	87.62
465.414	109.62
465.634	88.62
465.854	100.62
466.073	98.62
466.293	102.62
466.512	102.62
466.732	100.62
466.951	113.62
467.171	143.62
467.391	145.62
467.61	111.62
467.829	100.62
468.049	111.62
468.268	91.62
468.488	89.62
468.707	120.62
468.927	106.62
469.146	98.62
469.365	93.62
469.585	92.62
469.804	105.62
470.023	107.62
470.243	98.62
470.462	101.62
470.681	116.62
470.901	111.62
471.12	195.62
471.339	210.62
471.558	142.62
471.777	108.62
471.997	114.62
472.216	97.62
472.435	95.62
472.654	107.62
472.873	91.62
473.092	85.62
473.311	93.62
473.53	84.62
473.749	88.62
473.968	113.62
474.187	105.62
474.406	80.62
474.625	88.62
474.844	92.62
475.063	91.62
475.282	104.62
475.501	83.62
475.72	91.62
475.939	94.62
476.158	93.62
476.377	104.62
476.596	112.62
476.814	98.62
477.033	84.62
477.252	111.62
477.471	91.62
477.69	101.62
477.908	115.62
478.127	105.62
478.346	86.62
478.564	100.62
478.783	100.62
479.002	89.62
479.22	96.62
479.439	103.62
479.658	113.62
479.876	86.62
480.095	97.62
480.313	90.62
480.532	96.62
480.751	95.62
480.969	93.62
481.188	87.62
481.406	93.62
481.624	111.62
481.843	127.62
482.061	110.62
482.28	112.62
482.498	107.62
482.717	100.62
482.935	105.62
483.153	84.62
483.372	101.62
483.59	90.62
483.808	104.62
484.027	114.62
484.245	132.62
484.463	199.62
484.681	219.62
484.9	137.62
485.118	120.62
485.336	123.62
485.554	112.62
485.772	120.62
485.99	180.62
486.209	244.62
486.427	181.62
486.645	124.62
486.863	111.62
487.081	113.62
487.299	112.62
487.517	94.62
487.735	120.62
487.953	97.62
488.171	106.62
488.389	106.62
488.607	101.62
488.825	85.62
489.043	95.62
489.261	99.62
489.479	98.62
489.696	111.62
489.914	91.62
490.132	87.62
490.35	100.62
490.568	105.62
490.786	84.62
491.003	104.62
491.221	115.62
491.439	113.62
491.657	100.62
491.874	113.62
492.092	101.62
492.31	109.62
492.527	107.62
492.745	100.62
492.963	112.62
493.18	108.62
493.398	111.62
493.615	101.62
493.833	103.62
494.05	101.62
494.268	116.62
494.485	107.62
494.703	103.62
494.92	87.62
495.138	109.62
495.355	101.62
495.573	106.62
495.79	109.62
496.008	121.62
496.225	98.62
496.442	97.62
496.66	107.62
496.877	156.62
497.094	163.62
497.312	107.62
497.529	94.62
497.746	106.62
497.963	95.62
498.181	92.62
498.398	93.62
498.615	99.62
498.832	98.62
499.049	116.62
499.267	141.62
499.484	142.62
499.701	117.62
499.918	111.62
500.135	109.62
500.352	95.62
500.569	96.62
500.786	120.62
501.003	94.62
501.22	93.62
501.437	102.62
501.654	103.62
501.871	84.62
502.088	112.62
502.305	106.62
502.522	99.62
502.739	96.62
502.956	96.62
503.172	112.62
503.389	99.62
503.606	87.62
503.823	105.62
504.04	101.62
504.256	116.62
504.473	105.62
504.69	95.62
504.907	115.62
505.123	115.62
505.34	102.62
505.557	93.62
505.773	97.62
505.99	106.62
506.207	107.62
506.423	108.62
506.64	108.62
506.856	105.62
507.073	105.62
507.289	106.62
507.506	91.62
507.722	111.62
507.939	95.62
508.155	94.62
508.372	87.62
