Data from SnStandardFlinnAPT0064_LampEnergy10_LIBS07252019.E.O._I.C._HRD10591_15-20-57-494.txt Node
Date: Thu Jul 25 15:20:57 EDT 2019
User: cochatt
Spectrometer: HR+D1059
Trigger mode: 1
Integration Time (sec): 1.000000E-1
Scans to average: 1
Electric dark correction enabled: true
Nonlinearity correction enabled: false
Boxcar width: 0
XAxis mode: Wavelengths
Number of Pixels in Spectrum: 2048
>>>>>Begin Spectral Data<<<<<
223.165	-10
223.4	-10
223.635	-10
223.869	-13
224.104	-14
224.338	-10
224.573	-12
224.808	-11
225.042	-20
225.277	-19
225.511	4
225.746	2
225.98	20
226.215	20
226.449	14
226.683	11
226.918	8
227.152	30
227.387	42
227.621	37
227.856	39
228.09	27
228.324	46
228.559	47
228.793	131
229.027	306
229.262	331
229.496	304
229.73	301
229.964	329
230.199	293
230.433	313
230.667	296
230.901	315
231.136	331
231.37	348
231.604	408
231.838	441
232.072	523
232.306	568
232.541	479
232.775	433
233.009	424
233.243	416
233.477	462
233.711	504
233.945	599
234.179	526
234.413	472
234.647	441
234.881	474
235.115	517
235.349	600
235.583	795
235.817	1008
236.051	1007
236.285	648
236.519	524
236.753	488
236.987	489
237.221	539
237.455	523
237.689	480
237.922	475
238.156	456
238.39	502
238.624	491
238.858	493
239.091	483
239.325	508
239.559	483
239.793	515
240.027	510
240.26	540
240.494	551
240.728	593
240.961	636
241.195	653
241.429	664
241.662	707
241.896	790
242.13	959
242.363	1255
242.597	1610
242.83	1607
243.064	1555
243.298	1777
243.531	1493
243.765	966
243.998	760
244.232	697
244.465	658
244.699	683
244.932	642
245.166	648
245.399	681
245.633	688
245.866	683
246.099	680
246.333	649
246.566	632
246.8	645
247.033	646
247.266	650
247.5	656
247.733	682
247.966	703
248.2	756
248.433	901
248.666	1025
248.899	941
249.133	850
249.366	883
249.599	954
249.832	1109
250.066	1079
250.299	865
250.532	801
250.765	751
250.998	718
251.231	724
251.465	714
251.698	718
251.931	760
252.164	731
252.397	753
252.63	777
252.863	806
253.096	804
253.329	785
253.562	788
253.795	771
254.028	811
254.261	829
254.494	909
254.727	1001
254.96	1258
255.193	1211
255.426	978
255.659	887
255.892	864
256.124	881
256.357	869
256.59	917
256.823	961
257.056	1140
257.289	1337
257.521	1531
257.754	1166
257.987	1000
258.22	928
258.452	894
258.685	927
258.918	930
259.151	992
259.383	1107
259.616	1192
259.849	1287
260.081	1075
260.314	966
260.547	964
260.779	990
261.012	974
261.244	960
261.477	975
261.71	985
261.942	1012
262.175	1007
262.407	1028
262.64	1055
262.872	1105
263.105	1129
263.337	1224
263.57	1274
263.802	1314
264.035	1340
264.267	1343
264.499	1370
264.732	1417
264.964	1432
265.197	1411
265.429	1457
265.661	1487
265.894	1580
266.126	1740
266.358	2010
266.591	1944
266.823	1577
267.055	1437
267.287	1411
267.52	1329
267.752	1277
267.984	1258
268.216	1251
268.448	1239
268.681	1254
268.913	1196
269.145	1210
269.377	1239
269.609	1254
269.841	1257
270.073	1388
270.306	1622
270.538	2162
270.77	3240
271.002	3892
271.234	2764
271.466	1872
271.698	1541
271.93	1407
272.162	1317
272.394	1298
272.626	1260
272.858	1259
273.09	1229
273.322	1236
273.553	1206
273.785	1217
274.017	1187
274.249	1229
274.481	1212
274.713	1216
274.945	1204
275.176	1184
275.408	1244
275.64	1220
275.872	1243
276.104	1243
276.335	1245
276.567	1273
276.799	1260
277.031	1309
277.262	1337
277.494	1389
277.726	1554
277.957	1817
278.189	2140
278.421	1973
278.652	1801
278.884	1685
279.115	1531
279.347	1430
279.579	1413
279.81	1403
280.042	1389
280.273	1417
280.505	1445
280.736	1493
280.968	1557
281.199	1772
281.431	2063
281.662	2116
281.894	1798
282.125	1643
282.356	1623
282.588	1661
282.819	1725
283.051	1810
283.282	2003
283.513	2499
283.745	3538
283.976	5637
284.207	8020
284.439	7253
284.67	4517
284.901	3713
285.132	3768
285.364	3619
285.595	2680
285.826	2389
286.057	2844
286.288	3883
286.52	5251
286.751	4819
286.982	3067
287.213	2281
287.444	1957
287.675	1899
287.906	1782
288.138	1759
288.369	1701
288.6	1705
288.831	1640
289.062	1639
289.293	1705
289.524	1657
289.755	1706
289.986	1717
290.217	1705
290.448	1705
290.679	1695
290.91	1752
291.141	1877
291.371	2023
291.602	2149
291.833	1957
292.064	1732
292.295	1715
292.526	1633
292.757	1601
292.987	1586
293.218	1602
293.449	1589
293.68	1601
293.91	1589
294.141	1589
294.372	1558
294.603	1558
294.833	1587
295.064	1570
295.295	1570
295.525	1502
295.756	1538
295.987	1541
296.217	1591
296.448	1577
296.679	1571
296.909	1556
297.14	1585
297.37	1596
297.601	1639
297.831	1635
298.062	1610
298.292	1643
298.523	1670
298.753	1718
298.984	1693
299.214	1706
299.445	1736
299.675	1748
299.905	1794
300.136	1931
300.366	2152
300.597	2695
300.827	3889
301.057	5283
301.288	5220
301.518	3419
301.748	2633
301.979	2365
302.209	2274
302.439	2313
302.669	2483
302.9	2968
303.13	4175
303.36	6208
303.59	8236
303.82	7175
304.051	4223
304.281	3009
304.511	2540
304.741	2281
304.971	2187
305.201	2088
305.431	2009
305.661	1937
305.891	1899
306.121	1859
306.352	1870
306.582	1810
306.812	1841
307.042	1832
307.272	1795
307.502	1801
307.731	1813
307.961	1781
308.191	1785
308.421	1799
308.651	1776
308.881	1751
309.111	1791
309.341	1766
309.571	1827
309.8	1823
310.03	1874
310.26	1847
310.49	1830
310.72	1850
310.949	1825
311.179	1882
311.409	1910
311.639	1929
311.868	1931
312.098	1973
312.328	1962
312.557	1941
312.787	1904
313.017	1960
313.246	1993
313.476	1973
313.706	2040
313.935	2168
314.165	2370
314.394	2458
314.624	2382
314.853	2164
315.083	2123
315.312	2169
315.542	2177
315.771	2152
316.001	2233
316.23	2293
316.46	2423
316.689	2695
316.919	3228
317.148	4661
317.377	7175
317.607	10419
317.836	10840
318.065	6619
318.295	4283
318.524	3399
318.753	2995
318.983	2734
319.212	2540
319.441	2426
319.67	2436
319.9	2364
320.129	2393
320.358	2307
320.587	2315
320.816	2336
321.046	2327
321.275	2343
321.504	2384
321.733	2419
321.962	2475
322.191	2560
322.42	2443
322.649	2461
322.878	2447
323.108	2452
323.337	2503
323.566	2529
323.795	2609
324.024	2711
324.253	2693
324.482	2822
324.71	2951
324.939	3219
325.168	3282
325.397	3409
325.626	4023
325.855	5639
326.084	8791
326.313	12809
326.542	13424
326.77	9079
326.999	5917
327.228	4951
327.457	4748
327.686	4800
327.914	5124
328.143	5947
328.372	7080
328.6	7727
328.829	6929
329.058	5803
329.287	5086
329.515	4637
329.744	4257
329.972	4028
330.201	3834
330.43	3731
330.658	3572
330.887	3523
331.115	3476
331.344	3421
331.572	3438
331.801	3423
332.03	3500
332.258	3531
332.486	3743
332.715	4301
332.943	5288
333.172	6732
333.4	6614
333.629	4947
333.857	4489
334.085	4513
334.314	4681
334.542	5074
334.771	6002
334.999	7334
335.227	9256
335.455	10295
335.684	9368
335.912	7670
336.14	6490
336.369	5695
336.597	5240
336.825	4817
337.053	4468
337.281	4289
337.51	3979
337.738	3775
337.966	3704
338.194	3489
338.422	3461
338.65	3344
338.878	3277
339.106	3191
339.334	3203
339.562	3159
339.79	3064
340.018	3064
340.246	3000
340.474	3051
340.702	3016
340.93	2998
341.158	3010
341.386	2956
341.614	2922
341.842	2954
342.07	2829
342.298	2850
342.526	2775
342.754	2710
342.981	2717
343.209	2683
343.437	2745
343.665	2819
343.893	2798
344.12	2789
344.348	2759
344.576	2736
344.804	2679
345.031	2649
345.259	2633
345.487	2572
345.714	2559
345.942	2521
346.17	2507
346.397	2484
346.625	2504
346.853	2512
347.08	2503
347.308	2490
347.535	2482
347.763	2489
347.99	2436
348.218	2473
348.445	2425
348.673	2435
348.9	2455
349.128	2436
349.355	2451
349.583	2404
349.81	2395
350.037	2372
350.265	2391
350.492	2387
350.72	2396
350.947	2387
351.174	2378
351.402	2366
351.629	2411
351.856	2383
352.083	2359
352.311	2344
352.538	2352
352.765	2359
352.992	2378
353.22	2390
353.447	2375
353.674	2335
353.901	2351
354.128	2411
354.355	2396
354.583	2373
354.81	2402
355.037	2423
355.264	2392
355.491	2385
355.718	2424
355.945	2421
356.172	2471
356.399	2390
356.626	2454
356.853	2505
357.08	2483
357.307	2533
357.534	2576
357.761	2537
357.988	2614
358.215	2568
358.441	2521
358.668	2508
358.895	2528
359.122	2495
359.349	2507
359.576	2502
359.802	2510
360.029	2534
360.256	2569
360.483	2505
360.709	2533
360.936	2547
361.163	2554
361.39	2524
361.616	2513
361.843	2535
362.07	2544
362.296	2555
362.523	2563
362.749	2539
362.976	2565
363.203	2545
363.429	2513
363.656	2532
363.882	2513
364.109	2543
364.335	2479
364.562	2537
364.788	2551
365.015	2578
365.241	2691
365.468	2807
365.694	2933
365.92	2868
366.147	2617
366.373	2604
366.599	2659
366.826	2553
367.052	2555
367.278	2564
367.505	2580
367.731	2585
367.957	2629
368.184	2657
368.41	2661
368.636	2661
368.862	2636
369.089	2627
369.315	2659
369.541	2652
369.767	2685
369.993	2624
370.219	2615
370.445	2631
370.672	2678
370.898	2614
371.124	2675
371.35	2682
371.576	2709
371.802	2728
372.028	2730
372.254	2785
372.48	2747
372.706	2792
372.932	2784
373.158	2760
373.384	2810
373.61	2748
373.835	2783
374.061	2771
374.287	2781
374.513	2834
374.739	2887
374.965	2892
375.191	2883
375.416	2931
375.642	2885
375.868	2817
376.094	2804
376.319	2807
376.545	2821
376.771	2757
376.997	2747
377.222	2681
377.448	2732
377.674	2747
377.899	2695
378.125	2749
378.35	2717
378.576	2728
378.802	2791
379.027	2767
379.253	2864
379.478	3046
379.704	3624
379.929	5173
380.155	7930
380.38	8624
380.606	5310
380.831	3729
381.057	3165
381.282	3007
381.507	2819
381.733	2735
381.958	2699
382.184	2716
382.409	2638
382.634	2682
382.86	2653
383.085	2701
383.31	2682
383.535	2638
383.761	2683
383.986	2705
384.211	2648
384.436	2716
384.662	2729
384.887	2766
385.112	2809
385.337	2735
385.562	2749
385.787	2729
386.013	2771
386.238	2714
386.463	2771
386.688	2760
386.913	2717
387.138	2770
387.363	2706
387.588	2705
387.813	2772
388.038	2763
388.263	2754
388.488	2782
388.713	2751
388.938	2751
389.163	2717
389.387	2792
389.612	2735
389.837	2749
390.062	2744
390.287	2759
390.512	2791
390.736	2789
390.961	2881
391.186	2879
391.411	2891
391.636	2930
391.86	2916
392.085	2919
392.31	2891
392.534	2856
392.759	2787
392.984	2818
393.208	2804
393.433	2803
393.658	2790
393.882	2754
394.107	2742
394.331	2814
394.556	2835
394.78	2816
395.005	2842
395.229	2804
395.454	2899
395.678	2886
395.903	2899
396.127	2852
396.352	2799
396.576	2833
396.801	2853
397.025	2876
397.249	2923
397.474	2957
397.698	2939
397.922	2941
398.147	2895
398.371	2949
398.595	2985
398.82	3080
399.044	3148
399.268	3339
399.492	3513
399.717	3623
399.941	3635
400.165	3513
400.389	3342
400.613	3239
400.837	3121
401.062	3101
401.286	3058
401.51	3062
401.734	3015
401.958	3029
402.182	3061
402.406	3040
402.63	3074
402.854	3092
403.078	3055
403.302	3085
403.526	3178
403.75	3149
403.974	3108
404.198	3172
404.422	3119
404.645	3155
404.869	3130
405.093	3121
405.317	3170
405.541	3217
405.765	3244
405.988	3235
406.212	3223
406.436	3244
406.66	3295
406.883	3248
407.107	3297
407.331	3366
407.555	3409
407.778	3417
408.002	3401
408.226	3396
408.449	3301
408.673	3260
408.896	3241
409.12	3173
409.344	3226
409.567	3107
409.791	3165
410.014	3089
410.238	3139
410.461	3164
410.685	3123
410.908	3122
411.132	3091
411.355	3040
411.578	3083
411.802	3053
412.025	3021
412.249	3039
412.472	3043
412.695	2982
412.919	2961
413.142	2948
413.365	2953
413.589	2972
413.812	2918
414.035	2957
414.258	2963
414.482	3002
414.705	3003
414.928	2987
415.151	2937
415.374	2957
415.597	2886
415.821	2907
416.044	2804
416.267	2788
416.49	2844
416.713	2840
416.936	2874
417.159	2848
417.382	2796
417.605	2836
417.828	2852
418.051	2877
418.274	2884
418.497	2901
418.72	2958
418.943	2883
419.166	3001
419.389	3166
419.611	3130
419.834	3042
420.057	2967
420.28	2893
420.503	2867
420.726	2868
420.948	2864
421.171	2870
421.394	2881
421.617	2849
421.839	2885
422.062	2894
422.285	2800
422.507	2901
422.73	2917
422.953	2937
423.175	2958
423.398	2931
423.621	2877
423.843	2885
424.066	2873
424.288	2831
424.511	2839
424.733	2847
424.956	2791
425.178	2828
425.401	2722
425.623	2841
425.846	2742
426.068	2741
426.291	2769
426.513	2727
426.735	2684
426.958	2749
427.18	2698
427.402	2726
427.625	2724
427.847	2632
428.069	2596
428.292	2671
428.514	2643
428.736	2626
428.958	2632
429.181	2640
429.403	2626
429.625	2607
429.847	2624
430.069	2699
430.292	2765
430.514	2819
430.736	2837
430.958	2693
431.18	2604
431.402	2621
431.624	2599
431.846	2587
432.068	2567
432.29	2630
432.512	2588
432.734	2642
432.956	2620
433.178	2663
433.4	2600
433.622	2597
433.844	2625
434.066	2624
434.287	2617
434.509	2660
434.731	2724
434.953	2699
435.175	2728
435.397	2789
435.618	2674
435.84	2652
436.062	2635
436.284	2600
436.505	2609
436.727	2625
436.949	2628
437.17	2625
437.392	2552
437.614	2579
437.835	2521
438.057	2552
438.278	2519
438.5	2541
438.721	2574
438.943	2693
439.165	2722
439.386	2772
439.608	2689
439.829	2699
440.05	2791
440.272	2860
440.493	2723
440.715	2685
440.936	2706
441.158	2707
441.379	2768
441.6	2844
441.822	2892
442.043	3066
442.264	3117
442.486	2943
442.707	2887
442.928	2819
443.149	2802
443.371	2769
443.592	2817
443.813	2824
444.034	2807
444.255	2860
444.476	2900
444.698	3003
444.919	2991
445.14	3000
445.361	2976
445.582	2906
445.803	2784
446.024	2800
446.245	2771
446.466	2761
446.687	2729
446.908	2773
447.129	2678
447.35	2643
447.571	2601
447.792	2596
448.013	2585
448.234	2566
448.455	2558
448.675	2658
448.896	2652
449.117	2762
449.338	3049
449.559	3095
449.779	2840
450	2565
450.221	2559
450.442	2499
450.662	2498
450.883	2481
451.104	2508
451.324	2513
451.545	2542
451.766	2514
451.986	2558
452.207	2854
452.428	3615
452.648	5552
452.869	4653
453.089	3159
453.31	2986
453.53	2948
453.751	2983
453.971	3184
454.192	3124
454.412	2672
454.633	2509
454.853	2502
455.073	2412
455.294	2435
455.514	2387
455.734	2417
455.955	2388
456.175	2385
456.395	2369
456.616	2453
456.836	2444
457.056	2483
457.276	2452
457.497	2613
457.717	2633
457.937	2585
458.157	2544
458.377	2558
458.598	2566
458.818	2614
459.038	2562
459.258	2572
459.478	2630
459.698	2637
459.918	2668
460.138	2693
460.358	2757
460.578	2784
460.798	2875
461.018	2853
461.238	2837
461.458	2874
461.678	2865
461.898	3001
462.118	3010
462.338	3075
462.558	3046
462.777	3084
462.997	3239
463.217	3359
463.437	3493
463.657	3572
463.876	3549
464.096	3382
464.316	3130
464.536	3141
464.755	3142
464.975	2992
465.195	2892
465.414	2820
465.634	2704
465.854	2715
466.073	2668
466.293	2627
466.512	2665
466.732	2662
466.951	2825
467.171	2968
467.391	2916
467.61	2701
467.829	2612
468.049	2591
468.268	2613
468.488	2543
468.707	2595
468.927	2508
469.146	2549
469.365	2562
469.585	2616
469.804	2689
470.023	2710
470.243	2712
470.462	2847
470.681	2952
470.901	3270
471.12	3750
471.339	3799
471.558	3142
471.777	2865
471.997	2787
472.216	2636
472.435	2639
472.654	2569
472.873	2588
473.092	2597
473.311	2544
473.53	2624
473.749	2714
473.968	2757
474.187	2612
474.406	2600
474.625	2618
474.844	2571
475.063	2595
475.282	2560
475.501	2634
475.72	2627
475.939	2625
476.158	2708
476.377	2786
476.596	2727
476.814	2700
477.033	2741
477.252	2764
477.471	2852
477.69	2868
477.908	2883
478.127	2914
478.346	2980
478.564	2968
478.783	2969
479.002	3079
479.22	3120
479.439	3147
479.658	3075
479.876	3126
480.095	3133
480.313	3140
480.532	3210
480.751	3169
480.969	3172
481.188	3118
481.406	3134
481.624	3086
481.843	3180
482.061	3159
482.28	3147
482.498	3125
482.717	3078
482.935	3211
483.153	3225
483.372	3267
483.59	3306
483.808	3350
484.027	3424
484.245	3592
484.463	4068
484.681	4581
484.9	4139
485.118	3746
485.336	3719
485.554	3769
485.772	4051
485.99	4553
486.209	4820
486.427	4084
486.645	3648
486.863	3518
487.081	3397
487.299	3356
487.517	3336
487.735	3331
487.953	3364
488.171	3323
488.389	3321
488.607	3237
488.825	3255
489.043	3294
489.261	3258
489.479	3271
489.696	3260
489.914	3216
490.132	3265
490.35	3271
490.568	3290
490.786	3315
491.003	3349
491.221	3389
491.439	3381
491.657	3393
491.874	3368
492.092	3393
492.31	3404
492.527	3429
492.745	3403
492.963	3368
493.18	3404
493.398	3375
493.615	3393
493.833	3369
494.05	3399
494.268	3410
494.485	3457
494.703	3463
494.92	3391
495.138	3407
495.355	3434
495.573	3398
495.79	3408
496.008	3455
496.225	3476
496.442	3536
496.66	3617
496.877	3852
497.094	3847
497.312	3643
497.529	3699
497.746	3770
497.963	3766
498.181	3873
498.398	3962
498.615	4141
498.832	4223
499.049	4468
499.267	4753
499.484	5025
499.701	5087
499.918	5152
500.135	5402
500.352	5702
500.569	5755
500.786	5726
501.003	5523
501.22	5282
501.437	5014
501.654	4759
501.871	4485
502.088	4348
502.305	4168
502.522	4044
502.739	3932
502.956	3881
503.172	3743
503.389	3659
503.606	3623
503.823	3649
504.04	3548
504.256	3514
504.473	3562
504.69	3520
504.907	3505
505.123	3406
505.34	3288
505.557	3281
505.773	3208
505.99	3205
506.207	3097
506.423	3050
506.64	3106
506.856	3082
507.073	3032
507.289	3055
507.506	3043
507.722	3035
507.939	2942
508.155	2951
508.372	2967
508.588	2946
508.805	2925
509.021	2967
509.238	3003
509.454	3165
509.67	3373
509.887	3125
510.103	3001
510.319	2971
510.536	2925
510.752	2936
510.968	2877
511.184	2828
511.401	2890
511.617	2908
511.833	2869
512.049	2794
512.265	2795
512.481	2817
512.698	2825
512.914	2776
513.13	2838
513.346	2799
513.562	2802
513.778	2840
513.994	2871
514.21	2940
514.426	3139
514.642	3267
514.858	3055
515.074	2881
515.29	2858
515.506	2882
515.721	2887
515.937	2934
516.153	2891
516.369	2969
516.585	2960
516.801	3030
517.016	3025
517.232	3135
517.448	3193
517.664	3230
517.879	3225
518.095	3229
518.311	3176
518.527	3126
518.742	3127
518.958	3172
519.173	3230
519.389	3047
519.605	2942
519.82	2972
520.036	2918
520.251	2836
520.467	2856
520.682	2817
520.898	2770
521.113	2788
521.329	2858
521.544	2771
521.76	2803
521.975	2758
522.19	2745
522.406	2699
522.621	2743
522.836	2717
523.052	2729
523.267	2699
523.482	2675
523.698	2721
523.913	2628
524.128	2739
524.343	2712
524.559	2724
524.774	2692
524.989	2709
525.204	2698
525.419	2695
525.634	2692
525.849	2693
526.064	2659
526.28	2721
526.495	2699
526.71	2657
526.925	2691
527.14	2681
527.355	2664
527.57	2705
527.785	2713
527.999	2744
528.214	2788
528.429	2792
528.644	2751
528.859	2794
529.074	2904
529.289	2914
529.503	2901
529.718	2908
529.933	2813
530.148	2858
530.363	2887
530.577	2874
530.792	2848
531.007	2898
531.221	2970
531.436	2954
531.651	3001
531.865	2942
532.08	3023
532.295	3152
532.509	3340
532.724	3411
532.938	3441
533.153	3519
533.367	3711
533.582	3988
533.796	3903
534.011	3759
534.225	3543
534.44	3472
534.654	3389
534.868	3366
535.083	3254
535.297	3249
535.511	3106
535.726	3076
535.94	3107
536.154	2984
536.369	2969
536.583	2935
536.797	2877
537.011	2873
537.225	2805
537.44	2798
537.654	2831
537.868	2783
538.082	2717
538.296	2680
538.51	2710
538.724	2694
538.938	2721
539.153	2719
539.367	2660
539.581	2626
539.795	2629
540.009	2588
540.222	2561
540.436	2625
540.65	2599
540.864	2648
541.078	2648
541.292	2828
541.506	3304
541.72	3455
541.934	3029
542.147	2852
542.361	2792
