Data from SnStandardFlinnAPT0064_QswitchEnergy10_LIBS07252019.E.O._I.C._HRD10591_15-27-56-974.txt Node
Date: Thu Jul 25 15:27:56 EDT 2019
User: cochatt
Spectrometer: HR+D1059
Trigger mode: 1
Integration Time (sec): 1.000000E-1
Scans to average: 1
Electric dark correction enabled: true
Nonlinearity correction enabled: false
Boxcar width: 0
XAxis mode: Wavelengths
Number of Pixels in Spectrum: 2048
>>>>>Begin Spectral Data<<<<<
223.165	-16.75
223.4	-16.75
223.635	-16.75
223.869	-9.75
224.104	-31.75
224.338	-26.75
224.573	-22.75
224.808	-3.75
225.042	-6.75
225.277	6.25
225.511	7.25
225.746	-3.75
225.98	15.25
226.215	12.25
226.449	11.25
226.683	26.25
226.918	29.25
227.152	14.25
227.387	37.25
227.621	42.25
227.856	51.25
228.09	51.25
228.324	52.25
228.559	54.25
228.793	49.25
229.027	65.25
229.262	60.25
229.496	71.25
229.73	78.25
229.964	61.25
230.199	77.25
230.433	76.25
230.667	83.25
230.901	76.25
231.136	72.25
231.37	84.25
231.604	103.25
231.838	94.25
232.072	98.25
232.306	116.25
232.541	97.25
232.775	83.25
233.009	96.25
233.243	86.25
233.477	92.25
233.711	98.25
233.945	111.25
234.179	81.25
234.413	89.25
234.647	88.25
234.881	89.25
235.115	92.25
235.349	95.25
235.583	99.25
235.817	113.25
236.051	127.25
236.285	89.25
236.519	82.25
236.753	91.25
236.987	81.25
237.221	76.25
237.455	90.25
237.689	82.25
237.922	87.25
238.156	94.25
238.39	88.25
238.624	96.25
238.858	89.25
239.091	84.25
239.325	85.25
239.559	92.25
239.793	90.25
240.027	100.25
240.26	76.25
240.494	68.25
240.728	80.25
240.961	88.25
241.195	79.25
241.429	76.25
241.662	69.25
241.896	78.25
242.13	87.25
242.363	128.25
242.597	155.25
242.83	132.25
243.064	132.25
243.298	165.25
243.531	143.25
243.765	106.25
243.998	79.25
244.232	84.25
244.465	85.25
244.699	69.25
244.932	75.25
245.166	70.25
245.399	93.25
245.633	100.25
245.866	96.25
246.099	80.25
246.333	81.25
246.566	84.25
246.8	105.25
247.033	93.25
247.266	91.25
247.5	89.25
247.733	87.25
247.966	82.25
248.2	86.25
248.433	86.25
248.666	119.25
248.899	111.25
249.133	98.25
249.366	101.25
249.599	90.25
249.832	108.25
250.066	123.25
250.299	92.25
250.532	74.25
250.765	62.25
250.998	83.25
251.231	72.25
251.465	85.25
251.698	77.25
251.931	96.25
252.164	81.25
252.397	85.25
252.63	87.25
252.863	96.25
253.096	91.25
253.329	102.25
253.562	99.25
253.795	83.25
254.028	93.25
254.261	90.25
254.494	83.25
254.727	120.25
254.96	127.25
255.193	122.25
255.426	95.25
255.659	93.25
255.892	87.25
256.124	101.25
256.357	99.25
256.59	91.25
256.823	76.25
257.056	116.25
257.289	151.25
257.521	163.25
257.754	114.25
257.987	100.25
258.22	96.25
258.452	88.25
258.685	89.25
258.918	90.25
259.151	83.25
259.383	115.25
259.616	115.25
259.849	130.25
260.081	103.25
260.314	87.25
260.547	92.25
260.779	77.25
261.012	76.25
261.244	88.25
261.477	77.25
261.71	93.25
261.942	86.25
262.175	85.25
262.407	87.25
262.64	90.25
262.872	83.25
263.105	88.25
263.337	99.25
263.57	91.25
263.802	88.25
264.035	80.25
264.267	86.25
264.499	80.25
264.732	83.25
264.964	87.25
265.197	91.25
265.429	86.25
265.661	83.25
265.894	97.25
266.126	121.25
266.358	152.25
266.591	139.25
266.823	112.25
267.055	100.25
267.287	99.25
267.52	89.25
267.752	86.25
267.984	76.25
268.216	75.25
268.448	88.25
268.681	86.25
268.913	80.25
269.145	82.25
269.377	83.25
269.609	95.25
269.841	96.25
270.073	91.25
270.306	125.25
270.538	191.25
270.77	292.25
271.002	335.25
271.234	179.25
271.466	99.25
271.698	96.25
271.93	101.25
272.162	88.25
272.394	88.25
272.626	92.25
272.858	105.25
273.09	84.25
273.322	83.25
273.553	92.25
273.785	83.25
274.017	99.25
274.249	93.25
274.481	107.25
274.713	87.25
274.945	93.25
275.176	80.25
275.408	90.25
275.64	84.25
275.872	90.25
276.104	85.25
276.335	91.25
276.567	96.25
276.799	91.25
277.031	91.25
277.262	93.25
277.494	103.25
277.726	132.25
277.957	147.25
278.189	224.25
278.421	215.25
278.652	190.25
278.884	175.25
279.115	120.25
279.347	81.25
279.579	94.25
279.81	95.25
280.042	107.25
280.273	101.25
280.505	102.25
280.736	100.25
280.968	132.25
281.199	155.25
281.431	219.25
281.662	234.25
281.894	145.25
282.125	115.25
282.356	107.25
282.588	95.25
282.819	103.25
283.051	117.25
283.282	123.25
283.513	170.25
283.745	276.25
283.976	489.25
284.207	699.25
284.439	535.25
284.67	259.25
284.901	223.25
285.132	301.25
285.364	358.25
285.595	221.25
285.826	171.25
286.057	224.25
286.288	368.25
286.52	573.25
286.751	457.25
286.982	175.25
287.213	110.25
287.444	104.25
287.675	100.25
287.906	104.25
288.138	94.25
288.369	93.25
288.6	99.25
288.831	88.25
289.062	103.25
289.293	79.25
289.524	101.25
289.755	95.25
289.986	100.25
290.217	89.25
290.448	91.25
290.679	106.25
290.91	122.25
291.141	148.25
291.371	206.25
291.602	259.25
291.833	177.25
292.064	117.25
292.295	98.25
292.526	89.25
292.757	96.25
292.987	92.25
293.218	100.25
293.449	89.25
293.68	99.25
293.91	97.25
294.141	76.25
294.372	87.25
294.603	86.25
294.833	87.25
295.064	96.25
295.295	95.25
295.525	92.25
295.756	94.25
295.987	104.25
296.217	95.25
296.448	94.25
296.679	99.25
296.909	106.25
297.14	107.25
297.37	90.25
297.601	97.25
297.831	99.25
298.062	105.25
298.292	107.25
298.523	112.25
298.753	102.25
298.984	92.25
299.214	114.25
299.445	99.25
299.675	108.25
299.905	101.25
300.136	122.25
300.366	152.25
300.597	244.25
300.827	416.25
301.057	632.25
301.288	565.25
301.518	223.25
301.748	153.25
301.979	133.25
302.209	127.25
302.439	133.25
302.669	141.25
302.9	240.25
303.13	476.25
303.36	785.25
303.59	1086.25
303.82	772.25
304.051	273.25
304.281	145.25
304.511	133.25
304.741	125.25
304.971	118.25
305.201	115.25
305.431	106.25
305.661	118.25
305.891	110.25
306.121	114.25
306.352	106.25
306.582	94.25
306.812	107.25
307.042	115.25
307.272	106.25
307.502	102.25
307.731	105.25
307.961	102.25
308.191	108.25
308.421	99.25
308.651	103.25
308.881	111.25
309.111	101.25
309.341	103.25
309.571	114.25
309.8	108.25
310.03	98.25
310.26	103.25
310.49	107.25
310.72	108.25
310.949	102.25
311.179	116.25
311.409	99.25
311.639	121.25
311.868	120.25
312.098	99.25
312.328	115.25
312.557	127.25
312.787	124.25
313.017	105.25
313.246	118.25
313.476	115.25
313.706	120.25
313.935	143.25
314.165	197.25
314.394	197.25
314.624	176.25
314.853	136.25
315.083	123.25
315.312	117.25
315.542	128.25
315.771	123.25
316.001	138.25
316.23	127.25
316.46	144.25
316.689	176.25
316.919	243.25
317.148	455.25
317.377	812.25
317.607	1324.25
317.836	1250.25
318.065	481.25
318.295	200.25
318.524	149.25
318.753	122.25
318.983	143.25
319.212	124.25
319.441	107.25
319.67	119.25
319.9	117.25
320.129	108.25
320.358	113.25
320.587	127.25
320.816	129.25
321.046	127.25
321.275	114.25
321.504	130.25
321.733	147.25
321.962	153.25
322.191	153.25
322.42	130.25
322.649	122.25
322.878	123.25
323.108	129.25
323.337	103.25
323.566	125.25
323.795	125.25
324.024	117.25
324.253	145.25
324.482	165.25
324.71	203.25
324.939	264.25
325.168	216.25
325.397	171.25
325.626	219.25
325.855	436.25
326.084	855.25
326.313	1437.25
326.542	1378.25
326.77	543.25
326.999	233.25
327.228	199.25
327.457	227.25
327.686	223.25
327.914	163.25
328.143	139.25
328.372	122.25
328.6	120.25
328.829	142.25
329.058	108.25
329.287	111.25
329.515	114.25
329.744	115.25
329.972	110.25
330.201	114.25
330.43	91.25
330.658	122.25
330.887	105.25
331.115	116.25
331.344	112.25
331.572	113.25
331.801	119.25
332.03	116.25
332.258	123.25
332.486	171.25
332.715	275.25
332.943	467.25
333.172	685.25
333.4	591.25
333.629	243.25
333.857	147.25
334.085	127.25
334.314	103.25
334.542	119.25
334.771	136.25
334.999	130.25
335.227	125.25
335.455	127.25
335.684	129.25
335.912	117.25
336.14	107.25
336.369	101.25
336.597	125.25
336.825	111.25
337.053	116.25
337.281	106.25
337.51	91.25
337.738	95.25
337.966	117.25
338.194	114.25
338.422	112.25
338.65	104.25
338.878	123.25
339.106	122.25
339.334	120.25
339.562	106.25
339.79	99.25
340.018	103.25
340.246	110.25
340.474	103.25
340.702	125.25
340.93	104.25
341.158	103.25
341.386	114.25
341.614	132.25
341.842	113.25
342.07	128.25
342.298	106.25
342.526	119.25
342.754	113.25
342.981	112.25
343.209	103.25
343.437	113.25
343.665	106.25
343.893	122.25
344.12	104.25
344.348	121.25
344.576	102.25
344.804	116.25
345.031	120.25
345.259	107.25
345.487	127.25
345.714	121.25
345.942	117.25
346.17	121.25
346.397	113.25
346.625	120.25
346.853	104.25
347.08	98.25
347.308	91.25
347.535	106.25
347.763	102.25
347.99	110.25
348.218	101.25
348.445	108.25
348.673	105.25
348.9	111.25
349.128	128.25
349.355	109.25
349.583	121.25
349.81	113.25
350.037	105.25
350.265	107.25
350.492	115.25
350.72	121.25
350.947	111.25
351.174	116.25
351.402	116.25
351.629	108.25
351.856	115.25
352.083	110.25
352.311	102.25
352.538	114.25
352.765	116.25
352.992	90.25
353.22	84.25
353.447	107.25
353.674	115.25
353.901	108.25
354.128	100.25
354.355	108.25
354.583	107.25
354.81	105.25
355.037	105.25
355.264	94.25
355.491	93.25
355.718	88.25
355.945	111.25
356.172	103.25
356.399	111.25
356.626	112.25
356.853	99.25
357.08	110.25
357.307	117.25
357.534	102.25
357.761	99.25
357.988	112.25
358.215	123.25
358.441	115.25
358.668	119.25
358.895	125.25
359.122	121.25
359.349	121.25
359.576	104.25
359.802	120.25
360.029	108.25
360.256	111.25
360.483	100.25
360.709	121.25
360.936	115.25
361.163	100.25
361.39	100.25
361.616	105.25
361.843	126.25
362.07	113.25
362.296	114.25
362.523	104.25
362.749	119.25
362.976	101.25
363.203	114.25
363.429	115.25
363.656	103.25
363.882	107.25
364.109	121.25
364.335	113.25
364.562	87.25
364.788	102.25
365.015	119.25
365.241	123.25
365.468	182.25
365.694	239.25
365.92	193.25
366.147	120.25
366.373	111.25
366.599	85.25
366.826	100.25
367.052	89.25
367.278	99.25
367.505	114.25
367.731	99.25
367.957	88.25
368.184	96.25
368.41	121.25
368.636	135.25
368.862	115.25
369.089	117.25
369.315	100.25
369.541	110.25
369.767	111.25
369.993	125.25
370.219	97.25
370.445	97.25
370.672	103.25
370.898	99.25
371.124	95.25
371.35	102.25
371.576	91.25
371.802	96.25
372.028	124.25
372.254	116.25
372.48	108.25
372.706	119.25
372.932	121.25
373.158	103.25
373.384	97.25
373.61	108.25
373.835	108.25
374.061	106.25
374.287	114.25
374.513	95.25
374.739	102.25
374.965	116.25
375.191	90.25
375.416	105.25
375.642	98.25
375.868	103.25
376.094	96.25
376.319	108.25
376.545	103.25
376.771	105.25
376.997	109.25
377.222	94.25
377.448	96.25
377.674	95.25
377.899	120.25
378.125	97.25
378.35	111.25
378.576	121.25
378.802	102.25
379.027	123.25
379.253	137.25
379.478	167.25
379.704	294.25
379.929	692.25
380.155	1459.25
380.38	1463.25
380.606	491.25
380.831	180.25
381.057	129.25
381.282	133.25
381.507	109.25
381.733	103.25
381.958	106.25
382.184	109.25
382.409	95.25
382.634	96.25
382.86	92.25
383.085	113.25
383.31	98.25
383.535	101.25
383.761	91.25
383.986	102.25
384.211	115.25
384.436	104.25
384.662	93.25
384.887	102.25
385.112	119.25
385.337	96.25
385.562	85.25
385.787	103.25
386.013	106.25
386.238	98.25
386.463	106.25
386.688	107.25
386.913	106.25
387.138	105.25
387.363	126.25
387.588	95.25
387.813	89.25
388.038	97.25
388.263	84.25
388.488	93.25
388.713	104.25
388.938	93.25
389.163	96.25
389.387	119.25
389.612	108.25
389.837	95.25
390.062	110.25
390.287	96.25
390.512	99.25
390.736	97.25
390.961	100.25
391.186	93.25
391.411	104.25
391.636	116.25
391.86	83.25
392.085	107.25
392.31	100.25
392.534	96.25
392.759	106.25
392.984	93.25
393.208	118.25
393.433	147.25
393.658	130.25
393.882	87.25
394.107	100.25
394.331	100.25
394.556	101.25
394.78	95.25
395.005	93.25
395.229	91.25
395.454	114.25
395.678	98.25
395.903	77.25
396.127	105.25
396.352	106.25
396.576	98.25
396.801	108.25
397.025	126.25
397.249	112.25
397.474	106.25
397.698	95.25
397.922	91.25
398.147	106.25
398.371	101.25
398.595	97.25
398.82	116.25
399.044	88.25
399.268	100.25
399.492	95.25
399.717	104.25
399.941	91.25
400.165	96.25
400.389	106.25
400.613	88.25
400.837	108.25
401.062	92.25
401.286	99.25
401.51	108.25
401.734	98.25
401.958	89.25
402.182	96.25
402.406	89.25
402.63	103.25
402.854	91.25
403.078	98.25
403.302	111.25
403.526	98.25
403.75	111.25
403.974	88.25
404.198	103.25
404.422	99.25
404.645	92.25
404.869	102.25
405.093	108.25
405.317	99.25
405.541	125.25
405.765	127.25
405.988	135.25
406.212	115.25
406.436	103.25
406.66	95.25
406.883	106.25
407.107	89.25
407.331	96.25
407.555	106.25
407.778	102.25
408.002	105.25
408.226	111.25
408.449	94.25
408.673	108.25
408.896	101.25
409.12	105.25
409.344	102.25
409.567	100.25
409.791	104.25
410.014	92.25
410.238	111.25
410.461	100.25
410.685	101.25
410.908	100.25
411.132	98.25
411.355	100.25
411.578	102.25
411.802	98.25
412.025	93.25
412.249	95.25
412.472	94.25
412.695	107.25
412.919	107.25
413.142	101.25
413.365	116.25
413.589	90.25
413.812	95.25
414.035	108.25
414.258	102.25
414.482	89.25
414.705	114.25
414.928	99.25
415.151	107.25
415.374	101.25
415.597	98.25
415.821	95.25
416.044	96.25
416.267	107.25
416.49	88.25
416.713	107.25
416.936	77.25
417.159	97.25
417.382	95.25
417.605	90.25
417.828	95.25
418.051	85.25
418.274	88.25
418.497	100.25
418.72	104.25
418.943	96.25
419.166	115.25
419.389	99.25
419.611	111.25
419.834	101.25
420.057	111.25
420.28	104.25
420.503	102.25
420.726	107.25
420.948	93.25
421.171	94.25
421.394	89.25
421.617	87.25
421.839	99.25
422.062	97.25
422.285	87.25
422.507	112.25
422.73	111.25
422.953	147.25
423.175	107.25
423.398	104.25
423.621	107.25
423.843	88.25
424.066	92.25
424.288	88.25
424.511	95.25
424.733	94.25
424.956	92.25
425.178	88.25
425.401	89.25
425.623	100.25
425.846	96.25
426.068	102.25
426.291	83.25
426.513	88.25
426.735	98.25
426.958	100.25
427.18	84.25
427.402	81.25
427.625	106.25
427.847	103.25
428.069	90.25
428.292	113.25
428.514	103.25
428.736	90.25
428.958	111.25
429.181	99.25
429.403	102.25
429.625	106.25
429.847	109.25
430.069	118.25
430.292	102.25
430.514	99.25
430.736	118.25
430.958	95.25
431.18	100.25
431.402	85.25
431.624	104.25
431.846	84.25
432.068	79.25
432.29	91.25
432.512	99.25
432.734	95.25
432.956	84.25
433.178	96.25
433.4	99.25
433.622	91.25
433.844	90.25
434.066	93.25
434.287	103.25
434.509	94.25
434.731	76.25
434.953	89.25
435.175	96.25
435.397	92.25
435.618	78.25
435.84	76.25
436.062	79.25
436.284	93.25
436.505	87.25
436.727	92.25
436.949	86.25
437.17	108.25
437.392	80.25
437.614	98.25
437.835	92.25
438.057	94.25
438.278	76.25
438.5	86.25
438.721	98.25
438.943	98.25
439.165	109.25
439.386	101.25
439.608	116.25
439.829	101.25
440.05	114.25
440.272	119.25
440.493	108.25
440.715	99.25
440.936	87.25
441.158	96.25
441.379	102.25
441.6	80.25
441.822	92.25
442.043	112.25
442.264	107.25
442.486	111.25
442.707	107.25
442.928	107.25
443.149	97.25
443.371	99.25
443.592	96.25
443.813	91.25
444.034	87.25
444.255	94.25
444.476	91.25
444.698	78.25
444.919	97.25
445.14	183.25
445.361	156.25
445.582	114.25
445.803	98.25
446.024	89.25
446.245	104.25
446.466	114.25
446.687	107.25
446.908	87.25
447.129	103.25
447.35	107.25
447.571	101.25
447.792	70.25
448.013	91.25
448.234	92.25
448.455	107.25
448.675	104.25
448.896	113.25
449.117	105.25
449.338	142.25
449.559	141.25
449.779	120.25
450	91.25
450.221	108.25
450.442	106.25
450.662	99.25
450.883	104.25
451.104	99.25
451.324	116.25
451.545	106.25
451.766	104.25
451.986	119.25
452.207	194.25
452.428	490.25
452.648	1184.25
452.869	668.25
453.089	193.25
453.31	114.25
453.53	114.25
453.751	141.25
453.971	153.25
454.192	159.25
454.412	123.25
454.633	106.25
454.853	95.25
455.073	94.25
455.294	85.25
455.514	98.25
455.734	87.25
455.955	96.25
456.175	90.25
456.395	101.25
456.616	89.25
456.836	95.25
457.056	90.25
457.276	105.25
457.497	127.25
457.717	107.25
457.937	90.25
458.157	95.25
458.377	107.25
458.598	86.25
458.818	89.25
459.038	81.25
459.258	87.25
459.478	86.25
459.698	91.25
459.918	87.25
460.138	104.25
460.358	89.25
460.578	78.25
460.798	99.25
461.018	90.25
461.238	83.25
461.458	92.25
461.678	91.25
461.898	97.25
462.118	97.25
462.338	99.25
462.558	103.25
462.777	101.25
462.997	96.25
463.217	111.25
463.437	140.25
463.657	175.25
463.876	169.25
464.096	114.25
464.316	108.25
464.536	100.25
464.755	100.25
464.975	112.25
465.195	78.25
465.414	91.25
465.634	97.25
465.854	93.25
466.073	93.25
466.293	99.25
466.512	95.25
466.732	88.25
466.951	114.25
467.171	131.25
467.391	137.25
467.61	104.25
467.829	88.25
468.049	94.25
468.268	104.25
468.488	95.25
468.707	89.25
468.927	99.25
469.146	84.25
469.365	97.25
469.585	100.25
469.804	96.25
470.023	103.25
470.243	113.25
470.462	114.25
470.681	106.25
470.901	108.25
471.12	167.25
471.339	197.25
471.558	131.25
471.777	112.25
471.997	124.25
472.216	98.25
472.435	75.25
472.654	104.25
472.873	108.25
473.092	96.25
473.311	101.25
473.53	99.25
473.749	95.25
473.968	84.25
474.187	87.25
474.406	88.25
474.625	109.25
474.844	109.25
475.063	87.25
475.282	96.25
475.501	88.25
475.72	98.25
475.939	90.25
476.158	88.25
476.377	123.25
476.596	103.25
476.814	102.25
477.033	94.25
477.252	95.25
477.471	101.25
477.69	92.25
477.908	101.25
478.127	111.25
478.346	84.25
478.564	90.25
478.783	97.25
479.002	83.25
479.22	99.25
479.439	91.25
479.658	111.25
479.876	97.25
480.095	101.25
480.313	100.25
480.532	89.25
480.751	102.25
480.969	87.25
481.188	98.25
481.406	95.25
481.624	100.25
481.843	116.25
482.061	100.25
482.28	100.25
482.498	84.25
482.717	78.25
482.935	99.25
483.153	106.25
483.372	107.25
483.59	91.25
483.808	95.25
484.027	115.25
484.245	110.25
484.463	165.25
484.681	225.25
484.9	135.25
485.118	115.25
485.336	108.25
485.554	113.25
485.772	124.25
485.99	179.25
486.209	230.25
486.427	158.25
486.645	115.25
486.863	107.25
487.081	83.25
487.299	86.25
487.517	90.25
487.735	84.25
487.953	109.25
488.171	104.25
488.389	94.25
488.607	99.25
488.825	79.25
489.043	98.25
489.261	95.25
489.479	101.25
489.696	105.25
489.914	94.25
490.132	109.25
490.35	97.25
490.568	99.25
490.786	95.25
491.003	104.25
491.221	111.25
491.439	108.25
491.657	105.25
491.874	115.25
492.092	102.25
492.31	108.25
492.527	98.25
492.745	89.25
492.963	107.25
493.18	91.25
493.398	109.25
493.615	100.25
493.833	111.25
494.05	107.25
494.268	118.25
494.485	89.25
494.703	96.25
494.92	99.25
495.138	108.25
495.355	108.25
495.573	101.25
495.79	109.25
496.008	93.25
496.225	96.25
496.442	107.25
496.66	128.25
496.877	151.25
497.094	153.25
497.312	118.25
497.529	105.25
497.746	99.25
497.963	96.25
498.181	94.25
498.398	105.25
498.615	100.25
498.832	102.25
499.049	118.25
499.267	127.25
499.484	140.25
499.701	106.25
499.918	95.25
500.135	83.25
500.352	95.25
500.569	99.25
500.786	101.25
501.003	107.25
501.22	101.25
501.437	97.25
501.654	102.25
501.871	112.25
502.088	95.25
502.305	113.25
502.522	91.25
502.739	92.25
502.956	103.25
503.172	106.25
503.389	101.25
503.606	107.25
503.823	113.25
504.04	96.25
504.256	97.25
504.473	102.25
504.69	89.25
504.907	103.25
505.123	117.25
505.34	119.25
505.557	103.25
505.773	102.25
505.99	96.25
506.207	112.25
506.423	98.25
506.64	74.25
506.856	102.25
507.073	99.25
507.289	94.25
507.506	91.25
507.722	116.25
507.939	95.25
508.155	106.25
508.372	96.25
508.588	89.25
508.805	116.25
