Data from SnStandardFlinnAPT0064_QswitchEnergy10_LIBS07252019.E.O._I.C._HRD10591_15-28-07-974.txt Node
Date: Thu Jul 25 15:28:07 EDT 2019
User: cochatt
Spectrometer: HR+D1059
Trigger mode: 1
Integration Time (sec): 1.000000E-1
Scans to average: 1
Electric dark correction enabled: true
Nonlinearity correction enabled: false
Boxcar width: 0
XAxis mode: Wavelengths
Number of Pixels in Spectrum: 2048
>>>>>Begin Spectral Data<<<<<
223.165	-15.38
223.4	-15.38
223.635	-15.38
223.869	-24.38
224.104	-10.38
224.338	-13.38
224.573	-9.38
224.808	-6.38
225.042	-10.38
225.277	-12.38
225.511	4.62
225.746	4.62
225.98	-1.38
226.215	16.62
226.449	15.62
226.683	14.62
226.918	18.62
227.152	28.62
227.387	21.62
227.621	34.62
227.856	37.62
228.09	40.62
228.324	43.62
228.559	50.62
228.793	63.62
229.027	55.62
229.262	68.62
229.496	73.62
229.73	76.62
229.964	71.62
230.199	84.62
230.433	84.62
230.667	81.62
230.901	69.62
231.136	73.62
231.37	84.62
231.604	81.62
231.838	98.62
232.072	133.62
232.306	100.62
232.541	82.62
232.775	98.62
233.009	94.62
233.243	105.62
233.477	93.62
233.711	88.62
233.945	102.62
234.179	86.62
234.413	92.62
234.647	88.62
234.881	91.62
235.115	84.62
235.349	82.62
235.583	116.62
235.817	116.62
236.051	128.62
236.285	99.62
236.519	89.62
236.753	95.62
236.987	97.62
237.221	85.62
237.455	89.62
237.689	69.62
237.922	85.62
238.156	71.62
238.39	79.62
238.624	84.62
238.858	74.62
239.091	75.62
239.325	77.62
239.559	80.62
239.793	72.62
240.027	83.62
240.26	92.62
240.494	94.62
240.728	73.62
240.961	84.62
241.195	76.62
241.429	91.62
241.662	72.62
241.896	82.62
242.13	100.62
242.363	123.62
242.597	144.62
242.83	130.62
243.064	135.62
243.298	187.62
243.531	141.62
243.765	86.62
243.998	91.62
244.232	83.62
244.465	90.62
244.699	60.62
244.932	66.62
245.166	85.62
245.399	78.62
245.633	85.62
245.866	79.62
246.099	91.62
246.333	65.62
246.566	72.62
246.8	88.62
247.033	64.62
247.266	91.62
247.5	77.62
247.733	66.62
247.966	91.62
248.2	102.62
248.433	93.62
248.666	141.62
248.899	125.62
249.133	90.62
249.366	89.62
249.599	101.62
249.832	117.62
250.066	125.62
250.299	99.62
250.532	93.62
250.765	84.62
250.998	78.62
251.231	92.62
251.465	81.62
251.698	95.62
251.931	74.62
252.164	85.62
252.397	90.62
252.63	88.62
252.863	97.62
253.096	112.62
253.329	88.62
253.562	82.62
253.795	89.62
254.028	70.62
254.261	100.62
254.494	100.62
254.727	119.62
254.96	160.62
255.193	123.62
255.426	102.62
255.659	83.62
255.892	93.62
256.124	96.62
256.357	92.62
256.59	94.62
256.823	91.62
257.056	102.62
257.289	148.62
257.521	165.62
257.754	122.62
257.987	82.62
258.22	85.62
258.452	78.62
258.685	87.62
258.918	83.62
259.151	93.62
259.383	106.62
259.616	143.62
259.849	140.62
260.081	97.62
260.314	90.62
260.547	82.62
260.779	85.62
261.012	67.62
261.244	75.62
261.477	91.62
261.71	91.62
261.942	84.62
262.175	104.62
262.407	96.62
262.64	89.62
262.872	95.62
263.105	89.62
263.337	83.62
263.57	88.62
263.802	79.62
264.035	81.62
264.267	101.62
264.499	87.62
264.732	92.62
264.964	87.62
265.197	76.62
265.429	87.62
265.661	93.62
265.894	94.62
266.126	135.62
266.358	154.62
266.591	143.62
266.823	108.62
267.055	88.62
267.287	93.62
267.52	77.62
267.752	90.62
267.984	84.62
268.216	83.62
268.448	103.62
268.681	96.62
268.913	96.62
269.145	90.62
269.377	91.62
269.609	94.62
269.841	96.62
270.073	111.62
270.306	121.62
270.538	198.62
270.77	318.62
271.002	369.62
271.234	200.62
271.466	112.62
271.698	99.62
271.93	91.62
272.162	87.62
272.394	84.62
272.626	83.62
272.858	84.62
273.09	94.62
273.322	88.62
273.553	86.62
273.785	83.62
274.017	73.62
274.249	97.62
274.481	83.62
274.713	95.62
274.945	92.62
275.176	80.62
275.408	86.62
275.64	102.62
275.872	90.62
276.104	98.62
276.335	91.62
276.567	104.62
276.799	104.62
277.031	103.62
277.262	91.62
277.494	94.62
277.726	124.62
277.957	160.62
278.189	236.62
278.421	226.62
278.652	184.62
278.884	161.62
279.115	134.62
279.347	120.62
279.579	92.62
279.81	100.62
280.042	107.62
280.273	98.62
280.505	112.62
280.736	101.62
280.968	124.62
281.199	165.62
281.431	224.62
281.662	260.62
281.894	147.62
282.125	109.62
282.356	105.62
282.588	112.62
282.819	116.62
283.051	124.62
283.282	128.62
283.513	164.62
283.745	306.62
283.976	535.62
284.207	763.62
284.439	581.62
284.67	281.62
284.901	248.62
285.132	336.62
285.364	369.62
285.595	217.62
285.826	152.62
286.057	240.62
286.288	404.62
286.52	602.62
286.751	475.62
286.982	197.62
287.213	115.62
287.444	109.62
287.675	89.62
287.906	93.62
288.138	94.62
288.369	98.62
288.6	96.62
288.831	90.62
289.062	103.62
289.293	97.62
289.524	90.62
289.755	105.62
289.986	84.62
290.217	79.62
290.448	93.62
290.679	106.62
290.91	116.62
291.141	152.62
291.371	219.62
291.602	243.62
291.833	191.62
292.064	104.62
292.295	93.62
292.526	95.62
292.757	96.62
292.987	110.62
293.218	93.62
293.449	94.62
293.68	97.62
293.91	84.62
294.141	93.62
294.372	92.62
294.603	88.62
294.833	95.62
295.064	99.62
295.295	99.62
295.525	85.62
295.756	82.62
295.987	87.62
296.217	85.62
296.448	87.62
296.679	106.62
296.909	91.62
297.14	87.62
297.37	102.62
297.601	109.62
297.831	93.62
298.062	97.62
298.292	84.62
298.523	106.62
298.753	104.62
298.984	103.62
299.214	95.62
299.445	120.62
299.675	112.62
299.905	119.62
300.136	130.62
300.366	160.62
300.597	256.62
300.827	418.62
301.057	642.62
301.288	601.62
301.518	248.62
301.748	142.62
301.979	132.62
302.209	115.62
302.439	131.62
302.669	178.62
302.9	274.62
303.13	478.62
303.36	843.62
303.59	1161.62
303.82	796.62
304.051	289.62
304.281	142.62
304.511	133.62
304.741	112.62
304.971	112.62
305.201	120.62
305.431	94.62
305.661	107.62
305.891	101.62
306.121	114.62
306.352	123.62
306.582	101.62
306.812	123.62
307.042	100.62
307.272	112.62
307.502	104.62
307.731	119.62
307.961	109.62
308.191	94.62
308.421	105.62
308.651	98.62
308.881	122.62
309.111	110.62
309.341	92.62
309.571	102.62
309.8	100.62
310.03	104.62
310.26	98.62
310.49	101.62
310.72	108.62
310.949	122.62
311.179	113.62
311.409	102.62
311.639	109.62
311.868	120.62
312.098	92.62
312.328	109.62
312.557	99.62
312.787	116.62
313.017	141.62
313.246	119.62
313.476	112.62
313.706	133.62
313.935	141.62
314.165	192.62
314.394	222.62
314.624	177.62
314.853	133.62
315.083	110.62
315.312	118.62
315.542	126.62
315.771	121.62
316.001	136.62
316.23	131.62
316.46	144.62
316.689	176.62
316.919	242.62
317.148	468.62
317.377	880.62
317.607	1397.62
317.836	1348.62
318.065	475.62
318.295	208.62
318.524	150.62
318.753	141.62
318.983	126.62
319.212	116.62
319.441	114.62
319.67	115.62
319.9	107.62
320.129	121.62
320.358	118.62
320.587	121.62
320.816	128.62
321.046	124.62
321.275	125.62
321.504	148.62
321.733	115.62
321.962	144.62
322.191	143.62
322.42	127.62
322.649	134.62
322.878	130.62
323.108	113.62
323.337	121.62
323.566	132.62
323.795	121.62
324.024	121.62
324.253	132.62
324.482	182.62
324.71	223.62
324.939	270.62
325.168	218.62
325.397	181.62
325.626	243.62
325.855	454.62
326.084	895.62
326.313	1534.62
326.542	1538.62
326.77	587.62
326.999	252.62
327.228	209.62
327.457	212.62
327.686	228.62
327.914	157.62
328.143	132.62
328.372	132.62
328.6	125.62
328.829	101.62
329.058	107.62
329.287	114.62
329.515	106.62
329.744	123.62
329.972	112.62
330.201	100.62
330.43	116.62
330.658	104.62
330.887	106.62
331.115	103.62
331.344	113.62
331.572	119.62
331.801	111.62
332.03	133.62
332.258	125.62
332.486	170.62
332.715	267.62
332.943	492.62
333.172	727.62
333.4	656.62
333.629	236.62
333.857	143.62
334.085	122.62
334.314	116.62
334.542	114.62
334.771	124.62
334.999	124.62
335.227	131.62
335.455	120.62
335.684	120.62
335.912	109.62
336.14	120.62
336.369	101.62
336.597	110.62
336.825	99.62
337.053	125.62
337.281	118.62
337.51	119.62
337.738	124.62
337.966	88.62
338.194	112.62
338.422	104.62
338.65	113.62
338.878	115.62
339.106	121.62
339.334	117.62
339.562	120.62
339.79	119.62
340.018	118.62
340.246	121.62
340.474	112.62
340.702	114.62
340.93	104.62
341.158	110.62
341.386	107.62
341.614	120.62
341.842	119.62
342.07	128.62
342.298	130.62
342.526	118.62
342.754	108.62
342.981	102.62
343.209	106.62
343.437	124.62
343.665	112.62
343.893	109.62
344.12	97.62
344.348	116.62
344.576	106.62
344.804	116.62
345.031	114.62
345.259	101.62
345.487	107.62
345.714	111.62
345.942	120.62
346.17	105.62
346.397	114.62
346.625	106.62
346.853	109.62
347.08	105.62
347.308	108.62
347.535	102.62
347.763	115.62
347.99	110.62
348.218	109.62
348.445	117.62
348.673	116.62
348.9	111.62
349.128	123.62
349.355	112.62
349.583	112.62
349.81	113.62
350.037	102.62
350.265	122.62
350.492	112.62
350.72	121.62
350.947	115.62
351.174	119.62
351.402	109.62
351.629	110.62
351.856	107.62
352.083	121.62
352.311	95.62
352.538	103.62
352.765	93.62
352.992	96.62
353.22	103.62
353.447	105.62
353.674	102.62
353.901	112.62
354.128	113.62
354.355	118.62
354.583	112.62
354.81	93.62
355.037	99.62
355.264	91.62
355.491	115.62
355.718	93.62
355.945	101.62
356.172	93.62
356.399	101.62
356.626	98.62
356.853	112.62
357.08	112.62
357.307	100.62
357.534	112.62
357.761	122.62
357.988	102.62
358.215	108.62
358.441	94.62
358.668	111.62
358.895	115.62
359.122	129.62
359.349	128.62
359.576	118.62
359.802	104.62
360.029	114.62
360.256	109.62
360.483	113.62
360.709	122.62
360.936	107.62
361.163	109.62
361.39	104.62
361.616	120.62
361.843	117.62
362.07	124.62
362.296	121.62
362.523	114.62
362.749	125.62
362.976	104.62
363.203	107.62
363.429	117.62
363.656	96.62
363.882	104.62
364.109	114.62
364.335	114.62
364.562	102.62
364.788	98.62
365.015	105.62
365.241	122.62
365.468	171.62
365.694	232.62
365.92	198.62
366.147	113.62
366.373	109.62
366.599	102.62
366.826	100.62
367.052	101.62
367.278	114.62
367.505	102.62
367.731	98.62
367.957	105.62
368.184	114.62
368.41	114.62
368.636	108.62
368.862	101.62
369.089	108.62
369.315	108.62
369.541	112.62
369.767	105.62
369.993	116.62
370.219	94.62
370.445	104.62
370.672	102.62
370.898	102.62
371.124	107.62
371.35	95.62
371.576	97.62
371.802	115.62
372.028	112.62
372.254	115.62
372.48	118.62
372.706	105.62
372.932	115.62
373.158	115.62
373.384	105.62
373.61	99.62
373.835	106.62
374.061	102.62
374.287	107.62
374.513	104.62
374.739	121.62
374.965	110.62
375.191	104.62
375.416	109.62
375.642	97.62
375.868	101.62
376.094	106.62
376.319	108.62
376.545	106.62
376.771	110.62
376.997	109.62
377.222	108.62
377.448	107.62
377.674	102.62
377.899	121.62
378.125	105.62
378.35	115.62
378.576	125.62
378.802	110.62
379.027	126.62
379.253	129.62
379.478	178.62
379.704	296.62
379.929	742.62
380.155	1522.62
380.38	1564.62
380.606	523.62
380.831	197.62
381.057	137.62
381.282	123.62
381.507	119.62
381.733	121.62
381.958	106.62
382.184	107.62
382.409	95.62
382.634	109.62
382.86	118.62
383.085	113.62
383.31	110.62
383.535	104.62
383.761	100.62
383.986	91.62
384.211	104.62
384.436	101.62
384.662	101.62
384.887	104.62
385.112	98.62
385.337	113.62
385.562	118.62
385.787	122.62
386.013	112.62
386.238	101.62
386.463	109.62
386.688	110.62
386.913	90.62
387.138	116.62
387.363	104.62
387.588	105.62
387.813	110.62
388.038	106.62
388.263	108.62
388.488	102.62
388.713	108.62
388.938	98.62
389.163	107.62
389.387	108.62
389.612	107.62
389.837	93.62
390.062	115.62
390.287	113.62
390.512	99.62
390.736	91.62
390.961	113.62
391.186	103.62
391.411	97.62
391.636	99.62
391.86	94.62
392.085	86.62
392.31	110.62
392.534	98.62
392.759	93.62
392.984	104.62
393.208	122.62
393.433	143.62
393.658	135.62
393.882	98.62
394.107	98.62
394.331	104.62
394.556	101.62
394.78	101.62
395.005	99.62
395.229	105.62
395.454	106.62
395.678	120.62
395.903	110.62
396.127	104.62
396.352	113.62
396.576	103.62
396.801	118.62
397.025	120.62
397.249	106.62
397.474	113.62
397.698	107.62
397.922	107.62
398.147	100.62
398.371	101.62
398.595	109.62
398.82	98.62
399.044	120.62
399.268	92.62
399.492	101.62
399.717	95.62
399.941	105.62
400.165	109.62
400.389	96.62
400.613	97.62
400.837	104.62
401.062	98.62
401.286	105.62
401.51	94.62
401.734	93.62
401.958	91.62
402.182	103.62
402.406	102.62
402.63	96.62
402.854	85.62
403.078	109.62
403.302	104.62
403.526	101.62
403.75	88.62
403.974	99.62
404.198	100.62
404.422	97.62
404.645	98.62
404.869	96.62
405.093	101.62
405.317	106.62
405.541	97.62
405.765	122.62
405.988	148.62
406.212	110.62
406.436	98.62
406.66	84.62
406.883	93.62
407.107	110.62
407.331	87.62
407.555	94.62
407.778	94.62
408.002	93.62
408.226	112.62
408.449	88.62
408.673	100.62
408.896	93.62
409.12	111.62
409.344	93.62
409.567	102.62
409.791	104.62
410.014	102.62
410.238	96.62
410.461	94.62
410.685	105.62
410.908	107.62
411.132	104.62
411.355	91.62
411.578	109.62
411.802	100.62
412.025	76.62
412.249	96.62
412.472	105.62
412.695	98.62
412.919	101.62
413.142	95.62
413.365	95.62
413.589	91.62
413.812	110.62
414.035	105.62
414.258	114.62
414.482	109.62
414.705	116.62
414.928	118.62
415.151	103.62
415.374	106.62
415.597	94.62
415.821	103.62
416.044	96.62
416.267	110.62
416.49	101.62
416.713	99.62
416.936	88.62
417.159	99.62
417.382	80.62
417.605	95.62
417.828	98.62
418.051	94.62
418.274	97.62
418.497	100.62
418.72	96.62
418.943	96.62
419.166	104.62
419.389	114.62
419.611	104.62
419.834	92.62
420.057	83.62
420.28	119.62
420.503	109.62
420.726	97.62
420.948	101.62
421.171	99.62
421.394	100.62
421.617	89.62
421.839	93.62
422.062	100.62
422.285	103.62
422.507	101.62
422.73	135.62
422.953	138.62
423.175	122.62
423.398	102.62
423.621	93.62
423.843	105.62
424.066	98.62
424.288	98.62
424.511	98.62
424.733	110.62
424.956	92.62
425.178	107.62
425.401	104.62
425.623	97.62
425.846	102.62
426.068	92.62
426.291	97.62
426.513	101.62
426.735	88.62
426.958	102.62
427.18	93.62
427.402	105.62
427.625	95.62
427.847	90.62
428.069	105.62
428.292	86.62
428.514	102.62
428.736	109.62
428.958	94.62
429.181	107.62
429.403	100.62
429.625	101.62
429.847	116.62
430.069	108.62
430.292	105.62
430.514	109.62
430.736	96.62
430.958	109.62
431.18	86.62
431.402	103.62
431.624	100.62
431.846	106.62
432.068	103.62
432.29	94.62
432.512	92.62
432.734	93.62
432.956	96.62
433.178	101.62
433.4	99.62
433.622	90.62
433.844	94.62
434.066	106.62
434.287	92.62
434.509	90.62
434.731	97.62
434.953	78.62
435.175	96.62
435.397	103.62
435.618	82.62
435.84	95.62
436.062	100.62
436.284	93.62
436.505	84.62
436.727	96.62
436.949	98.62
437.17	101.62
437.392	100.62
437.614	92.62
437.835	94.62
438.057	108.62
438.278	106.62
438.5	107.62
438.721	116.62
438.943	107.62
439.165	112.62
439.386	134.62
439.608	109.62
439.829	105.62
440.05	122.62
440.272	130.62
440.493	94.62
440.715	97.62
440.936	104.62
441.158	101.62
441.379	111.62
441.6	91.62
441.822	123.62
442.043	109.62
442.264	126.62
442.486	106.62
442.707	95.62
442.928	111.62
443.149	109.62
443.371	93.62
443.592	98.62
443.813	97.62
444.034	93.62
444.255	102.62
444.476	104.62
444.698	85.62
444.919	97.62
445.14	189.62
445.361	131.62
445.582	92.62
445.803	94.62
446.024	106.62
446.245	99.62
446.466	103.62
446.687	112.62
446.908	88.62
447.129	90.62
447.35	78.62
447.571	104.62
447.792	96.62
448.013	107.62
448.234	76.62
448.455	89.62
448.675	101.62
448.896	114.62
449.117	106.62
449.338	127.62
449.559	153.62
449.779	123.62
450	98.62
450.221	99.62
450.442	114.62
450.662	121.62
450.883	115.62
451.104	105.62
451.324	124.62
451.545	114.62
451.766	114.62
451.986	130.62
452.207	212.62
452.428	510.62
452.648	1268.62
452.869	713.62
453.089	202.62
453.31	135.62
453.53	111.62
453.751	133.62
453.971	153.62
454.192	138.62
454.412	104.62
454.633	108.62
454.853	96.62
455.073	89.62
455.294	101.62
455.514	103.62
455.734	99.62
455.955	89.62
456.175	92.62
456.395	89.62
456.616	97.62
456.836	94.62
457.056	79.62
457.276	109.62
457.497	107.62
457.717	122.62
457.937	99.62
458.157	89.62
458.377	82.62
458.598	97.62
458.818	94.62
459.038	90.62
459.258	82.62
459.478	89.62
459.698	83.62
459.918	89.62
460.138	104.62
460.358	98.62
460.578	83.62
460.798	106.62
461.018	99.62
461.238	100.62
461.458	92.62
461.678	90.62
461.898	89.62
462.118	104.62
462.338	93.62
462.558	96.62
462.777	97.62
462.997	105.62
463.217	101.62
463.437	146.62
463.657	174.62
463.876	182.62
464.096	128.62
464.316	106.62
464.536	89.62
464.755	97.62
464.975	109.62
465.195	88.62
465.414	99.62
465.634	93.62
465.854	85.62
466.073	81.62
466.293	101.62
466.512	109.62
466.732	109.62
466.951	106.62
467.171	152.62
467.391	129.62
467.61	92.62
467.829	112.62
468.049	90.62
468.268	88.62
468.488	103.62
468.707	93.62
468.927	101.62
469.146	92.62
469.365	92.62
469.585	90.62
469.804	101.62
470.023	90.62
470.243	104.62
470.462	118.62
470.681	126.62
470.901	124.62
471.12	201.62
471.339	217.62
471.558	120.62
471.777	128.62
471.997	109.62
472.216	94.62
472.435	91.62
472.654	72.62
472.873	97.62
473.092	100.62
473.311	107.62
473.53	98.62
473.749	97.62
473.968	91.62
474.187	96.62
474.406	100.62
474.625	91.62
474.844	98.62
475.063	91.62
475.282	90.62
475.501	84.62
475.72	84.62
475.939	102.62
476.158	109.62
476.377	123.62
476.596	103.62
476.814	88.62
477.033	109.62
477.252	99.62
477.471	90.62
477.69	99.62
477.908	108.62
478.127	107.62
478.346	84.62
478.564	109.62
478.783	99.62
479.002	94.62
479.22	92.62
479.439	89.62
479.658	98.62
479.876	88.62
480.095	85.62
480.313	85.62
480.532	93.62
480.751	98.62
480.969	92.62
481.188	91.62
481.406	108.62
481.624	102.62
481.843	121.62
482.061	113.62
482.28	92.62
482.498	100.62
482.717	105.62
482.935	95.62
483.153	97.62
483.372	89.62
483.59	96.62
483.808	106.62
484.027	101.62
484.245	111.62
484.463	169.62
484.681	243.62
484.9	138.62
485.118	114.62
485.336	90.62
485.554	107.62
485.772	128.62
485.99	189.62
486.209	252.62
486.427	176.62
486.645	117.62
486.863	105.62
487.081	90.62
487.299	90.62
487.517	102.62
487.735	102.62
487.953	97.62
488.171	96.62
488.389	104.62
488.607	99.62
488.825	87.62
489.043	90.62
489.261	103.62
489.479	118.62
489.696	117.62
489.914	113.62
490.132	109.62
490.35	100.62
490.568	99.62
490.786	85.62
491.003	105.62
491.221	103.62
491.439	119.62
491.657	104.62
491.874	95.62
492.092	100.62
492.31	112.62
492.527	98.62
492.745	98.62
492.963	106.62
493.18	95.62
493.398	105.62
493.615	97.62
493.833	102.62
494.05	111.62
494.268	92.62
494.485	99.62
494.703	96.62
494.92	105.62
495.138	113.62
495.355	113.62
495.573	93.62
495.79	103.62
496.008	109.62
496.225	109.62
496.442	100.62
496.66	106.62
496.877	160.62
497.094	141.62
497.312	103.62
497.529	90.62
497.746	101.62
497.963	109.62
498.181	97.62
498.398	97.62
498.615	108.62
498.832	94.62
499.049	101.62
499.267	125.62
499.484	163.62
499.701	121.62
499.918	118.62
500.135	105.62
500.352	99.62
500.569	101.62
500.786	97.62
501.003	108.62
501.22	101.62
501.437	105.62
501.654	91.62
501.871	105.62
502.088	103.62
502.305	83.62
502.522	95.62
502.739	105.62
502.956	101.62
503.172	99.62
503.389	100.62
503.606	99.62
503.823	94.62
504.04	101.62
504.256	89.62
504.473	99.62
504.69	114.62
504.907	106.62
505.123	122.62
505.34	95.62
505.557	100.62
505.773	113.62
505.99	108.62
506.207	116.62
506.423	97.62
506.64	121.62
506.856	112.62
507.073	113.62
507.289	101.62
507.506	103.62
507.722	96.62
507.939	105.62
508.155	94.62
