Data from SnStandardFlinnAPT0064_QswitchEnergy10_LIBS07252019.E.O._I.C._HRD10591_15-27-16-973.txt Node
Date: Thu Jul 25 15:27:16 EDT 2019
User: cochatt
Spectrometer: HR+D1059
Trigger mode: 1
Integration Time (sec): 1.000000E-1
Scans to average: 1
Electric dark correction enabled: true
Nonlinearity correction enabled: false
Boxcar width: 0
XAxis mode: Wavelengths
Number of Pixels in Spectrum: 2048
>>>>>Begin Spectral Data<<<<<
223.165	-19.38
223.4	-19.38
223.635	-19.38
223.869	-17.38
224.104	-6.38
224.338	-4.38
224.573	-18.38
224.808	-21.38
225.042	4.62
225.277	1.62
225.511	0.62
225.746	5.62
225.98	-1.38
226.215	11.62
226.449	15.62
226.683	6.62
226.918	20.62
227.152	21.62
227.387	34.62
227.621	32.62
227.856	35.62
228.09	43.62
228.324	38.62
228.559	35.62
228.793	53.62
229.027	69.62
229.262	79.62
229.496	81.62
229.73	67.62
229.964	78.62
230.199	74.62
230.433	86.62
230.667	82.62
230.901	87.62
231.136	79.62
231.37	84.62
231.604	88.62
231.838	95.62
232.072	116.62
232.306	131.62
232.541	98.62
232.775	90.62
233.009	77.62
233.243	87.62
233.477	72.62
233.711	70.62
233.945	113.62
234.179	83.62
234.413	91.62
234.647	79.62
234.881	82.62
235.115	96.62
235.349	90.62
235.583	98.62
235.817	124.62
236.051	138.62
236.285	89.62
236.519	83.62
236.753	90.62
236.987	79.62
237.221	88.62
237.455	84.62
237.689	80.62
237.922	60.62
238.156	71.62
238.39	81.62
238.624	78.62
238.858	82.62
239.091	84.62
239.325	75.62
239.559	82.62
239.793	80.62
240.027	87.62
240.26	72.62
240.494	70.62
240.728	95.62
240.961	72.62
241.195	89.62
241.429	93.62
241.662	88.62
241.896	100.62
242.13	105.62
242.363	126.62
242.597	165.62
242.83	148.62
243.064	135.62
243.298	158.62
243.531	145.62
243.765	92.62
243.998	86.62
244.232	88.62
244.465	78.62
244.699	74.62
244.932	71.62
245.166	76.62
245.399	71.62
245.633	77.62
245.866	92.62
246.099	76.62
246.333	86.62
246.566	82.62
246.8	69.62
247.033	84.62
247.266	88.62
247.5	76.62
247.733	59.62
247.966	87.62
248.2	93.62
248.433	101.62
248.666	117.62
248.899	118.62
249.133	106.62
249.366	100.62
249.599	80.62
249.832	122.62
250.066	120.62
250.299	96.62
250.532	89.62
250.765	80.62
250.998	96.62
251.231	76.62
251.465	82.62
251.698	86.62
251.931	71.62
252.164	99.62
252.397	94.62
252.63	89.62
252.863	89.62
253.096	81.62
253.329	103.62
253.562	91.62
253.795	87.62
254.028	72.62
254.261	89.62
254.494	95.62
254.727	124.62
254.96	134.62
255.193	119.62
255.426	96.62
255.659	78.62
255.892	97.62
256.124	88.62
256.357	85.62
256.59	82.62
256.823	89.62
257.056	91.62
257.289	137.62
257.521	176.62
257.754	120.62
257.987	91.62
258.22	94.62
258.452	93.62
258.685	89.62
258.918	94.62
259.151	76.62
259.383	101.62
259.616	121.62
259.849	148.62
260.081	100.62
260.314	88.62
260.547	81.62
260.779	85.62
261.012	87.62
261.244	66.62
261.477	98.62
261.71	88.62
261.942	75.62
262.175	85.62
262.407	72.62
262.64	74.62
262.872	80.62
263.105	73.62
263.337	90.62
263.57	88.62
263.802	73.62
264.035	97.62
264.267	76.62
264.499	89.62
264.732	87.62
264.964	88.62
265.197	84.62
265.429	88.62
265.661	94.62
265.894	96.62
266.126	110.62
266.358	149.62
266.591	154.62
266.823	99.62
267.055	80.62
267.287	77.62
267.52	84.62
267.752	92.62
267.984	82.62
268.216	85.62
268.448	88.62
268.681	76.62
268.913	83.62
269.145	92.62
269.377	86.62
269.609	86.62
269.841	102.62
270.073	109.62
270.306	123.62
270.538	188.62
270.77	295.62
271.002	357.62
271.234	206.62
271.466	108.62
271.698	70.62
271.93	101.62
272.162	78.62
272.394	85.62
272.626	77.62
272.858	85.62
273.09	86.62
273.322	89.62
273.553	77.62
273.785	81.62
274.017	97.62
274.249	87.62
274.481	65.62
274.713	63.62
274.945	78.62
275.176	79.62
275.408	93.62
275.64	86.62
275.872	90.62
276.104	84.62
276.335	94.62
276.567	87.62
276.799	87.62
277.031	89.62
277.262	97.62
277.494	98.62
277.726	127.62
277.957	181.62
278.189	254.62
278.421	232.62
278.652	174.62
278.884	193.62
279.115	134.62
279.347	117.62
279.579	87.62
279.81	88.62
280.042	98.62
280.273	91.62
280.505	86.62
280.736	116.62
280.968	115.62
281.199	180.62
281.431	217.62
281.662	231.62
281.894	144.62
282.125	104.62
282.356	114.62
282.588	101.62
282.819	110.62
283.051	120.62
283.282	127.62
283.513	176.62
283.745	293.62
283.976	529.62
284.207	781.62
284.439	594.62
284.67	265.62
284.901	252.62
285.132	342.62
285.364	382.62
285.595	220.62
285.826	162.62
286.057	232.62
286.288	406.62
286.52	590.62
286.751	497.62
286.982	198.62
287.213	118.62
287.444	117.62
287.675	112.62
287.906	94.62
288.138	97.62
288.369	102.62
288.6	82.62
288.831	85.62
289.062	105.62
289.293	89.62
289.524	90.62
289.755	86.62
289.986	80.62
290.217	92.62
290.448	99.62
290.679	84.62
290.91	116.62
291.141	155.62
291.371	215.62
291.602	255.62
291.833	187.62
292.064	120.62
292.295	94.62
292.526	101.62
292.757	85.62
292.987	100.62
293.218	97.62
293.449	85.62
293.68	99.62
293.91	85.62
294.141	92.62
294.372	91.62
294.603	78.62
294.833	94.62
295.064	104.62
295.295	93.62
295.525	96.62
295.756	97.62
295.987	110.62
296.217	105.62
296.448	98.62
296.679	95.62
296.909	97.62
297.14	104.62
297.37	96.62
297.601	102.62
297.831	86.62
298.062	84.62
298.292	92.62
298.523	99.62
298.753	101.62
298.984	113.62
299.214	118.62
299.445	101.62
299.675	96.62
299.905	108.62
300.136	108.62
300.366	142.62
300.597	246.62
300.827	444.62
301.057	678.62
301.288	608.62
301.518	250.62
301.748	144.62
301.979	124.62
302.209	128.62
302.439	116.62
302.669	159.62
302.9	267.62
303.13	497.62
303.36	840.62
303.59	1197.62
303.82	818.62
304.051	289.62
304.281	159.62
304.511	131.62
304.741	112.62
304.971	100.62
305.201	114.62
305.431	107.62
305.661	99.62
305.891	108.62
306.121	106.62
306.352	109.62
306.582	110.62
306.812	99.62
307.042	105.62
307.272	84.62
307.502	98.62
307.731	98.62
307.961	91.62
308.191	102.62
308.421	95.62
308.651	108.62
308.881	94.62
309.111	116.62
309.341	105.62
309.571	101.62
309.8	95.62
310.03	108.62
310.26	94.62
310.49	97.62
310.72	98.62
310.949	101.62
311.179	101.62
311.409	98.62
311.639	108.62
311.868	95.62
312.098	94.62
312.328	124.62
312.557	112.62
312.787	117.62
313.017	95.62
313.246	107.62
313.476	99.62
313.706	117.62
313.935	145.62
314.165	189.62
314.394	210.62
314.624	167.62
314.853	114.62
315.083	119.62
315.312	114.62
315.542	128.62
315.771	131.62
316.001	133.62
316.23	132.62
316.46	130.62
316.689	169.62
316.919	254.62
317.148	464.62
317.377	887.62
317.607	1421.62
317.836	1330.62
318.065	529.62
318.295	212.62
318.524	160.62
318.753	139.62
318.983	120.62
319.212	121.62
319.441	103.62
319.67	114.62
319.9	128.62
320.129	101.62
320.358	106.62
320.587	119.62
320.816	120.62
321.046	132.62
321.275	126.62
321.504	118.62
321.733	137.62
321.962	143.62
322.191	168.62
322.42	130.62
322.649	122.62
322.878	121.62
323.108	125.62
323.337	112.62
323.566	125.62
323.795	123.62
324.024	123.62
324.253	122.62
324.482	169.62
324.71	206.62
324.939	272.62
325.168	216.62
325.397	179.62
325.626	250.62
325.855	462.62
326.084	930.62
326.313	1577.62
326.542	1541.62
326.77	600.62
326.999	259.62
327.228	182.62
327.457	188.62
327.686	213.62
327.914	148.62
328.143	138.62
328.372	122.62
328.6	132.62
328.829	102.62
329.058	105.62
329.287	119.62
329.515	127.62
329.744	123.62
329.972	92.62
330.201	122.62
330.43	102.62
330.658	91.62
330.887	116.62
331.115	113.62
331.344	112.62
331.572	106.62
331.801	97.62
332.03	109.62
332.258	136.62
332.486	168.62
332.715	293.62
332.943	497.62
333.172	749.62
333.4	634.62
333.629	239.62
333.857	142.62
334.085	116.62
334.314	112.62
334.542	116.62
334.771	128.62
334.999	114.62
335.227	117.62
335.455	121.62
335.684	94.62
335.912	104.62
336.14	118.62
336.369	108.62
336.597	101.62
336.825	113.62
337.053	100.62
337.281	110.62
337.51	100.62
337.738	118.62
337.966	97.62
338.194	92.62
338.422	101.62
338.65	113.62
338.878	106.62
339.106	116.62
339.334	108.62
339.562	112.62
339.79	109.62
340.018	120.62
340.246	114.62
340.474	105.62
340.702	116.62
340.93	106.62
341.158	100.62
341.386	105.62
341.614	103.62
341.842	98.62
342.07	123.62
342.298	137.62
342.526	118.62
342.754	101.62
342.981	107.62
343.209	116.62
343.437	110.62
343.665	98.62
343.893	102.62
344.12	101.62
344.348	107.62
344.576	118.62
344.804	118.62
345.031	100.62
345.259	107.62
345.487	106.62
345.714	115.62
345.942	97.62
346.17	98.62
346.397	93.62
346.625	111.62
346.853	97.62
347.08	98.62
347.308	90.62
347.535	96.62
347.763	112.62
347.99	98.62
348.218	99.62
348.445	107.62
348.673	118.62
348.9	115.62
349.128	126.62
349.355	116.62
349.583	117.62
349.81	114.62
350.037	99.62
350.265	92.62
350.492	112.62
350.72	106.62
350.947	101.62
351.174	99.62
351.402	101.62
351.629	93.62
351.856	105.62
352.083	97.62
352.311	113.62
352.538	110.62
352.765	120.62
352.992	114.62
353.22	99.62
353.447	95.62
353.674	108.62
353.901	116.62
354.128	96.62
354.355	92.62
354.583	112.62
354.81	97.62
355.037	82.62
355.264	99.62
355.491	77.62
355.718	97.62
355.945	102.62
356.172	98.62
356.399	102.62
356.626	110.62
356.853	108.62
357.08	106.62
357.307	109.62
357.534	89.62
357.761	102.62
357.988	103.62
358.215	100.62
358.441	105.62
358.668	110.62
358.895	117.62
359.122	109.62
359.349	103.62
359.576	128.62
359.802	96.62
360.029	97.62
360.256	90.62
360.483	93.62
360.709	100.62
360.936	102.62
361.163	117.62
361.39	101.62
361.616	104.62
361.843	102.62
362.07	114.62
362.296	110.62
362.523	103.62
362.749	99.62
362.976	109.62
363.203	108.62
363.429	112.62
363.656	106.62
363.882	114.62
364.109	121.62
364.335	111.62
364.562	110.62
364.788	109.62
365.015	108.62
365.241	144.62
365.468	188.62
365.694	230.62
365.92	194.62
366.147	112.62
366.373	93.62
366.599	96.62
366.826	96.62
367.052	84.62
367.278	81.62
367.505	82.62
367.731	99.62
367.957	102.62
368.184	118.62
368.41	111.62
368.636	107.62
368.862	116.62
369.089	94.62
369.315	104.62
369.541	117.62
369.767	106.62
369.993	78.62
370.219	88.62
370.445	99.62
370.672	113.62
370.898	115.62
371.124	100.62
371.35	101.62
371.576	112.62
371.802	92.62
372.028	93.62
372.254	112.62
372.48	110.62
372.706	110.62
372.932	109.62
373.158	116.62
373.384	126.62
373.61	117.62
373.835	111.62
374.061	98.62
374.287	100.62
374.513	99.62
374.739	112.62
374.965	95.62
375.191	103.62
375.416	98.62
375.642	105.62
375.868	102.62
376.094	85.62
376.319	94.62
376.545	113.62
376.771	107.62
376.997	105.62
377.222	102.62
377.448	106.62
377.674	118.62
377.899	107.62
378.125	102.62
378.35	100.62
378.576	115.62
378.802	97.62
379.027	124.62
379.253	130.62
379.478	196.62
379.704	313.62
379.929	772.62
380.155	1542.62
380.38	1561.62
380.606	506.62
380.831	185.62
381.057	124.62
381.282	118.62
381.507	118.62
381.733	120.62
381.958	104.62
382.184	96.62
382.409	111.62
382.634	102.62
382.86	106.62
383.085	102.62
383.31	98.62
383.535	110.62
383.761	106.62
383.986	108.62
384.211	101.62
384.436	96.62
384.662	105.62
384.887	97.62
385.112	93.62
385.337	95.62
385.562	101.62
385.787	102.62
386.013	106.62
386.238	89.62
386.463	89.62
386.688	104.62
386.913	93.62
387.138	89.62
387.363	97.62
387.588	103.62
387.813	103.62
388.038	102.62
388.263	95.62
388.488	101.62
388.713	102.62
388.938	104.62
389.163	105.62
389.387	96.62
389.612	100.62
389.837	95.62
390.062	109.62
390.287	94.62
390.512	97.62
390.736	92.62
390.961	91.62
391.186	92.62
391.411	103.62
391.636	88.62
391.86	97.62
392.085	93.62
392.31	96.62
392.534	98.62
392.759	89.62
392.984	100.62
393.208	109.62
393.433	125.62
393.658	139.62
393.882	100.62
394.107	86.62
394.331	91.62
394.556	77.62
394.78	95.62
395.005	118.62
395.229	90.62
395.454	106.62
395.678	92.62
395.903	84.62
396.127	102.62
396.352	83.62
396.576	95.62
396.801	100.62
397.025	121.62
397.249	112.62
397.474	95.62
397.698	97.62
397.922	99.62
398.147	104.62
398.371	93.62
398.595	95.62
398.82	99.62
399.044	96.62
399.268	103.62
399.492	95.62
399.717	104.62
399.941	97.62
400.165	99.62
400.389	100.62
400.613	98.62
400.837	103.62
401.062	98.62
401.286	97.62
401.51	83.62
401.734	101.62
401.958	89.62
402.182	96.62
402.406	96.62
402.63	97.62
402.854	88.62
403.078	96.62
403.302	92.62
403.526	96.62
403.75	99.62
403.974	97.62
404.198	99.62
404.422	101.62
404.645	89.62
404.869	97.62
405.093	85.62
405.317	87.62
405.541	108.62
405.765	136.62
405.988	131.62
406.212	114.62
406.436	97.62
406.66	96.62
406.883	100.62
407.107	81.62
407.331	91.62
407.555	101.62
407.778	94.62
408.002	82.62
408.226	95.62
408.449	85.62
408.673	103.62
408.896	105.62
409.12	93.62
409.344	92.62
409.567	85.62
409.791	93.62
410.014	87.62
410.238	85.62
410.461	89.62
410.685	80.62
410.908	87.62
411.132	101.62
411.355	94.62
411.578	104.62
411.802	92.62
412.025	97.62
412.249	94.62
412.472	96.62
412.695	91.62
412.919	99.62
413.142	98.62
413.365	103.62
413.589	98.62
413.812	100.62
414.035	102.62
414.258	96.62
414.482	101.62
414.705	98.62
414.928	100.62
415.151	99.62
415.374	100.62
415.597	96.62
415.821	95.62
416.044	90.62
416.267	93.62
416.49	95.62
416.713	109.62
416.936	94.62
417.159	84.62
417.382	96.62
417.605	81.62
417.828	84.62
418.051	88.62
418.274	103.62
418.497	113.62
418.72	105.62
418.943	108.62
419.166	94.62
419.389	100.62
419.611	90.62
419.834	102.62
420.057	100.62
420.28	101.62
420.503	103.62
420.726	112.62
420.948	91.62
421.171	92.62
421.394	94.62
421.617	87.62
421.839	100.62
422.062	82.62
422.285	89.62
422.507	92.62
422.73	118.62
422.953	121.62
423.175	112.62
423.398	94.62
423.621	101.62
423.843	92.62
424.066	97.62
424.288	79.62
424.511	103.62
424.733	96.62
424.956	85.62
425.178	94.62
425.401	94.62
425.623	84.62
425.846	96.62
426.068	91.62
426.291	100.62
426.513	100.62
426.735	92.62
426.958	94.62
427.18	88.62
427.402	93.62
427.625	95.62
427.847	97.62
428.069	94.62
428.292	111.62
428.514	80.62
428.736	98.62
428.958	96.62
429.181	92.62
429.403	101.62
429.625	83.62
429.847	95.62
430.069	111.62
430.292	95.62
430.514	99.62
430.736	100.62
430.958	94.62
431.18	82.62
431.402	91.62
431.624	81.62
431.846	95.62
432.068	94.62
432.29	89.62
432.512	97.62
432.734	104.62
432.956	83.62
433.178	94.62
433.4	84.62
433.622	99.62
433.844	89.62
434.066	105.62
434.287	92.62
434.509	100.62
434.731	117.62
434.953	92.62
435.175	93.62
435.397	89.62
435.618	98.62
435.84	93.62
436.062	100.62
436.284	91.62
436.505	88.62
436.727	89.62
436.949	87.62
437.17	96.62
437.392	76.62
437.614	82.62
437.835	88.62
438.057	96.62
438.278	95.62
438.5	106.62
438.721	100.62
438.943	104.62
439.165	125.62
439.386	103.62
439.608	113.62
439.829	92.62
440.05	110.62
440.272	137.62
440.493	113.62
440.715	85.62
440.936	92.62
441.158	110.62
441.379	83.62
441.6	88.62
441.822	98.62
442.043	113.62
442.264	130.62
442.486	113.62
442.707	106.62
442.928	89.62
443.149	87.62
443.371	79.62
443.592	87.62
443.813	88.62
444.034	90.62
444.255	80.62
444.476	89.62
444.698	93.62
444.919	87.62
445.14	185.62
445.361	130.62
445.582	94.62
445.803	96.62
446.024	105.62
446.245	112.62
446.466	85.62
446.687	120.62
446.908	101.62
447.129	96.62
447.35	88.62
447.571	79.62
447.792	98.62
448.013	97.62
448.234	86.62
448.455	84.62
448.675	85.62
448.896	97.62
449.117	100.62
449.338	128.62
449.559	150.62
449.779	116.62
450	112.62
450.221	95.62
450.442	93.62
450.662	115.62
450.883	112.62
451.104	105.62
451.324	112.62
451.545	116.62
451.766	113.62
451.986	132.62
452.207	199.62
452.428	502.62
452.648	1258.62
452.869	703.62
453.089	181.62
453.31	124.62
453.53	115.62
453.751	130.62
453.971	158.62
454.192	154.62
454.412	108.62
454.633	97.62
454.853	92.62
455.073	88.62
455.294	92.62
455.514	92.62
455.734	97.62
455.955	105.62
456.175	103.62
456.395	94.62
456.616	84.62
456.836	96.62
457.056	100.62
457.276	98.62
457.497	111.62
457.717	123.62
457.937	110.62
458.157	92.62
458.377	87.62
458.598	83.62
458.818	90.62
459.038	77.62
459.258	82.62
459.478	81.62
459.698	86.62
459.918	87.62
460.138	94.62
460.358	81.62
460.578	90.62
460.798	89.62
461.018	92.62
461.238	105.62
461.458	105.62
461.678	99.62
461.898	90.62
462.118	80.62
462.338	87.62
462.558	98.62
462.777	99.62
462.997	96.62
463.217	106.62
463.437	135.62
463.657	169.62
463.876	184.62
464.096	129.62
464.316	95.62
464.536	104.62
464.755	90.62
464.975	82.62
465.195	92.62
465.414	89.62
465.634	88.62
465.854	81.62
466.073	96.62
466.293	109.62
466.512	90.62
466.732	92.62
466.951	94.62
467.171	138.62
467.391	138.62
467.61	102.62
467.829	102.62
468.049	94.62
468.268	95.62
468.488	96.62
468.707	86.62
468.927	102.62
469.146	84.62
469.365	85.62
469.585	108.62
469.804	94.62
470.023	111.62
470.243	99.62
470.462	111.62
470.681	101.62
470.901	134.62
471.12	196.62
471.339	206.62
471.558	154.62
471.777	96.62
471.997	102.62
472.216	100.62
472.435	94.62
472.654	96.62
472.873	84.62
473.092	76.62
473.311	93.62
473.53	110.62
473.749	84.62
473.968	113.62
474.187	98.62
474.406	99.62
474.625	84.62
474.844	84.62
475.063	88.62
475.282	99.62
475.501	92.62
475.72	98.62
475.939	89.62
476.158	92.62
476.377	98.62
476.596	107.62
476.814	83.62
477.033	94.62
477.252	86.62
477.471	113.62
477.69	90.62
477.908	104.62
478.127	89.62
478.346	100.62
478.564	97.62
478.783	97.62
479.002	97.62
479.22	80.62
479.439	104.62
479.658	96.62
479.876	90.62
480.095	92.62
480.313	71.62
480.532	85.62
480.751	78.62
480.969	93.62
481.188	104.62
481.406	89.62
481.624	103.62
481.843	110.62
482.061	105.62
482.28	86.62
482.498	103.62
482.717	94.62
482.935	93.62
483.153	101.62
483.372	99.62
483.59	116.62
483.808	92.62
484.027	116.62
484.245	118.62
484.463	172.62
484.681	234.62
484.9	142.62
485.118	116.62
485.336	104.62
485.554	109.62
485.772	104.62
485.99	182.62
486.209	246.62
486.427	169.62
486.645	103.62
486.863	106.62
487.081	90.62
487.299	102.62
487.517	109.62
487.735	109.62
487.953	106.62
488.171	94.62
488.389	98.62
488.607	101.62
488.825	102.62
489.043	101.62
489.261	97.62
489.479	95.62
489.696	102.62
489.914	98.62
490.132	97.62
490.35	95.62
490.568	106.62
490.786	110.62
491.003	97.62
491.221	117.62
491.439	111.62
491.657	105.62
491.874	102.62
492.092	107.62
492.31	106.62
492.527	108.62
492.745	101.62
492.963	113.62
493.18	108.62
493.398	114.62
493.615	100.62
493.833	90.62
494.05	109.62
494.268	97.62
494.485	115.62
494.703	112.62
494.92	110.62
495.138	101.62
495.355	88.62
495.573	118.62
495.79	100.62
496.008	99.62
496.225	100.62
496.442	96.62
496.66	122.62
496.877	146.62
497.094	158.62
497.312	109.62
497.529	102.62
497.746	91.62
497.963	92.62
498.181	105.62
498.398	112.62
498.615	99.62
498.832	92.62
499.049	97.62
499.267	123.62
499.484	163.62
499.701	124.62
499.918	99.62
500.135	106.62
500.352	94.62
500.569	106.62
500.786	88.62
501.003	81.62
501.22	97.62
501.437	112.62
501.654	86.62
501.871	99.62
502.088	111.62
502.305	98.62
502.522	97.62
502.739	87.62
502.956	98.62
503.172	91.62
503.389	92.62
503.606	103.62
503.823	88.62
504.04	112.62
504.256	94.62
504.473	90.62
504.69	88.62
504.907	112.62
505.123	112.62
505.34	77.62
505.557	102.62
505.773	94.62
505.99	100.62
506.207	98.62
506.423	97.62
506.64	113.62
506.856	112.62
507.073	99.62
507.289	101.62
507.506	82.62
507.722	105.62
507.939	96.62
508.155	116.62
508.372	98.62
508.588	97.62
508.805	96.62
509.021	90.62
509.238	85.62
509.454	129.62
509.67	159.62
509.887	103.62
510.103	96.62
