Data from SnStandardFlinnAPT0064_LampEnergy5.5_LIBS07252019.E.O._I.C._HRD10591_15-17-17-491.txt Node
Date: Thu Jul 25 15:17:17 EDT 2019
User: cochatt
Spectrometer: HR+D1059
Trigger mode: 1
Integration Time (sec): 1.000000E-1
Scans to average: 1
Electric dark correction enabled: true
Nonlinearity correction enabled: false
Boxcar width: 0
XAxis mode: Wavelengths
Number of Pixels in Spectrum: 2048
>>>>>Begin Spectral Data<<<<<
223.165	-18.31
223.4	-18.31
223.635	-18.31
223.869	-19.31
224.104	-13.31
224.338	-13.31
224.573	-11.31
224.808	-21.31
225.042	10.69
225.277	4.69
225.511	-5.31
225.746	14.69
225.98	-0.31
226.215	8.69
226.449	9.69
226.683	8.69
226.918	12.69
227.152	32.69
227.387	30.69
227.621	40.69
227.856	58.69
228.09	39.69
228.324	59.69
228.559	43.69
228.793	82.69
229.027	155.69
229.262	164.69
229.496	159.69
229.73	152.69
229.964	148.69
230.199	157.69
230.433	179.69
230.667	171.69
230.901	163.69
231.136	172.69
231.37	178.69
231.604	180.69
231.838	202.69
232.072	253.69
232.306	275.69
232.541	227.69
232.775	232.69
233.009	197.69
233.243	202.69
233.477	221.69
233.711	256.69
233.945	277.69
234.179	256.69
234.413	243.69
234.647	231.69
234.881	231.69
235.115	245.69
235.349	285.69
235.583	349.69
235.817	462.69
236.051	480.69
236.285	311.69
236.519	264.69
236.753	240.69
236.987	227.69
237.221	259.69
237.455	260.69
237.689	237.69
237.922	228.69
238.156	244.69
238.39	256.69
238.624	255.69
238.858	236.69
239.091	235.69
239.325	250.69
239.559	257.69
239.793	237.69
240.027	250.69
240.26	259.69
240.494	262.69
240.728	277.69
240.961	298.69
241.195	300.69
241.429	317.69
241.662	318.69
241.896	357.69
242.13	408.69
242.363	551.69
242.597	692.69
242.83	667.69
243.064	666.69
243.298	821.69
243.531	684.69
243.765	456.69
243.998	351.69
244.232	310.69
244.465	317.69
244.699	289.69
244.932	297.69
245.166	305.69
245.399	325.69
245.633	317.69
245.866	325.69
246.099	314.69
246.333	326.69
246.566	314.69
246.8	300.69
247.033	304.69
247.266	306.69
247.5	298.69
247.733	320.69
247.966	332.69
248.2	348.69
248.433	382.69
248.666	421.69
248.899	408.69
249.133	378.69
249.366	386.69
249.599	425.69
249.832	472.69
250.066	486.69
250.299	406.69
250.532	372.69
250.765	338.69
250.998	352.69
251.231	353.69
251.465	349.69
251.698	334.69
251.931	353.69
252.164	356.69
252.397	350.69
252.63	351.69
252.863	364.69
253.096	383.69
253.329	384.69
253.562	369.69
253.795	387.69
254.028	387.69
254.261	400.69
254.494	403.69
254.727	466.69
254.96	557.69
255.193	530.69
255.426	436.69
255.659	416.69
255.892	398.69
256.124	392.69
256.357	397.69
256.59	422.69
256.823	446.69
257.056	480.69
257.289	558.69
257.521	638.69
257.754	524.69
257.987	454.69
258.22	433.69
258.452	410.69
258.685	420.69
258.918	428.69
259.151	445.69
259.383	478.69
259.616	531.69
259.849	555.69
260.081	476.69
260.314	438.69
260.547	450.69
260.779	427.69
261.012	452.69
261.244	447.69
261.477	460.69
261.71	462.69
261.942	459.69
262.175	477.69
262.407	484.69
262.64	477.69
262.872	495.69
263.105	536.69
263.337	570.69
263.57	576.69
263.802	596.69
264.035	599.69
264.267	598.69
264.499	613.69
264.732	678.69
264.964	649.69
265.197	652.69
265.429	643.69
265.661	652.69
265.894	688.69
266.126	768.69
266.358	872.69
266.591	825.69
266.823	710.69
267.055	658.69
267.287	635.69
267.52	602.69
267.752	588.69
267.984	596.69
268.216	578.69
268.448	552.69
268.681	589.69
268.913	579.69
269.145	565.69
269.377	562.69
269.609	552.69
269.841	588.69
270.073	620.69
270.306	742.69
270.538	930.69
270.77	1366.69
271.002	1699.69
271.234	1184.69
271.466	777.69
271.698	650.69
271.93	616.69
272.162	609.69
272.394	605.69
272.626	555.69
272.858	557.69
273.09	547.69
273.322	565.69
273.553	536.69
273.785	563.69
274.017	561.69
274.249	550.69
274.481	554.69
274.713	554.69
274.945	569.69
275.176	578.69
275.408	552.69
275.64	558.69
275.872	556.69
276.104	558.69
276.335	572.69
276.567	560.69
276.799	556.69
277.031	574.69
277.262	604.69
277.494	626.69
277.726	672.69
277.957	779.69
278.189	855.69
278.421	802.69
278.652	769.69
278.884	724.69
279.115	636.69
279.347	605.69
279.579	612.69
279.81	627.69
280.042	632.69
280.273	644.69
280.505	639.69
280.736	659.69
280.968	703.69
281.199	752.69
281.431	834.69
281.662	871.69
281.894	760.69
282.125	722.69
282.356	711.69
282.588	713.69
282.819	741.69
283.051	756.69
283.282	854.69
283.513	1030.69
283.745	1507.69
283.976	2446.69
284.207	3487.69
284.439	3097.69
284.67	1852.69
284.901	1460.69
285.132	1485.69
285.364	1438.69
285.595	1103.69
285.826	1012.69
286.057	1206.69
286.288	1634.69
286.52	2220.69
286.751	2043.69
286.982	1261.69
287.213	948.69
287.444	852.69
287.675	770.69
287.906	749.69
288.138	734.69
288.369	741.69
288.6	744.69
288.831	753.69
289.062	740.69
289.293	745.69
289.524	754.69
289.755	756.69
289.986	736.69
290.217	776.69
290.448	735.69
290.679	754.69
290.91	751.69
291.141	784.69
291.371	825.69
291.602	880.69
291.833	798.69
292.064	734.69
292.295	761.69
292.526	733.69
292.757	723.69
292.987	696.69
293.218	707.69
293.449	724.69
293.68	714.69
293.91	699.69
294.141	690.69
294.372	691.69
294.603	674.69
294.833	692.69
295.064	681.69
295.295	708.69
295.525	676.69
295.756	708.69
295.987	710.69
296.217	708.69
296.448	721.69
296.679	693.69
296.909	716.69
297.14	712.69
297.37	729.69
297.601	714.69
297.831	714.69
298.062	721.69
298.292	712.69
298.523	740.69
298.753	761.69
298.984	741.69
299.214	766.69
299.445	772.69
299.675	760.69
299.905	813.69
300.136	841.69
300.366	922.69
300.597	1164.69
300.827	1595.69
301.057	2182.69
301.288	2194.69
301.518	1386.69
301.748	1058.69
301.979	970.69
302.209	980.69
302.439	944.69
302.669	1032.69
302.9	1206.69
303.13	1684.69
303.36	2487.69
303.59	3436.69
303.82	2920.69
304.051	1722.69
304.281	1208.69
304.511	1034.69
304.741	946.69
304.971	915.69
305.201	870.69
305.431	845.69
305.661	871.69
305.891	844.69
306.121	825.69
306.352	809.69
306.582	823.69
306.812	781.69
307.042	807.69
307.272	812.69
307.502	778.69
307.731	826.69
307.961	796.69
308.191	779.69
308.421	768.69
308.651	814.69
308.881	802.69
309.111	790.69
309.341	805.69
309.571	820.69
309.8	818.69
310.03	814.69
310.26	814.69
310.49	825.69
310.72	823.69
310.949	836.69
311.179	839.69
311.409	857.69
311.639	826.69
311.868	808.69
312.098	849.69
312.328	847.69
312.557	888.69
312.787	850.69
313.017	862.69
313.246	883.69
313.476	878.69
313.706	908.69
313.935	962.69
314.165	971.69
314.394	1026.69
314.624	980.69
314.853	936.69
315.083	916.69
315.312	934.69
315.542	942.69
315.771	973.69
316.001	978.69
316.23	987.69
316.46	1040.69
316.689	1099.69
316.919	1331.69
317.148	1891.69
317.377	3026.69
317.607	4476.69
317.836	4669.69
318.065	2649.69
318.295	1693.69
318.524	1356.69
318.753	1226.69
318.983	1146.69
319.212	1061.69
319.441	1005.69
319.67	1020.69
319.9	1023.69
320.129	992.69
320.358	998.69
320.587	1056.69
320.816	992.69
321.046	1017.69
321.275	1004.69
321.504	1033.69
321.733	1028.69
321.962	1058.69
322.191	1064.69
322.42	1078.69
322.649	1065.69
322.878	1061.69
323.108	1051.69
323.337	1092.69
323.566	1111.69
323.795	1120.69
324.024	1158.69
324.253	1161.69
324.482	1192.69
324.71	1241.69
324.939	1339.69
325.168	1342.69
325.397	1392.69
325.626	1645.69
325.855	2267.69
326.084	3676.69
326.313	5496.69
326.542	5863.69
326.77	3632.69
326.999	2312.69
327.228	1942.69
327.457	1850.69
327.686	1880.69
327.914	2023.69
328.143	2280.69
328.372	2598.69
328.6	2839.69
328.829	2612.69
329.058	2296.69
329.287	2061.69
329.515	1900.69
329.744	1746.69
329.972	1682.69
330.201	1615.69
330.43	1554.69
330.658	1482.69
330.887	1480.69
331.115	1449.69
331.344	1457.69
331.572	1453.69
331.801	1460.69
332.03	1445.69
332.258	1470.69
332.486	1536.69
332.715	1781.69
332.943	2140.69
333.172	2652.69
333.4	2589.69
333.629	1986.69
333.857	1794.69
334.085	1795.69
334.314	1934.69
334.542	2042.69
334.771	2347.69
334.999	2816.69
335.227	3452.69
335.455	3776.69
335.684	3536.69
335.912	3012.69
336.14	2566.69
336.369	2326.69
336.597	2152.69
336.825	1954.69
337.053	1863.69
337.281	1790.69
337.51	1700.69
337.738	1624.69
337.966	1556.69
338.194	1482.69
338.422	1464.69
338.65	1416.69
338.878	1400.69
339.106	1370.69
339.334	1340.69
339.562	1314.69
339.79	1308.69
340.018	1313.69
340.246	1292.69
340.474	1284.69
340.702	1283.69
340.93	1301.69
341.158	1304.69
341.386	1285.69
341.614	1282.69
341.842	1261.69
342.07	1267.69
342.298	1220.69
342.526	1185.69
342.754	1186.69
342.981	1148.69
343.209	1179.69
343.437	1192.69
343.665	1237.69
343.893	1218.69
344.12	1222.69
344.348	1228.69
344.576	1178.69
344.804	1157.69
345.031	1150.69
345.259	1156.69
345.487	1095.69
345.714	1133.69
345.942	1101.69
346.17	1109.69
346.397	1105.69
346.625	1096.69
346.853	1112.69
347.08	1078.69
347.308	1083.69
347.535	1109.69
347.763	1074.69
347.99	1078.69
348.218	1089.69
348.445	1090.69
348.673	1056.69
348.9	1075.69
349.128	1063.69
349.355	1053.69
349.583	1048.69
349.81	1046.69
350.037	1066.69
350.265	1062.69
350.492	1077.69
350.72	1021.69
350.947	1042.69
351.174	1062.69
351.402	1083.69
351.629	1056.69
351.856	1038.69
352.083	1019.69
352.311	1041.69
352.538	1001.69
352.765	1044.69
352.992	1054.69
353.22	1061.69
353.447	1057.69
353.674	1049.69
353.901	1048.69
354.128	1045.69
354.355	1058.69
354.583	1052.69
354.81	1077.69
355.037	1069.69
355.264	1074.69
355.491	1052.69
355.718	1066.69
355.945	1070.69
356.172	1076.69
356.399	1096.69
356.626	1083.69
356.853	1090.69
357.08	1108.69
357.307	1122.69
357.534	1120.69
357.761	1101.69
357.988	1106.69
358.215	1120.69
358.441	1097.69
358.668	1112.69
358.895	1103.69
359.122	1089.69
359.349	1072.69
359.576	1094.69
359.802	1049.69
360.029	1096.69
360.256	1124.69
360.483	1123.69
360.709	1131.69
360.936	1113.69
361.163	1139.69
361.39	1140.69
361.616	1118.69
361.843	1121.69
362.07	1155.69
362.296	1112.69
362.523	1086.69
362.749	1131.69
362.976	1125.69
363.203	1116.69
363.429	1116.69
363.656	1102.69
363.882	1133.69
364.109	1132.69
364.335	1101.69
364.562	1121.69
364.788	1121.69
365.015	1125.69
365.241	1160.69
365.468	1172.69
365.694	1223.69
365.92	1188.69
366.147	1148.69
366.373	1131.69
366.599	1128.69
366.826	1129.69
367.052	1090.69
367.278	1172.69
367.505	1145.69
367.731	1124.69
367.957	1140.69
368.184	1152.69
368.41	1146.69
368.636	1181.69
368.862	1151.69
369.089	1152.69
369.315	1140.69
369.541	1137.69
369.767	1177.69
369.993	1142.69
370.219	1169.69
370.445	1149.69
370.672	1154.69
370.898	1174.69
371.124	1163.69
371.35	1210.69
371.576	1151.69
371.802	1200.69
372.028	1168.69
372.254	1219.69
372.48	1200.69
372.706	1200.69
372.932	1235.69
373.158	1231.69
373.384	1260.69
373.61	1224.69
373.835	1233.69
374.061	1236.69
374.287	1238.69
374.513	1244.69
374.739	1258.69
374.965	1253.69
375.191	1266.69
375.416	1277.69
375.642	1249.69
375.868	1249.69
376.094	1236.69
376.319	1222.69
376.545	1211.69
376.771	1236.69
376.997	1210.69
377.222	1217.69
377.448	1203.69
377.674	1192.69
377.899	1213.69
378.125	1181.69
378.35	1187.69
378.576	1206.69
378.802	1243.69
379.027	1228.69
379.253	1268.69
379.478	1319.69
379.704	1540.69
379.929	2130.69
380.155	3316.69
380.38	3523.69
380.606	2155.69
380.831	1512.69
381.057	1351.69
381.282	1266.69
381.507	1216.69
381.733	1213.69
381.958	1198.69
382.184	1216.69
382.409	1196.69
382.634	1194.69
382.86	1203.69
383.085	1191.69
383.31	1200.69
383.535	1202.69
383.761	1165.69
383.986	1190.69
384.211	1186.69
384.436	1229.69
384.662	1216.69
384.887	1219.69
385.112	1236.69
385.337	1244.69
385.562	1202.69
385.787	1244.69
386.013	1237.69
386.238	1238.69
386.463	1206.69
386.688	1239.69
386.913	1229.69
387.138	1227.69
387.363	1237.69
387.588	1218.69
387.813	1224.69
388.038	1236.69
388.263	1245.69
388.488	1225.69
388.713	1219.69
388.938	1220.69
389.163	1201.69
389.387	1235.69
389.612	1182.69
389.837	1199.69
390.062	1192.69
390.287	1236.69
390.512	1236.69
390.736	1251.69
390.961	1253.69
391.186	1252.69
391.411	1267.69
391.636	1290.69
391.86	1286.69
392.085	1272.69
392.31	1286.69
392.534	1246.69
392.759	1266.69
392.984	1249.69
393.208	1277.69
393.433	1296.69
393.658	1276.69
393.882	1253.69
394.107	1247.69
394.331	1272.69
394.556	1251.69
394.78	1268.69
395.005	1290.69
395.229	1241.69
395.454	1281.69
395.678	1279.69
395.903	1292.69
396.127	1251.69
396.352	1274.69
396.576	1258.69
396.801	1254.69
397.025	1282.69
397.249	1275.69
397.474	1310.69
397.698	1282.69
397.922	1309.69
398.147	1317.69
398.371	1337.69
398.595	1373.69
398.82	1360.69
399.044	1448.69
399.268	1476.69
399.492	1581.69
399.717	1618.69
399.941	1645.69
400.165	1588.69
400.389	1505.69
400.613	1439.69
400.837	1420.69
401.062	1395.69
401.286	1392.69
401.51	1389.69
401.734	1359.69
401.958	1356.69
402.182	1357.69
402.406	1318.69
402.63	1342.69
402.854	1396.69
403.078	1387.69
403.302	1386.69
403.526	1428.69
403.75	1406.69
403.974	1392.69
404.198	1378.69
404.422	1442.69
404.645	1426.69
404.869	1411.69
405.093	1440.69
405.317	1398.69
405.541	1401.69
405.765	1428.69
405.988	1437.69
406.212	1450.69
406.436	1408.69
406.66	1473.69
406.883	1445.69
407.107	1494.69
407.331	1531.69
407.555	1553.69
407.778	1517.69
408.002	1484.69
408.226	1492.69
408.449	1479.69
408.673	1450.69
408.896	1465.69
409.12	1400.69
409.344	1422.69
409.567	1412.69
409.791	1439.69
410.014	1406.69
410.238	1394.69
410.461	1396.69
410.685	1381.69
410.908	1378.69
411.132	1380.69
411.355	1330.69
411.578	1378.69
411.802	1346.69
412.025	1338.69
412.249	1338.69
412.472	1336.69
412.695	1329.69
412.919	1329.69
413.142	1339.69
413.365	1324.69
413.589	1308.69
413.812	1321.69
414.035	1324.69
414.258	1317.69
414.482	1326.69
414.705	1355.69
414.928	1331.69
415.151	1304.69
415.374	1316.69
415.597	1299.69
415.821	1281.69
416.044	1267.69
416.267	1257.69
416.49	1264.69
416.713	1294.69
416.936	1297.69
417.159	1279.69
417.382	1259.69
417.605	1280.69
417.828	1245.69
418.051	1288.69
418.274	1289.69
418.497	1267.69
418.72	1357.69
418.943	1310.69
419.166	1362.69
419.389	1414.69
419.611	1392.69
419.834	1357.69
420.057	1308.69
420.28	1285.69
420.503	1290.69
420.726	1288.69
420.948	1269.69
421.171	1294.69
421.394	1320.69
421.617	1280.69
421.839	1314.69
422.062	1328.69
422.285	1302.69
422.507	1309.69
422.73	1295.69
422.953	1337.69
423.175	1315.69
423.398	1318.69
423.621	1271.69
423.843	1266.69
424.066	1282.69
424.288	1321.69
424.511	1323.69
424.733	1278.69
424.956	1249.69
425.178	1267.69
425.401	1278.69
425.623	1295.69
425.846	1266.69
426.068	1266.69
426.291	1177.69
426.513	1232.69
426.735	1217.69
426.958	1221.69
427.18	1218.69
427.402	1222.69
427.625	1228.69
427.847	1197.69
428.069	1181.69
428.292	1206.69
428.514	1216.69
428.736	1195.69
428.958	1193.69
429.181	1150.69
429.403	1188.69
429.625	1198.69
429.847	1156.69
430.069	1216.69
430.292	1250.69
430.514	1258.69
430.736	1285.69
430.958	1218.69
431.18	1179.69
431.402	1204.69
431.624	1173.69
431.846	1156.69
432.068	1145.69
432.29	1171.69
432.512	1190.69
432.734	1186.69
432.956	1148.69
433.178	1178.69
433.4	1187.69
433.622	1181.69
433.844	1183.69
434.066	1184.69
434.287	1148.69
434.509	1188.69
434.731	1202.69
434.953	1243.69
435.175	1240.69
435.397	1224.69
435.618	1184.69
435.84	1196.69
436.062	1178.69
436.284	1206.69
436.505	1160.69
436.727	1206.69
436.949	1192.69
437.17	1159.69
437.392	1193.69
437.614	1148.69
437.835	1172.69
438.057	1171.69
438.278	1129.69
438.5	1142.69
438.721	1180.69
438.943	1204.69
439.165	1242.69
439.386	1212.69
439.608	1219.69
439.829	1251.69
440.05	1266.69
440.272	1272.69
440.493	1217.69
440.715	1219.69
440.936	1230.69
441.158	1242.69
441.379	1236.69
441.6	1312.69
441.822	1319.69
442.043	1359.69
442.264	1370.69
442.486	1318.69
442.707	1260.69
442.928	1268.69
443.149	1257.69
443.371	1262.69
443.592	1226.69
443.813	1260.69
444.034	1280.69
444.255	1282.69
444.476	1328.69
444.698	1349.69
444.919	1374.69
445.14	1422.69
445.361	1350.69
445.582	1285.69
445.803	1283.69
446.024	1256.69
446.245	1300.69
446.466	1256.69
446.687	1254.69
446.908	1253.69
447.129	1209.69
447.35	1164.69
447.571	1173.69
447.792	1142.69
448.013	1220.69
448.234	1187.69
448.455	1175.69
448.675	1200.69
448.896	1193.69
449.117	1222.69
449.338	1338.69
449.559	1353.69
449.779	1270.69
450	1158.69
450.221	1149.69
450.442	1167.69
450.662	1140.69
450.883	1145.69
451.104	1143.69
451.324	1127.69
451.545	1122.69
451.766	1111.69
451.986	1165.69
452.207	1197.69
452.428	1478.69
452.648	2148.69
452.869	1812.69
453.089	1324.69
453.31	1266.69
453.53	1243.69
453.751	1289.69
453.971	1380.69
454.192	1364.69
454.412	1197.69
454.633	1143.69
454.853	1106.69
455.073	1094.69
455.294	1127.69
455.514	1081.69
455.734	1089.69
455.955	1080.69
456.175	1092.69
456.395	1056.69
456.616	1078.69
456.836	1090.69
457.056	1069.69
457.276	1107.69
457.497	1154.69
457.717	1154.69
457.937	1146.69
458.157	1111.69
458.377	1130.69
458.598	1163.69
458.818	1125.69
459.038	1130.69
459.258	1129.69
459.478	1178.69
459.698	1157.69
459.918	1236.69
460.138	1217.69
460.358	1272.69
460.578	1229.69
460.798	1282.69
461.018	1251.69
461.238	1276.69
461.458	1278.69
461.678	1315.69
461.898	1334.69
462.118	1325.69
462.338	1374.69
462.558	1355.69
462.777	1390.69
462.997	1397.69
463.217	1498.69
463.437	1540.69
463.657	1567.69
463.876	1517.69
464.096	1471.69
464.316	1364.69
464.536	1397.69
464.755	1364.69
464.975	1342.69
465.195	1318.69
465.414	1250.69
465.634	1234.69
465.854	1218.69
466.073	1211.69
466.293	1190.69
466.512	1185.69
466.732	1184.69
466.951	1267.69
467.171	1311.69
467.391	1324.69
467.61	1217.69
467.829	1165.69
468.049	1175.69
468.268	1141.69
468.488	1126.69
468.707	1152.69
468.927	1145.69
469.146	1125.69
469.365	1162.69
469.585	1166.69
469.804	1227.69
470.023	1234.69
470.243	1231.69
470.462	1287.69
470.681	1332.69
470.901	1444.69
471.12	1643.69
471.339	1678.69
471.558	1436.69
471.777	1301.69
471.997	1228.69
472.216	1222.69
472.435	1186.69
472.654	1158.69
472.873	1158.69
473.092	1148.69
473.311	1156.69
473.53	1185.69
473.749	1206.69
473.968	1242.69
474.187	1208.69
474.406	1142.69
474.625	1177.69
474.844	1180.69
475.063	1163.69
475.282	1176.69
475.501	1179.69
475.72	1157.69
475.939	1212.69
476.158	1188.69
476.377	1245.69
476.596	1211.69
476.814	1219.69
477.033	1238.69
477.252	1245.69
477.471	1256.69
477.69	1294.69
477.908	1294.69
478.127	1300.69
478.346	1322.69
478.564	1332.69
478.783	1335.69
479.002	1369.69
479.22	1368.69
479.439	1382.69
479.658	1370.69
479.876	1378.69
480.095	1385.69
480.313	1417.69
480.532	1423.69
480.751	1425.69
480.969	1381.69
481.188	1374.69
481.406	1352.69
481.624	1384.69
481.843	1387.69
482.061	1394.69
482.28	1373.69
482.498	1360.69
482.717	1394.69
482.935	1397.69
483.153	1450.69
483.372	1472.69
483.59	1476.69
483.808	1511.69
484.027	1512.69
484.245	1532.69
484.463	1772.69
484.681	1986.69
484.9	1814.69
485.118	1659.69
485.336	1609.69
485.554	1632.69
485.772	1726.69
485.99	1927.69
486.209	2145.69
486.427	1816.69
486.645	1608.69
486.863	1554.69
487.081	1544.69
487.299	1490.69
487.517	1494.69
487.735	1521.69
487.953	1508.69
488.171	1496.69
488.389	1491.69
488.607	1482.69
488.825	1469.69
489.043	1424.69
489.261	1422.69
489.479	1407.69
489.696	1440.69
489.914	1448.69
490.132	1462.69
490.35	1462.69
490.568	1466.69
490.786	1509.69
