Data from SnStandardFlinnAPT0064_LampEnergy5.5_LIBS07252019.E.O._I.C._HRD10591_15-15-36-491.txt Node
Date: Thu Jul 25 15:15:36 EDT 2019
User: cochatt
Spectrometer: HR+D1059
Trigger mode: 1
Integration Time (sec): 1.000000E-1
Scans to average: 1
Electric dark correction enabled: true
Nonlinearity correction enabled: false
Boxcar width: 0
XAxis mode: Wavelengths
Number of Pixels in Spectrum: 2048
>>>>>Begin Spectral Data<<<<<
223.165	-7.81
223.4	-7.81
223.635	-7.81
223.869	-9.81
224.104	-17.81
224.338	-10.81
224.573	-15.81
224.808	-8.81
225.042	-10.81
225.277	-3.81
225.511	-0.81
225.746	11.19
225.98	-2.81
226.215	2.19
226.449	13.19
226.683	20.19
226.918	19.19
227.152	23.19
227.387	29.19
227.621	53.19
227.856	46.19
228.09	65.19
228.324	48.19
228.559	41.19
228.793	95.19
229.027	158.19
229.262	168.19
229.496	146.19
229.73	156.19
229.964	174.19
230.199	149.19
230.433	174.19
230.667	165.19
230.901	160.19
231.136	153.19
231.37	170.19
231.604	178.19
231.838	196.19
232.072	220.19
232.306	225.19
232.541	214.19
232.775	201.19
233.009	205.19
233.243	200.19
233.477	196.19
233.711	241.19
233.945	258.19
234.179	246.19
234.413	219.19
234.647	226.19
234.881	226.19
235.115	245.19
235.349	263.19
235.583	315.19
235.817	369.19
236.051	380.19
236.285	272.19
236.519	230.19
236.753	228.19
236.987	230.19
237.221	236.19
237.455	228.19
237.689	213.19
237.922	227.19
238.156	216.19
238.39	222.19
238.624	221.19
238.858	235.19
239.091	233.19
239.325	229.19
239.559	234.19
239.793	233.19
240.027	221.19
240.26	243.19
240.494	247.19
240.728	248.19
240.961	261.19
241.195	271.19
241.429	282.19
241.662	293.19
241.896	328.19
242.13	377.19
242.363	449.19
242.597	572.19
242.83	553.19
243.064	558.19
243.298	642.19
243.531	548.19
243.765	378.19
243.998	314.19
244.232	294.19
244.465	292.19
244.699	283.19
244.932	282.19
245.166	300.19
245.399	321.19
245.633	295.19
245.866	287.19
246.099	287.19
246.333	274.19
246.566	284.19
246.8	292.19
247.033	271.19
247.266	274.19
247.5	288.19
247.733	296.19
247.966	306.19
248.2	306.19
248.433	331.19
248.666	392.19
248.899	378.19
249.133	334.19
249.366	367.19
249.599	374.19
249.832	413.19
250.066	396.19
250.299	353.19
250.532	334.19
250.765	319.19
250.998	324.19
251.231	319.19
251.465	317.19
251.698	325.19
251.931	318.19
252.164	313.19
252.397	352.19
252.63	337.19
252.863	334.19
253.096	346.19
253.329	338.19
253.562	337.19
253.795	339.19
254.028	346.19
254.261	354.19
254.494	352.19
254.727	417.19
254.96	482.19
255.193	460.19
255.426	393.19
255.659	360.19
255.892	380.19
256.124	372.19
256.357	384.19
256.59	382.19
256.823	374.19
257.056	432.19
257.289	506.19
257.521	519.19
257.754	449.19
257.987	381.19
258.22	389.19
258.452	370.19
258.685	384.19
258.918	413.19
259.151	425.19
259.383	448.19
259.616	447.19
259.849	467.19
260.081	423.19
260.314	430.19
260.547	410.19
260.779	408.19
261.012	423.19
261.244	418.19
261.477	422.19
261.71	429.19
261.942	449.19
262.175	429.19
262.407	454.19
262.64	464.19
262.872	458.19
263.105	486.19
263.337	522.19
263.57	530.19
263.802	556.19
264.035	559.19
264.267	540.19
264.499	553.19
264.732	595.19
264.964	599.19
265.197	602.19
265.429	601.19
265.661	622.19
265.894	651.19
266.126	694.19
266.358	754.19
266.591	712.19
266.823	645.19
267.055	590.19
267.287	589.19
267.52	551.19
267.752	542.19
267.984	536.19
268.216	511.19
268.448	533.19
268.681	537.19
268.913	540.19
269.145	531.19
269.377	525.19
269.609	517.19
269.841	526.19
270.073	567.19
270.306	632.19
270.538	818.19
270.77	1097.19
271.002	1315.19
271.234	997.19
271.466	704.19
271.698	599.19
271.93	571.19
272.162	542.19
272.394	526.19
272.626	502.19
272.858	530.19
273.09	511.19
273.322	522.19
273.553	503.19
273.785	485.19
274.017	506.19
274.249	498.19
274.481	502.19
274.713	518.19
274.945	509.19
275.176	495.19
275.408	525.19
275.64	530.19
275.872	505.19
276.104	508.19
276.335	522.19
276.567	525.19
276.799	516.19
277.031	538.19
277.262	546.19
277.494	566.19
277.726	606.19
277.957	686.19
278.189	721.19
278.421	696.19
278.652	658.19
278.884	623.19
279.115	575.19
279.347	574.19
279.579	569.19
279.81	571.19
280.042	582.19
280.273	574.19
280.505	576.19
280.736	604.19
280.968	618.19
281.199	667.19
281.431	727.19
281.662	731.19
281.894	690.19
282.125	620.19
282.356	648.19
282.588	667.19
282.819	641.19
283.051	680.19
283.282	766.19
283.513	919.19
283.745	1264.19
283.976	1914.19
284.207	2685.19
284.439	2447.19
284.67	1550.19
284.901	1249.19
285.132	1208.19
285.364	1152.19
285.595	953.19
285.826	876.19
286.057	1015.19
286.288	1329.19
286.52	1776.19
286.751	1643.19
286.982	1088.19
287.213	841.19
287.444	749.19
287.675	746.19
287.906	693.19
288.138	672.19
288.369	657.19
288.6	685.19
288.831	670.19
289.062	656.19
289.293	655.19
289.524	698.19
289.755	686.19
289.986	671.19
290.217	672.19
290.448	681.19
290.679	685.19
290.91	686.19
291.141	733.19
291.371	721.19
291.602	777.19
291.833	712.19
292.064	684.19
292.295	668.19
292.526	674.19
292.757	649.19
292.987	654.19
293.218	665.19
293.449	657.19
293.68	662.19
293.91	646.19
294.141	640.19
294.372	638.19
294.603	651.19
294.833	605.19
295.064	612.19
295.295	644.19
295.525	641.19
295.756	625.19
295.987	620.19
296.217	628.19
296.448	612.19
296.679	634.19
296.909	662.19
297.14	635.19
297.37	657.19
297.601	652.19
297.831	658.19
298.062	648.19
298.292	652.19
298.523	657.19
298.753	676.19
298.984	678.19
299.214	681.19
299.445	719.19
299.675	706.19
299.905	719.19
300.136	724.19
300.366	812.19
300.597	1005.19
300.827	1308.19
301.057	1754.19
301.288	1732.19
301.518	1154.19
301.748	940.19
301.979	902.19
302.209	861.19
302.439	847.19
302.669	926.19
302.9	1067.19
303.13	1393.19
303.36	1942.19
303.59	2567.19
303.82	2292.19
304.051	1421.19
304.281	1065.19
304.511	906.19
304.741	849.19
304.971	817.19
305.201	810.19
305.431	800.19
305.661	775.19
305.891	749.19
306.121	750.19
306.352	740.19
306.582	738.19
306.812	745.19
307.042	712.19
307.272	740.19
307.502	718.19
307.731	749.19
307.961	731.19
308.191	725.19
308.421	745.19
308.651	736.19
308.881	724.19
309.111	753.19
309.341	750.19
309.571	724.19
309.8	749.19
310.03	760.19
310.26	732.19
310.49	740.19
310.72	760.19
310.949	764.19
311.179	784.19
311.409	781.19
311.639	772.19
311.868	789.19
312.098	776.19
312.328	774.19
312.557	790.19
312.787	802.19
313.017	810.19
313.246	808.19
313.476	809.19
313.706	810.19
313.935	856.19
314.165	894.19
314.394	902.19
314.624	875.19
314.853	858.19
315.083	847.19
315.312	848.19
315.542	853.19
315.771	851.19
316.001	869.19
316.23	887.19
316.46	907.19
316.689	994.19
316.919	1162.19
317.148	1582.19
317.377	2393.19
317.607	3510.19
317.836	3482.19
318.065	2148.19
318.295	1474.19
318.524	1207.19
318.753	1066.19
318.983	1014.19
319.212	974.19
319.441	961.19
319.67	968.19
319.9	911.19
320.129	955.19
320.358	936.19
320.587	937.19
320.816	924.19
321.046	962.19
321.275	924.19
321.504	939.19
321.733	932.19
321.962	925.19
322.191	955.19
322.42	989.19
322.649	987.19
322.878	968.19
323.108	978.19
323.337	978.19
323.566	1018.19
323.795	1013.19
324.024	1017.19
324.253	1056.19
324.482	1091.19
324.71	1132.19
324.939	1158.19
325.168	1192.19
325.397	1253.19
325.626	1424.19
325.855	1924.19
326.084	2903.19
326.313	4228.19
326.542	4442.19
326.77	2925.19
326.999	2019.19
327.228	1724.19
327.457	1620.19
327.686	1648.19
327.914	1753.19
328.143	1946.19
328.372	2262.19
328.6	2436.19
328.829	2301.19
329.058	2046.19
329.287	1849.19
329.515	1675.19
329.744	1599.19
329.972	1504.19
330.201	1473.19
330.43	1386.19
330.658	1387.19
330.887	1360.19
331.115	1352.19
331.344	1356.19
331.572	1343.19
331.801	1326.19
332.03	1325.19
332.258	1336.19
332.486	1398.19
332.715	1568.19
332.943	1850.19
333.172	2182.19
333.4	2174.19
333.629	1768.19
333.857	1663.19
334.085	1637.19
334.314	1730.19
334.542	1870.19
334.771	2107.19
334.999	2453.19
335.227	2925.19
335.455	3259.19
335.684	3034.19
335.912	2675.19
336.14	2378.19
336.369	2086.19
336.597	1933.19
336.825	1782.19
337.053	1698.19
337.281	1613.19
337.51	1533.19
337.738	1460.19
337.966	1414.19
338.194	1385.19
338.422	1350.19
338.65	1329.19
338.878	1254.19
339.106	1262.19
339.334	1275.19
339.562	1222.19
339.79	1210.19
340.018	1193.19
340.246	1228.19
340.474	1188.19
340.702	1194.19
340.93	1183.19
341.158	1204.19
341.386	1189.19
341.614	1169.19
341.842	1143.19
342.07	1166.19
342.298	1127.19
342.526	1122.19
342.754	1085.19
342.981	1103.19
343.209	1078.19
343.437	1085.19
343.665	1121.19
343.893	1142.19
344.12	1137.19
344.348	1114.19
344.576	1079.19
344.804	1050.19
345.031	1065.19
345.259	1046.19
345.487	1012.19
345.714	1023.19
345.942	1024.19
346.17	1021.19
346.397	1004.19
346.625	977.19
346.853	1026.19
347.08	1004.19
347.308	1034.19
347.535	1018.19
347.763	994.19
347.99	984.19
348.218	1031.19
348.445	985.19
348.673	968.19
348.9	1004.19
349.128	996.19
349.355	970.19
349.583	994.19
349.81	975.19
350.037	963.19
350.265	986.19
350.492	968.19
350.72	963.19
350.947	966.19
351.174	949.19
351.402	927.19
351.629	956.19
351.856	954.19
352.083	970.19
352.311	977.19
352.538	969.19
352.765	974.19
352.992	964.19
353.22	956.19
353.447	953.19
353.674	966.19
353.901	957.19
354.128	974.19
354.355	966.19
354.583	987.19
354.81	972.19
355.037	976.19
355.264	979.19
355.491	978.19
355.718	988.19
355.945	975.19
356.172	991.19
356.399	990.19
356.626	992.19
356.853	998.19
357.08	993.19
357.307	1012.19
357.534	989.19
357.761	1028.19
357.988	1044.19
358.215	1003.19
358.441	1018.19
358.668	1032.19
358.895	1048.19
359.122	1026.19
359.349	1014.19
359.576	1028.19
359.802	1028.19
360.029	1017.19
360.256	1034.19
360.483	1034.19
360.709	1060.19
360.936	1051.19
361.163	1033.19
361.39	998.19
361.616	1014.19
361.843	1041.19
362.07	1061.19
362.296	1032.19
362.523	1059.19
362.749	1066.19
362.976	1015.19
363.203	1046.19
363.429	1034.19
363.656	1021.19
363.882	1028.19
364.109	1023.19
364.335	1011.19
364.562	1001.19
364.788	1039.19
365.015	1036.19
365.241	1050.19
365.468	1069.19
365.694	1110.19
365.92	1087.19
366.147	1066.19
366.373	1065.19
366.599	1035.19
366.826	1040.19
367.052	1048.19
367.278	1047.19
367.505	1047.19
367.731	1079.19
367.957	1039.19
368.184	1066.19
368.41	1074.19
368.636	1063.19
368.862	1071.19
369.089	1039.19
369.315	1063.19
369.541	1082.19
369.767	1060.19
369.993	1038.19
370.219	1054.19
370.445	1042.19
370.672	1082.19
370.898	1101.19
371.124	1076.19
371.35	1091.19
371.576	1083.19
371.802	1106.19
372.028	1096.19
372.254	1109.19
372.48	1134.19
372.706	1130.19
372.932	1105.19
373.158	1107.19
373.384	1127.19
373.61	1121.19
373.835	1153.19
374.061	1123.19
374.287	1129.19
374.513	1167.19
374.739	1141.19
374.965	1139.19
375.191	1144.19
375.416	1175.19
375.642	1181.19
375.868	1142.19
376.094	1152.19
376.319	1124.19
376.545	1118.19
376.771	1111.19
376.997	1128.19
377.222	1101.19
377.448	1090.19
377.674	1080.19
377.899	1123.19
378.125	1129.19
378.35	1108.19
378.576	1092.19
378.802	1102.19
379.027	1118.19
379.253	1151.19
379.478	1172.19
379.704	1352.19
379.929	1755.19
380.155	2579.19
380.38	2708.19
380.606	1800.19
380.831	1384.19
381.057	1229.19
381.282	1190.19
381.507	1158.19
381.733	1145.19
381.958	1135.19
382.184	1108.19
382.409	1104.19
382.634	1114.19
382.86	1115.19
383.085	1126.19
383.31	1113.19
383.535	1097.19
383.761	1115.19
383.986	1124.19
384.211	1110.19
384.436	1106.19
384.662	1133.19
384.887	1136.19
385.112	1127.19
385.337	1142.19
385.562	1145.19
385.787	1140.19
386.013	1152.19
386.238	1140.19
386.463	1140.19
386.688	1144.19
386.913	1109.19
387.138	1158.19
387.363	1142.19
387.588	1122.19
387.813	1115.19
388.038	1150.19
388.263	1131.19
388.488	1132.19
388.713	1119.19
388.938	1121.19
389.163	1097.19
389.387	1163.19
389.612	1101.19
389.837	1145.19
390.062	1136.19
390.287	1160.19
390.512	1166.19
390.736	1181.19
390.961	1165.19
391.186	1156.19
391.411	1183.19
391.636	1183.19
391.86	1178.19
392.085	1200.19
392.31	1178.19
392.534	1196.19
392.759	1149.19
392.984	1155.19
393.208	1159.19
393.433	1132.19
393.658	1128.19
393.882	1122.19
394.107	1157.19
394.331	1162.19
394.556	1158.19
394.78	1177.19
395.005	1160.19
395.229	1154.19
395.454	1157.19
395.678	1193.19
395.903	1170.19
396.127	1185.19
396.352	1175.19
396.576	1170.19
396.801	1182.19
397.025	1167.19
397.249	1170.19
397.474	1206.19
397.698	1184.19
397.922	1224.19
398.147	1204.19
398.371	1229.19
398.595	1224.19
398.82	1247.19
399.044	1299.19
399.268	1380.19
399.492	1446.19
399.717	1520.19
399.941	1531.19
400.165	1473.19
400.389	1359.19
400.613	1324.19
400.837	1320.19
401.062	1288.19
401.286	1282.19
401.51	1277.19
401.734	1227.19
401.958	1272.19
402.182	1288.19
402.406	1284.19
402.63	1277.19
402.854	1268.19
403.078	1303.19
403.302	1294.19
403.526	1294.19
403.75	1329.19
403.974	1299.19
404.198	1316.19
404.422	1322.19
404.645	1289.19
404.869	1305.19
405.093	1303.19
405.317	1317.19
405.541	1347.19
405.765	1340.19
405.988	1328.19
406.212	1326.19
406.436	1318.19
406.66	1342.19
406.883	1353.19
407.107	1385.19
407.331	1405.19
407.555	1447.19
407.778	1408.19
408.002	1412.19
408.226	1388.19
408.449	1394.19
408.673	1379.19
408.896	1332.19
409.12	1324.19
409.344	1347.19
409.567	1294.19
409.791	1294.19
410.014	1281.19
410.238	1288.19
410.461	1274.19
410.685	1288.19
410.908	1265.19
411.132	1246.19
411.355	1247.19
411.578	1261.19
411.802	1253.19
412.025	1252.19
412.249	1238.19
412.472	1252.19
412.695	1238.19
412.919	1248.19
413.142	1238.19
413.365	1230.19
413.589	1278.19
413.812	1205.19
414.035	1200.19
414.258	1237.19
414.482	1247.19
414.705	1254.19
414.928	1216.19
415.151	1251.19
415.374	1223.19
415.597	1213.19
415.821	1198.19
416.044	1160.19
416.267	1182.19
416.49	1206.19
416.713	1197.19
416.936	1172.19
417.159	1199.19
417.382	1181.19
417.605	1174.19
417.828	1195.19
418.051	1200.19
418.274	1210.19
418.497	1219.19
418.72	1257.19
418.943	1240.19
419.166	1246.19
419.389	1312.19
419.611	1270.19
419.834	1225.19
420.057	1248.19
420.28	1223.19
420.503	1208.19
420.726	1189.19
420.948	1204.19
421.171	1192.19
421.394	1216.19
421.617	1218.19
421.839	1238.19
422.062	1242.19
422.285	1185.19
422.507	1201.19
422.73	1192.19
422.953	1220.19
423.175	1229.19
423.398	1216.19
423.621	1220.19
423.843	1189.19
424.066	1196.19
424.288	1184.19
424.511	1210.19
424.733	1217.19
424.956	1194.19
425.178	1168.19
425.401	1183.19
425.623	1204.19
425.846	1150.19
426.068	1150.19
426.291	1164.19
426.513	1163.19
426.735	1147.19
426.958	1146.19
427.18	1129.19
427.402	1145.19
427.625	1161.19
427.847	1160.19
428.069	1123.19
428.292	1124.19
428.514	1110.19
428.736	1099.19
428.958	1118.19
429.181	1119.19
429.403	1095.19
429.625	1130.19
429.847	1135.19
430.069	1121.19
430.292	1120.19
430.514	1187.19
430.736	1172.19
430.958	1133.19
431.18	1084.19
431.402	1098.19
431.624	1072.19
431.846	1063.19
432.068	1079.19
432.29	1118.19
432.512	1102.19
432.734	1106.19
432.956	1098.19
433.178	1116.19
433.4	1109.19
433.622	1129.19
433.844	1096.19
434.066	1101.19
434.287	1119.19
434.509	1122.19
434.731	1112.19
434.953	1147.19
435.175	1150.19
435.397	1155.19
435.618	1126.19
435.84	1143.19
436.062	1076.19
436.284	1109.19
436.505	1130.19
436.727	1110.19
436.949	1076.19
437.17	1102.19
437.392	1106.19
437.614	1072.19
437.835	1067.19
438.057	1063.19
438.278	1044.19
438.5	1067.19
438.721	1069.19
438.943	1134.19
439.165	1154.19
439.386	1121.19
439.608	1144.19
439.829	1151.19
440.05	1146.19
440.272	1182.19
440.493	1181.19
440.715	1156.19
440.936	1132.19
441.158	1173.19
441.379	1144.19
441.6	1179.19
441.822	1205.19
442.043	1296.19
442.264	1296.19
442.486	1226.19
442.707	1174.19
442.928	1196.19
443.149	1210.19
443.371	1178.19
443.592	1177.19
443.813	1218.19
444.034	1207.19
444.255	1241.19
444.476	1274.19
444.698	1273.19
444.919	1305.19
445.14	1340.19
445.361	1259.19
445.582	1210.19
445.803	1214.19
446.024	1181.19
446.245	1142.19
446.466	1217.19
446.687	1151.19
446.908	1159.19
447.129	1142.19
447.35	1162.19
447.571	1106.19
447.792	1107.19
448.013	1082.19
448.234	1084.19
448.455	1080.19
448.675	1114.19
448.896	1147.19
449.117	1120.19
449.338	1232.19
449.559	1254.19
449.779	1136.19
450	1064.19
450.221	1095.19
450.442	1061.19
450.662	1102.19
450.883	1058.19
451.104	1077.19
451.324	1060.19
451.545	1020.19
451.766	1056.19
451.986	1069.19
452.207	1125.19
452.428	1295.19
452.648	1752.19
452.869	1545.19
453.089	1180.19
453.31	1136.19
453.53	1144.19
453.751	1199.19
453.971	1210.19
454.192	1212.19
454.412	1079.19
454.633	1064.19
454.853	1041.19
455.073	1004.19
455.294	1041.19
455.514	1016.19
455.734	1007.19
455.955	986.19
456.175	1002.19
456.395	1022.19
456.616	1034.19
456.836	1021.19
457.056	993.19
457.276	1005.19
457.497	1064.19
457.717	1080.19
457.937	1037.19
458.157	1056.19
458.377	1052.19
458.598	1083.19
458.818	1061.19
459.038	1076.19
459.258	1084.19
459.478	1081.19
459.698	1087.19
459.918	1097.19
460.138	1164.19
460.358	1186.19
460.578	1167.19
460.798	1202.19
461.018	1198.19
461.238	1213.19
461.458	1213.19
461.678	1217.19
461.898	1260.19
462.118	1240.19
462.338	1262.19
462.558	1283.19
462.777	1308.19
462.997	1333.19
463.217	1370.19
463.437	1429.19
463.657	1422.19
463.876	1397.19
464.096	1356.19
464.316	1316.19
464.536	1297.19
464.755	1274.19
464.975	1254.19
465.195	1225.19
465.414	1189.19
465.634	1125.19
465.854	1152.19
466.073	1130.19
466.293	1100.19
466.512	1082.19
466.732	1099.19
466.951	1148.19
467.171	1204.19
467.391	1201.19
467.61	1103.19
467.829	1110.19
468.049	1075.19
468.268	1066.19
468.488	1094.19
468.707	1081.19
468.927	1104.19
469.146	1080.19
469.365	1098.19
469.585	1106.19
469.804	1128.19
470.023	1171.19
470.243	1166.19
470.462	1168.19
470.681	1211.19
470.901	1294.19
471.12	1432.19
471.339	1438.19
471.558	1248.19
471.777	1156.19
471.997	1153.19
472.216	1114.19
472.435	1060.19
472.654	1042.19
472.873	1093.19
473.092	1066.19
473.311	1065.19
473.53	1088.19
473.749	1146.19
473.968	1148.19
474.187	1098.19
474.406	1110.19
474.625	1109.19
474.844	1101.19
475.063	1142.19
475.282	1093.19
475.501	1078.19
475.72	1096.19
475.939	1130.19
476.158	1128.19
476.377	1166.19
476.596	1141.19
476.814	1121.19
477.033	1108.19
477.252	1151.19
477.471	1173.19
477.69	1217.19
477.908	1212.19
478.127	1234.19
478.346	1234.19
478.564	1267.19
478.783	1265.19
479.002	1281.19
479.22	1300.19
479.439	1291.19
479.658	1292.19
479.876	1327.19
480.095	1273.19
480.313	1344.19
480.532	1343.19
480.751	1324.19
480.969	1273.19
481.188	1269.19
481.406	1258.19
481.624	1276.19
481.843	1270.19
482.061	1286.19
482.28	1301.19
482.498	1280.19
482.717	1294.19
482.935	1301.19
483.153	1317.19
483.372	1351.19
483.59	1365.19
483.808	1376.19
484.027	1420.19
484.245	1409.19
484.463	1564.19
484.681	1688.19
484.9	1599.19
485.118	1512.19
485.336	1495.19
485.554	1517.19
485.772	1581.19
485.99	1726.19
486.209	1848.19
486.427	1592.19
486.645	1484.19
486.863	1450.19
487.081	1421.19
487.299	1392.19
487.517	1380.19
487.735	1409.19
487.953	1412.19
488.171	1430.19
488.389	1392.19
488.607	1385.19
488.825	1329.19
489.043	1358.19
489.261	1349.19
489.479	1330.19
489.696	1355.19
489.914	1348.19
490.132	1309.19
490.35	1345.19
490.568	1379.19
490.786	1343.19
491.003	1396.19
491.221	1419.19
491.439	1415.19
491.657	1439.19
