Data from SnStandardFlinnAPT0064_LampEnergy10_LIBS07252019.E.O._I.C._HRD10591_15-19-26-493.txt Node
Date: Thu Jul 25 15:19:26 EDT 2019
User: cochatt
Spectrometer: HR+D1059
Trigger mode: 1
Integration Time (sec): 1.000000E-1
Scans to average: 1
Electric dark correction enabled: true
Nonlinearity correction enabled: false
Boxcar width: 0
XAxis mode: Wavelengths
Number of Pixels in Spectrum: 2048
>>>>>Begin Spectral Data<<<<<
223.165	-29.25
223.4	-29.25
223.635	-29.25
223.869	-21.25
224.104	-19.25
224.338	-15.25
224.573	-23.25
224.808	-2.25
225.042	-0.25
225.277	1.75
225.511	5.75
225.746	-2.25
225.98	1.75
226.215	5.75
226.449	23.75
226.683	13.75
226.918	22.75
227.152	37.75
227.387	39.75
227.621	33.75
227.856	53.75
228.09	47.75
228.324	56.75
228.559	48.75
228.793	130.75
229.027	336.75
229.262	341.75
229.496	311.75
229.73	306.75
229.964	291.75
230.199	288.75
230.433	338.75
230.667	331.75
230.901	328.75
231.136	346.75
231.37	377.75
231.604	388.75
231.838	452.75
232.072	539.75
232.306	577.75
232.541	502.75
232.775	424.75
233.009	437.75
233.243	447.75
233.477	484.75
233.711	550.75
233.945	630.75
234.179	557.75
234.413	482.75
234.647	482.75
234.881	500.75
235.115	536.75
235.349	641.75
235.583	826.75
235.817	1070.75
236.051	1057.75
236.285	704.75
236.519	558.75
236.753	522.75
236.987	510.75
237.221	560.75
237.455	526.75
237.689	473.75
237.922	481.75
238.156	476.75
238.39	506.75
238.624	516.75
238.858	518.75
239.091	483.75
239.325	511.75
239.559	512.75
239.793	521.75
240.027	555.75
240.26	577.75
240.494	558.75
240.728	617.75
240.961	644.75
241.195	678.75
241.429	725.75
241.662	740.75
241.896	823.75
242.13	1026.75
242.363	1316.75
242.597	1739.75
242.83	1651.75
243.064	1647.75
243.298	1933.75
243.531	1608.75
243.765	1013.75
243.998	796.75
244.232	751.75
244.465	697.75
244.699	676.75
244.932	670.75
245.166	686.75
245.399	690.75
245.633	724.75
245.866	708.75
246.099	669.75
246.333	642.75
246.566	651.75
246.8	637.75
247.033	651.75
247.266	648.75
247.5	677.75
247.733	682.75
247.966	735.75
248.2	779.75
248.433	920.75
248.666	1035.75
248.899	967.75
249.133	884.75
249.366	891.75
249.599	1030.75
249.832	1144.75
250.066	1120.75
250.299	882.75
250.532	796.75
250.765	766.75
250.998	747.75
251.231	720.75
251.465	731.75
251.698	729.75
251.931	747.75
252.164	733.75
252.397	758.75
252.63	799.75
252.863	817.75
253.096	817.75
253.329	812.75
253.562	788.75
253.795	794.75
254.028	790.75
254.261	822.75
254.494	904.75
254.727	1030.75
254.96	1297.75
255.193	1282.75
255.426	996.75
255.659	903.75
255.892	884.75
256.124	908.75
256.357	884.75
256.59	924.75
256.823	994.75
257.056	1178.75
257.289	1388.75
257.521	1545.75
257.754	1239.75
257.987	995.75
258.22	933.75
258.452	906.75
258.685	931.75
258.918	986.75
259.151	1032.75
259.383	1111.75
259.616	1282.75
259.849	1314.75
260.081	1108.75
260.314	996.75
260.547	967.75
260.779	962.75
261.012	948.75
261.244	956.75
261.477	991.75
261.71	996.75
261.942	1008.75
262.175	992.75
262.407	1030.75
262.64	1008.75
262.872	1083.75
263.105	1097.75
263.337	1176.75
263.57	1240.75
263.802	1263.75
264.035	1269.75
264.267	1305.75
264.499	1363.75
264.732	1360.75
264.964	1393.75
265.197	1356.75
265.429	1407.75
265.661	1422.75
265.894	1535.75
266.126	1710.75
266.358	1993.75
266.591	1909.75
266.823	1596.75
267.055	1410.75
267.287	1351.75
267.52	1287.75
267.752	1306.75
267.984	1252.75
268.216	1266.75
268.448	1249.75
268.681	1180.75
268.913	1218.75
269.145	1245.75
269.377	1256.75
269.609	1228.75
269.841	1314.75
270.073	1377.75
270.306	1664.75
270.538	2286.75
270.77	3359.75
271.002	4144.75
271.234	3052.75
271.466	2010.75
271.698	1610.75
271.93	1454.75
272.162	1378.75
272.394	1335.75
272.626	1288.75
272.858	1227.75
273.09	1249.75
273.322	1231.75
273.553	1202.75
273.785	1212.75
274.017	1197.75
274.249	1206.75
274.481	1216.75
274.713	1233.75
274.945	1223.75
275.176	1237.75
275.408	1206.75
275.64	1234.75
275.872	1228.75
276.104	1262.75
276.335	1284.75
276.567	1257.75
276.799	1262.75
277.031	1336.75
277.262	1335.75
277.494	1410.75
277.726	1634.75
277.957	1925.75
278.189	2194.75
278.421	2048.75
278.652	1829.75
278.884	1746.75
279.115	1510.75
279.347	1470.75
279.579	1430.75
279.81	1466.75
280.042	1433.75
280.273	1436.75
280.505	1503.75
280.736	1507.75
280.968	1628.75
281.199	1822.75
281.431	2101.75
281.662	2204.75
281.894	1847.75
282.125	1674.75
282.356	1706.75
282.588	1699.75
282.819	1762.75
283.051	1915.75
283.282	2099.75
283.513	2571.75
283.745	3788.75
283.976	5964.75
284.207	8568.75
284.439	7792.75
284.67	4989.75
284.901	4111.75
285.132	4097.75
285.364	3876.75
285.595	2948.75
285.826	2560.75
286.057	3034.75
286.288	4146.75
286.52	5496.75
286.751	5268.75
286.982	3332.75
287.213	2460.75
287.444	2114.75
287.675	1930.75
287.906	1837.75
288.138	1802.75
288.369	1720.75
288.6	1705.75
288.831	1685.75
289.062	1693.75
289.293	1702.75
289.524	1752.75
289.755	1677.75
289.986	1690.75
290.217	1733.75
290.448	1682.75
290.679	1715.75
290.91	1824.75
291.141	1921.75
291.371	2052.75
291.602	2179.75
291.833	1977.75
292.064	1775.75
292.295	1664.75
292.526	1682.75
292.757	1673.75
292.987	1604.75
293.218	1592.75
293.449	1633.75
293.68	1623.75
293.91	1599.75
294.141	1576.75
294.372	1566.75
294.603	1603.75
294.833	1554.75
295.064	1553.75
295.295	1567.75
295.525	1595.75
295.756	1563.75
295.987	1546.75
296.217	1590.75
296.448	1576.75
296.679	1608.75
296.909	1601.75
297.14	1594.75
297.37	1616.75
297.601	1600.75
297.831	1648.75
298.062	1621.75
298.292	1639.75
298.523	1692.75
298.753	1718.75
298.984	1716.75
299.214	1714.75
299.445	1775.75
299.675	1806.75
299.905	1878.75
300.136	1933.75
300.366	2232.75
300.597	2850.75
300.827	4004.75
301.057	5530.75
301.288	5574.75
301.518	3685.75
301.748	2775.75
301.979	2446.75
302.209	2416.75
302.439	2419.75
302.669	2569.75
302.9	3089.75
303.13	4380.75
303.36	6510.75
303.59	8625.75
303.82	7656.75
304.051	4688.75
304.281	3302.75
304.511	2690.75
304.741	2448.75
304.971	2287.75
305.201	2151.75
305.431	2089.75
305.661	2014.75
305.891	1996.75
306.121	1872.75
306.352	1918.75
306.582	1859.75
306.812	1876.75
307.042	1882.75
307.272	1790.75
307.502	1842.75
307.731	1858.75
307.961	1808.75
308.191	1824.75
308.421	1825.75
308.651	1798.75
308.881	1799.75
309.111	1807.75
309.341	1827.75
309.571	1851.75
309.8	1874.75
310.03	1849.75
310.26	1872.75
310.49	1866.75
310.72	1879.75
310.949	1861.75
311.179	1926.75
311.409	1914.75
311.639	1915.75
311.868	1938.75
312.098	1897.75
312.328	1957.75
312.557	1950.75
312.787	1975.75
313.017	2003.75
313.246	1989.75
313.476	2042.75
313.706	2096.75
313.935	2187.75
314.165	2373.75
314.394	2481.75
314.624	2345.75
314.853	2204.75
315.083	2152.75
315.312	2211.75
315.542	2206.75
315.771	2265.75
316.001	2310.75
316.23	2396.75
316.46	2489.75
316.689	2748.75
316.919	3423.75
317.148	4805.75
317.377	7461.75
317.607	10991.75
317.836	11466.75
318.065	7224.75
318.295	4647.75
318.524	3729.75
318.753	3139.75
318.983	2887.75
319.212	2691.75
319.441	2635.75
319.67	2525.75
319.9	2460.75
320.129	2432.75
320.358	2386.75
320.587	2425.75
320.816	2372.75
321.046	2387.75
321.275	2399.75
321.504	2404.75
321.733	2419.75
321.962	2512.75
322.191	2607.75
322.42	2535.75
322.649	2482.75
322.878	2494.75
323.108	2544.75
323.337	2580.75
323.566	2638.75
323.795	2679.75
324.024	2751.75
324.253	2793.75
324.482	2899.75
324.71	3036.75
324.939	3254.75
325.168	3441.75
325.397	3523.75
325.626	4227.75
325.855	5961.75
326.084	9255.75
326.313	13192.75
326.542	13961.75
326.77	9868.75
326.999	6504.75
327.228	5319.75
327.457	5051.75
327.686	5139.75
327.914	5360.75
328.143	6312.75
328.372	7464.75
328.6	8079.75
328.829	7296.75
329.058	6036.75
329.287	5238.75
329.515	4766.75
329.744	4406.75
329.972	4121.75
330.201	3939.75
330.43	3780.75
330.658	3681.75
330.887	3640.75
331.115	3530.75
331.344	3548.75
331.572	3453.75
331.801	3522.75
332.03	3497.75
332.258	3602.75
332.486	3794.75
332.715	4382.75
332.943	5406.75
333.172	6858.75
333.4	6930.75
333.629	5167.75
333.857	4644.75
334.085	4592.75
334.314	4834.75
334.542	5290.75
334.771	6182.75
334.999	7641.75
335.227	9637.75
335.455	10899.75
335.684	9707.75
335.912	7959.75
336.14	6596.75
336.369	5828.75
336.597	5328.75
336.825	4833.75
337.053	4630.75
337.281	4313.75
337.51	4080.75
337.738	3927.75
337.966	3681.75
338.194	3606.75
338.422	3473.75
338.65	3425.75
338.878	3329.75
339.106	3228.75
339.334	3210.75
339.562	3139.75
339.79	3088.75
340.018	3050.75
340.246	3015.75
340.474	3035.75
340.702	3008.75
340.93	3008.75
341.158	3010.75
341.386	3013.75
341.614	2979.75
341.842	2930.75
342.07	2841.75
342.298	2796.75
342.526	2764.75
342.754	2715.75
342.981	2722.75
343.209	2681.75
343.437	2748.75
343.665	2754.75
343.893	2788.75
344.12	2829.75
344.348	2719.75
344.576	2754.75
344.804	2680.75
345.031	2647.75
345.259	2592.75
345.487	2563.75
345.714	2562.75
345.942	2523.75
346.17	2543.75
346.397	2496.75
346.625	2494.75
346.853	2468.75
347.08	2481.75
347.308	2555.75
347.535	2538.75
347.763	2480.75
347.99	2522.75
348.218	2474.75
348.445	2428.75
348.673	2424.75
348.9	2434.75
349.128	2464.75
349.355	2429.75
349.583	2423.75
349.81	2412.75
350.037	2407.75
350.265	2334.75
350.492	2424.75
350.72	2382.75
350.947	2382.75
351.174	2407.75
351.402	2408.75
351.629	2377.75
351.856	2383.75
352.083	2374.75
352.311	2381.75
352.538	2379.75
352.765	2347.75
352.992	2330.75
353.22	2350.75
353.447	2351.75
353.674	2369.75
353.901	2358.75
354.128	2356.75
354.355	2312.75
354.583	2374.75
354.81	2419.75
355.037	2444.75
355.264	2428.75
355.491	2387.75
355.718	2402.75
355.945	2426.75
356.172	2424.75
356.399	2428.75
356.626	2449.75
356.853	2487.75
357.08	2482.75
357.307	2528.75
357.534	2608.75
357.761	2548.75
357.988	2560.75
358.215	2542.75
358.441	2550.75
358.668	2516.75
358.895	2536.75
359.122	2464.75
359.349	2535.75
359.576	2520.75
359.802	2499.75
360.029	2469.75
360.256	2494.75
360.483	2495.75
360.709	2529.75
360.936	2522.75
361.163	2508.75
361.39	2507.75
361.616	2536.75
361.843	2525.75
362.07	2568.75
362.296	2570.75
362.523	2545.75
362.749	2554.75
362.976	2540.75
363.203	2518.75
363.429	2442.75
363.656	2500.75
363.882	2508.75
364.109	2515.75
364.335	2483.75
364.562	2505.75
364.788	2486.75
365.015	2507.75
365.241	2608.75
365.468	2771.75
365.694	2938.75
365.92	2842.75
366.147	2649.75
366.373	2585.75
366.599	2558.75
366.826	2511.75
367.052	2543.75
367.278	2606.75
367.505	2588.75
367.731	2570.75
367.957	2588.75
368.184	2604.75
368.41	2641.75
368.636	2646.75
368.862	2630.75
369.089	2583.75
369.315	2614.75
369.541	2644.75
369.767	2623.75
369.993	2587.75
370.219	2544.75
370.445	2626.75
370.672	2592.75
370.898	2606.75
371.124	2618.75
371.35	2664.75
371.576	2694.75
371.802	2694.75
372.028	2679.75
372.254	2679.75
372.48	2690.75
372.706	2715.75
372.932	2704.75
373.158	2743.75
373.384	2714.75
373.61	2707.75
373.835	2784.75
374.061	2730.75
374.287	2768.75
374.513	2825.75
374.739	2801.75
374.965	2814.75
375.191	2839.75
375.416	2843.75
375.642	2781.75
375.868	2766.75
376.094	2789.75
376.319	2732.75
376.545	2723.75
376.771	2673.75
376.997	2698.75
377.222	2664.75
377.448	2674.75
377.674	2676.75
377.899	2711.75
378.125	2668.75
378.35	2675.75
378.576	2684.75
378.802	2699.75
379.027	2777.75
379.253	2874.75
379.478	2987.75
379.704	3614.75
379.929	5308.75
380.155	8098.75
380.38	9062.75
380.606	5554.75
380.831	3856.75
381.057	3316.75
381.282	3070.75
381.507	2871.75
381.733	2838.75
381.958	2712.75
382.184	2750.75
382.409	2663.75
382.634	2656.75
382.86	2663.75
383.085	2658.75
383.31	2674.75
383.535	2634.75
383.761	2708.75
383.986	2686.75
384.211	2705.75
384.436	2728.75
384.662	2755.75
384.887	2738.75
385.112	2685.75
385.337	2731.75
385.562	2729.75
385.787	2775.75
386.013	2720.75
386.238	2757.75
386.463	2740.75
386.688	2721.75
386.913	2730.75
387.138	2760.75
387.363	2699.75
387.588	2737.75
387.813	2708.75
388.038	2706.75
388.263	2717.75
388.488	2728.75
388.713	2713.75
388.938	2731.75
389.163	2691.75
389.387	2758.75
389.612	2704.75
389.837	2723.75
390.062	2692.75
390.287	2732.75
390.512	2754.75
390.736	2816.75
390.961	2817.75
391.186	2811.75
391.411	2873.75
391.636	2862.75
391.86	2883.75
392.085	2891.75
392.31	2868.75
392.534	2806.75
392.759	2826.75
392.984	2787.75
393.208	2854.75
393.433	2862.75
393.658	2855.75
393.882	2752.75
394.107	2730.75
394.331	2755.75
394.556	2787.75
394.78	2804.75
395.005	2800.75
395.229	2762.75
395.454	2839.75
395.678	2875.75
395.903	2851.75
396.127	2834.75
396.352	2839.75
396.576	2816.75
396.801	2825.75
397.025	2878.75
397.249	2893.75
397.474	2866.75
397.698	2848.75
397.922	2906.75
398.147	2867.75
398.371	2892.75
398.595	2993.75
398.82	3040.75
399.044	3188.75
399.268	3330.75
399.492	3454.75
399.717	3584.75
399.941	3609.75
400.165	3424.75
400.389	3270.75
400.613	3179.75
400.837	3156.75
401.062	3046.75
401.286	3074.75
401.51	3064.75
401.734	2973.75
401.958	3012.75
402.182	3032.75
402.406	2969.75
402.63	3067.75
402.854	3066.75
403.078	3016.75
403.302	3033.75
403.526	3120.75
403.75	3099.75
403.974	3115.75
404.198	3068.75
404.422	3134.75
404.645	3141.75
404.869	3099.75
405.093	3119.75
405.317	3101.75
405.541	3189.75
405.765	3193.75
405.988	3271.75
406.212	3286.75
406.436	3153.75
406.66	3206.75
406.883	3246.75
407.107	3314.75
407.331	3410.75
407.555	3406.75
407.778	3370.75
408.002	3397.75
408.226	3336.75
408.449	3332.75
408.673	3265.75
408.896	3198.75
409.12	3188.75
409.344	3181.75
409.567	3117.75
409.791	3128.75
410.014	3080.75
410.238	3114.75
410.461	3120.75
410.685	3071.75
410.908	3067.75
411.132	3047.75
411.355	2989.75
411.578	2988.75
411.802	3039.75
412.025	3028.75
412.249	3026.75
412.472	2977.75
412.695	2955.75
412.919	2945.75
413.142	2967.75
413.365	2920.75
413.589	2961.75
413.812	2960.75
414.035	2917.75
414.258	2935.75
414.482	2964.75
414.705	2919.75
414.928	2934.75
415.151	2953.75
415.374	2882.75
415.597	2859.75
415.821	2876.75
416.044	2821.75
416.267	2871.75
416.49	2832.75
416.713	2832.75
416.936	2831.75
417.159	2808.75
417.382	2764.75
417.605	2776.75
417.828	2826.75
418.051	2813.75
418.274	2822.75
418.497	2878.75
418.72	2931.75
418.943	2844.75
419.166	3006.75
419.389	3118.75
419.611	3079.75
419.834	3000.75
420.057	2937.75
420.28	2870.75
420.503	2828.75
420.726	2753.75
420.948	2807.75
421.171	2794.75
421.394	2828.75
421.617	2833.75
421.839	2859.75
422.062	2846.75
422.285	2814.75
422.507	2927.75
422.73	2862.75
422.953	2916.75
423.175	2955.75
423.398	2937.75
423.621	2795.75
423.843	2819.75
424.066	2851.75
424.288	2826.75
424.511	2833.75
424.733	2820.75
424.956	2829.75
425.178	2812.75
425.401	2763.75
425.623	2783.75
425.846	2738.75
426.068	2730.75
426.291	2703.75
426.513	2686.75
426.735	2693.75
426.958	2732.75
427.18	2670.75
427.402	2716.75
427.625	2740.75
427.847	2640.75
428.069	2642.75
428.292	2680.75
428.514	2670.75
428.736	2667.75
428.958	2643.75
429.181	2606.75
429.403	2585.75
429.625	2626.75
429.847	2558.75
430.069	2667.75
430.292	2774.75
430.514	2840.75
430.736	2870.75
430.958	2704.75
431.18	2622.75
431.402	2612.75
431.624	2567.75
431.846	2595.75
432.068	2568.75
432.29	2573.75
432.512	2592.75
432.734	2619.75
432.956	2614.75
433.178	2632.75
433.4	2586.75
433.622	2610.75
433.844	2647.75
434.066	2606.75
434.287	2652.75
434.509	2634.75
434.731	2667.75
434.953	2723.75
435.175	2722.75
435.397	2767.75
435.618	2621.75
435.84	2619.75
436.062	2610.75
436.284	2616.75
436.505	2629.75
436.727	2631.75
436.949	2586.75
437.17	2555.75
437.392	2551.75
437.614	2508.75
437.835	2497.75
438.057	2515.75
438.278	2472.75
438.5	2475.75
438.721	2595.75
438.943	2623.75
439.165	2713.75
439.386	2740.75
439.608	2719.75
439.829	2748.75
440.05	2824.75
440.272	2872.75
440.493	2738.75
440.715	2690.75
440.936	2681.75
441.158	2692.75
441.379	2767.75
441.6	2838.75
441.822	2901.75
442.043	3094.75
442.264	3159.75
442.486	2972.75
442.707	2843.75
442.928	2777.75
443.149	2756.75
443.371	2786.75
443.592	2741.75
443.813	2836.75
444.034	2828.75
444.255	2922.75
444.476	2962.75
444.698	2937.75
444.919	2994.75
445.14	3033.75
445.361	2958.75
445.582	2879.75
445.803	2789.75
446.024	2785.75
446.245	2773.75
446.466	2792.75
446.687	2722.75
446.908	2642.75
447.129	2651.75
447.35	2640.75
447.571	2642.75
447.792	2571.75
448.013	2631.75
448.234	2576.75
448.455	2612.75
448.675	2626.75
448.896	2694.75
449.117	2822.75
449.338	3027.75
449.559	3113.75
449.779	2795.75
450	2607.75
450.221	2584.75
450.442	2502.75
450.662	2560.75
450.883	2512.75
451.104	2521.75
451.324	2572.75
451.545	2539.75
451.766	2567.75
451.986	2596.75
452.207	2852.75
452.428	3696.75
452.648	5758.75
452.869	4861.75
453.089	3318.75
453.31	3040.75
453.53	3038.75
453.751	3119.75
453.971	3256.75
454.192	3088.75
454.412	2712.75
454.633	2578.75
454.853	2492.75
455.073	2458.75
455.294	2459.75
455.514	2400.75
455.734	2369.75
455.955	2347.75
456.175	2427.75
456.395	2363.75
456.616	2435.75
456.836	2417.75
457.056	2452.75
457.276	2392.75
457.497	2593.75
457.717	2624.75
457.937	2548.75
458.157	2569.75
458.377	2526.75
458.598	2538.75
458.818	2647.75
459.038	2597.75
459.258	2588.75
459.478	2604.75
459.698	2642.75
459.918	2720.75
460.138	2666.75
460.358	2794.75
460.578	2817.75
460.798	2770.75
461.018	2826.75
461.238	2912.75
461.458	2826.75
461.678	2887.75
461.898	2987.75
462.118	2996.75
462.338	3061.75
462.558	3028.75
462.777	3107.75
462.997	3249.75
463.217	3336.75
463.437	3448.75
463.657	3526.75
463.876	3525.75
464.096	3375.75
464.316	3210.75
464.536	3110.75
464.755	3060.75
464.975	3044.75
465.195	2929.75
465.414	2842.75
465.634	2690.75
465.854	2738.75
466.073	2697.75
466.293	2740.75
466.512	2633.75
466.732	2708.75
466.951	2818.75
467.171	3029.75
467.391	2962.75
467.61	2740.75
467.829	2650.75
468.049	2613.75
468.268	2594.75
468.488	2574.75
468.707	2529.75
468.927	2584.75
469.146	2589.75
469.365	2679.75
469.585	2627.75
469.804	2684.75
470.023	2744.75
470.243	2790.75
470.462	2902.75
470.681	3026.75
470.901	3357.75
471.12	3783.75
471.339	3755.75
471.558	3196.75
471.777	2927.75
471.997	2774.75
472.216	2688.75
472.435	2694.75
472.654	2629.75
472.873	2643.75
473.092	2562.75
473.311	2615.75
473.53	2590.75
473.749	2725.75
473.968	2817.75
474.187	2663.75
474.406	2578.75
474.625	2631.75
474.844	2563.75
475.063	2596.75
475.282	2602.75
475.501	2589.75
475.72	2647.75
475.939	2674.75
476.158	2751.75
476.377	2761.75
476.596	2767.75
476.814	2730.75
477.033	2772.75
477.252	2795.75
477.471	2830.75
477.69	2870.75
477.908	2881.75
478.127	2950.75
478.346	2974.75
478.564	3011.75
478.783	3006.75
479.002	3079.75
479.22	3065.75
479.439	3032.75
479.658	3122.75
479.876	3101.75
480.095	3188.75
480.313	3213.75
480.532	3213.75
480.751	3206.75
480.969	3154.75
481.188	3122.75
481.406	3145.75
481.624	3144.75
481.843	3176.75
482.061	3230.75
482.28	3138.75
482.498	3174.75
482.717	3141.75
482.935	3239.75
483.153	3264.75
483.372	3271.75
483.59	3317.75
483.808	3415.75
484.027	3483.75
484.245	3611.75
484.463	4071.75
484.681	4532.75
484.9	4208.75
485.118	3952.75
485.336	3815.75
485.554	3881.75
485.772	4165.75
485.99	4556.75
486.209	4889.75
486.427	4196.75
486.645	3684.75
486.863	3540.75
487.081	3505.75
487.299	3396.75
487.517	3396.75
487.735	3381.75
