Data from SnStandardFlinnAPT0064_QswitchEnergy10_LIBS07252019.E.O._I.C._HRD10591_15-26-02-973.txt Node
Date: Thu Jul 25 15:26:02 EDT 2019
User: cochatt
Spectrometer: HR+D1059
Trigger mode: 1
Integration Time (sec): 1.000000E-1
Scans to average: 1
Electric dark correction enabled: true
Nonlinearity correction enabled: false
Boxcar width: 0
XAxis mode: Wavelengths
Number of Pixels in Spectrum: 2048
>>>>>Begin Spectral Data<<<<<
223.165	-0.88
223.4	-0.88
223.635	-0.88
223.869	-34.88
224.104	-28.88
224.338	-11.88
224.573	-11.88
224.808	-25.88
225.042	-5.88
225.277	-14.88
225.511	0.12
225.746	12.12
225.98	12.12
226.215	20.12
226.449	13.12
226.683	20.12
226.918	35.12
227.152	22.12
227.387	39.12
227.621	40.12
227.856	40.12
228.09	31.12
228.324	39.12
228.559	48.12
228.793	68.12
229.027	70.12
229.262	70.12
229.496	70.12
229.73	76.12
229.964	87.12
230.199	90.12
230.433	91.12
230.667	93.12
230.901	89.12
231.136	75.12
231.37	87.12
231.604	89.12
231.838	93.12
232.072	103.12
232.306	125.12
232.541	87.12
232.775	84.12
233.009	102.12
233.243	99.12
233.477	85.12
233.711	93.12
233.945	112.12
234.179	85.12
234.413	91.12
234.647	83.12
234.881	85.12
235.115	72.12
235.349	92.12
235.583	110.12
235.817	124.12
236.051	134.12
236.285	92.12
236.519	65.12
236.753	93.12
236.987	89.12
237.221	80.12
237.455	80.12
237.689	76.12
237.922	86.12
238.156	79.12
238.39	81.12
238.624	69.12
238.858	78.12
239.091	63.12
239.325	74.12
239.559	76.12
239.793	74.12
240.027	88.12
240.26	78.12
240.494	74.12
240.728	79.12
240.961	68.12
241.195	94.12
241.429	83.12
241.662	97.12
241.896	80.12
242.13	91.12
242.363	128.12
242.597	167.12
242.83	131.12
243.064	119.12
243.298	173.12
243.531	144.12
243.765	86.12
243.998	88.12
244.232	71.12
244.465	76.12
244.699	75.12
244.932	75.12
245.166	75.12
245.399	92.12
245.633	75.12
245.866	92.12
246.099	96.12
246.333	73.12
246.566	72.12
246.8	83.12
247.033	62.12
247.266	72.12
247.5	78.12
247.733	79.12
247.966	92.12
248.2	95.12
248.433	98.12
248.666	138.12
248.899	111.12
249.133	105.12
249.366	105.12
249.599	110.12
249.832	132.12
250.066	136.12
250.299	100.12
250.532	86.12
250.765	75.12
250.998	91.12
251.231	63.12
251.465	82.12
251.698	93.12
251.931	73.12
252.164	76.12
252.397	74.12
252.63	89.12
252.863	95.12
253.096	96.12
253.329	92.12
253.562	81.12
253.795	84.12
254.028	88.12
254.261	97.12
254.494	105.12
254.727	99.12
254.96	140.12
255.193	133.12
255.426	95.12
255.659	100.12
255.892	97.12
256.124	91.12
256.357	98.12
256.59	94.12
256.823	89.12
257.056	111.12
257.289	139.12
257.521	172.12
257.754	119.12
257.987	108.12
258.22	102.12
258.452	85.12
258.685	92.12
258.918	84.12
259.151	92.12
259.383	96.12
259.616	123.12
259.849	132.12
260.081	102.12
260.314	74.12
260.547	87.12
260.779	95.12
261.012	75.12
261.244	91.12
261.477	96.12
261.71	84.12
261.942	69.12
262.175	88.12
262.407	86.12
262.64	90.12
262.872	89.12
263.105	72.12
263.337	90.12
263.57	87.12
263.802	86.12
264.035	82.12
264.267	86.12
264.499	81.12
264.732	83.12
264.964	92.12
265.197	81.12
265.429	103.12
265.661	98.12
265.894	92.12
266.126	129.12
266.358	147.12
266.591	141.12
266.823	105.12
267.055	95.12
267.287	98.12
267.52	80.12
267.752	84.12
267.984	74.12
268.216	82.12
268.448	91.12
268.681	91.12
268.913	92.12
269.145	76.12
269.377	83.12
269.609	95.12
269.841	93.12
270.073	100.12
270.306	124.12
270.538	201.12
270.77	303.12
271.002	359.12
271.234	209.12
271.466	116.12
271.698	69.12
271.93	96.12
272.162	95.12
272.394	89.12
272.626	90.12
272.858	101.12
273.09	76.12
273.322	67.12
273.553	82.12
273.785	97.12
274.017	77.12
274.249	94.12
274.481	83.12
274.713	92.12
274.945	96.12
275.176	88.12
275.408	86.12
275.64	97.12
275.872	86.12
276.104	96.12
276.335	94.12
276.567	111.12
276.799	82.12
277.031	116.12
277.262	88.12
277.494	103.12
277.726	123.12
277.957	170.12
278.189	248.12
278.421	228.12
278.652	180.12
278.884	184.12
279.115	131.12
279.347	115.12
279.579	84.12
279.81	90.12
280.042	112.12
280.273	90.12
280.505	103.12
280.736	104.12
280.968	135.12
281.199	175.12
281.431	249.12
281.662	265.12
281.894	153.12
282.125	127.12
282.356	104.12
282.588	91.12
282.819	106.12
283.051	106.12
283.282	131.12
283.513	185.12
283.745	290.12
283.976	524.12
284.207	710.12
284.439	559.12
284.67	259.12
284.901	236.12
285.132	330.12
285.364	360.12
285.595	200.12
285.826	151.12
286.057	241.12
286.288	392.12
286.52	556.12
286.751	466.12
286.982	195.12
287.213	134.12
287.444	111.12
287.675	99.12
287.906	96.12
288.138	98.12
288.369	92.12
288.6	79.12
288.831	95.12
289.062	92.12
289.293	95.12
289.524	93.12
289.755	96.12
289.986	85.12
290.217	98.12
290.448	95.12
290.679	109.12
290.91	120.12
291.141	148.12
291.371	223.12
291.602	256.12
291.833	181.12
292.064	114.12
292.295	101.12
292.526	99.12
292.757	95.12
292.987	106.12
293.218	82.12
293.449	103.12
293.68	98.12
293.91	89.12
294.141	99.12
294.372	98.12
294.603	89.12
294.833	87.12
295.064	99.12
295.295	97.12
295.525	101.12
295.756	90.12
295.987	95.12
296.217	90.12
296.448	93.12
296.679	107.12
296.909	92.12
297.14	104.12
297.37	97.12
297.601	85.12
297.831	100.12
298.062	97.12
298.292	99.12
298.523	120.12
298.753	102.12
298.984	109.12
299.214	103.12
299.445	95.12
299.675	97.12
299.905	112.12
300.136	116.12
300.366	147.12
300.597	253.12
300.827	417.12
301.057	625.12
301.288	598.12
301.518	260.12
301.748	155.12
301.979	140.12
302.209	118.12
302.439	140.12
302.669	175.12
302.9	251.12
303.13	454.12
303.36	821.12
303.59	1144.12
303.82	779.12
304.051	287.12
304.281	159.12
304.511	118.12
304.741	113.12
304.971	106.12
305.201	111.12
305.431	106.12
305.661	93.12
305.891	95.12
306.121	108.12
306.352	106.12
306.582	102.12
306.812	106.12
307.042	111.12
307.272	107.12
307.502	89.12
307.731	91.12
307.961	108.12
308.191	104.12
308.421	107.12
308.651	113.12
308.881	111.12
309.111	103.12
309.341	100.12
309.571	108.12
309.8	100.12
310.03	107.12
310.26	115.12
310.49	111.12
310.72	95.12
310.949	97.12
311.179	106.12
311.409	112.12
311.639	95.12
311.868	109.12
312.098	106.12
312.328	93.12
312.557	121.12
312.787	99.12
313.017	118.12
313.246	112.12
313.476	115.12
313.706	120.12
313.935	159.12
314.165	202.12
314.394	217.12
314.624	179.12
314.853	132.12
315.083	125.12
315.312	124.12
315.542	113.12
315.771	136.12
316.001	122.12
316.23	122.12
316.46	144.12
316.689	162.12
316.919	235.12
317.148	458.12
317.377	863.12
317.607	1376.12
317.836	1302.12
318.065	503.12
318.295	217.12
318.524	157.12
318.753	129.12
318.983	137.12
319.212	113.12
319.441	116.12
319.67	118.12
319.9	120.12
320.129	101.12
320.358	111.12
320.587	111.12
320.816	122.12
321.046	118.12
321.275	125.12
321.504	125.12
321.733	137.12
321.962	147.12
322.191	145.12
322.42	124.12
322.649	124.12
322.878	126.12
323.108	109.12
323.337	119.12
323.566	125.12
323.795	126.12
324.024	123.12
324.253	137.12
324.482	168.12
324.71	198.12
324.939	275.12
325.168	235.12
325.397	179.12
325.626	258.12
325.855	442.12
326.084	879.12
326.313	1474.12
326.542	1465.12
326.77	594.12
326.999	267.12
327.228	205.12
327.457	188.12
327.686	207.12
327.914	159.12
328.143	136.12
328.372	121.12
328.6	119.12
328.829	127.12
329.058	125.12
329.287	119.12
329.515	109.12
329.744	100.12
329.972	107.12
330.201	101.12
330.43	119.12
330.658	117.12
330.887	121.12
331.115	122.12
331.344	107.12
331.572	98.12
331.801	112.12
332.03	123.12
332.258	127.12
332.486	171.12
332.715	273.12
332.943	485.12
333.172	697.12
333.4	647.12
333.629	249.12
333.857	139.12
334.085	124.12
334.314	128.12
334.542	128.12
334.771	117.12
334.999	119.12
335.227	122.12
335.455	120.12
335.684	104.12
335.912	117.12
336.14	123.12
336.369	121.12
336.597	117.12
336.825	114.12
337.053	99.12
337.281	120.12
337.51	122.12
337.738	103.12
337.966	106.12
338.194	110.12
338.422	108.12
338.65	116.12
338.878	116.12
339.106	122.12
339.334	124.12
339.562	116.12
339.79	109.12
340.018	103.12
340.246	117.12
340.474	103.12
340.702	123.12
340.93	104.12
341.158	116.12
341.386	111.12
341.614	103.12
341.842	120.12
342.07	120.12
342.298	122.12
342.526	119.12
342.754	122.12
342.981	98.12
343.209	117.12
343.437	111.12
343.665	113.12
343.893	107.12
344.12	108.12
344.348	113.12
344.576	102.12
344.804	107.12
345.031	121.12
345.259	108.12
345.487	101.12
345.714	107.12
345.942	100.12
346.17	88.12
346.397	99.12
346.625	111.12
346.853	90.12
347.08	87.12
347.308	109.12
347.535	109.12
347.763	99.12
347.99	100.12
348.218	94.12
348.445	102.12
348.673	107.12
348.9	122.12
349.128	126.12
349.355	115.12
349.583	116.12
349.81	112.12
350.037	111.12
350.265	102.12
350.492	113.12
350.72	115.12
350.947	105.12
351.174	114.12
351.402	109.12
351.629	97.12
351.856	115.12
352.083	116.12
352.311	119.12
352.538	123.12
352.765	109.12
352.992	116.12
353.22	101.12
353.447	104.12
353.674	97.12
353.901	112.12
354.128	105.12
354.355	101.12
354.583	111.12
354.81	91.12
355.037	113.12
355.264	118.12
355.491	92.12
355.718	91.12
355.945	94.12
356.172	90.12
356.399	124.12
356.626	99.12
356.853	106.12
357.08	99.12
357.307	127.12
357.534	110.12
357.761	104.12
357.988	106.12
358.215	105.12
358.441	109.12
358.668	120.12
358.895	117.12
359.122	105.12
359.349	110.12
359.576	113.12
359.802	115.12
360.029	118.12
360.256	124.12
360.483	113.12
360.709	116.12
360.936	117.12
361.163	101.12
361.39	103.12
361.616	122.12
361.843	84.12
362.07	116.12
362.296	122.12
362.523	111.12
362.749	92.12
362.976	113.12
363.203	111.12
363.429	100.12
363.656	109.12
363.882	112.12
364.109	106.12
364.335	107.12
364.562	112.12
364.788	113.12
365.015	119.12
365.241	130.12
365.468	175.12
365.694	244.12
365.92	201.12
366.147	109.12
366.373	101.12
366.599	106.12
366.826	97.12
367.052	91.12
367.278	89.12
367.505	88.12
367.731	103.12
367.957	89.12
368.184	132.12
368.41	119.12
368.636	116.12
368.862	106.12
369.089	110.12
369.315	101.12
369.541	97.12
369.767	112.12
369.993	109.12
370.219	105.12
370.445	105.12
370.672	105.12
370.898	129.12
371.124	107.12
371.35	103.12
371.576	88.12
371.802	114.12
372.028	116.12
372.254	114.12
372.48	111.12
372.706	103.12
372.932	111.12
373.158	114.12
373.384	111.12
373.61	108.12
373.835	111.12
374.061	97.12
374.287	113.12
374.513	108.12
374.739	117.12
374.965	103.12
375.191	121.12
375.416	114.12
375.642	103.12
375.868	120.12
376.094	100.12
376.319	90.12
376.545	117.12
376.771	101.12
376.997	91.12
377.222	101.12
377.448	100.12
377.674	111.12
377.899	105.12
378.125	109.12
378.35	120.12
378.576	112.12
378.802	118.12
379.027	115.12
379.253	121.12
379.478	170.12
379.704	293.12
379.929	746.12
380.155	1467.12
380.38	1569.12
380.606	507.12
380.831	171.12
381.057	133.12
381.282	120.12
381.507	116.12
381.733	109.12
381.958	102.12
382.184	107.12
382.409	102.12
382.634	105.12
382.86	94.12
383.085	100.12
383.31	107.12
383.535	97.12
383.761	108.12
383.986	100.12
384.211	97.12
384.436	105.12
384.662	104.12
384.887	98.12
385.112	107.12
385.337	98.12
385.562	109.12
385.787	102.12
386.013	100.12
386.238	97.12
386.463	128.12
386.688	111.12
386.913	103.12
387.138	107.12
387.363	105.12
387.588	114.12
387.813	111.12
388.038	112.12
388.263	100.12
388.488	107.12
388.713	109.12
388.938	102.12
389.163	88.12
389.387	82.12
389.612	86.12
389.837	103.12
390.062	106.12
390.287	106.12
390.512	121.12
390.736	100.12
390.961	90.12
391.186	94.12
391.411	107.12
391.636	95.12
391.86	98.12
392.085	93.12
392.31	105.12
392.534	113.12
392.759	113.12
392.984	124.12
393.208	128.12
393.433	179.12
393.658	187.12
393.882	116.12
394.107	100.12
394.331	90.12
394.556	111.12
394.78	101.12
395.005	103.12
395.229	96.12
395.454	92.12
395.678	110.12
395.903	79.12
396.127	113.12
396.352	90.12
396.576	107.12
396.801	117.12
397.025	177.12
397.249	135.12
397.474	105.12
397.698	84.12
397.922	89.12
398.147	95.12
398.371	84.12
398.595	99.12
398.82	89.12
399.044	95.12
399.268	80.12
399.492	82.12
399.717	104.12
399.941	95.12
400.165	96.12
400.389	94.12
400.613	95.12
400.837	91.12
401.062	97.12
401.286	93.12
401.51	98.12
401.734	98.12
401.958	89.12
402.182	91.12
402.406	111.12
402.63	99.12
402.854	102.12
403.078	114.12
403.302	94.12
403.526	99.12
403.75	99.12
403.974	99.12
404.198	103.12
404.422	98.12
404.645	87.12
404.869	102.12
405.093	115.12
405.317	97.12
405.541	101.12
405.765	121.12
405.988	140.12
406.212	103.12
406.436	98.12
406.66	96.12
406.883	88.12
407.107	90.12
407.331	101.12
407.555	96.12
407.778	96.12
408.002	93.12
408.226	87.12
408.449	102.12
408.673	112.12
408.896	90.12
409.12	102.12
409.344	105.12
409.567	72.12
409.791	97.12
410.014	98.12
410.238	97.12
410.461	102.12
410.685	107.12
410.908	91.12
411.132	120.12
411.355	97.12
411.578	95.12
411.802	109.12
412.025	90.12
412.249	99.12
412.472	96.12
412.695	90.12
412.919	97.12
413.142	84.12
413.365	89.12
413.589	95.12
413.812	105.12
414.035	103.12
414.258	112.12
414.482	109.12
414.705	106.12
414.928	117.12
415.151	101.12
415.374	114.12
415.597	105.12
415.821	97.12
416.044	104.12
416.267	93.12
416.49	93.12
416.713	100.12
416.936	91.12
417.159	91.12
417.382	97.12
417.605	84.12
417.828	88.12
418.051	96.12
418.274	107.12
418.497	90.12
418.72	83.12
418.943	75.12
419.166	111.12
419.389	95.12
419.611	102.12
419.834	98.12
420.057	86.12
420.28	100.12
420.503	102.12
420.726	93.12
420.948	102.12
421.171	102.12
421.394	93.12
421.617	84.12
421.839	99.12
422.062	101.12
422.285	101.12
422.507	111.12
422.73	159.12
422.953	181.12
423.175	109.12
423.398	105.12
423.621	94.12
423.843	96.12
424.066	107.12
424.288	87.12
424.511	100.12
424.733	90.12
424.956	90.12
425.178	92.12
425.401	91.12
425.623	80.12
425.846	83.12
426.068	81.12
426.291	81.12
426.513	100.12
426.735	108.12
426.958	81.12
427.18	105.12
427.402	114.12
427.625	89.12
427.847	101.12
428.069	105.12
428.292	93.12
428.514	105.12
428.736	100.12
428.958	90.12
429.181	95.12
429.403	91.12
429.625	100.12
429.847	100.12
430.069	105.12
430.292	92.12
430.514	106.12
430.736	103.12
430.958	95.12
431.18	97.12
431.402	98.12
431.624	113.12
431.846	93.12
432.068	88.12
432.29	85.12
432.512	97.12
432.734	85.12
432.956	89.12
433.178	90.12
433.4	89.12
433.622	102.12
433.844	89.12
434.066	97.12
434.287	104.12
434.509	117.12
434.731	91.12
434.953	86.12
435.175	79.12
435.397	95.12
435.618	92.12
435.84	94.12
436.062	76.12
436.284	88.12
436.505	102.12
436.727	93.12
436.949	78.12
437.17	93.12
437.392	89.12
437.614	96.12
437.835	93.12
438.057	89.12
438.278	90.12
438.5	97.12
438.721	96.12
438.943	103.12
439.165	109.12
439.386	119.12
439.608	109.12
439.829	109.12
440.05	110.12
440.272	127.12
440.493	97.12
440.715	113.12
440.936	99.12
441.158	78.12
441.379	102.12
441.6	103.12
441.822	85.12
442.043	104.12
442.264	134.12
442.486	125.12
442.707	103.12
442.928	97.12
443.149	92.12
443.371	100.12
443.592	99.12
443.813	96.12
444.034	98.12
444.255	88.12
444.476	98.12
444.698	101.12
444.919	86.12
445.14	206.12
445.361	141.12
445.582	92.12
445.803	94.12
446.024	105.12
446.245	111.12
446.466	106.12
446.687	123.12
446.908	112.12
447.129	102.12
447.35	86.12
447.571	107.12
447.792	102.12
448.013	107.12
448.234	97.12
448.455	93.12
448.675	98.12
448.896	115.12
449.117	115.12
449.338	128.12
449.559	159.12
449.779	123.12
450	111.12
450.221	107.12
450.442	136.12
450.662	109.12
450.883	105.12
451.104	95.12
451.324	113.12
451.545	111.12
451.766	123.12
451.986	127.12
452.207	202.12
452.428	500.12
452.648	1237.12
452.869	693.12
453.089	171.12
453.31	131.12
453.53	116.12
453.751	135.12
453.971	160.12
454.192	148.12
454.412	113.12
454.633	102.12
454.853	98.12
455.073	84.12
455.294	89.12
455.514	101.12
455.734	99.12
455.955	72.12
456.175	91.12
456.395	89.12
456.616	90.12
456.836	87.12
457.056	79.12
457.276	89.12
457.497	121.12
457.717	130.12
457.937	109.12
458.157	105.12
458.377	102.12
458.598	78.12
458.818	93.12
459.038	90.12
459.258	88.12
459.478	94.12
459.698	87.12
459.918	90.12
460.138	100.12
460.358	93.12
460.578	92.12
460.798	85.12
461.018	84.12
461.238	93.12
461.458	97.12
461.678	108.12
461.898	97.12
462.118	97.12
462.338	89.12
462.558	97.12
462.777	95.12
462.997	102.12
463.217	106.12
463.437	126.12
463.657	175.12
463.876	184.12
464.096	111.12
464.316	98.12
464.536	101.12
464.755	105.12
464.975	102.12
465.195	91.12
465.414	97.12
465.634	113.12
465.854	98.12
466.073	102.12
466.293	88.12
466.512	89.12
466.732	96.12
466.951	113.12
467.171	131.12
467.391	144.12
467.61	104.12
467.829	117.12
468.049	101.12
468.268	95.12
468.488	98.12
468.707	97.12
468.927	96.12
469.146	87.12
469.365	94.12
469.585	105.12
469.804	99.12
470.023	102.12
470.243	87.12
470.462	106.12
470.681	112.12
470.901	129.12
471.12	171.12
471.339	200.12
471.558	130.12
471.777	117.12
471.997	94.12
472.216	84.12
472.435	78.12
472.654	90.12
472.873	96.12
473.092	96.12
473.311	90.12
473.53	99.12
473.749	93.12
473.968	115.12
474.187	95.12
474.406	99.12
474.625	94.12
474.844	92.12
475.063	95.12
475.282	90.12
475.501	92.12
475.72	103.12
475.939	101.12
476.158	102.12
476.377	107.12
476.596	112.12
476.814	102.12
477.033	99.12
477.252	92.12
477.471	102.12
477.69	98.12
477.908	108.12
478.127	104.12
478.346	97.12
478.564	96.12
478.783	96.12
479.002	93.12
479.22	103.12
479.439	95.12
479.658	94.12
479.876	103.12
480.095	96.12
480.313	103.12
480.532	98.12
480.751	97.12
480.969	89.12
481.188	94.12
481.406	89.12
481.624	99.12
481.843	100.12
482.061	111.12
482.28	100.12
482.498	101.12
482.717	103.12
482.935	102.12
483.153	115.12
483.372	100.12
483.59	106.12
483.808	105.12
484.027	114.12
484.245	118.12
484.463	174.12
484.681	229.12
484.9	160.12
485.118	120.12
485.336	91.12
485.554	101.12
485.772	135.12
485.99	197.12
486.209	254.12
486.427	172.12
486.645	115.12
486.863	90.12
487.081	102.12
487.299	101.12
487.517	80.12
487.735	97.12
487.953	99.12
488.171	99.12
488.389	102.12
488.607	97.12
488.825	85.12
489.043	100.12
489.261	87.12
489.479	80.12
489.696	110.12
489.914	88.12
490.132	99.12
490.35	101.12
490.568	115.12
490.786	92.12
491.003	105.12
491.221	117.12
491.439	111.12
491.657	91.12
491.874	106.12
492.092	110.12
492.31	112.12
492.527	104.12
492.745	111.12
492.963	108.12
493.18	105.12
493.398	98.12
493.615	103.12
493.833	93.12
494.05	101.12
494.268	86.12
494.485	111.12
494.703	107.12
494.92	113.12
495.138	115.12
495.355	103.12
495.573	104.12
495.79	110.12
496.008	98.12
496.225	95.12
496.442	92.12
496.66	121.12
496.877	139.12
497.094	158.12
497.312	106.12
497.529	89.12
497.746	96.12
497.963	97.12
498.181	102.12
498.398	110.12
498.615	126.12
498.832	104.12
499.049	111.12
499.267	133.12
499.484	164.12
499.701	107.12
499.918	101.12
500.135	106.12
500.352	104.12
500.569	99.12
500.786	91.12
501.003	99.12
501.22	92.12
501.437	98.12
501.654	103.12
501.871	103.12
502.088	88.12
502.305	110.12
502.522	95.12
502.739	109.12
502.956	109.12
503.172	104.12
503.389	95.12
503.606	100.12
503.823	110.12
504.04	86.12
504.256	96.12
504.473	99.12
504.69	105.12
504.907	112.12
505.123	104.12
505.34	98.12
505.557	98.12
505.773	99.12
505.99	97.12
506.207	100.12
506.423	104.12
506.64	96.12
506.856	104.12
507.073	87.12
507.289	93.12
507.506	100.12
507.722	102.12
507.939	96.12
508.155	91.12
508.372	85.12
508.588	98.12
508.805	106.12
