Data from SnStandardFlinnAPT0064_QswitchEnergy10_LIBS07252019.E.O._I.C._HRD10591_15-26-00-972.txt Node
Date: Thu Jul 25 15:26:00 EDT 2019
User: cochatt
Spectrometer: HR+D1059
Trigger mode: 1
Integration Time (sec): 1.000000E-1
Scans to average: 1
Electric dark correction enabled: true
Nonlinearity correction enabled: false
Boxcar width: 0
XAxis mode: Wavelengths
Number of Pixels in Spectrum: 2048
>>>>>Begin Spectral Data<<<<<
223.165	-25.75
223.4	-25.75
223.635	-25.75
223.869	-17.75
224.104	-24.75
224.338	-12.75
224.573	-14.75
224.808	-7.75
225.042	-6.75
225.277	-0.75
225.511	-17.75
225.746	6.25
225.98	-3.75
226.215	22.25
226.449	23.25
226.683	17.25
226.918	22.25
227.152	41.25
227.387	30.25
227.621	38.25
227.856	53.25
228.09	62.25
228.324	41.25
228.559	60.25
228.793	46.25
229.027	77.25
229.262	85.25
229.496	74.25
229.73	53.25
229.964	72.25
230.199	76.25
230.433	77.25
230.667	84.25
230.901	79.25
231.136	73.25
231.37	91.25
231.604	97.25
231.838	96.25
232.072	110.25
232.306	124.25
232.541	83.25
232.775	82.25
233.009	87.25
233.243	73.25
233.477	99.25
233.711	93.25
233.945	101.25
234.179	95.25
234.413	80.25
234.647	82.25
234.881	82.25
235.115	86.25
235.349	71.25
235.583	104.25
235.817	118.25
236.051	126.25
236.285	94.25
236.519	89.25
236.753	71.25
236.987	77.25
237.221	81.25
237.455	79.25
237.689	83.25
237.922	81.25
238.156	72.25
238.39	76.25
238.624	100.25
238.858	83.25
239.091	88.25
239.325	75.25
239.559	97.25
239.793	82.25
240.027	90.25
240.26	91.25
240.494	83.25
240.728	99.25
240.961	84.25
241.195	91.25
241.429	94.25
241.662	75.25
241.896	102.25
242.13	93.25
242.363	132.25
242.597	168.25
242.83	138.25
243.064	128.25
243.298	165.25
243.531	155.25
243.765	81.25
243.998	83.25
244.232	76.25
244.465	75.25
244.699	93.25
244.932	87.25
245.166	66.25
245.399	87.25
245.633	84.25
245.866	92.25
246.099	84.25
246.333	72.25
246.566	83.25
246.8	76.25
247.033	84.25
247.266	87.25
247.5	77.25
247.733	98.25
247.966	88.25
248.2	99.25
248.433	98.25
248.666	121.25
248.899	122.25
249.133	104.25
249.366	85.25
249.599	114.25
249.832	120.25
250.066	136.25
250.299	107.25
250.532	85.25
250.765	84.25
250.998	88.25
251.231	77.25
251.465	87.25
251.698	76.25
251.931	75.25
252.164	79.25
252.397	86.25
252.63	102.25
252.863	108.25
253.096	80.25
253.329	94.25
253.562	84.25
253.795	86.25
254.028	80.25
254.261	96.25
254.494	90.25
254.727	121.25
254.96	138.25
255.193	123.25
255.426	96.25
255.659	80.25
255.892	89.25
256.124	92.25
256.357	87.25
256.59	83.25
256.823	99.25
257.056	104.25
257.289	128.25
257.521	167.25
257.754	121.25
257.987	86.25
258.22	84.25
258.452	73.25
258.685	85.25
258.918	81.25
259.151	91.25
259.383	99.25
259.616	124.25
259.849	144.25
260.081	108.25
260.314	98.25
260.547	77.25
260.779	81.25
261.012	83.25
261.244	88.25
261.477	86.25
261.71	87.25
261.942	83.25
262.175	66.25
262.407	83.25
262.64	74.25
262.872	91.25
263.105	91.25
263.337	99.25
263.57	92.25
263.802	96.25
264.035	82.25
264.267	81.25
264.499	87.25
264.732	89.25
264.964	89.25
265.197	88.25
265.429	87.25
265.661	89.25
265.894	92.25
266.126	126.25
266.358	139.25
266.591	136.25
266.823	95.25
267.055	83.25
267.287	88.25
267.52	94.25
267.752	89.25
267.984	88.25
268.216	95.25
268.448	103.25
268.681	80.25
268.913	89.25
269.145	73.25
269.377	97.25
269.609	79.25
269.841	103.25
270.073	118.25
270.306	120.25
270.538	174.25
270.77	286.25
271.002	335.25
271.234	187.25
271.466	110.25
271.698	111.25
271.93	94.25
272.162	91.25
272.394	95.25
272.626	90.25
272.858	97.25
273.09	87.25
273.322	78.25
273.553	87.25
273.785	76.25
274.017	93.25
274.249	81.25
274.481	80.25
274.713	103.25
274.945	80.25
275.176	94.25
275.408	87.25
275.64	99.25
275.872	104.25
276.104	103.25
276.335	104.25
276.567	96.25
276.799	104.25
277.031	87.25
277.262	103.25
277.494	106.25
277.726	128.25
277.957	168.25
278.189	220.25
278.421	233.25
278.652	176.25
278.884	152.25
279.115	148.25
279.347	101.25
279.579	98.25
279.81	80.25
280.042	95.25
280.273	86.25
280.505	96.25
280.736	120.25
280.968	112.25
281.199	167.25
281.431	225.25
281.662	236.25
281.894	148.25
282.125	120.25
282.356	116.25
282.588	115.25
282.819	115.25
283.051	101.25
283.282	130.25
283.513	171.25
283.745	286.25
283.976	496.25
284.207	737.25
284.439	568.25
284.67	249.25
284.901	240.25
285.132	324.25
285.364	374.25
285.595	210.25
285.826	167.25
286.057	227.25
286.288	383.25
286.52	565.25
286.751	446.25
286.982	186.25
287.213	112.25
287.444	104.25
287.675	94.25
287.906	104.25
288.138	91.25
288.369	107.25
288.6	81.25
288.831	97.25
289.062	96.25
289.293	91.25
289.524	92.25
289.755	87.25
289.986	99.25
290.217	91.25
290.448	92.25
290.679	99.25
290.91	102.25
291.141	140.25
291.371	204.25
291.602	267.25
291.833	194.25
292.064	114.25
292.295	103.25
292.526	90.25
292.757	79.25
292.987	99.25
293.218	90.25
293.449	86.25
293.68	89.25
293.91	80.25
294.141	86.25
294.372	93.25
294.603	103.25
294.833	101.25
295.064	86.25
295.295	102.25
295.525	85.25
295.756	102.25
295.987	91.25
296.217	95.25
296.448	107.25
296.679	88.25
296.909	106.25
297.14	104.25
297.37	99.25
297.601	83.25
297.831	95.25
298.062	103.25
298.292	103.25
298.523	88.25
298.753	103.25
298.984	97.25
299.214	92.25
299.445	108.25
299.675	103.25
299.905	114.25
300.136	120.25
300.366	159.25
300.597	236.25
300.827	424.25
301.057	627.25
301.288	560.25
301.518	262.25
301.748	146.25
301.979	128.25
302.209	130.25
302.439	137.25
302.669	149.25
302.9	260.25
303.13	456.25
303.36	814.25
303.59	1106.25
303.82	775.25
304.051	270.25
304.281	141.25
304.511	122.25
304.741	124.25
304.971	99.25
305.201	101.25
305.431	105.25
305.661	107.25
305.891	91.25
306.121	112.25
306.352	108.25
306.582	98.25
306.812	113.25
307.042	128.25
307.272	100.25
307.502	100.25
307.731	105.25
307.961	112.25
308.191	114.25
308.421	110.25
308.651	103.25
308.881	103.25
309.111	99.25
309.341	87.25
309.571	87.25
309.8	114.25
310.03	108.25
310.26	126.25
310.49	88.25
310.72	107.25
310.949	109.25
311.179	103.25
311.409	122.25
311.639	110.25
311.868	110.25
312.098	118.25
312.328	106.25
312.557	107.25
312.787	120.25
313.017	118.25
313.246	105.25
313.476	115.25
313.706	123.25
313.935	141.25
314.165	180.25
314.394	229.25
314.624	169.25
314.853	138.25
315.083	106.25
315.312	123.25
315.542	131.25
315.771	121.25
316.001	136.25
316.23	136.25
316.46	140.25
316.689	162.25
316.919	244.25
317.148	448.25
317.377	841.25
317.607	1337.25
317.836	1277.25
318.065	482.25
318.295	204.25
318.524	148.25
318.753	123.25
318.983	119.25
319.212	114.25
319.441	111.25
319.67	100.25
319.9	116.25
320.129	119.25
320.358	120.25
320.587	120.25
320.816	115.25
321.046	117.25
321.275	119.25
321.504	113.25
321.733	138.25
321.962	143.25
322.191	154.25
322.42	140.25
322.649	133.25
322.878	124.25
323.108	124.25
323.337	115.25
323.566	120.25
323.795	123.25
324.024	132.25
324.253	134.25
324.482	182.25
324.71	202.25
324.939	256.25
325.168	227.25
325.397	180.25
325.626	232.25
325.855	438.25
326.084	857.25
326.313	1421.25
326.542	1412.25
326.77	558.25
326.999	246.25
327.228	188.25
327.457	212.25
327.686	211.25
327.914	153.25
328.143	130.25
328.372	118.25
328.6	132.25
328.829	128.25
329.058	122.25
329.287	116.25
329.515	115.25
329.744	106.25
329.972	114.25
330.201	121.25
330.43	111.25
330.658	107.25
330.887	110.25
331.115	113.25
331.344	107.25
331.572	110.25
331.801	106.25
332.03	126.25
332.258	137.25
332.486	160.25
332.715	276.25
332.943	469.25
333.172	722.25
333.4	627.25
333.629	211.25
333.857	141.25
334.085	122.25
334.314	118.25
334.542	123.25
334.771	110.25
334.999	121.25
335.227	122.25
335.455	127.25
335.684	116.25
335.912	97.25
336.14	118.25
336.369	110.25
336.597	114.25
336.825	110.25
337.053	97.25
337.281	97.25
337.51	101.25
337.738	110.25
337.966	98.25
338.194	115.25
338.422	118.25
338.65	114.25
338.878	121.25
339.106	111.25
339.334	111.25
339.562	108.25
339.79	100.25
340.018	95.25
340.246	102.25
340.474	98.25
340.702	112.25
340.93	113.25
341.158	103.25
341.386	112.25
341.614	110.25
341.842	116.25
342.07	120.25
342.298	122.25
342.526	103.25
342.754	113.25
342.981	112.25
343.209	120.25
343.437	105.25
343.665	103.25
343.893	107.25
344.12	114.25
344.348	116.25
344.576	110.25
344.804	109.25
345.031	124.25
345.259	109.25
345.487	96.25
345.714	96.25
345.942	104.25
346.17	101.25
346.397	108.25
346.625	123.25
346.853	111.25
347.08	103.25
347.308	103.25
347.535	90.25
347.763	104.25
347.99	107.25
348.218	107.25
348.445	108.25
348.673	126.25
348.9	123.25
349.128	116.25
349.355	123.25
349.583	122.25
349.81	106.25
350.037	107.25
350.265	112.25
350.492	114.25
350.72	122.25
350.947	109.25
351.174	102.25
351.402	106.25
351.629	113.25
351.856	103.25
352.083	112.25
352.311	114.25
352.538	113.25
352.765	121.25
352.992	98.25
353.22	116.25
353.447	105.25
353.674	89.25
353.901	110.25
354.128	111.25
354.355	101.25
354.583	94.25
354.81	113.25
355.037	102.25
355.264	107.25
355.491	104.25
355.718	104.25
355.945	97.25
356.172	110.25
356.399	102.25
356.626	95.25
356.853	100.25
357.08	106.25
357.307	93.25
357.534	106.25
357.761	102.25
357.988	110.25
358.215	102.25
358.441	98.25
358.668	98.25
358.895	104.25
359.122	101.25
359.349	111.25
359.576	122.25
359.802	122.25
360.029	106.25
360.256	128.25
360.483	101.25
360.709	111.25
360.936	110.25
361.163	97.25
361.39	105.25
361.616	97.25
361.843	114.25
362.07	122.25
362.296	95.25
362.523	100.25
362.749	110.25
362.976	116.25
363.203	108.25
363.429	100.25
363.656	104.25
363.882	94.25
364.109	102.25
364.335	110.25
364.562	114.25
364.788	96.25
365.015	114.25
365.241	133.25
365.468	169.25
365.694	206.25
365.92	190.25
366.147	104.25
366.373	88.25
366.599	97.25
366.826	102.25
367.052	89.25
367.278	98.25
367.505	102.25
367.731	105.25
367.957	94.25
368.184	98.25
368.41	111.25
368.636	110.25
368.862	96.25
369.089	103.25
369.315	87.25
369.541	107.25
369.767	114.25
369.993	101.25
370.219	98.25
370.445	95.25
370.672	109.25
370.898	99.25
371.124	89.25
371.35	96.25
371.576	99.25
371.802	100.25
372.028	110.25
372.254	119.25
372.48	114.25
372.706	116.25
372.932	97.25
373.158	118.25
373.384	107.25
373.61	120.25
373.835	114.25
374.061	100.25
374.287	96.25
374.513	117.25
374.739	116.25
374.965	110.25
375.191	117.25
375.416	101.25
375.642	112.25
375.868	118.25
376.094	109.25
376.319	88.25
376.545	106.25
376.771	103.25
376.997	100.25
377.222	84.25
377.448	102.25
377.674	107.25
377.899	114.25
378.125	98.25
378.35	107.25
378.576	112.25
378.802	114.25
379.027	123.25
379.253	150.25
379.478	177.25
379.704	279.25
379.929	695.25
380.155	1425.25
380.38	1456.25
380.606	478.25
380.831	187.25
381.057	134.25
381.282	104.25
381.507	108.25
381.733	113.25
381.958	95.25
382.184	100.25
382.409	106.25
382.634	107.25
382.86	103.25
383.085	96.25
383.31	100.25
383.535	109.25
383.761	104.25
383.986	98.25
384.211	92.25
384.436	99.25
384.662	98.25
384.887	106.25
385.112	102.25
385.337	99.25
385.562	104.25
385.787	98.25
386.013	107.25
386.238	93.25
386.463	103.25
386.688	96.25
386.913	110.25
387.138	110.25
387.363	112.25
387.588	122.25
387.813	110.25
388.038	103.25
388.263	99.25
388.488	86.25
388.713	113.25
388.938	115.25
389.163	105.25
389.387	111.25
389.612	91.25
389.837	105.25
390.062	92.25
390.287	99.25
390.512	97.25
390.736	107.25
390.961	104.25
391.186	110.25
391.411	91.25
391.636	113.25
391.86	103.25
392.085	105.25
392.31	98.25
392.534	94.25
392.759	103.25
392.984	105.25
393.208	112.25
393.433	120.25
393.658	134.25
393.882	100.25
394.107	104.25
394.331	105.25
394.556	83.25
394.78	91.25
395.005	104.25
395.229	89.25
395.454	105.25
395.678	98.25
395.903	96.25
396.127	100.25
396.352	108.25
396.576	108.25
396.801	110.25
397.025	117.25
397.249	106.25
397.474	107.25
397.698	113.25
397.922	100.25
398.147	89.25
398.371	104.25
398.595	99.25
398.82	98.25
399.044	105.25
399.268	110.25
399.492	89.25
399.717	94.25
399.941	94.25
400.165	72.25
400.389	90.25
400.613	99.25
400.837	104.25
401.062	98.25
401.286	94.25
401.51	95.25
401.734	84.25
401.958	105.25
402.182	95.25
402.406	93.25
402.63	91.25
402.854	82.25
403.078	99.25
403.302	103.25
403.526	89.25
403.75	116.25
403.974	96.25
404.198	89.25
404.422	107.25
404.645	97.25
404.869	94.25
405.093	90.25
405.317	90.25
405.541	114.25
405.765	135.25
405.988	123.25
406.212	103.25
406.436	100.25
406.66	89.25
406.883	104.25
407.107	88.25
407.331	105.25
407.555	93.25
407.778	110.25
408.002	91.25
408.226	110.25
408.449	110.25
408.673	120.25
408.896	94.25
409.12	98.25
409.344	94.25
409.567	94.25
409.791	98.25
410.014	111.25
410.238	98.25
410.461	108.25
410.685	98.25
410.908	88.25
411.132	95.25
411.355	96.25
411.578	92.25
411.802	94.25
412.025	90.25
412.249	100.25
412.472	95.25
412.695	103.25
412.919	106.25
413.142	111.25
413.365	111.25
413.589	97.25
413.812	84.25
414.035	96.25
414.258	98.25
414.482	90.25
414.705	113.25
414.928	91.25
415.151	108.25
415.374	110.25
415.597	88.25
415.821	98.25
416.044	107.25
416.267	96.25
416.49	83.25
416.713	91.25
416.936	111.25
417.159	100.25
417.382	83.25
417.605	89.25
417.828	92.25
418.051	97.25
418.274	95.25
418.497	90.25
418.72	103.25
418.943	100.25
419.166	95.25
419.389	117.25
419.611	103.25
419.834	92.25
420.057	94.25
420.28	100.25
420.503	106.25
420.726	105.25
420.948	96.25
421.171	95.25
421.394	103.25
421.617	100.25
421.839	91.25
422.062	96.25
422.285	98.25
422.507	104.25
422.73	113.25
422.953	128.25
423.175	107.25
423.398	98.25
423.621	96.25
423.843	92.25
424.066	80.25
424.288	95.25
424.511	101.25
424.733	95.25
424.956	94.25
425.178	103.25
425.401	89.25
425.623	98.25
425.846	91.25
426.068	82.25
426.291	92.25
426.513	82.25
426.735	90.25
426.958	97.25
427.18	88.25
427.402	97.25
427.625	91.25
427.847	105.25
428.069	99.25
428.292	85.25
428.514	104.25
428.736	89.25
428.958	111.25
429.181	99.25
429.403	120.25
429.625	98.25
429.847	102.25
430.069	105.25
430.292	95.25
430.514	95.25
430.736	103.25
430.958	89.25
431.18	86.25
431.402	84.25
431.624	101.25
431.846	100.25
432.068	100.25
432.29	94.25
432.512	105.25
432.734	110.25
432.956	100.25
433.178	102.25
433.4	103.25
433.622	80.25
433.844	89.25
434.066	95.25
434.287	95.25
434.509	73.25
434.731	101.25
434.953	83.25
435.175	89.25
435.397	88.25
435.618	92.25
435.84	85.25
436.062	99.25
436.284	94.25
436.505	89.25
436.727	86.25
436.949	100.25
437.17	104.25
437.392	92.25
437.614	83.25
437.835	94.25
438.057	88.25
438.278	102.25
438.5	88.25
438.721	106.25
438.943	105.25
439.165	117.25
439.386	113.25
439.608	105.25
439.829	90.25
440.05	112.25
440.272	108.25
440.493	105.25
440.715	103.25
440.936	94.25
441.158	99.25
441.379	84.25
441.6	106.25
441.822	96.25
442.043	102.25
442.264	126.25
442.486	117.25
442.707	90.25
442.928	88.25
443.149	89.25
443.371	94.25
443.592	92.25
443.813	90.25
444.034	89.25
444.255	123.25
444.476	101.25
444.698	90.25
444.919	100.25
445.14	220.25
445.361	141.25
445.582	96.25
445.803	99.25
446.024	110.25
446.245	110.25
446.466	106.25
446.687	114.25
446.908	110.25
447.129	105.25
447.35	102.25
447.571	103.25
447.792	79.25
448.013	105.25
448.234	100.25
448.455	110.25
448.675	111.25
448.896	107.25
449.117	110.25
449.338	122.25
449.559	159.25
449.779	126.25
450	101.25
450.221	103.25
450.442	116.25
450.662	105.25
450.883	107.25
451.104	117.25
451.324	118.25
451.545	106.25
451.766	118.25
451.986	131.25
452.207	187.25
452.428	507.25
452.648	1232.25
452.869	716.25
453.089	201.25
453.31	122.25
453.53	120.25
453.751	147.25
453.971	155.25
454.192	160.25
454.412	105.25
454.633	93.25
454.853	113.25
455.073	107.25
455.294	87.25
455.514	96.25
455.734	94.25
455.955	83.25
456.175	102.25
456.395	101.25
456.616	89.25
456.836	94.25
457.056	102.25
457.276	113.25
457.497	124.25
457.717	112.25
457.937	90.25
458.157	110.25
458.377	95.25
458.598	91.25
458.818	113.25
459.038	90.25
459.258	97.25
459.478	87.25
459.698	91.25
459.918	103.25
460.138	83.25
460.358	98.25
460.578	91.25
460.798	100.25
461.018	98.25
461.238	74.25
461.458	84.25
461.678	86.25
461.898	102.25
462.118	93.25
462.338	92.25
462.558	102.25
462.777	96.25
462.997	110.25
463.217	98.25
463.437	120.25
463.657	176.25
463.876	181.25
464.096	131.25
464.316	100.25
464.536	87.25
464.755	82.25
464.975	92.25
465.195	89.25
465.414	89.25
465.634	88.25
465.854	86.25
466.073	81.25
466.293	80.25
466.512	102.25
466.732	94.25
466.951	102.25
467.171	141.25
467.391	142.25
467.61	105.25
467.829	94.25
468.049	97.25
468.268	112.25
468.488	98.25
468.707	106.25
468.927	100.25
469.146	104.25
469.365	93.25
469.585	112.25
469.804	98.25
470.023	95.25
470.243	100.25
470.462	103.25
470.681	93.25
470.901	129.25
471.12	196.25
471.339	206.25
471.558	125.25
471.777	115.25
471.997	103.25
472.216	101.25
472.435	97.25
472.654	90.25
472.873	101.25
473.092	96.25
473.311	101.25
473.53	103.25
473.749	104.25
473.968	104.25
474.187	102.25
474.406	102.25
474.625	97.25
474.844	94.25
475.063	88.25
475.282	96.25
475.501	88.25
475.72	99.25
475.939	97.25
476.158	92.25
476.377	117.25
476.596	108.25
476.814	100.25
477.033	90.25
477.252	92.25
477.471	103.25
477.69	110.25
477.908	98.25
478.127	87.25
478.346	96.25
478.564	100.25
478.783	106.25
479.002	91.25
479.22	107.25
479.439	105.25
479.658	74.25
479.876	96.25
480.095	91.25
480.313	101.25
480.532	99.25
480.751	114.25
480.969	97.25
481.188	78.25
481.406	99.25
481.624	106.25
481.843	114.25
482.061	111.25
482.28	107.25
482.498	92.25
482.717	86.25
482.935	90.25
483.153	106.25
483.372	103.25
483.59	102.25
483.808	94.25
484.027	111.25
484.245	116.25
484.463	170.25
484.681	216.25
484.9	146.25
485.118	117.25
485.336	100.25
485.554	113.25
485.772	130.25
485.99	191.25
486.209	231.25
486.427	166.25
486.645	120.25
486.863	109.25
487.081	103.25
487.299	117.25
487.517	104.25
487.735	96.25
487.953	95.25
488.171	100.25
488.389	99.25
488.607	106.25
488.825	96.25
489.043	105.25
489.261	94.25
489.479	110.25
489.696	96.25
489.914	95.25
490.132	93.25
490.35	102.25
490.568	102.25
490.786	100.25
491.003	94.25
491.221	114.25
491.439	115.25
491.657	97.25
491.874	124.25
492.092	108.25
492.31	92.25
492.527	112.25
492.745	106.25
492.963	110.25
493.18	112.25
493.398	120.25
493.615	91.25
493.833	108.25
494.05	95.25
494.268	96.25
494.485	117.25
494.703	118.25
494.92	105.25
495.138	97.25
495.355	107.25
495.573	99.25
495.79	105.25
496.008	101.25
496.225	99.25
496.442	104.25
496.66	118.25
496.877	159.25
497.094	146.25
497.312	122.25
497.529	98.25
497.746	101.25
497.963	102.25
498.181	112.25
498.398	107.25
498.615	107.25
498.832	99.25
499.049	115.25
499.267	138.25
499.484	152.25
499.701	133.25
499.918	97.25
500.135	96.25
500.352	93.25
500.569	98.25
500.786	94.25
501.003	92.25
501.22	87.25
501.437	100.25
501.654	92.25
501.871	95.25
502.088	87.25
502.305	100.25
502.522	90.25
502.739	98.25
502.956	102.25
503.172	96.25
503.389	98.25
503.606	93.25
503.823	101.25
504.04	87.25
504.256	87.25
504.473	106.25
504.69	100.25
504.907	111.25
505.123	118.25
505.34	114.25
505.557	101.25
505.773	98.25
505.99	98.25
506.207	108.25
506.423	104.25
506.64	98.25
506.856	94.25
507.073	101.25
507.289	104.25
507.506	90.25
507.722	92.25
507.939	105.25
508.155	106.25
508.372	102.25
508.588	110.25
