Data from SnStandardFlinnAPT0064_LampEnergy10_LIBS07252019.E.O._I.C._HRD10591_15-22-17-494.txt Node
Date: Thu Jul 25 15:22:17 EDT 2019
User: cochatt
Spectrometer: HR+D1059
Trigger mode: 1
Integration Time (sec): 1.000000E-1
Scans to average: 1
Electric dark correction enabled: true
Nonlinearity correction enabled: false
Boxcar width: 0
XAxis mode: Wavelengths
Number of Pixels in Spectrum: 2048
>>>>>Begin Spectral Data<<<<<
223.165	-20
223.4	-20
223.635	-20
223.869	-17
224.104	-27
224.338	-11
224.573	-22
224.808	-9
225.042	-5
225.277	-11
225.511	4
225.746	6
225.98	3
226.215	3
226.449	29
226.683	34
226.918	25
227.152	18
227.387	39
227.621	49
227.856	37
228.09	66
228.324	57
228.559	65
228.793	126
229.027	298
229.262	307
229.496	328
229.73	289
229.964	323
230.199	299
230.433	294
230.667	322
230.901	317
231.136	338
231.37	353
231.604	381
231.838	441
232.072	523
232.306	541
232.541	489
232.775	411
233.009	405
233.243	411
233.477	443
233.711	525
233.945	561
234.179	514
234.413	454
234.647	454
234.881	461
235.115	486
235.349	601
235.583	772
235.817	973
236.051	940
236.285	649
236.519	521
236.753	507
236.987	509
237.221	538
237.455	505
237.689	444
237.922	459
238.156	469
238.39	481
238.624	489
238.858	471
239.091	469
239.325	477
239.559	483
239.793	504
240.027	525
240.26	511
240.494	548
240.728	558
240.961	609
241.195	636
241.429	653
241.662	679
241.896	781
242.13	918
242.363	1216
242.597	1571
242.83	1502
243.064	1483
243.298	1742
243.531	1454
243.765	925
243.998	762
244.232	703
244.465	632
244.699	662
244.932	649
245.166	643
245.399	670
245.633	667
245.866	688
246.099	659
246.333	640
246.566	649
246.8	652
247.033	629
247.266	619
247.5	613
247.733	668
247.966	705
248.2	793
248.433	847
248.666	981
248.899	947
249.133	850
249.366	854
249.599	922
249.832	1065
250.066	1068
250.299	852
250.532	773
250.765	763
250.998	749
251.231	747
251.465	739
251.698	717
251.931	737
252.164	730
252.397	761
252.63	787
252.863	786
253.096	784
253.329	792
253.562	767
253.795	783
254.028	789
254.261	826
254.494	861
254.727	1024
254.96	1223
255.193	1211
255.426	941
255.659	868
255.892	871
256.124	850
256.357	887
256.59	883
256.823	984
257.056	1128
257.289	1340
257.521	1502
257.754	1185
257.987	973
258.22	927
258.452	934
258.685	923
258.918	937
259.151	1010
259.383	1075
259.616	1213
259.849	1246
260.081	1124
260.314	981
260.547	959
260.779	949
261.012	950
261.244	986
261.477	997
261.71	1014
261.942	1013
262.175	1011
262.407	1046
262.64	1057
262.872	1126
263.105	1137
263.337	1220
263.57	1288
263.802	1317
264.035	1318
264.267	1320
264.499	1408
264.732	1455
264.964	1438
265.197	1442
265.429	1506
265.661	1498
265.894	1581
266.126	1736
266.358	1952
266.591	1882
266.823	1625
267.055	1469
267.287	1403
267.52	1355
267.752	1318
267.984	1292
268.216	1258
268.448	1227
268.681	1209
268.913	1220
269.145	1235
269.377	1238
269.609	1249
269.841	1256
270.073	1360
270.306	1591
270.538	2125
270.77	3124
271.002	3845
271.234	2715
271.466	1825
271.698	1525
271.93	1359
272.162	1322
272.394	1260
272.626	1253
272.858	1230
273.09	1214
273.322	1225
273.553	1215
273.785	1174
274.017	1226
274.249	1225
274.481	1226
274.713	1182
274.945	1204
275.176	1201
275.408	1223
275.64	1215
275.872	1250
276.104	1267
276.335	1281
276.567	1290
276.799	1295
277.031	1322
277.262	1318
277.494	1393
277.726	1545
277.957	1826
278.189	2098
278.421	2000
278.652	1750
278.884	1691
279.115	1513
279.347	1427
279.579	1381
279.81	1387
280.042	1380
280.273	1393
280.505	1425
280.736	1506
280.968	1563
281.199	1739
281.431	2063
281.662	2104
281.894	1742
282.125	1597
282.356	1638
282.588	1643
282.819	1689
283.051	1800
283.282	2000
283.513	2394
283.745	3523
283.976	5507
284.207	7809
284.439	7081
284.67	4406
284.901	3675
285.132	3664
285.364	3453
285.595	2657
285.826	2439
286.057	2766
286.288	3798
286.52	5096
286.751	4748
286.982	2959
287.213	2219
287.444	1963
287.675	1862
287.906	1749
288.138	1727
288.369	1686
288.6	1701
288.831	1665
289.062	1667
289.293	1692
289.524	1689
289.755	1659
289.986	1713
290.217	1715
290.448	1728
290.679	1750
290.91	1756
291.141	1861
291.371	2026
291.602	2113
291.833	1885
292.064	1787
292.295	1655
292.526	1667
292.757	1634
292.987	1605
293.218	1610
293.449	1614
293.68	1599
293.91	1573
294.141	1598
294.372	1561
294.603	1566
294.833	1574
295.064	1550
295.295	1572
295.525	1577
295.756	1556
295.987	1559
296.217	1587
296.448	1568
296.679	1550
296.909	1616
297.14	1607
297.37	1638
297.601	1683
297.831	1613
298.062	1659
298.292	1667
298.523	1710
298.753	1661
298.984	1700
299.214	1733
299.445	1731
299.675	1771
299.905	1812
300.136	1862
300.366	2124
300.597	2723
300.827	3852
301.057	5125
301.288	5131
301.518	3296
301.748	2537
301.979	2297
302.209	2287
302.439	2275
302.669	2420
302.9	2907
303.13	4117
303.36	6113
303.59	8070
303.82	6998
304.051	4135
304.281	2971
304.511	2526
304.741	2291
304.971	2138
305.201	2075
305.431	2004
305.661	1923
305.891	1886
306.121	1880
306.352	1873
306.582	1838
306.812	1850
307.042	1859
307.272	1815
307.502	1824
307.731	1841
307.961	1816
308.191	1816
308.421	1829
308.651	1813
308.881	1825
309.111	1798
309.341	1821
309.571	1905
309.8	1889
310.03	1838
310.26	1882
310.49	1857
310.72	1893
310.949	1855
311.179	1891
311.409	1903
311.639	1935
311.868	1923
312.098	1966
312.328	1969
312.557	1985
312.787	1946
313.017	1977
313.246	1972
313.476	2020
313.706	2093
313.935	2219
314.165	2380
314.394	2512
314.624	2344
314.853	2169
315.083	2158
315.312	2157
315.542	2179
315.771	2207
316.001	2214
316.23	2320
316.46	2431
316.689	2645
316.919	3173
317.148	4525
317.377	6919
317.607	10241
317.836	10490
318.065	6433
318.295	4181
318.524	3379
318.753	2955
318.983	2721
319.212	2575
319.441	2551
319.67	2397
319.9	2399
320.129	2346
320.358	2346
320.587	2358
320.816	2359
321.046	2322
321.275	2318
321.504	2390
321.733	2448
321.962	2477
322.191	2507
322.42	2472
322.649	2508
322.878	2511
323.108	2477
323.337	2569
323.566	2540
323.795	2589
324.024	2603
324.253	2692
324.482	2797
324.71	3011
324.939	3184
325.168	3240
325.397	3434
325.626	3959
325.855	5593
326.084	8590
326.313	12424
326.542	13183
326.77	8816
326.999	5827
327.228	4885
327.457	4692
327.686	4728
327.914	5024
328.143	5845
328.372	6841
328.6	7502
328.829	6686
329.058	5648
329.287	5045
329.515	4558
329.744	4177
329.972	4036
330.201	3801
330.43	3708
330.658	3618
330.887	3557
331.115	3486
331.344	3499
331.572	3441
331.801	3474
332.03	3474
332.258	3536
332.486	3727
332.715	4254
332.943	5293
333.172	6603
333.4	6439
333.629	4921
333.857	4436
334.085	4401
334.314	4667
334.542	5011
334.771	5833
334.999	7155
335.227	9032
335.455	10057
335.684	9023
335.912	7539
336.14	6401
336.369	5630
336.597	5186
336.825	4795
337.053	4464
337.281	4249
337.51	3959
337.738	3882
337.966	3742
338.194	3548
338.422	3465
338.65	3374
338.878	3329
339.106	3265
339.334	3199
339.562	3137
339.79	3081
340.018	3119
340.246	3043
340.474	3062
340.702	3039
340.93	2980
341.158	3049
341.386	3057
341.614	2969
341.842	2941
342.07	2842
342.298	2865
342.526	2807
342.754	2771
342.981	2745
343.209	2745
343.437	2774
343.665	2842
343.893	2857
344.12	2850
344.348	2879
344.576	2749
344.804	2723
345.031	2631
345.259	2620
345.487	2577
345.714	2605
345.942	2580
346.17	2566
346.397	2582
346.625	2514
346.853	2548
347.08	2565
347.308	2582
347.535	2543
347.763	2511
347.99	2483
348.218	2472
348.445	2470
348.673	2493
348.9	2521
349.128	2477
349.355	2506
349.583	2491
349.81	2453
350.037	2481
350.265	2445
350.492	2372
350.72	2407
350.947	2409
351.174	2427
351.402	2394
351.629	2396
351.856	2414
352.083	2398
352.311	2429
352.538	2353
352.765	2360
352.992	2375
353.22	2428
353.447	2365
353.674	2433
353.901	2398
354.128	2396
354.355	2395
354.583	2402
354.81	2399
355.037	2463
355.264	2436
355.491	2423
355.718	2453
355.945	2455
356.172	2453
356.399	2512
356.626	2527
356.853	2522
357.08	2531
357.307	2565
357.534	2572
357.761	2543
357.988	2590
358.215	2604
358.441	2566
358.668	2548
358.895	2577
359.122	2558
359.349	2581
359.576	2565
359.802	2535
360.029	2523
360.256	2561
360.483	2575
360.709	2580
360.936	2590
361.163	2549
361.39	2613
361.616	2564
361.843	2596
362.07	2567
362.296	2581
362.523	2584
362.749	2578
362.976	2593
363.203	2531
363.429	2535
363.656	2578
363.882	2508
364.109	2576
364.335	2529
364.562	2545
364.788	2618
365.015	2629
365.241	2656
365.468	2796
365.694	2946
365.92	2807
366.147	2621
366.373	2638
366.599	2626
366.826	2631
367.052	2562
367.278	2645
367.505	2662
367.731	2653
367.957	2652
368.184	2620
368.41	2651
368.636	2698
368.862	2632
369.089	2651
369.315	2655
369.541	2702
369.767	2677
369.993	2658
370.219	2669
370.445	2654
370.672	2743
370.898	2699
371.124	2663
371.35	2746
371.576	2758
371.802	2761
372.028	2740
372.254	2788
372.48	2799
372.706	2800
372.932	2860
373.158	2821
373.384	2849
373.61	2809
373.835	2821
374.061	2853
374.287	2870
374.513	2869
374.739	2908
374.965	2925
375.191	2963
375.416	2924
375.642	2905
375.868	2883
376.094	2884
376.319	2767
376.545	2792
376.771	2821
376.997	2782
377.222	2717
377.448	2751
377.674	2804
377.899	2715
378.125	2734
378.35	2780
378.576	2725
378.802	2787
379.027	2818
379.253	2925
379.478	3059
379.704	3611
379.929	5126
380.155	7845
380.38	8613
380.606	5189
380.831	3655
381.057	3206
381.282	2949
381.507	2823
381.733	2825
381.958	2780
382.184	2750
382.409	2723
382.634	2749
382.86	2648
383.085	2699
383.31	2732
383.535	2715
383.761	2732
383.986	2767
384.211	2726
384.436	2756
384.662	2762
384.887	2774
385.112	2777
385.337	2805
385.562	2796
385.787	2835
386.013	2821
386.238	2789
386.463	2794
386.688	2794
386.913	2734
387.138	2789
387.363	2743
387.588	2747
387.813	2820
388.038	2809
388.263	2787
388.488	2812
388.713	2753
388.938	2787
389.163	2765
389.387	2816
389.612	2807
389.837	2762
390.062	2796
390.287	2806
390.512	2839
390.736	2870
390.961	2913
391.186	2906
391.411	2933
391.636	2933
391.86	2926
392.085	2943
392.31	2936
392.534	2902
392.759	2839
392.984	2868
393.208	2839
393.433	2907
393.658	2854
393.882	2851
394.107	2780
394.331	2850
394.556	2759
394.78	2819
395.005	2876
395.229	2846
395.454	2886
395.678	2894
395.903	2921
396.127	2917
396.352	2849
396.576	2871
396.801	2895
397.025	2933
397.249	2922
397.474	2969
397.698	2917
397.922	2987
398.147	2953
398.371	2965
398.595	3047
398.82	3065
399.044	3247
399.268	3355
399.492	3546
399.717	3701
399.941	3725
400.165	3554
400.389	3441
400.613	3313
400.837	3164
401.062	3138
401.286	3115
401.51	3083
401.734	3097
401.958	3108
402.182	3078
402.406	3036
402.63	3102
402.854	3106
403.078	3099
403.302	3172
403.526	3178
403.75	3219
403.974	3185
404.198	3139
404.422	3190
404.645	3157
404.869	3221
405.093	3211
405.317	3158
405.541	3250
405.765	3282
405.988	3347
406.212	3293
406.436	3254
406.66	3280
406.883	3327
407.107	3465
407.331	3395
407.555	3535
407.778	3495
408.002	3450
408.226	3413
408.449	3429
408.673	3334
408.896	3333
409.12	3212
409.344	3254
409.567	3197
409.791	3184
410.014	3230
410.238	3129
410.461	3209
410.685	3187
410.908	3114
411.132	3118
411.355	2998
411.578	3084
411.802	3113
412.025	3098
412.249	3108
412.472	3075
412.695	3001
412.919	2989
413.142	3063
413.365	3017
413.589	3052
413.812	2994
414.035	2977
414.258	2993
414.482	3054
414.705	3023
414.928	3028
415.151	2985
415.374	2955
415.597	2903
415.821	2887
416.044	2898
416.267	2887
416.49	2838
416.713	2885
416.936	2939
417.159	2841
417.382	2856
417.605	2800
417.828	2846
418.051	2879
418.274	2881
418.497	2946
418.72	2973
418.943	2970
419.166	3052
419.389	3219
419.611	3199
419.834	3094
420.057	2984
420.28	2948
420.503	2876
420.726	2892
420.948	2848
421.171	2822
421.394	2874
421.617	2889
421.839	2902
422.062	2917
422.285	2852
422.507	2940
422.73	2918
422.953	2975
423.175	3013
423.398	2936
423.621	2881
423.843	2935
424.066	2998
424.288	2904
424.511	2949
424.733	2885
424.956	2829
425.178	2821
425.401	2829
425.623	2854
425.846	2748
426.068	2819
426.291	2803
426.513	2743
426.735	2735
426.958	2739
427.18	2694
427.402	2746
427.625	2770
427.847	2696
428.069	2672
428.292	2681
428.514	2693
428.736	2662
428.958	2703
429.181	2636
429.403	2626
429.625	2613
429.847	2657
430.069	2716
430.292	2773
430.514	2847
430.736	2886
430.958	2750
431.18	2631
431.402	2617
431.624	2625
431.846	2649
432.068	2603
432.29	2667
432.512	2643
432.734	2614
432.956	2615
433.178	2662
433.4	2658
433.622	2702
433.844	2685
434.066	2662
434.287	2677
434.509	2699
434.731	2703
434.953	2738
435.175	2755
435.397	2775
435.618	2729
435.84	2669
436.062	2633
436.284	2621
436.505	2639
436.727	2684
436.949	2639
437.17	2615
437.392	2586
437.614	2536
437.835	2519
438.057	2539
438.278	2537
438.5	2601
438.721	2669
438.943	2728
439.165	2745
439.386	2741
439.608	2766
439.829	2735
440.05	2836
440.272	2902
440.493	2762
440.715	2716
440.936	2743
441.158	2725
441.379	2786
441.6	2862
441.822	2906
442.043	3085
442.264	3148
442.486	2962
442.707	2878
442.928	2848
443.149	2876
443.371	2808
443.592	2894
443.813	2889
444.034	2883
444.255	2925
444.476	2947
444.698	2971
444.919	3070
445.14	3138
445.361	3006
445.582	2874
445.803	2849
446.024	2813
446.245	2834
446.466	2816
446.687	2710
446.908	2708
447.129	2713
447.35	2686
447.571	2649
447.792	2585
448.013	2604
448.234	2575
448.455	2629
448.675	2605
448.896	2687
449.117	2790
449.338	3012
449.559	3050
449.779	2821
450	2619
450.221	2583
450.442	2556
450.662	2578
450.883	2547
451.104	2537
451.324	2497
451.545	2525
451.766	2582
451.986	2629
452.207	2771
452.428	3652
452.648	5501
452.869	4587
453.089	3161
453.31	2941
453.53	2917
453.751	3048
453.971	3129
454.192	3073
454.412	2681
454.633	2511
454.853	2490
455.073	2478
455.294	2443
455.514	2421
455.734	2448
455.955	2391
456.175	2430
456.395	2413
456.616	2476
456.836	2494
457.056	2475
457.276	2469
457.497	2690
457.717	2667
457.937	2606
458.157	2593
458.377	2557
458.598	2614
458.818	2595
459.038	2595
459.258	2645
459.478	2669
459.698	2676
459.918	2688
460.138	2794
460.358	2814
460.578	2817
460.798	2867
461.018	2849
461.238	2947
461.458	2880
461.678	2909
461.898	2995
462.118	2987
462.338	3043
462.558	3066
462.777	3131
462.997	3273
463.217	3390
463.437	3534
463.657	3652
463.876	3516
464.096	3370
464.316	3200
464.536	3165
464.755	3104
464.975	3028
465.195	2957
465.414	2851
465.634	2791
465.854	2746
466.073	2691
466.293	2691
466.512	2682
466.732	2715
466.951	2807
467.171	3037
467.391	2943
467.61	2726
467.829	2637
468.049	2616
468.268	2593
468.488	2556
468.707	2585
468.927	2573
469.146	2586
469.365	2623
469.585	2581
469.804	2674
470.023	2753
470.243	2761
470.462	2884
470.681	2998
470.901	3285
471.12	3746
471.339	3721
471.558	3142
471.777	2833
471.997	2730
472.216	2724
472.435	2669
472.654	2631
472.873	2597
473.092	2603
473.311	2638
473.53	2643
473.749	2715
473.968	2798
474.187	2647
474.406	2625
474.625	2574
474.844	2610
475.063	2601
475.282	2623
475.501	2642
475.72	2650
475.939	2687
476.158	2726
476.377	2769
476.596	2784
476.814	2739
477.033	2729
477.252	2737
477.471	2844
477.69	2853
477.908	2917
478.127	2957
478.346	2931
478.564	3013
478.783	3009
479.002	3056
479.22	3093
479.439	3094
479.658	3134
479.876	3164
480.095	3136
480.313	3158
480.532	3219
480.751	3226
480.969	3165
481.188	3201
481.406	3141
481.624	3119
481.843	3194
482.061	3222
482.28	3160
482.498	3152
482.717	3133
482.935	3168
483.153	3219
483.372	3271
483.59	3274
483.808	3396
484.027	3420
484.245	3606
484.463	4019
484.681	4469
484.9	4087
485.118	3769
485.336	3753
485.554	3772
485.772	4077
485.99	4467
486.209	4818
486.427	4126
486.645	3685
486.863	3582
487.081	3391
487.299	3402
487.517	3334
487.735	3350
487.953	3422
488.171	3278
488.389	3300
488.607	3273
488.825	3310
489.043	3268
489.261	3251
489.479	3290
489.696	3278
489.914	3290
490.132	3303
490.35	3257
490.568	3323
490.786	3340
491.003	3400
491.221	3403
491.439	3409
491.657	3392
491.874	3400
492.092	3411
492.31	3366
492.527	3450
492.745	3442
492.963	3371
493.18	3416
493.398	3401
493.615	3453
493.833	3400
494.05	3357
494.268	3468
494.485	3422
494.703	3437
494.92	3445
495.138	3441
495.355	3453
495.573	3471
495.79	3492
496.008	3554
496.225	3464
496.442	3551
496.66	3613
496.877	3836
497.094	3828
497.312	3745
497.529	3741
497.746	3771
497.963	3843
498.181	3888
498.398	3972
498.615	4113
498.832	4299
499.049	4470
499.267	4822
499.484	5086
499.701	5080
499.918	5282
500.135	5479
500.352	5753
500.569	5751
500.786	5707
501.003	5538
501.22	5282
501.437	5055
501.654	4766
501.871	4556
502.088	4418
502.305	4263
502.522	4075
502.739	4071
502.956	3914
503.172	3814
503.389	3745
503.606	3703
503.823	3631
504.04	3618
504.256	3630
504.473	3562
504.69	3522
504.907	3545
505.123	3472
505.34	3390
505.557	3320
505.773	3279
505.99	3205
506.207	3182
506.423	3139
506.64	3144
506.856	3050
507.073	3075
507.289	3097
507.506	3040
507.722	3036
507.939	3042
508.155	3015
508.372	2943
508.588	2950
508.805	2949
509.021	2972
509.238	3003
509.454	3213
509.67	3359
509.887	3121
510.103	3023
510.319	3026
510.536	2983
510.752	2980
510.968	2951
511.184	2890
511.401	2890
511.617	2859
511.833	2833
512.049	2812
512.265	2859
512.481	2819
512.698	2867
512.914	2856
513.13	2874
513.346	2882
513.562	2862
513.778	2890
513.994	2925
514.21	3014
514.426	3156
514.642	3283
514.858	2993
515.074	2953
515.29	2883
515.506	2931
515.721	2929
515.937	2919
516.153	2987
516.369	2925
516.585	3005
516.801	3020
517.016	3077
517.232	3162
517.448	3201
517.664	3263
517.879	3281
518.095	3245
518.311	3241
518.527	3188
518.742	3131
518.958	3200
519.173	3289
519.389	3083
519.605	3029
519.82	2977
520.036	2984
520.251	2893
520.467	2848
520.682	2891
520.898	2803
521.113	2807
521.329	2807
521.544	2789
521.76	2817
521.975	2772
522.19	2795
522.406	2782
522.621	2727
522.836	2718
523.052	2746
523.267	2735
523.482	2767
523.698	2731
523.913	2679
524.128	2744
524.343	2698
524.559	2719
524.774	2730
524.989	2705
525.204	2761
525.419	2683
525.634	2689
525.849	2727
526.064	2693
526.28	2748
526.495	2703
526.71	2697
526.925	2737
527.14	2704
527.355	2731
527.57	2693
527.785	2799
527.999	2766
528.214	2788
528.429	2836
528.644	2851
528.859	2855
529.074	2868
529.289	2903
529.503	2911
529.718	2890
529.933	2861
530.148	2860
530.363	2925
530.577	2913
530.792	2898
531.007	2905
531.221	2985
531.436	3004
531.651	2997
531.865	3019
532.08	3083
532.295	3124
532.509	3336
532.724	3368
532.938	3371
533.153	3533
533.367	3749
533.582	3935
533.796	3816
534.011	3736
534.225	3519
534.44	3469
534.654	3379
534.868	3360
535.083	3242
535.297	3239
535.511	3158
535.726	3083
535.94	3091
536.154	3006
536.369	3003
536.583	2922
536.797	2909
537.011	2912
537.225	2884
537.44	2786
537.654	2780
537.868	2767
538.082	2761
538.296	2729
538.51	2663
538.724	2726
538.938	2766
539.153	2716
539.367	2681
539.581	2635
539.795	2621
540.009	2657
540.222	2613
540.436	2590
540.65	2609
540.864	2613
541.078	2665
541.292	2874
541.506	3301
541.72	3510
541.934	3011
542.147	2881
542.361	2733
