Data from SnStandardFlinnAPT0064_LampEnergy10_LIBS07252019.E.O._I.C._HRD10591_15-22-09-494.txt Node
Date: Thu Jul 25 15:22:09 EDT 2019
User: cochatt
Spectrometer: HR+D1059
Trigger mode: 1
Integration Time (sec): 1.000000E-1
Scans to average: 1
Electric dark correction enabled: true
Nonlinearity correction enabled: false
Boxcar width: 0
XAxis mode: Wavelengths
Number of Pixels in Spectrum: 2048
>>>>>Begin Spectral Data<<<<<
223.165	-6.81
223.4	-6.81
223.635	-6.81
223.869	-14.81
224.104	-12.81
224.338	-12.81
224.573	-9.81
224.808	-15.81
225.042	-14.81
225.277	-8.81
225.511	1.19
225.746	4.19
225.98	12.19
226.215	-3.81
226.449	14.19
226.683	13.19
226.918	29.19
227.152	26.19
227.387	31.19
227.621	54.19
227.856	42.19
228.09	52.19
228.324	49.19
228.559	63.19
228.793	129.19
229.027	301.19
229.262	349.19
229.496	310.19
229.73	288.19
229.964	305.19
230.199	310.19
230.433	303.19
230.667	324.19
230.901	318.19
231.136	333.19
231.37	356.19
231.604	391.19
231.838	445.19
232.072	527.19
232.306	563.19
232.541	457.19
232.775	419.19
233.009	418.19
233.243	411.19
233.477	453.19
233.711	515.19
233.945	580.19
234.179	519.19
234.413	449.19
234.647	437.19
234.881	476.19
235.115	516.19
235.349	588.19
235.583	769.19
235.817	1015.19
236.051	988.19
236.285	649.19
236.519	519.19
236.753	511.19
236.987	498.19
237.221	521.19
237.455	525.19
237.689	474.19
237.922	452.19
238.156	465.19
238.39	476.19
238.624	484.19
238.858	465.19
239.091	475.19
239.325	492.19
239.559	492.19
239.793	488.19
240.027	522.19
240.26	520.19
240.494	551.19
240.728	580.19
240.961	589.19
241.195	643.19
241.429	688.19
241.662	689.19
241.896	762.19
242.13	961.19
242.363	1265.19
242.597	1626.19
242.83	1559.19
243.064	1530.19
243.298	1823.19
243.531	1508.19
243.765	940.19
243.998	779.19
244.232	705.19
244.465	660.19
244.699	649.19
244.932	649.19
245.166	663.19
245.399	679.19
245.633	695.19
245.866	708.19
246.099	632.19
246.333	644.19
246.566	656.19
246.8	649.19
247.033	624.19
247.266	619.19
247.5	643.19
247.733	671.19
247.966	698.19
248.2	770.19
248.433	867.19
248.666	1002.19
248.899	932.19
249.133	853.19
249.366	851.19
249.599	945.19
249.832	1099.19
250.066	1081.19
250.299	822.19
250.532	782.19
250.765	737.19
250.998	760.19
251.231	739.19
251.465	732.19
251.698	737.19
251.931	729.19
252.164	737.19
252.397	753.19
252.63	787.19
252.863	811.19
253.096	756.19
253.329	777.19
253.562	765.19
253.795	766.19
254.028	808.19
254.261	815.19
254.494	864.19
254.727	1005.19
254.96	1229.19
255.193	1192.19
255.426	964.19
255.659	880.19
255.892	874.19
256.124	844.19
256.357	859.19
256.59	881.19
256.823	953.19
257.056	1109.19
257.289	1343.19
257.521	1497.19
257.754	1184.19
257.987	960.19
258.22	927.19
258.452	915.19
258.685	914.19
258.918	919.19
259.151	987.19
259.383	1106.19
259.616	1212.19
259.849	1283.19
260.081	1087.19
260.314	961.19
260.547	950.19
260.779	945.19
261.012	939.19
261.244	971.19
261.477	1008.19
261.71	983.19
261.942	1012.19
262.175	1020.19
262.407	1049.19
262.64	1051.19
262.872	1057.19
263.105	1162.19
263.337	1209.19
263.57	1247.19
263.802	1315.19
264.035	1296.19
264.267	1336.19
264.499	1407.19
264.732	1438.19
264.964	1428.19
265.197	1428.19
265.429	1417.19
265.661	1446.19
265.894	1556.19
266.126	1728.19
266.358	1953.19
266.591	1911.19
266.823	1649.19
267.055	1482.19
267.287	1389.19
267.52	1289.19
267.752	1272.19
267.984	1298.19
268.216	1255.19
268.448	1231.19
268.681	1266.19
268.913	1242.19
269.145	1235.19
269.377	1242.19
269.609	1232.19
269.841	1268.19
270.073	1377.19
270.306	1618.19
270.538	2137.19
270.77	3190.19
271.002	3898.19
271.234	2719.19
271.466	1817.19
271.698	1530.19
271.93	1378.19
272.162	1291.19
272.394	1291.19
272.626	1261.19
272.858	1228.19
273.09	1235.19
273.322	1212.19
273.553	1191.19
273.785	1203.19
274.017	1223.19
274.249	1200.19
274.481	1203.19
274.713	1210.19
274.945	1207.19
275.176	1212.19
275.408	1245.19
275.64	1225.19
275.872	1244.19
276.104	1251.19
276.335	1288.19
276.567	1274.19
276.799	1285.19
277.031	1308.19
277.262	1312.19
277.494	1407.19
277.726	1560.19
277.957	1796.19
278.189	2100.19
278.421	1947.19
278.652	1740.19
278.884	1706.19
279.115	1501.19
279.347	1407.19
279.579	1378.19
279.81	1368.19
280.042	1395.19
280.273	1415.19
280.505	1429.19
280.736	1497.19
280.968	1593.19
281.199	1737.19
281.431	2027.19
281.662	2090.19
281.894	1748.19
282.125	1629.19
282.356	1650.19
282.588	1635.19
282.819	1682.19
283.051	1803.19
283.282	1925.19
283.513	2485.19
283.745	3544.19
283.976	5639.19
284.207	8072.19
284.439	7256.19
284.67	4428.19
284.901	3644.19
285.132	3724.19
285.364	3576.19
285.595	2682.19
285.826	2386.19
286.057	2789.19
286.288	3883.19
286.52	5226.19
286.751	4885.19
286.982	2951.19
287.213	2241.19
287.444	1990.19
287.675	1849.19
287.906	1779.19
288.138	1735.19
288.369	1692.19
288.6	1654.19
288.831	1668.19
289.062	1663.19
289.293	1689.19
289.524	1705.19
289.755	1709.19
289.986	1717.19
290.217	1695.19
290.448	1683.19
290.679	1695.19
290.91	1785.19
291.141	1851.19
291.371	2023.19
291.602	2081.19
291.833	1913.19
292.064	1769.19
292.295	1670.19
292.526	1623.19
292.757	1583.19
292.987	1591.19
293.218	1568.19
293.449	1584.19
293.68	1592.19
293.91	1585.19
294.141	1570.19
294.372	1543.19
294.603	1561.19
294.833	1540.19
295.064	1567.19
295.295	1563.19
295.525	1591.19
295.756	1524.19
295.987	1569.19
296.217	1539.19
296.448	1569.19
296.679	1584.19
296.909	1608.19
297.14	1603.19
297.37	1640.19
297.601	1621.19
297.831	1618.19
298.062	1590.19
298.292	1631.19
298.523	1640.19
298.753	1692.19
298.984	1693.19
299.214	1713.19
299.445	1744.19
299.675	1754.19
299.905	1824.19
300.136	1907.19
300.366	2104.19
300.597	2714.19
300.827	3835.19
301.057	5287.19
301.288	5239.19
301.518	3340.19
301.748	2568.19
301.979	2313.19
302.209	2239.19
302.439	2255.19
302.669	2410.19
302.9	2913.19
303.13	4136.19
303.36	6191.19
303.59	8306.19
303.82	7126.19
304.051	4081.19
304.281	3023.19
304.511	2491.19
304.741	2314.19
304.971	2172.19
305.201	2047.19
305.431	2011.19
305.661	1971.19
305.891	1872.19
306.121	1849.19
306.352	1862.19
306.582	1818.19
306.812	1815.19
307.042	1869.19
307.272	1787.19
307.502	1792.19
307.731	1855.19
307.961	1795.19
308.191	1788.19
308.421	1785.19
308.651	1811.19
308.881	1801.19
309.111	1827.19
309.341	1786.19
309.571	1843.19
309.8	1845.19
310.03	1845.19
310.26	1851.19
310.49	1794.19
310.72	1863.19
310.949	1874.19
311.179	1881.19
311.409	1913.19
311.639	1883.19
311.868	1931.19
312.098	1933.19
312.328	1952.19
312.557	1990.19
312.787	1974.19
313.017	1930.19
313.246	2018.19
313.476	1978.19
313.706	2091.19
313.935	2197.19
314.165	2361.19
314.394	2417.19
314.624	2337.19
314.853	2188.19
315.083	2112.19
315.312	2126.19
315.542	2208.19
315.771	2191.19
316.001	2250.19
316.23	2278.19
316.46	2384.19
316.689	2662.19
316.919	3137.19
317.148	4625.19
317.377	7121.19
317.607	10482.19
317.836	10847.19
318.065	6432.19
318.295	4115.19
318.524	3351.19
318.753	2911.19
318.983	2668.19
319.212	2534.19
319.441	2488.19
319.67	2379.19
319.9	2399.19
320.129	2356.19
320.358	2305.19
320.587	2328.19
320.816	2311.19
321.046	2354.19
321.275	2348.19
321.504	2378.19
321.733	2398.19
321.962	2507.19
322.191	2492.19
322.42	2518.19
322.649	2455.19
322.878	2508.19
323.108	2464.19
323.337	2532.19
323.566	2483.19
323.795	2579.19
324.024	2621.19
324.253	2693.19
324.482	2796.19
324.71	2955.19
324.939	3192.19
325.168	3219.19
325.397	3333.19
325.626	3975.19
325.855	5543.19
326.084	8773.19
326.313	12763.19
326.542	13503.19
326.77	8955.19
326.999	5819.19
327.228	4881.19
327.457	4633.19
327.686	4666.19
327.914	5073.19
328.143	5799.19
328.372	6875.19
328.6	7540.19
328.829	6739.19
329.058	5663.19
329.287	4988.19
329.515	4551.19
329.744	4212.19
329.972	4005.19
330.201	3781.19
330.43	3692.19
330.658	3551.19
330.887	3547.19
331.115	3435.19
331.344	3445.19
331.572	3464.19
331.801	3470.19
332.03	3427.19
332.258	3515.19
332.486	3760.19
332.715	4243.19
332.943	5255.19
333.172	6546.19
333.4	6485.19
333.629	4887.19
333.857	4456.19
334.085	4422.19
334.314	4601.19
334.542	5059.19
334.771	5832.19
334.999	7206.19
335.227	9066.19
335.455	10207.19
335.684	9081.19
335.912	7471.19
336.14	6275.19
336.369	5596.19
336.597	5130.19
336.825	4740.19
337.053	4435.19
337.281	4213.19
337.51	4002.19
337.738	3896.19
337.966	3743.19
338.194	3578.19
338.422	3479.19
338.65	3396.19
338.878	3350.19
339.106	3252.19
339.334	3226.19
339.562	3101.19
339.79	3065.19
340.018	3046.19
340.246	3030.19
340.474	3031.19
340.702	2974.19
340.93	2991.19
341.158	3002.19
341.386	2970.19
341.614	2970.19
341.842	2893.19
342.07	2782.19
342.298	2839.19
342.526	2767.19
342.754	2725.19
342.981	2672.19
343.209	2722.19
343.437	2721.19
343.665	2712.19
343.893	2832.19
344.12	2818.19
344.348	2816.19
344.576	2801.19
344.804	2676.19
345.031	2647.19
345.259	2609.19
345.487	2599.19
345.714	2586.19
345.942	2580.19
346.17	2506.19
346.397	2533.19
346.625	2503.19
346.853	2505.19
347.08	2531.19
347.308	2484.19
347.535	2540.19
347.763	2493.19
347.99	2522.19
348.218	2489.19
348.445	2495.19
348.673	2442.19
348.9	2433.19
349.128	2463.19
349.355	2426.19
349.583	2427.19
349.81	2436.19
350.037	2403.19
350.265	2394.19
350.492	2420.19
350.72	2388.19
350.947	2390.19
351.174	2387.19
351.402	2379.19
351.629	2388.19
351.856	2349.19
352.083	2387.19
352.311	2372.19
352.538	2358.19
352.765	2358.19
352.992	2380.19
353.22	2382.19
353.447	2351.19
353.674	2361.19
353.901	2379.19
354.128	2423.19
354.355	2418.19
354.583	2389.19
354.81	2393.19
355.037	2456.19
355.264	2406.19
355.491	2415.19
355.718	2426.19
355.945	2465.19
356.172	2417.19
356.399	2458.19
356.626	2459.19
356.853	2499.19
357.08	2484.19
357.307	2485.19
357.534	2563.19
357.761	2583.19
357.988	2552.19
358.215	2556.19
358.441	2533.19
358.668	2481.19
358.895	2507.19
359.122	2467.19
359.349	2546.19
359.576	2536.19
359.802	2486.19
360.029	2493.19
360.256	2484.19
360.483	2586.19
360.709	2557.19
360.936	2522.19
361.163	2582.19
361.39	2529.19
361.616	2572.19
361.843	2571.19
362.07	2578.19
362.296	2587.19
362.523	2588.19
362.749	2564.19
362.976	2520.19
363.203	2535.19
363.429	2500.19
363.656	2505.19
363.882	2513.19
364.109	2541.19
364.335	2489.19
364.562	2527.19
364.788	2544.19
365.015	2593.19
365.241	2643.19
365.468	2781.19
365.694	2939.19
365.92	2785.19
366.147	2664.19
366.373	2573.19
366.599	2565.19
366.826	2578.19
367.052	2573.19
367.278	2656.19
367.505	2643.19
367.731	2622.19
367.957	2599.19
368.184	2654.19
368.41	2669.19
368.636	2608.19
368.862	2662.19
369.089	2636.19
369.315	2667.19
369.541	2659.19
369.767	2650.19
369.993	2616.19
370.219	2618.19
370.445	2638.19
370.672	2681.19
370.898	2715.19
371.124	2716.19
371.35	2701.19
371.576	2709.19
371.802	2743.19
372.028	2733.19
372.254	2751.19
372.48	2778.19
372.706	2781.19
372.932	2788.19
373.158	2785.19
373.384	2769.19
373.61	2745.19
373.835	2808.19
374.061	2807.19
374.287	2881.19
374.513	2837.19
374.739	2865.19
374.965	2971.19
375.191	2909.19
375.416	2858.19
375.642	2845.19
375.868	2853.19
376.094	2784.19
376.319	2778.19
376.545	2783.19
376.771	2765.19
376.997	2775.19
377.222	2773.19
377.448	2678.19
377.674	2753.19
377.899	2674.19
378.125	2725.19
378.35	2690.19
378.576	2785.19
378.802	2744.19
379.027	2801.19
379.253	2856.19
379.478	3108.19
379.704	3612.19
379.929	5146.19
380.155	7944.19
380.38	8587.19
380.606	5176.19
380.831	3638.19
381.057	3154.19
381.282	2955.19
381.507	2856.19
381.733	2806.19
381.958	2727.19
382.184	2752.19
382.409	2730.19
382.634	2706.19
382.86	2707.19
383.085	2682.19
383.31	2649.19
383.535	2675.19
383.761	2668.19
383.986	2721.19
384.211	2725.19
384.436	2743.19
384.662	2782.19
384.887	2801.19
385.112	2772.19
385.337	2791.19
385.562	2793.19
385.787	2782.19
386.013	2773.19
386.238	2740.19
386.463	2772.19
386.688	2792.19
386.913	2745.19
387.138	2769.19
387.363	2740.19
387.588	2754.19
387.813	2719.19
388.038	2744.19
388.263	2779.19
388.488	2790.19
388.713	2774.19
388.938	2764.19
389.163	2785.19
389.387	2805.19
389.612	2693.19
389.837	2812.19
390.062	2725.19
390.287	2835.19
390.512	2788.19
390.736	2869.19
390.961	2869.19
391.186	2838.19
391.411	2919.19
391.636	2869.19
391.86	2948.19
392.085	2943.19
392.31	2876.19
392.534	2847.19
392.759	2885.19
392.984	2814.19
393.208	2816.19
393.433	2896.19
393.658	2869.19
393.882	2793.19
394.107	2769.19
394.331	2815.19
394.556	2773.19
394.78	2829.19
395.005	2808.19
395.229	2831.19
395.454	2881.19
395.678	2889.19
395.903	2833.19
396.127	2903.19
396.352	2872.19
396.576	2859.19
396.801	2852.19
397.025	2910.19
397.249	2892.19
397.474	2899.19
397.698	2941.19
397.922	2928.19
398.147	2918.19
398.371	2978.19
398.595	3051.19
398.82	3097.19
399.044	3212.19
399.268	3333.19
399.492	3504.19
399.717	3666.19
399.941	3688.19
400.165	3532.19
400.389	3399.19
400.613	3302.19
400.837	3160.19
401.062	3161.19
401.286	3071.19
401.51	3078.19
401.734	3029.19
401.958	3065.19
402.182	3038.19
402.406	3081.19
402.63	3108.19
402.854	3117.19
403.078	3121.19
403.302	3146.19
403.526	3129.19
403.75	3180.19
403.974	3187.19
404.198	3175.19
404.422	3179.19
404.645	3193.19
404.869	3156.19
405.093	3197.19
405.317	3114.19
405.541	3186.19
405.765	3264.19
405.988	3281.19
406.212	3282.19
406.436	3235.19
406.66	3281.19
406.883	3265.19
407.107	3402.19
407.331	3456.19
407.555	3459.19
407.778	3430.19
408.002	3396.19
408.226	3442.19
408.449	3381.19
408.673	3329.19
408.896	3304.19
409.12	3235.19
409.344	3236.19
409.567	3122.19
409.791	3171.19
410.014	3190.19
410.238	3171.19
410.461	3113.19
410.685	3107.19
410.908	3122.19
411.132	3053.19
411.355	3125.19
411.578	3103.19
411.802	3034.19
412.025	3097.19
412.249	3114.19
412.472	3088.19
412.695	3031.19
412.919	3011.19
413.142	2965.19
413.365	2947.19
413.589	2997.19
413.812	2946.19
414.035	2985.19
414.258	2989.19
414.482	3054.19
414.705	2961.19
414.928	3003.19
415.151	2965.19
415.374	2947.19
415.597	2940.19
415.821	2900.19
416.044	2898.19
416.267	2824.19
416.49	2853.19
416.713	2858.19
416.936	2848.19
417.159	2815.19
417.382	2827.19
417.605	2826.19
417.828	2824.19
418.051	2875.19
418.274	2935.19
418.497	2870.19
418.72	2994.19
418.943	2869.19
419.166	3093.19
419.389	3231.19
419.611	3155.19
419.834	3075.19
420.057	3032.19
420.28	2891.19
420.503	2867.19
420.726	2879.19
420.948	2895.19
421.171	2846.19
421.394	2884.19
421.617	2849.19
421.839	2871.19
422.062	2902.19
422.285	2830.19
422.507	2951.19
422.73	2922.19
422.953	2986.19
423.175	2951.19
423.398	2959.19
423.621	2861.19
423.843	2908.19
424.066	2920.19
424.288	2887.19
424.511	2885.19
424.733	2883.19
424.956	2813.19
425.178	2885.19
425.401	2823.19
425.623	2837.19
425.846	2771.19
426.068	2808.19
426.291	2761.19
426.513	2758.19
426.735	2741.19
426.958	2749.19
427.18	2683.19
427.402	2716.19
427.625	2695.19
427.847	2687.19
428.069	2621.19
428.292	2737.19
428.514	2676.19
428.736	2652.19
428.958	2731.19
429.181	2602.19
429.403	2623.19
429.625	2614.19
429.847	2622.19
430.069	2682.19
430.292	2776.19
430.514	2868.19
430.736	2878.19
430.958	2678.19
431.18	2641.19
431.402	2644.19
431.624	2590.19
431.846	2602.19
432.068	2641.19
432.29	2652.19
432.512	2592.19
432.734	2661.19
432.956	2638.19
433.178	2584.19
433.4	2620.19
433.622	2643.19
433.844	2701.19
434.066	2655.19
434.287	2633.19
434.509	2679.19
434.731	2747.19
434.953	2737.19
435.175	2730.19
435.397	2741.19
435.618	2678.19
435.84	2677.19
436.062	2597.19
436.284	2607.19
436.505	2644.19
436.727	2660.19
436.949	2678.19
437.17	2585.19
437.392	2592.19
437.614	2601.19
437.835	2515.19
438.057	2560.19
438.278	2527.19
438.5	2604.19
438.721	2586.19
438.943	2646.19
439.165	2702.19
439.386	2770.19
439.608	2682.19
439.829	2716.19
440.05	2834.19
440.272	2869.19
440.493	2751.19
440.715	2681.19
440.936	2691.19
441.158	2742.19
441.379	2770.19
441.6	2859.19
441.822	2952.19
442.043	3083.19
442.264	3195.19
442.486	2949.19
442.707	2858.19
442.928	2837.19
443.149	2827.19
443.371	2801.19
443.592	2822.19
443.813	2858.19
444.034	2884.19
444.255	2849.19
444.476	2903.19
444.698	2957.19
444.919	2991.19
445.14	3138.19
445.361	3008.19
445.582	2844.19
445.803	2783.19
446.024	2825.19
446.245	2810.19
446.466	2821.19
446.687	2693.19
446.908	2734.19
447.129	2699.19
447.35	2668.19
447.571	2651.19
447.792	2581.19
448.013	2554.19
448.234	2586.19
448.455	2546.19
448.675	2593.19
448.896	2741.19
449.117	2745.19
449.338	2986.19
449.559	3111.19
449.779	2772.19
450	2625.19
450.221	2556.19
450.442	2530.19
450.662	2539.19
450.883	2529.19
451.104	2537.19
451.324	2564.19
451.545	2537.19
451.766	2559.19
451.986	2585.19
452.207	2782.19
452.428	3523.19
452.648	5383.19
452.869	4534.19
453.089	3116.19
453.31	2882.19
453.53	2917.19
453.751	3030.19
453.971	3193.19
454.192	3093.19
454.412	2628.19
454.633	2557.19
454.853	2514.19
455.073	2451.19
455.294	2481.19
455.514	2387.19
455.734	2402.19
455.955	2397.19
456.175	2396.19
456.395	2409.19
456.616	2438.19
456.836	2463.19
457.056	2526.19
457.276	2433.19
457.497	2615.19
457.717	2688.19
457.937	2574.19
458.157	2580.19
458.377	2570.19
458.598	2597.19
458.818	2602.19
459.038	2627.19
459.258	2609.19
459.478	2649.19
459.698	2642.19
459.918	2703.19
460.138	2735.19
460.358	2799.19
460.578	2806.19
460.798	2820.19
461.018	2909.19
461.238	2845.19
461.458	2872.19
461.678	2908.19
461.898	3024.19
462.118	3031.19
462.338	3044.19
462.558	3063.19
462.777	3112.19
462.997	3252.19
463.217	3396.19
463.437	3491.19
463.657	3552.19
463.876	3604.19
464.096	3337.19
464.316	3224.19
464.536	3155.19
464.755	3139.19
464.975	2999.19
465.195	2929.19
465.414	2860.19
465.634	2768.19
465.854	2695.19
466.073	2689.19
466.293	2678.19
466.512	2632.19
466.732	2709.19
466.951	2827.19
467.171	2967.19
467.391	2948.19
467.61	2697.19
467.829	2607.19
468.049	2596.19
468.268	2554.19
468.488	2572.19
468.707	2568.19
468.927	2561.19
469.146	2536.19
469.365	2563.19
469.585	2647.19
469.804	2637.19
470.023	2742.19
470.243	2765.19
470.462	2840.19
470.681	3034.19
470.901	3287.19
471.12	3847.19
471.339	3779.19
471.558	3135.19
471.777	2880.19
471.997	2753.19
472.216	2687.19
472.435	2630.19
472.654	2601.19
472.873	2562.19
473.092	2610.19
473.311	2551.19
473.53	2653.19
473.749	2693.19
473.968	2730.19
474.187	2648.19
474.406	2591.19
474.625	2623.19
474.844	2617.19
475.063	2603.19
475.282	2596.19
475.501	2602.19
475.72	2609.19
475.939	2688.19
476.158	2706.19
476.377	2775.19
476.596	2733.19
476.814	2761.19
477.033	2753.19
477.252	2748.19
477.471	2809.19
477.69	2876.19
477.908	2897.19
478.127	2992.19
478.346	2963.19
478.564	2970.19
478.783	3048.19
479.002	3041.19
479.22	3087.19
479.439	3094.19
479.658	3023.19
479.876	3157.19
480.095	3155.19
480.313	3157.19
480.532	3204.19
480.751	3229.19
480.969	3142.19
481.188	3137.19
481.406	3144.19
481.624	3129.19
481.843	3194.19
482.061	3240.19
482.28	3169.19
482.498	3146.19
482.717	3157.19
482.935	3170.19
483.153	3209.19
483.372	3290.19
483.59	3269.19
483.808	3313.19
484.027	3383.19
484.245	3625.19
484.463	4036.19
484.681	4578.19
484.9	4073.19
485.118	3829.19
485.336	3714.19
485.554	3739.19
485.772	4017.19
485.99	4631.19
486.209	4925.19
486.427	4137.19
486.645	3711.19
486.863	3507.19
487.081	3474.19
487.299	3368.19
487.517	3349.19
487.735	3361.19
