Data from SnStandardFlinnAPT0064_LampEnergy10_LIBS07252019.E.O._I.C._HRD10591_15-21-04-494.txt Node
Date: Thu Jul 25 15:21:04 EDT 2019
User: cochatt
Spectrometer: HR+D1059
Trigger mode: 1
Integration Time (sec): 1.000000E-1
Scans to average: 1
Electric dark correction enabled: true
Nonlinearity correction enabled: false
Boxcar width: 0
XAxis mode: Wavelengths
Number of Pixels in Spectrum: 2048
>>>>>Begin Spectral Data<<<<<
223.165	-27.62
223.4	-27.62
223.635	-27.62
223.869	-10.62
224.104	-6.62
224.338	-24.62
224.573	-25.62
224.808	-7.62
225.042	-7.62
225.277	-17.62
225.511	-0.62
225.746	3.38
225.98	-0.62
226.215	20.38
226.449	17.38
226.683	25.38
226.918	24.38
227.152	38.38
227.387	34.38
227.621	42.38
227.856	36.38
228.09	47.38
228.324	58.38
228.559	65.38
228.793	113.38
229.027	318.38
229.262	346.38
229.496	318.38
229.73	291.38
229.964	315.38
230.199	299.38
230.433	315.38
230.667	307.38
230.901	333.38
231.136	322.38
231.37	340.38
231.604	375.38
231.838	447.38
232.072	524.38
232.306	577.38
232.541	467.38
232.775	427.38
233.009	415.38
233.243	425.38
233.477	433.38
233.711	489.38
233.945	603.38
234.179	521.38
234.413	453.38
234.647	455.38
234.881	476.38
235.115	527.38
235.349	630.38
235.583	768.38
235.817	1035.38
236.051	964.38
236.285	659.38
236.519	535.38
236.753	511.38
236.987	494.38
237.221	546.38
237.455	531.38
237.689	476.38
237.922	465.38
238.156	467.38
238.39	478.38
238.624	493.38
238.858	479.38
239.091	482.38
239.325	475.38
239.559	509.38
239.793	500.38
240.027	524.38
240.26	553.38
240.494	543.38
240.728	590.38
240.961	616.38
241.195	655.38
241.429	690.38
241.662	686.38
241.896	779.38
242.13	950.38
242.363	1268.38
242.597	1653.38
242.83	1560.38
243.064	1590.38
243.298	1862.38
243.531	1519.38
243.765	967.38
243.998	762.38
244.232	663.38
244.465	661.38
244.699	678.38
244.932	643.38
245.166	661.38
245.399	665.38
245.633	671.38
245.866	679.38
246.099	682.38
246.333	659.38
246.566	635.38
246.8	653.38
247.033	636.38
247.266	641.38
247.5	653.38
247.733	678.38
247.966	707.38
248.2	773.38
248.433	854.38
248.666	1002.38
248.899	963.38
249.133	836.38
249.366	865.38
249.599	951.38
249.832	1063.38
250.066	1102.38
250.299	865.38
250.532	779.38
250.765	755.38
250.998	769.38
251.231	736.38
251.465	729.38
251.698	746.38
251.931	747.38
252.164	747.38
252.397	773.38
252.63	773.38
252.863	778.38
253.096	807.38
253.329	770.38
253.562	794.38
253.795	794.38
254.028	815.38
254.261	806.38
254.494	870.38
254.727	980.38
254.96	1254.38
255.193	1234.38
255.426	1006.38
255.659	898.38
255.892	854.38
256.124	865.38
256.357	904.38
256.59	919.38
256.823	974.38
257.056	1112.38
257.289	1369.38
257.521	1514.38
257.754	1189.38
257.987	970.38
258.22	934.38
258.452	893.38
258.685	919.38
258.918	946.38
259.151	1027.38
259.383	1087.38
259.616	1173.38
259.849	1303.38
260.081	1095.38
260.314	964.38
260.547	967.38
260.779	946.38
261.012	962.38
261.244	979.38
261.477	951.38
261.71	1002.38
261.942	1015.38
262.175	1027.38
262.407	1018.38
262.64	1075.38
262.872	1077.38
263.105	1157.38
263.337	1220.38
263.57	1229.38
263.802	1314.38
264.035	1310.38
264.267	1343.38
264.499	1373.38
264.732	1443.38
264.964	1449.38
265.197	1435.38
265.429	1446.38
265.661	1467.38
265.894	1539.38
266.126	1803.38
266.358	1972.38
266.591	1910.38
266.823	1590.38
267.055	1491.38
267.287	1380.38
267.52	1337.38
267.752	1289.38
267.984	1279.38
268.216	1247.38
268.448	1244.38
268.681	1234.38
268.913	1207.38
269.145	1225.38
269.377	1250.38
269.609	1262.38
269.841	1314.38
270.073	1385.38
270.306	1601.38
270.538	2158.38
270.77	3246.38
271.002	3987.38
271.234	2787.38
271.466	1865.38
271.698	1517.38
271.93	1383.38
272.162	1320.38
272.394	1293.38
272.626	1259.38
272.858	1213.38
273.09	1230.38
273.322	1214.38
273.553	1188.38
273.785	1185.38
274.017	1231.38
274.249	1229.38
274.481	1214.38
274.713	1237.38
274.945	1209.38
275.176	1204.38
275.408	1214.38
275.64	1218.38
275.872	1192.38
276.104	1234.38
276.335	1256.38
276.567	1294.38
276.799	1282.38
277.031	1294.38
277.262	1318.38
277.494	1379.38
277.726	1571.38
277.957	1831.38
278.189	2093.38
278.421	1991.38
278.652	1771.38
278.884	1668.38
279.115	1512.38
279.347	1409.38
279.579	1382.38
279.81	1391.38
280.042	1374.38
280.273	1403.38
280.505	1444.38
280.736	1489.38
280.968	1608.38
281.199	1790.38
281.431	2038.38
281.662	2109.38
281.894	1794.38
282.125	1653.38
282.356	1645.38
282.588	1657.38
282.819	1705.38
283.051	1798.38
283.282	1984.38
283.513	2500.38
283.745	3570.38
283.976	5705.38
284.207	8055.38
284.439	7400.38
284.67	4522.38
284.901	3709.38
285.132	3741.38
285.364	3590.38
285.595	2691.38
285.826	2370.38
286.057	2829.38
286.288	3859.38
286.52	5196.38
286.751	4905.38
286.982	3014.38
287.213	2301.38
287.444	1953.38
287.675	1860.38
287.906	1737.38
288.138	1758.38
288.369	1692.38
288.6	1705.38
288.831	1687.38
289.062	1666.38
289.293	1687.38
289.524	1725.38
289.755	1684.38
289.986	1688.38
290.217	1750.38
290.448	1717.38
290.679	1729.38
290.91	1763.38
291.141	1869.38
291.371	2023.38
291.602	2128.38
291.833	1913.38
292.064	1767.38
292.295	1686.38
292.526	1651.38
292.757	1600.38
292.987	1604.38
293.218	1582.38
293.449	1628.38
293.68	1575.38
293.91	1585.38
294.141	1592.38
294.372	1560.38
294.603	1563.38
294.833	1564.38
295.064	1591.38
295.295	1524.38
295.525	1562.38
295.756	1572.38
295.987	1545.38
296.217	1601.38
296.448	1614.38
296.679	1577.38
296.909	1563.38
297.14	1622.38
297.37	1650.38
297.601	1636.38
297.831	1617.38
298.062	1670.38
298.292	1660.38
298.523	1656.38
298.753	1680.38
298.984	1725.38
299.214	1753.38
299.445	1751.38
299.675	1764.38
299.905	1821.38
300.136	1899.38
300.366	2131.38
300.597	2758.38
300.827	3847.38
301.057	5317.38
301.288	5238.38
301.518	3334.38
301.748	2597.38
301.979	2355.38
302.209	2262.38
302.439	2278.38
302.669	2419.38
302.9	2924.38
303.13	4175.38
303.36	6189.38
303.59	8367.38
303.82	7133.38
304.051	4200.38
304.281	3050.38
304.511	2501.38
304.741	2311.38
304.971	2245.38
305.201	2111.38
305.431	2006.38
305.661	1957.38
305.891	1888.38
306.121	1858.38
306.352	1850.38
306.582	1847.38
306.812	1820.38
307.042	1830.38
307.272	1791.38
307.502	1801.38
307.731	1789.38
307.961	1783.38
308.191	1782.38
308.421	1799.38
308.651	1813.38
308.881	1806.38
309.111	1781.38
309.341	1849.38
309.571	1829.38
309.8	1881.38
310.03	1866.38
310.26	1861.38
310.49	1853.38
310.72	1863.38
310.949	1905.38
311.179	1913.38
311.409	1905.38
311.639	1929.38
311.868	1904.38
312.098	1933.38
312.328	1941.38
312.557	1975.38
312.787	1969.38
313.017	1990.38
313.246	2035.38
313.476	2015.38
313.706	2109.38
313.935	2175.38
314.165	2347.38
314.394	2498.38
314.624	2345.38
314.853	2175.38
315.083	2111.38
315.312	2145.38
315.542	2157.38
315.771	2206.38
316.001	2225.38
316.23	2313.38
316.46	2431.38
316.689	2675.38
316.919	3213.38
317.148	4668.38
317.377	7146.38
317.607	10603.38
317.836	10988.38
318.065	6593.38
318.295	4295.38
318.524	3394.38
318.753	2971.38
318.983	2718.38
319.212	2551.38
319.441	2540.38
319.67	2445.38
319.9	2418.38
320.129	2363.38
320.358	2363.38
320.587	2329.38
320.816	2317.38
321.046	2339.38
321.275	2325.38
321.504	2383.38
321.733	2427.38
321.962	2511.38
322.191	2504.38
322.42	2487.38
322.649	2478.38
322.878	2447.38
323.108	2474.38
323.337	2505.38
323.566	2543.38
323.795	2641.38
324.024	2633.38
324.253	2742.38
324.482	2802.38
324.71	2994.38
324.939	3183.38
325.168	3269.38
325.397	3366.38
325.626	3987.38
325.855	5587.38
326.084	8635.38
326.313	12758.38
326.542	13525.38
326.77	9083.38
326.999	5908.38
327.228	4971.38
327.457	4709.38
327.686	4831.38
327.914	5130.38
328.143	6055.38
328.372	7237.38
328.6	7849.38
328.829	6979.38
329.058	5835.38
329.287	5115.38
329.515	4636.38
329.744	4281.38
329.972	4076.38
330.201	3866.38
330.43	3734.38
330.658	3616.38
330.887	3608.38
331.115	3535.38
331.344	3468.38
331.572	3469.38
331.801	3484.38
332.03	3512.38
332.258	3551.38
332.486	3769.38
332.715	4264.38
332.943	5273.38
333.172	6655.38
333.4	6557.38
333.629	4951.38
333.857	4481.38
334.085	4487.38
334.314	4719.38
334.542	5139.38
334.771	6073.38
334.999	7479.38
335.227	9387.38
335.455	10524.38
335.684	9447.38
335.912	7694.38
336.14	6491.38
336.369	5715.38
336.597	5246.38
336.825	4796.38
337.053	4559.38
337.281	4231.38
337.51	4041.38
337.738	3834.38
337.966	3679.38
338.194	3526.38
338.422	3494.38
338.65	3384.38
338.878	3357.38
339.106	3260.38
339.334	3225.38
339.562	3131.38
339.79	3118.38
340.018	3061.38
340.246	3057.38
340.474	2954.38
340.702	3047.38
340.93	3022.38
341.158	3014.38
341.386	3001.38
341.614	2991.38
341.842	2909.38
342.07	2833.38
342.298	2795.38
342.526	2790.38
342.754	2711.38
342.981	2685.38
343.209	2738.38
343.437	2783.38
343.665	2839.38
343.893	2822.38
344.12	2819.38
344.348	2787.38
344.576	2726.38
344.804	2715.38
345.031	2640.38
345.259	2615.38
345.487	2568.38
345.714	2534.38
345.942	2561.38
346.17	2566.38
346.397	2529.38
346.625	2573.38
346.853	2509.38
347.08	2514.38
347.308	2523.38
347.535	2525.38
347.763	2534.38
347.99	2489.38
348.218	2517.38
348.445	2456.38
348.673	2439.38
348.9	2490.38
349.128	2418.38
349.355	2461.38
349.583	2446.38
349.81	2422.38
350.037	2411.38
350.265	2430.38
350.492	2430.38
350.72	2397.38
350.947	2414.38
351.174	2364.38
351.402	2439.38
351.629	2349.38
351.856	2398.38
352.083	2383.38
352.311	2429.38
352.538	2369.38
352.765	2361.38
352.992	2357.38
353.22	2347.38
353.447	2373.38
353.674	2369.38
353.901	2379.38
354.128	2384.38
354.355	2380.38
354.583	2381.38
354.81	2406.38
355.037	2424.38
355.264	2403.38
355.491	2442.38
355.718	2455.38
355.945	2438.38
356.172	2461.38
356.399	2483.38
356.626	2509.38
356.853	2535.38
357.08	2541.38
357.307	2527.38
357.534	2594.38
357.761	2599.38
357.988	2594.38
358.215	2568.38
358.441	2593.38
358.668	2526.38
358.895	2557.38
359.122	2545.38
359.349	2529.38
359.576	2557.38
359.802	2574.38
360.029	2548.38
360.256	2546.38
360.483	2560.38
360.709	2554.38
360.936	2516.38
361.163	2571.38
361.39	2494.38
361.616	2535.38
361.843	2567.38
362.07	2529.38
362.296	2565.38
362.523	2577.38
362.749	2564.38
362.976	2526.38
363.203	2537.38
363.429	2516.38
363.656	2543.38
363.882	2568.38
364.109	2547.38
364.335	2530.38
364.562	2522.38
364.788	2572.38
365.015	2528.38
365.241	2613.38
365.468	2777.38
365.694	2930.38
365.92	2810.38
366.147	2617.38
366.373	2613.38
366.599	2635.38
366.826	2637.38
367.052	2596.38
367.278	2611.38
367.505	2613.38
367.731	2664.38
367.957	2586.38
368.184	2632.38
368.41	2648.38
368.636	2646.38
368.862	2661.38
369.089	2673.38
369.315	2669.38
369.541	2647.38
369.767	2661.38
369.993	2665.38
370.219	2621.38
370.445	2630.38
370.672	2673.38
370.898	2621.38
371.124	2661.38
371.35	2737.38
371.576	2732.38
371.802	2787.38
372.028	2763.38
372.254	2737.38
372.48	2805.38
372.706	2749.38
372.932	2741.38
373.158	2792.38
373.384	2803.38
373.61	2778.38
373.835	2788.38
374.061	2773.38
374.287	2821.38
374.513	2835.38
374.739	2909.38
374.965	2953.38
375.191	2924.38
375.416	2903.38
375.642	2879.38
375.868	2884.38
376.094	2810.38
376.319	2780.38
376.545	2788.38
376.771	2787.38
376.997	2758.38
377.222	2685.38
377.448	2674.38
377.674	2753.38
377.899	2742.38
378.125	2751.38
378.35	2733.38
378.576	2793.38
378.802	2730.38
379.027	2851.38
379.253	2863.38
379.478	3047.38
379.704	3569.38
379.929	5098.38
380.155	7859.38
380.38	8631.38
380.606	5165.38
380.831	3697.38
381.057	3197.38
381.282	2954.38
381.507	2846.38
381.733	2832.38
381.958	2777.38
382.184	2702.38
382.409	2674.38
382.634	2716.38
382.86	2709.38
383.085	2666.38
383.31	2681.38
383.535	2679.38
383.761	2700.38
383.986	2680.38
384.211	2694.38
384.436	2759.38
384.662	2764.38
384.887	2782.38
385.112	2758.38
385.337	2741.38
385.562	2754.38
385.787	2781.38
386.013	2765.38
386.238	2806.38
386.463	2775.38
386.688	2799.38
386.913	2715.38
387.138	2763.38
387.363	2771.38
387.588	2732.38
387.813	2731.38
388.038	2765.38
388.263	2783.38
388.488	2748.38
388.713	2767.38
388.938	2750.38
389.163	2730.38
389.387	2775.38
389.612	2780.38
389.837	2786.38
390.062	2775.38
390.287	2801.38
390.512	2784.38
390.736	2797.38
390.961	2843.38
391.186	2839.38
391.411	2885.38
391.636	2899.38
391.86	2937.38
392.085	2968.38
392.31	2881.38
392.534	2819.38
392.759	2858.38
392.984	2801.38
393.208	2801.38
393.433	2786.38
393.658	2774.38
393.882	2785.38
394.107	2774.38
394.331	2825.38
394.556	2793.38
394.78	2836.38
395.005	2851.38
395.229	2858.38
395.454	2883.38
395.678	2918.38
395.903	2896.38
396.127	2916.38
396.352	2905.38
396.576	2847.38
396.801	2820.38
397.025	2841.38
397.249	2903.38
397.474	2940.38
397.698	2890.38
397.922	2921.38
398.147	2941.38
398.371	2940.38
398.595	3065.38
398.82	3101.38
399.044	3246.38
399.268	3367.38
399.492	3561.38
399.717	3666.38
399.941	3644.38
400.165	3506.38
400.389	3357.38
400.613	3232.38
400.837	3204.38
401.062	3137.38
401.286	3099.38
401.51	2994.38
401.734	3001.38
401.958	3047.38
402.182	3081.38
402.406	3070.38
402.63	3047.38
402.854	3097.38
403.078	3093.38
403.302	3174.38
403.526	3079.38
403.75	3153.38
403.974	3193.38
404.198	3145.38
404.422	3186.38
404.645	3131.38
404.869	3136.38
405.093	3170.38
405.317	3169.38
405.541	3209.38
405.765	3213.38
405.988	3264.38
406.212	3292.38
406.436	3229.38
406.66	3287.38
406.883	3273.38
407.107	3374.38
407.331	3369.38
407.555	3497.38
407.778	3471.38
408.002	3428.38
408.226	3347.38
408.449	3380.38
408.673	3274.38
408.896	3213.38
409.12	3228.38
409.344	3239.38
409.567	3162.38
409.791	3175.38
410.014	3104.38
410.238	3135.38
410.461	3163.38
410.685	3087.38
410.908	3075.38
411.132	3119.38
411.355	3042.38
411.578	3038.38
411.802	3027.38
412.025	3029.38
412.249	3065.38
412.472	3049.38
412.695	3027.38
412.919	2940.38
413.142	3001.38
413.365	2966.38
413.589	3033.38
413.812	2955.38
414.035	3011.38
414.258	2985.38
414.482	2995.38
414.705	2949.38
414.928	2967.38
415.151	3003.38
415.374	2941.38
415.597	2981.38
415.821	2858.38
416.044	2879.38
416.267	2858.38
416.49	2912.38
416.713	2855.38
416.936	2847.38
417.159	2852.38
417.382	2816.38
417.605	2821.38
417.828	2828.38
418.051	2891.38
418.274	2863.38
418.497	2860.38
418.72	2933.38
418.943	2897.38
419.166	3087.38
419.389	3179.38
419.611	3126.38
419.834	3087.38
420.057	3027.38
420.28	2945.38
420.503	2861.38
420.726	2846.38
420.948	2830.38
421.171	2833.38
421.394	2898.38
421.617	2875.38
421.839	2899.38
422.062	2873.38
422.285	2818.38
422.507	2943.38
422.73	2916.38
422.953	2913.38
423.175	2963.38
423.398	2934.38
423.621	2891.38
423.843	2871.38
424.066	2846.38
424.288	2841.38
424.511	2841.38
424.733	2866.38
424.956	2812.38
425.178	2816.38
425.401	2849.38
425.623	2823.38
425.846	2723.38
426.068	2780.38
426.291	2777.38
426.513	2751.38
426.735	2716.38
426.958	2749.38
427.18	2714.38
427.402	2687.38
427.625	2718.38
427.847	2729.38
428.069	2634.38
428.292	2651.38
428.514	2646.38
428.736	2707.38
428.958	2673.38
429.181	2638.38
429.403	2625.38
429.625	2634.38
429.847	2683.38
430.069	2662.38
430.292	2772.38
430.514	2905.38
430.736	2877.38
430.958	2699.38
431.18	2637.38
431.402	2681.38
431.624	2624.38
431.846	2643.38
432.068	2608.38
432.29	2633.38
432.512	2615.38
432.734	2678.38
432.956	2646.38
433.178	2626.38
433.4	2624.38
433.622	2650.38
433.844	2658.38
434.066	2631.38
434.287	2646.38
434.509	2743.38
434.731	2699.38
434.953	2728.38
435.175	2748.38
435.397	2791.38
435.618	2695.38
435.84	2702.38
436.062	2621.38
436.284	2595.38
436.505	2594.38
436.727	2641.38
436.949	2590.38
437.17	2590.38
437.392	2565.38
437.614	2520.38
437.835	2503.38
438.057	2518.38
438.278	2520.38
438.5	2578.38
438.721	2637.38
438.943	2689.38
439.165	2749.38
439.386	2706.38
439.608	2669.38
439.829	2716.38
440.05	2788.38
440.272	2878.38
440.493	2697.38
440.715	2707.38
440.936	2762.38
441.158	2773.38
441.379	2793.38
441.6	2875.38
441.822	2978.38
442.043	3087.38
442.264	3150.38
442.486	2979.38
442.707	2923.38
442.928	2784.38
443.149	2843.38
443.371	2796.38
443.592	2801.38
443.813	2859.38
444.034	2841.38
444.255	2878.38
444.476	2912.38
444.698	2951.38
444.919	3080.38
445.14	3088.38
445.361	2928.38
445.582	2913.38
445.803	2821.38
446.024	2786.38
446.245	2810.38
446.466	2793.38
446.687	2760.38
446.908	2758.38
447.129	2680.38
447.35	2645.38
447.571	2620.38
447.792	2585.38
448.013	2575.38
448.234	2577.38
448.455	2593.38
448.675	2676.38
448.896	2665.38
449.117	2771.38
449.338	3013.38
449.559	3099.38
449.779	2773.38
450	2611.38
450.221	2573.38
450.442	2558.38
450.662	2526.38
450.883	2492.38
451.104	2547.38
451.324	2523.38
451.545	2571.38
451.766	2517.38
451.986	2595.38
452.207	2829.38
452.428	3619.38
452.648	5489.38
452.869	4510.38
453.089	3132.38
453.31	2942.38
453.53	2917.38
453.751	3043.38
453.971	3210.38
454.192	3106.38
454.412	2747.38
454.633	2540.38
454.853	2468.38
455.073	2445.38
455.294	2459.38
455.514	2411.38
455.734	2402.38
455.955	2359.38
456.175	2438.38
456.395	2419.38
456.616	2437.38
456.836	2482.38
457.056	2514.38
457.276	2493.38
457.497	2631.38
457.717	2604.38
457.937	2532.38
458.157	2533.38
458.377	2535.38
458.598	2575.38
458.818	2621.38
459.038	2605.38
459.258	2638.38
459.478	2658.38
459.698	2643.38
459.918	2702.38
460.138	2734.38
460.358	2798.38
460.578	2818.38
460.798	2860.38
461.018	2874.38
461.238	2884.38
461.458	2900.38
461.678	2869.38
461.898	3065.38
462.118	2993.38
462.338	3063.38
462.558	3046.38
462.777	3082.38
462.997	3226.38
463.217	3368.38
463.437	3537.38
463.657	3571.38
463.876	3557.38
464.096	3428.38
464.316	3182.38
464.536	3190.38
464.755	3105.38
464.975	3008.38
465.195	2910.38
465.414	2853.38
465.634	2765.38
465.854	2710.38
466.073	2668.38
466.293	2622.38
466.512	2663.38
466.732	2703.38
466.951	2815.38
467.171	3038.38
467.391	2929.38
467.61	2697.38
467.829	2646.38
468.049	2619.38
468.268	2551.38
468.488	2510.38
468.707	2562.38
468.927	2514.38
469.146	2559.38
469.365	2586.38
469.585	2654.38
469.804	2616.38
470.023	2760.38
470.243	2755.38
470.462	2864.38
470.681	3003.38
470.901	3263.38
471.12	3732.38
471.339	3793.38
471.558	3146.38
471.777	2853.38
471.997	2772.38
472.216	2694.38
472.435	2611.38
472.654	2602.38
472.873	2575.38
473.092	2583.38
473.311	2594.38
473.53	2637.38
473.749	2704.38
473.968	2766.38
474.187	2651.38
474.406	2543.38
474.625	2619.38
474.844	2640.38
475.063	2633.38
475.282	2603.38
475.501	2600.38
475.72	2643.38
475.939	2699.38
476.158	2701.38
476.377	2766.38
476.596	2715.38
476.814	2773.38
477.033	2728.38
477.252	2767.38
477.471	2772.38
477.69	2881.38
477.908	2909.38
478.127	2938.38
478.346	2955.38
478.564	3019.38
478.783	3066.38
479.002	3080.38
479.22	3087.38
479.439	3106.38
479.658	3118.38
479.876	3120.38
480.095	3135.38
480.313	3200.38
480.532	3284.38
480.751	3271.38
480.969	3168.38
481.188	3106.38
481.406	3146.38
481.624	3151.38
481.843	3144.38
482.061	3197.38
482.28	3192.38
482.498	3170.38
482.717	3164.38
482.935	3178.38
483.153	3219.38
483.372	3213.38
483.59	3281.38
483.808	3343.38
484.027	3449.38
484.245	3605.38
484.463	4090.38
484.681	4497.38
484.9	4116.38
485.118	3792.38
485.336	3713.38
485.554	3797.38
485.772	4052.38
485.99	4579.38
486.209	4877.38
486.427	4121.38
486.645	3706.38
486.863	3548.38
487.081	3497.38
487.299	3382.38
487.517	3304.38
487.735	3353.38
