Data from SnStandardFlinnAPT0064_LampEnergy10_LIBS07252019.E.O._I.C._HRD10591_15-19-40-493.txt Node
Date: Thu Jul 25 15:19:40 EDT 2019
User: cochatt
Spectrometer: HR+D1059
Trigger mode: 1
Integration Time (sec): 1.000000E-1
Scans to average: 1
Electric dark correction enabled: true
Nonlinearity correction enabled: false
Boxcar width: 0
XAxis mode: Wavelengths
Number of Pixels in Spectrum: 2048
>>>>>Begin Spectral Data<<<<<
223.165	-16.75
223.4	-16.75
223.635	-16.75
223.869	-16.75
224.104	-21.75
224.338	-16.75
224.573	-20.75
224.808	-8.75
225.042	-15.75
225.277	-0.75
225.511	-11.75
225.746	15.25
225.98	9.25
226.215	12.25
226.449	16.25
226.683	16.25
226.918	34.25
227.152	26.25
227.387	37.25
227.621	40.25
227.856	31.25
228.09	32.25
228.324	49.25
228.559	62.25
228.793	120.25
229.027	335.25
229.262	342.25
229.496	300.25
229.73	303.25
229.964	295.25
230.199	325.25
230.433	328.25
230.667	315.25
230.901	337.25
231.136	333.25
231.37	367.25
231.604	407.25
231.838	444.25
232.072	531.25
232.306	587.25
232.541	492.25
232.775	438.25
233.009	416.25
233.243	433.25
233.477	465.25
233.711	528.25
233.945	619.25
234.179	556.25
234.413	472.25
234.647	460.25
234.881	479.25
235.115	543.25
235.349	648.25
235.583	806.25
235.817	1035.25
236.051	995.25
236.285	671.25
236.519	548.25
236.753	516.25
236.987	523.25
237.221	528.25
237.455	519.25
237.689	499.25
237.922	474.25
238.156	483.25
238.39	502.25
238.624	514.25
238.858	525.25
239.091	517.25
239.325	517.25
239.559	531.25
239.793	517.25
240.027	537.25
240.26	564.25
240.494	561.25
240.728	600.25
240.961	653.25
241.195	659.25
241.429	706.25
241.662	732.25
241.896	812.25
242.13	993.25
242.363	1270.25
242.597	1638.25
242.83	1621.25
243.064	1607.25
243.298	1876.25
243.531	1499.25
243.765	984.25
243.998	791.25
244.232	689.25
244.465	682.25
244.699	679.25
244.932	679.25
245.166	679.25
245.399	699.25
245.633	710.25
245.866	681.25
246.099	672.25
246.333	676.25
246.566	658.25
246.8	647.25
247.033	647.25
247.266	681.25
247.5	660.25
247.733	691.25
247.966	737.25
248.2	801.25
248.433	888.25
248.666	1020.25
248.899	1014.25
249.133	871.25
249.366	892.25
249.599	954.25
249.832	1143.25
250.066	1132.25
250.299	871.25
250.532	795.25
250.765	782.25
250.998	723.25
251.231	741.25
251.465	762.25
251.698	741.25
251.931	740.25
252.164	739.25
252.397	786.25
252.63	789.25
252.863	813.25
253.096	812.25
253.329	784.25
253.562	803.25
253.795	788.25
254.028	809.25
254.261	831.25
254.494	888.25
254.727	1071.25
254.96	1277.25
255.193	1261.25
255.426	994.25
255.659	899.25
255.892	889.25
256.124	896.25
256.357	877.25
256.59	923.25
256.823	1012.25
257.056	1149.25
257.289	1417.25
257.521	1541.25
257.754	1224.25
257.987	999.25
258.22	937.25
258.452	926.25
258.685	916.25
258.918	927.25
259.151	1009.25
259.383	1097.25
259.616	1271.25
259.849	1327.25
260.081	1100.25
260.314	1005.25
260.547	934.25
260.779	948.25
261.012	945.25
261.244	951.25
261.477	965.25
261.71	995.25
261.942	973.25
262.175	1015.25
262.407	1047.25
262.64	1052.25
262.872	1092.25
263.105	1125.25
263.337	1187.25
263.57	1215.25
263.802	1298.25
264.035	1317.25
264.267	1296.25
264.499	1347.25
264.732	1399.25
264.964	1412.25
265.197	1424.25
265.429	1396.25
265.661	1444.25
265.894	1529.25
266.126	1683.25
266.358	1953.25
266.591	1914.25
266.823	1607.25
267.055	1421.25
267.287	1391.25
267.52	1295.25
267.752	1250.25
267.984	1275.25
268.216	1235.25
268.448	1247.25
268.681	1232.25
268.913	1228.25
269.145	1248.25
269.377	1211.25
269.609	1267.25
269.841	1300.25
270.073	1362.25
270.306	1586.25
270.538	2188.25
270.77	3275.25
271.002	4068.25
271.234	2915.25
271.466	1983.25
271.698	1604.25
271.93	1425.25
272.162	1364.25
272.394	1298.25
272.626	1266.25
272.858	1230.25
273.09	1235.25
273.322	1230.25
273.553	1229.25
273.785	1168.25
274.017	1220.25
274.249	1196.25
274.481	1213.25
274.713	1214.25
274.945	1229.25
275.176	1195.25
275.408	1236.25
275.64	1243.25
275.872	1258.25
276.104	1264.25
276.335	1267.25
276.567	1296.25
276.799	1294.25
277.031	1320.25
277.262	1350.25
277.494	1379.25
277.726	1583.25
277.957	1894.25
278.189	2178.25
278.421	2025.25
278.652	1780.25
278.884	1736.25
279.115	1512.25
279.347	1436.25
279.579	1393.25
279.81	1384.25
280.042	1400.25
280.273	1466.25
280.505	1501.25
280.736	1491.25
280.968	1635.25
281.199	1827.25
281.431	2059.25
281.662	2126.25
281.894	1829.25
282.125	1640.25
282.356	1700.25
282.588	1708.25
282.819	1780.25
283.051	1847.25
283.282	2047.25
283.513	2514.25
283.745	3722.25
283.976	5799.25
284.207	8196.25
284.439	7511.25
284.67	4825.25
284.901	3968.25
285.132	3931.25
285.364	3720.25
285.595	2835.25
285.826	2501.25
286.057	2959.25
286.288	3972.25
286.52	5391.25
286.751	5066.25
286.982	3212.25
287.213	2393.25
287.444	2074.25
287.675	1959.25
287.906	1819.25
288.138	1772.25
288.369	1721.25
288.6	1722.25
288.831	1695.25
289.062	1719.25
289.293	1656.25
289.524	1699.25
289.755	1692.25
289.986	1730.25
290.217	1688.25
290.448	1686.25
290.679	1750.25
290.91	1792.25
291.141	1865.25
291.371	2082.25
291.602	2161.25
291.833	1955.25
292.064	1763.25
292.295	1720.25
292.526	1643.25
292.757	1629.25
292.987	1599.25
293.218	1588.25
293.449	1578.25
293.68	1591.25
293.91	1571.25
294.141	1591.25
294.372	1583.25
294.603	1586.25
294.833	1607.25
295.064	1595.25
295.295	1575.25
295.525	1569.25
295.756	1559.25
295.987	1577.25
296.217	1588.25
296.448	1594.25
296.679	1579.25
296.909	1580.25
297.14	1594.25
297.37	1659.25
297.601	1637.25
297.831	1634.25
298.062	1651.25
298.292	1637.25
298.523	1666.25
298.753	1714.25
298.984	1721.25
299.214	1703.25
299.445	1757.25
299.675	1759.25
299.905	1855.25
300.136	1930.25
300.366	2221.25
300.597	2799.25
300.827	3894.25
301.057	5393.25
301.288	5392.25
301.518	3517.25
301.748	2711.25
301.979	2460.25
302.209	2356.25
302.439	2355.25
302.669	2488.25
302.9	3040.25
303.13	4240.25
303.36	6370.25
303.59	8453.25
303.82	7391.25
304.051	4485.25
304.281	3161.25
304.511	2637.25
304.741	2390.25
304.971	2247.25
305.201	2145.25
305.431	2070.25
305.661	1963.25
305.891	1953.25
306.121	1880.25
306.352	1896.25
306.582	1844.25
306.812	1865.25
307.042	1838.25
307.272	1818.25
307.502	1812.25
307.731	1832.25
307.961	1825.25
308.191	1812.25
308.421	1820.25
308.651	1844.25
308.881	1797.25
309.111	1841.25
309.341	1812.25
309.571	1855.25
309.8	1852.25
310.03	1851.25
310.26	1861.25
310.49	1839.25
310.72	1852.25
310.949	1873.25
311.179	1897.25
311.409	1853.25
311.639	1943.25
311.868	1936.25
312.098	1938.25
312.328	1953.25
312.557	1950.25
312.787	1956.25
313.017	1961.25
313.246	1980.25
313.476	2001.25
313.706	2090.25
313.935	2196.25
314.165	2378.25
314.394	2489.25
314.624	2371.25
314.853	2219.25
315.083	2220.25
315.312	2187.25
315.542	2210.25
315.771	2221.25
316.001	2307.25
316.23	2347.25
316.46	2446.25
316.689	2699.25
316.919	3306.25
317.148	4698.25
317.377	7299.25
317.607	10647.25
317.836	11155.25
318.065	6957.25
318.295	4503.25
318.524	3591.25
318.753	3081.25
318.983	2837.25
319.212	2647.25
319.441	2535.25
319.67	2475.25
319.9	2410.25
320.129	2419.25
320.358	2394.25
320.587	2392.25
320.816	2372.25
321.046	2356.25
321.275	2377.25
321.504	2383.25
321.733	2439.25
321.962	2508.25
322.191	2498.25
322.42	2509.25
322.649	2477.25
322.878	2508.25
323.108	2498.25
323.337	2530.25
323.566	2591.25
323.795	2643.25
324.024	2692.25
324.253	2781.25
324.482	2871.25
324.71	2988.25
324.939	3267.25
325.168	3331.25
325.397	3459.25
325.626	4157.25
325.855	5778.25
326.084	8868.25
326.313	12897.25
326.542	13673.25
326.77	9538.25
326.999	6339.25
327.228	5237.25
327.457	4981.25
327.686	4996.25
327.914	5250.25
328.143	6098.25
328.372	7233.25
328.6	7829.25
328.829	6948.25
329.058	5823.25
329.287	5125.25
329.515	4711.25
329.744	4249.25
329.972	4111.25
330.201	3928.25
330.43	3768.25
330.658	3682.25
330.887	3577.25
331.115	3533.25
331.344	3507.25
331.572	3489.25
331.801	3477.25
332.03	3462.25
332.258	3522.25
332.486	3768.25
332.715	4331.25
332.943	5389.25
333.172	6719.25
333.4	6721.25
333.629	5096.25
333.857	4625.25
334.085	4535.25
334.314	4757.25
334.542	5131.25
334.771	6072.25
334.999	7519.25
335.227	9348.25
335.455	10524.25
335.684	9536.25
335.912	7755.25
336.14	6559.25
336.369	5783.25
336.597	5215.25
336.825	4807.25
337.053	4587.25
337.281	4281.25
337.51	4060.25
337.738	3923.25
337.966	3753.25
338.194	3586.25
338.422	3496.25
338.65	3331.25
338.878	3272.25
339.106	3252.25
339.334	3154.25
339.562	3169.25
339.79	3083.25
340.018	3031.25
340.246	2993.25
340.474	3052.25
340.702	2983.25
340.93	2996.25
341.158	3002.25
341.386	2988.25
341.614	3045.25
341.842	2851.25
342.07	2829.25
342.298	2790.25
342.526	2715.25
342.754	2721.25
342.981	2710.25
343.209	2689.25
343.437	2746.25
343.665	2742.25
343.893	2764.25
344.12	2814.25
344.348	2748.25
344.576	2701.25
344.804	2712.25
345.031	2627.25
345.259	2565.25
345.487	2641.25
345.714	2590.25
345.942	2516.25
346.17	2552.25
346.397	2533.25
346.625	2458.25
346.853	2491.25
347.08	2507.25
347.308	2534.25
347.535	2544.25
347.763	2487.25
347.99	2467.25
348.218	2457.25
348.445	2460.25
348.673	2475.25
348.9	2396.25
349.128	2458.25
349.355	2415.25
349.583	2402.25
349.81	2429.25
350.037	2380.25
350.265	2427.25
350.492	2376.25
350.72	2379.25
350.947	2393.25
351.174	2417.25
351.402	2361.25
351.629	2395.25
351.856	2409.25
352.083	2385.25
352.311	2364.25
352.538	2345.25
352.765	2357.25
352.992	2385.25
353.22	2323.25
353.447	2341.25
353.674	2380.25
353.901	2407.25
354.128	2421.25
354.355	2349.25
354.583	2353.25
354.81	2396.25
355.037	2395.25
355.264	2420.25
355.491	2432.25
355.718	2430.25
355.945	2409.25
356.172	2457.25
356.399	2479.25
356.626	2447.25
356.853	2506.25
357.08	2490.25
357.307	2546.25
357.534	2569.25
357.761	2579.25
357.988	2507.25
358.215	2530.25
358.441	2552.25
358.668	2511.25
358.895	2538.25
359.122	2521.25
359.349	2548.25
359.576	2528.25
359.802	2528.25
360.029	2500.25
360.256	2498.25
360.483	2510.25
360.709	2555.25
360.936	2512.25
361.163	2541.25
361.39	2483.25
361.616	2511.25
361.843	2568.25
362.07	2521.25
362.296	2546.25
362.523	2516.25
362.749	2514.25
362.976	2532.25
363.203	2524.25
363.429	2489.25
363.656	2512.25
363.882	2518.25
364.109	2497.25
364.335	2497.25
364.562	2560.25
364.788	2516.25
365.015	2548.25
365.241	2647.25
365.468	2759.25
365.694	2943.25
365.92	2849.25
366.147	2650.25
366.373	2579.25
366.599	2568.25
366.826	2579.25
367.052	2540.25
367.278	2576.25
367.505	2597.25
367.731	2563.25
367.957	2596.25
368.184	2597.25
368.41	2657.25
368.636	2643.25
368.862	2617.25
369.089	2642.25
369.315	2657.25
369.541	2629.25
369.767	2624.25
369.993	2562.25
370.219	2626.25
370.445	2613.25
370.672	2645.25
370.898	2663.25
371.124	2673.25
371.35	2646.25
371.576	2711.25
371.802	2705.25
372.028	2739.25
372.254	2743.25
372.48	2652.25
372.706	2717.25
372.932	2813.25
373.158	2728.25
373.384	2713.25
373.61	2784.25
373.835	2754.25
374.061	2754.25
374.287	2794.25
374.513	2845.25
374.739	2819.25
374.965	2881.25
375.191	2913.25
375.416	2793.25
375.642	2796.25
375.868	2823.25
376.094	2810.25
376.319	2792.25
376.545	2776.25
376.771	2711.25
376.997	2725.25
377.222	2710.25
377.448	2699.25
377.674	2673.25
377.899	2693.25
378.125	2656.25
378.35	2702.25
378.576	2719.25
378.802	2758.25
379.027	2794.25
379.253	2861.25
379.478	3027.25
379.704	3639.25
379.929	5211.25
380.155	8015.25
380.38	8869.25
380.606	5478.25
380.831	3831.25
381.057	3252.25
381.282	3019.25
381.507	2871.25
381.733	2805.25
381.958	2729.25
382.184	2769.25
382.409	2677.25
382.634	2707.25
382.86	2610.25
383.085	2665.25
383.31	2662.25
383.535	2658.25
383.761	2693.25
383.986	2662.25
384.211	2719.25
384.436	2745.25
384.662	2716.25
384.887	2787.25
385.112	2696.25
385.337	2741.25
385.562	2758.25
385.787	2759.25
386.013	2762.25
386.238	2777.25
386.463	2710.25
386.688	2760.25
386.913	2720.25
387.138	2744.25
387.363	2785.25
387.588	2718.25
387.813	2711.25
388.038	2764.25
388.263	2732.25
388.488	2752.25
388.713	2755.25
388.938	2715.25
389.163	2741.25
389.387	2736.25
389.612	2711.25
389.837	2769.25
390.062	2735.25
390.287	2777.25
390.512	2779.25
390.736	2755.25
390.961	2841.25
391.186	2844.25
391.411	2858.25
391.636	2834.25
391.86	2841.25
392.085	2917.25
392.31	2884.25
392.534	2799.25
392.759	2848.25
392.984	2717.25
393.208	2848.25
393.433	2825.25
393.658	2858.25
393.882	2789.25
394.107	2743.25
394.331	2755.25
394.556	2785.25
394.78	2777.25
395.005	2800.25
395.229	2823.25
395.454	2832.25
395.678	2865.25
395.903	2819.25
396.127	2874.25
396.352	2821.25
396.576	2836.25
396.801	2849.25
397.025	2921.25
397.249	2879.25
397.474	2811.25
397.698	2856.25
397.922	2914.25
398.147	2886.25
398.371	2923.25
398.595	3001.25
398.82	3053.25
399.044	3140.25
399.268	3325.25
399.492	3453.25
399.717	3659.25
399.941	3569.25
400.165	3468.25
400.389	3316.25
400.613	3163.25
400.837	3116.25
401.062	3041.25
401.286	3045.25
401.51	2985.25
401.734	2976.25
401.958	2975.25
402.182	3037.25
402.406	2951.25
402.63	3035.25
402.854	3046.25
403.078	3042.25
403.302	3084.25
403.526	3066.25
403.75	3095.25
403.974	3152.25
404.198	3140.25
404.422	3108.25
404.645	3132.25
404.869	3109.25
405.093	3133.25
405.317	3089.25
405.541	3201.25
405.765	3255.25
405.988	3267.25
406.212	3203.25
406.436	3223.25
406.66	3263.25
406.883	3186.25
407.107	3362.25
407.331	3353.25
407.555	3412.25
407.778	3398.25
408.002	3370.25
408.226	3356.25
408.449	3341.25
408.673	3241.25
408.896	3251.25
409.12	3177.25
409.344	3187.25
409.567	3168.25
409.791	3186.25
410.014	3103.25
410.238	3086.25
410.461	3135.25
410.685	3027.25
410.908	3059.25
411.132	3083.25
411.355	3022.25
411.578	3016.25
411.802	3023.25
412.025	3002.25
412.249	3030.25
412.472	3019.25
412.695	2934.25
412.919	2976.25
413.142	2975.25
413.365	2930.25
413.589	2993.25
413.812	2907.25
414.035	2971.25
414.258	2963.25
414.482	2982.25
414.705	2941.25
414.928	2923.25
415.151	2903.25
415.374	2954.25
415.597	2944.25
415.821	2771.25
416.044	2845.25
416.267	2803.25
416.49	2857.25
416.713	2841.25
416.936	2896.25
417.159	2746.25
417.382	2792.25
417.605	2789.25
417.828	2772.25
418.051	2804.25
418.274	2890.25
418.497	2826.25
418.72	2856.25
418.943	2849.25
419.166	3018.25
419.389	3159.25
419.611	3163.25
419.834	3031.25
420.057	2931.25
420.28	2904.25
420.503	2816.25
420.726	2773.25
420.948	2793.25
421.171	2840.25
421.394	2854.25
421.617	2825.25
421.839	2909.25
422.062	2838.25
422.285	2792.25
422.507	2857.25
422.73	2904.25
422.953	2928.25
423.175	2866.25
423.398	2914.25
423.621	2886.25
423.843	2903.25
424.066	2858.25
424.288	2795.25
424.511	2861.25
424.733	2801.25
424.956	2791.25
425.178	2802.25
425.401	2763.25
425.623	2816.25
425.846	2725.25
426.068	2773.25
426.291	2723.25
426.513	2708.25
426.735	2687.25
426.958	2729.25
427.18	2634.25
427.402	2717.25
427.625	2706.25
427.847	2633.25
428.069	2604.25
428.292	2657.25
428.514	2635.25
428.736	2643.25
428.958	2682.25
429.181	2590.25
429.403	2573.25
429.625	2629.25
429.847	2657.25
430.069	2685.25
430.292	2739.25
430.514	2826.25
430.736	2876.25
430.958	2689.25
431.18	2613.25
431.402	2626.25
431.624	2556.25
431.846	2559.25
432.068	2556.25
432.29	2626.25
432.512	2597.25
432.734	2594.25
432.956	2589.25
433.178	2603.25
433.4	2554.25
433.622	2640.25
433.844	2647.25
434.066	2655.25
434.287	2621.25
434.509	2662.25
434.731	2636.25
434.953	2720.25
435.175	2687.25
435.397	2762.25
435.618	2639.25
435.84	2612.25
436.062	2576.25
436.284	2612.25
436.505	2581.25
436.727	2577.25
436.949	2626.25
437.17	2579.25
437.392	2549.25
437.614	2564.25
437.835	2484.25
438.057	2496.25
438.278	2527.25
438.5	2502.25
438.721	2582.25
438.943	2637.25
439.165	2700.25
439.386	2703.25
439.608	2698.25
439.829	2711.25
440.05	2803.25
440.272	2847.25
440.493	2752.25
440.715	2717.25
440.936	2671.25
441.158	2735.25
441.379	2744.25
441.6	2842.25
441.822	2882.25
442.043	3065.25
442.264	3167.25
442.486	2943.25
442.707	2859.25
442.928	2799.25
443.149	2786.25
443.371	2823.25
443.592	2788.25
443.813	2818.25
444.034	2808.25
444.255	2823.25
444.476	2921.25
444.698	2967.25
444.919	2975.25
445.14	2993.25
445.361	2922.25
445.582	2865.25
445.803	2768.25
446.024	2716.25
446.245	2809.25
446.466	2803.25
446.687	2791.25
446.908	2745.25
447.129	2677.25
447.35	2667.25
447.571	2600.25
447.792	2548.25
448.013	2599.25
448.234	2527.25
448.455	2618.25
448.675	2607.25
448.896	2714.25
449.117	2767.25
449.338	3016.25
449.559	3136.25
449.779	2798.25
450	2621.25
450.221	2581.25
450.442	2573.25
450.662	2551.25
450.883	2549.25
451.104	2539.25
451.324	2520.25
451.545	2508.25
451.766	2534.25
451.986	2614.25
452.207	2803.25
452.428	3674.25
452.648	5638.25
452.869	4719.25
453.089	3232.25
453.31	3055.25
453.53	2933.25
453.751	3043.25
453.971	3166.25
454.192	3056.25
454.412	2747.25
454.633	2581.25
454.853	2495.25
455.073	2458.25
455.294	2427.25
455.514	2426.25
455.734	2421.25
455.955	2379.25
456.175	2377.25
456.395	2349.25
456.616	2443.25
456.836	2465.25
457.056	2430.25
457.276	2473.25
457.497	2643.25
457.717	2635.25
457.937	2554.25
458.157	2525.25
458.377	2579.25
458.598	2567.25
458.818	2570.25
459.038	2574.25
459.258	2594.25
459.478	2605.25
459.698	2618.25
459.918	2667.25
460.138	2682.25
460.358	2793.25
460.578	2821.25
460.798	2845.25
461.018	2860.25
461.238	2831.25
461.458	2892.25
461.678	2904.25
461.898	2943.25
462.118	2997.25
462.338	3021.25
462.558	3046.25
462.777	3095.25
462.997	3242.25
463.217	3332.25
463.437	3476.25
463.657	3536.25
463.876	3492.25
464.096	3353.25
464.316	3190.25
464.536	3154.25
464.755	3070.25
464.975	3001.25
465.195	2945.25
465.414	2864.25
465.634	2752.25
465.854	2684.25
466.073	2687.25
466.293	2649.25
466.512	2652.25
466.732	2629.25
466.951	2796.25
467.171	3005.25
467.391	2932.25
467.61	2680.25
467.829	2639.25
468.049	2655.25
468.268	2594.25
468.488	2534.25
468.707	2616.25
468.927	2569.25
469.146	2555.25
469.365	2627.25
469.585	2665.25
469.804	2648.25
470.023	2723.25
470.243	2756.25
470.462	2887.25
470.681	3002.25
470.901	3336.25
471.12	3731.25
471.339	3709.25
471.558	3164.25
471.777	2933.25
471.997	2789.25
472.216	2673.25
472.435	2639.25
472.654	2609.25
472.873	2579.25
473.092	2607.25
473.311	2583.25
473.53	2617.25
473.749	2679.25
473.968	2796.25
474.187	2658.25
474.406	2559.25
474.625	2633.25
474.844	2553.25
475.063	2594.25
475.282	2599.25
475.501	2630.25
475.72	2598.25
475.939	2657.25
476.158	2676.25
476.377	2771.25
476.596	2705.25
476.814	2742.25
477.033	2754.25
477.252	2751.25
477.471	2773.25
477.69	2835.25
477.908	2890.25
478.127	2909.25
478.346	3013.25
478.564	2969.25
478.783	3011.25
479.002	3103.25
479.22	3087.25
479.439	3115.25
479.658	3066.25
479.876	3060.25
480.095	3129.25
480.313	3211.25
480.532	3188.25
480.751	3203.25
480.969	3123.25
481.188	3091.25
481.406	3104.25
481.624	3089.25
481.843	3136.25
482.061	3185.25
482.28	3192.25
482.498	3120.25
482.717	3117.25
482.935	3179.25
483.153	3197.25
483.372	3238.25
483.59	3303.25
483.808	3320.25
484.027	3459.25
484.245	3633.25
484.463	4085.25
484.681	4434.25
484.9	4132.25
485.118	3865.25
485.336	3788.25
485.554	3841.25
485.772	4097.25
485.99	4584.25
486.209	4886.25
486.427	4131.25
486.645	3693.25
486.863	3539.25
487.081	3425.25
487.299	3446.25
487.517	3352.25
487.735	3425.25
