Data from SnStandardFlinnAPT0064_LampEnergy10_LIBS07252019.E.O._I.C._HRD10591_15-21-02-494.txt Node
Date: Thu Jul 25 15:21:02 EDT 2019
User: cochatt
Spectrometer: HR+D1059
Trigger mode: 1
Integration Time (sec): 1.000000E-1
Scans to average: 1
Electric dark correction enabled: true
Nonlinearity correction enabled: false
Boxcar width: 0
XAxis mode: Wavelengths
Number of Pixels in Spectrum: 2048
>>>>>Begin Spectral Data<<<<<
223.165	-18.25
223.4	-18.25
223.635	-18.25
223.869	-14.25
224.104	-22.25
224.338	-5.25
224.573	-24.25
224.808	-17.25
225.042	-5.25
225.277	-6.25
225.511	6.75
225.746	0.75
225.98	11.75
226.215	11.75
226.449	11.75
226.683	6.75
226.918	27.75
227.152	35.75
227.387	29.75
227.621	18.75
227.856	46.75
228.09	60.75
228.324	50.75
228.559	53.75
228.793	108.75
229.027	306.75
229.262	338.75
229.496	299.75
229.73	306.75
229.964	305.75
230.199	313.75
230.433	302.75
230.667	311.75
230.901	314.75
231.136	339.75
231.37	356.75
231.604	395.75
231.838	421.75
232.072	532.75
232.306	545.75
232.541	463.75
232.775	438.75
233.009	433.75
233.243	432.75
233.477	446.75
233.711	536.75
233.945	580.75
234.179	506.75
234.413	457.75
234.647	457.75
234.881	482.75
235.115	542.75
235.349	646.75
235.583	797.75
235.817	1004.75
236.051	962.75
236.285	667.75
236.519	538.75
236.753	524.75
236.987	491.75
237.221	550.75
237.455	515.75
237.689	464.75
237.922	463.75
238.156	464.75
238.39	478.75
238.624	502.75
238.858	486.75
239.091	489.75
239.325	499.75
239.559	492.75
239.793	517.75
240.027	510.75
240.26	533.75
240.494	561.75
240.728	613.75
240.961	621.75
241.195	644.75
241.429	708.75
241.662	734.75
241.896	781.75
242.13	970.75
242.363	1264.75
242.597	1671.75
242.83	1598.75
243.064	1584.75
243.298	1870.75
243.531	1513.75
243.765	967.75
243.998	796.75
244.232	706.75
244.465	681.75
244.699	660.75
244.932	646.75
245.166	667.75
245.399	677.75
245.633	690.75
245.866	694.75
246.099	688.75
246.333	670.75
246.566	662.75
246.8	625.75
247.033	645.75
247.266	642.75
247.5	652.75
247.733	679.75
247.966	707.75
248.2	745.75
248.433	867.75
248.666	1009.75
248.899	990.75
249.133	878.75
249.366	874.75
249.599	980.75
249.832	1111.75
250.066	1084.75
250.299	859.75
250.532	805.75
250.765	761.75
250.998	766.75
251.231	757.75
251.465	709.75
251.698	737.75
251.931	735.75
252.164	749.75
252.397	755.75
252.63	797.75
252.863	823.75
253.096	786.75
253.329	797.75
253.562	785.75
253.795	788.75
254.028	798.75
254.261	853.75
254.494	893.75
254.727	1048.75
254.96	1272.75
255.193	1238.75
255.426	982.75
255.659	885.75
255.892	858.75
256.124	856.75
256.357	873.75
256.59	929.75
256.823	986.75
257.056	1138.75
257.289	1375.75
257.521	1574.75
257.754	1211.75
257.987	965.75
258.22	904.75
258.452	933.75
258.685	940.75
258.918	975.75
259.151	986.75
259.383	1089.75
259.616	1246.75
259.849	1296.75
260.081	1086.75
260.314	979.75
260.547	953.75
260.779	963.75
261.012	974.75
261.244	964.75
261.477	1001.75
261.71	985.75
261.942	1018.75
262.175	988.75
262.407	1072.75
262.64	1074.75
262.872	1117.75
263.105	1158.75
263.337	1204.75
263.57	1306.75
263.802	1303.75
264.035	1312.75
264.267	1344.75
264.499	1404.75
264.732	1458.75
264.964	1416.75
265.197	1470.75
265.429	1447.75
265.661	1481.75
265.894	1580.75
266.126	1779.75
266.358	1978.75
266.591	1950.75
266.823	1652.75
267.055	1443.75
267.287	1415.75
267.52	1334.75
267.752	1293.75
267.984	1293.75
268.216	1282.75
268.448	1240.75
268.681	1244.75
268.913	1220.75
269.145	1226.75
269.377	1250.75
269.609	1279.75
269.841	1278.75
270.073	1379.75
270.306	1628.75
270.538	2176.75
270.77	3266.75
271.002	4076.75
271.234	2870.75
271.466	1896.75
271.698	1558.75
271.93	1426.75
272.162	1365.75
272.394	1284.75
272.626	1278.75
272.858	1217.75
273.09	1234.75
273.322	1246.75
273.553	1222.75
273.785	1220.75
274.017	1215.75
274.249	1214.75
274.481	1218.75
274.713	1215.75
274.945	1208.75
275.176	1227.75
275.408	1201.75
275.64	1218.75
275.872	1265.75
276.104	1276.75
276.335	1271.75
276.567	1275.75
276.799	1273.75
277.031	1329.75
277.262	1317.75
277.494	1403.75
277.726	1560.75
277.957	1857.75
278.189	2132.75
278.421	1993.75
278.652	1776.75
278.884	1708.75
279.115	1492.75
279.347	1463.75
279.579	1394.75
279.81	1437.75
280.042	1397.75
280.273	1427.75
280.505	1440.75
280.736	1526.75
280.968	1572.75
281.199	1760.75
281.431	2105.75
281.662	2159.75
281.894	1856.75
282.125	1665.75
282.356	1658.75
282.588	1701.75
282.819	1741.75
283.051	1815.75
283.282	2003.75
283.513	2533.75
283.745	3674.75
283.976	5752.75
284.207	8162.75
284.439	7447.75
284.67	4628.75
284.901	3801.75
285.132	3873.75
285.364	3725.75
285.595	2750.75
285.826	2469.75
286.057	2882.75
286.288	3992.75
286.52	5278.75
286.751	5004.75
286.982	3102.75
287.213	2311.75
287.444	2016.75
287.675	1902.75
287.906	1800.75
288.138	1761.75
288.369	1708.75
288.6	1685.75
288.831	1670.75
289.062	1672.75
289.293	1680.75
289.524	1692.75
289.755	1715.75
289.986	1698.75
290.217	1685.75
290.448	1752.75
290.679	1766.75
290.91	1803.75
291.141	1897.75
291.371	2032.75
291.602	2170.75
291.833	1977.75
292.064	1759.75
292.295	1674.75
292.526	1653.75
292.757	1608.75
292.987	1586.75
293.218	1607.75
293.449	1597.75
293.68	1584.75
293.91	1628.75
294.141	1593.75
294.372	1569.75
294.603	1571.75
294.833	1569.75
295.064	1586.75
295.295	1579.75
295.525	1582.75
295.756	1607.75
295.987	1598.75
296.217	1583.75
296.448	1624.75
296.679	1567.75
296.909	1576.75
297.14	1615.75
297.37	1635.75
297.601	1634.75
297.831	1657.75
298.062	1649.75
298.292	1638.75
298.523	1696.75
298.753	1740.75
298.984	1703.75
299.214	1724.75
299.445	1712.75
299.675	1782.75
299.905	1838.75
300.136	1881.75
300.366	2137.75
300.597	2822.75
300.827	3940.75
301.057	5325.75
301.288	5386.75
301.518	3452.75
301.748	2644.75
301.979	2410.75
302.209	2325.75
302.439	2354.75
302.669	2464.75
302.9	2996.75
303.13	4233.75
303.36	6370.75
303.59	8473.75
303.82	7352.75
304.051	4314.75
304.281	3092.75
304.511	2556.75
304.741	2350.75
304.971	2193.75
305.201	2082.75
305.431	2049.75
305.661	1978.75
305.891	1913.75
306.121	1875.75
306.352	1850.75
306.582	1862.75
306.812	1847.75
307.042	1834.75
307.272	1829.75
307.502	1812.75
307.731	1828.75
307.961	1800.75
308.191	1819.75
308.421	1807.75
308.651	1818.75
308.881	1809.75
309.111	1828.75
309.341	1811.75
309.571	1843.75
309.8	1880.75
310.03	1889.75
310.26	1887.75
310.49	1862.75
310.72	1900.75
310.949	1873.75
311.179	1878.75
311.409	1893.75
311.639	1948.75
311.868	1942.75
312.098	1929.75
312.328	1969.75
312.557	1993.75
312.787	1976.75
313.017	2022.75
313.246	1999.75
313.476	2008.75
313.706	2103.75
313.935	2159.75
314.165	2335.75
314.394	2493.75
314.624	2324.75
314.853	2171.75
315.083	2135.75
315.312	2189.75
315.542	2206.75
315.771	2212.75
316.001	2295.75
316.23	2357.75
316.46	2446.75
316.689	2743.75
316.919	3226.75
317.148	4702.75
317.377	7316.75
317.607	10671.75
317.836	11100.75
318.065	6700.75
318.295	4378.75
318.524	3479.75
318.753	3014.75
318.983	2768.75
319.212	2553.75
319.441	2506.75
319.67	2447.75
319.9	2415.75
320.129	2375.75
320.358	2377.75
320.587	2346.75
320.816	2391.75
321.046	2368.75
321.275	2385.75
321.504	2451.75
321.733	2443.75
321.962	2534.75
322.191	2566.75
322.42	2536.75
322.649	2526.75
322.878	2512.75
323.108	2519.75
323.337	2547.75
323.566	2598.75
323.795	2591.75
324.024	2721.75
324.253	2726.75
324.482	2900.75
324.71	3068.75
324.939	3283.75
325.168	3290.75
325.397	3437.75
325.626	4162.75
325.855	5680.75
326.084	8948.75
326.313	12956.75
326.542	13689.75
326.77	9294.75
326.999	6060.75
327.228	5055.75
327.457	4785.75
327.686	4864.75
327.914	5161.75
328.143	6047.75
328.372	7198.75
328.6	7843.75
328.829	7100.75
329.058	5872.75
329.287	5105.75
329.515	4682.75
329.744	4303.75
329.972	4118.75
330.201	3835.75
330.43	3810.75
330.658	3672.75
330.887	3577.75
331.115	3512.75
331.344	3502.75
331.572	3495.75
331.801	3527.75
332.03	3545.75
332.258	3532.75
332.486	3766.75
332.715	4381.75
332.943	5353.75
333.172	6744.75
333.4	6777.75
333.629	5038.75
333.857	4532.75
334.085	4478.75
334.314	4731.75
334.542	5176.75
334.771	6093.75
334.999	7448.75
335.227	9419.75
335.455	10461.75
335.684	9397.75
335.912	7718.75
336.14	6586.75
336.369	5798.75
336.597	5244.75
336.825	4880.75
337.053	4597.75
337.281	4293.75
337.51	4037.75
337.738	3894.75
337.966	3740.75
338.194	3633.75
338.422	3551.75
338.65	3407.75
338.878	3308.75
339.106	3271.75
339.334	3239.75
339.562	3137.75
339.79	3139.75
340.018	3099.75
340.246	3096.75
340.474	3074.75
340.702	3072.75
340.93	3040.75
341.158	3028.75
341.386	3029.75
341.614	3015.75
341.842	2935.75
342.07	2861.75
342.298	2855.75
342.526	2846.75
342.754	2741.75
342.981	2749.75
343.209	2732.75
343.437	2738.75
343.665	2844.75
343.893	2793.75
344.12	2843.75
344.348	2853.75
344.576	2733.75
344.804	2710.75
345.031	2670.75
345.259	2599.75
345.487	2608.75
345.714	2543.75
345.942	2558.75
346.17	2590.75
346.397	2558.75
346.625	2520.75
346.853	2524.75
347.08	2542.75
347.308	2545.75
347.535	2548.75
347.763	2571.75
347.99	2554.75
348.218	2490.75
348.445	2511.75
348.673	2477.75
348.9	2470.75
349.128	2451.75
349.355	2445.75
349.583	2446.75
349.81	2454.75
350.037	2394.75
350.265	2424.75
350.492	2421.75
350.72	2375.75
350.947	2414.75
351.174	2418.75
351.402	2410.75
351.629	2420.75
351.856	2444.75
352.083	2442.75
352.311	2394.75
352.538	2424.75
352.765	2392.75
352.992	2420.75
353.22	2422.75
353.447	2414.75
353.674	2394.75
353.901	2428.75
354.128	2438.75
354.355	2426.75
354.583	2409.75
354.81	2458.75
355.037	2455.75
355.264	2442.75
355.491	2503.75
355.718	2447.75
355.945	2485.75
356.172	2448.75
356.399	2482.75
356.626	2448.75
356.853	2543.75
357.08	2525.75
357.307	2560.75
357.534	2575.75
357.761	2621.75
357.988	2610.75
358.215	2613.75
358.441	2579.75
358.668	2580.75
358.895	2610.75
359.122	2575.75
359.349	2602.75
359.576	2551.75
359.802	2527.75
360.029	2547.75
360.256	2519.75
360.483	2534.75
360.709	2540.75
360.936	2642.75
361.163	2544.75
361.39	2532.75
361.616	2570.75
361.843	2552.75
362.07	2592.75
362.296	2586.75
362.523	2600.75
362.749	2589.75
362.976	2628.75
363.203	2532.75
363.429	2512.75
363.656	2561.75
363.882	2583.75
364.109	2557.75
364.335	2593.75
364.562	2598.75
364.788	2601.75
365.015	2568.75
365.241	2704.75
365.468	2834.75
365.694	2989.75
365.92	2852.75
366.147	2604.75
366.373	2612.75
366.599	2631.75
366.826	2625.75
367.052	2580.75
367.278	2650.75
367.505	2637.75
367.731	2635.75
367.957	2580.75
368.184	2629.75
368.41	2718.75
368.636	2678.75
368.862	2766.75
369.089	2682.75
369.315	2685.75
369.541	2626.75
369.767	2711.75
369.993	2643.75
370.219	2657.75
370.445	2718.75
370.672	2682.75
370.898	2680.75
371.124	2709.75
371.35	2744.75
371.576	2791.75
371.802	2734.75
372.028	2782.75
372.254	2789.75
372.48	2766.75
372.706	2818.75
372.932	2801.75
373.158	2814.75
373.384	2816.75
373.61	2812.75
373.835	2854.75
374.061	2866.75
374.287	2838.75
374.513	2904.75
374.739	2932.75
374.965	2946.75
375.191	2980.75
375.416	2926.75
375.642	2882.75
375.868	2879.75
376.094	2810.75
376.319	2832.75
376.545	2839.75
376.771	2829.75
376.997	2747.75
377.222	2768.75
377.448	2729.75
377.674	2748.75
377.899	2740.75
378.125	2796.75
378.35	2719.75
378.576	2801.75
378.802	2812.75
379.027	2799.75
379.253	2885.75
379.478	3055.75
379.704	3657.75
379.929	5266.75
380.155	8086.75
380.38	8819.75
380.606	5340.75
380.831	3772.75
381.057	3244.75
381.282	2986.75
381.507	2887.75
381.733	2829.75
381.958	2784.75
382.184	2767.75
382.409	2763.75
382.634	2694.75
382.86	2732.75
383.085	2707.75
383.31	2727.75
383.535	2708.75
383.761	2728.75
383.986	2704.75
384.211	2737.75
384.436	2735.75
384.662	2846.75
384.887	2837.75
385.112	2789.75
385.337	2786.75
385.562	2827.75
385.787	2816.75
386.013	2780.75
386.238	2832.75
386.463	2765.75
386.688	2804.75
386.913	2782.75
387.138	2800.75
387.363	2775.75
387.588	2721.75
387.813	2802.75
388.038	2764.75
388.263	2758.75
388.488	2792.75
388.713	2831.75
388.938	2842.75
389.163	2792.75
389.387	2797.75
389.612	2769.75
389.837	2796.75
390.062	2756.75
390.287	2806.75
390.512	2834.75
390.736	2863.75
390.961	2890.75
391.186	2897.75
391.411	2909.75
391.636	2916.75
391.86	2934.75
392.085	2963.75
392.31	2911.75
392.534	2898.75
392.759	2896.75
392.984	2895.75
393.208	2857.75
393.433	2817.75
393.658	2800.75
393.882	2815.75
394.107	2802.75
394.331	2803.75
394.556	2816.75
394.78	2824.75
395.005	2820.75
395.229	2888.75
395.454	2902.75
395.678	2896.75
395.903	2926.75
396.127	2934.75
396.352	2838.75
396.576	2888.75
396.801	2844.75
397.025	2961.75
397.249	2970.75
397.474	2925.75
397.698	2955.75
397.922	2974.75
398.147	2958.75
398.371	2944.75
398.595	3048.75
398.82	3080.75
399.044	3216.75
399.268	3372.75
399.492	3592.75
399.717	3690.75
399.941	3677.75
400.165	3552.75
400.389	3422.75
400.613	3235.75
400.837	3198.75
401.062	3143.75
401.286	3123.75
401.51	3081.75
401.734	3088.75
401.958	3118.75
402.182	3105.75
402.406	3060.75
402.63	3074.75
402.854	3110.75
403.078	3107.75
403.302	3133.75
403.526	3139.75
403.75	3174.75
403.974	3162.75
404.198	3159.75
404.422	3189.75
404.645	3174.75
404.869	3195.75
405.093	3248.75
405.317	3201.75
405.541	3207.75
405.765	3266.75
405.988	3334.75
406.212	3241.75
406.436	3271.75
406.66	3247.75
406.883	3309.75
407.107	3330.75
407.331	3453.75
407.555	3522.75
407.778	3450.75
408.002	3425.75
408.226	3456.75
408.449	3414.75
408.673	3304.75
408.896	3261.75
409.12	3252.75
409.344	3208.75
409.567	3144.75
409.791	3174.75
410.014	3175.75
410.238	3178.75
410.461	3174.75
410.685	3160.75
410.908	3106.75
411.132	3110.75
411.355	3016.75
411.578	3057.75
411.802	3047.75
412.025	3057.75
412.249	3038.75
412.472	3084.75
412.695	3020.75
412.919	2993.75
413.142	3018.75
413.365	2986.75
413.589	3023.75
413.812	3002.75
414.035	3018.75
414.258	2996.75
414.482	2991.75
414.705	3015.75
414.928	3017.75
415.151	3028.75
415.374	2996.75
415.597	2955.75
415.821	2890.75
416.044	2890.75
416.267	2901.75
416.49	2889.75
416.713	2876.75
416.936	2933.75
417.159	2862.75
417.382	2872.75
417.605	2841.75
417.828	2856.75
418.051	2871.75
418.274	2913.75
418.497	2894.75
418.72	3006.75
418.943	2910.75
419.166	3055.75
419.389	3278.75
419.611	3144.75
419.834	3020.75
420.057	3000.75
420.28	2871.75
420.503	2937.75
420.726	2882.75
420.948	2871.75
421.171	2832.75
421.394	2929.75
421.617	2904.75
421.839	2934.75
422.062	2922.75
422.285	2837.75
422.507	2914.75
422.73	2942.75
422.953	2952.75
423.175	2992.75
423.398	2993.75
423.621	2920.75
423.843	2953.75
424.066	2895.75
424.288	2889.75
424.511	2897.75
424.733	2840.75
424.956	2822.75
425.178	2873.75
425.401	2833.75
425.623	2868.75
425.846	2756.75
426.068	2817.75
426.291	2785.75
426.513	2748.75
426.735	2853.75
426.958	2802.75
427.18	2716.75
427.402	2782.75
427.625	2695.75
427.847	2669.75
428.069	2640.75
428.292	2719.75
428.514	2680.75
428.736	2713.75
428.958	2730.75
429.181	2671.75
429.403	2640.75
429.625	2645.75
429.847	2677.75
430.069	2741.75
430.292	2848.75
430.514	2918.75
430.736	2877.75
430.958	2696.75
431.18	2628.75
431.402	2695.75
431.624	2639.75
431.846	2594.75
432.068	2626.75
432.29	2693.75
432.512	2641.75
432.734	2675.75
432.956	2642.75
433.178	2663.75
433.4	2609.75
433.622	2693.75
433.844	2699.75
434.066	2604.75
434.287	2673.75
434.509	2729.75
434.731	2798.75
434.953	2769.75
435.175	2800.75
435.397	2758.75
435.618	2645.75
435.84	2684.75
436.062	2670.75
436.284	2641.75
436.505	2602.75
436.727	2638.75
436.949	2659.75
437.17	2619.75
437.392	2638.75
437.614	2591.75
437.835	2545.75
438.057	2535.75
438.278	2578.75
438.5	2584.75
438.721	2611.75
438.943	2688.75
439.165	2740.75
439.386	2728.75
439.608	2740.75
439.829	2774.75
440.05	2866.75
440.272	2890.75
440.493	2787.75
440.715	2706.75
440.936	2713.75
441.158	2800.75
441.379	2806.75
441.6	2879.75
441.822	2971.75
442.043	3115.75
442.264	3236.75
442.486	2964.75
442.707	2884.75
442.928	2828.75
443.149	2818.75
443.371	2813.75
443.592	2824.75
443.813	2924.75
444.034	2840.75
444.255	2946.75
444.476	2946.75
444.698	3014.75
444.919	3084.75
445.14	3100.75
445.361	2916.75
445.582	2897.75
445.803	2848.75
446.024	2851.75
446.245	2806.75
446.466	2842.75
446.687	2763.75
446.908	2768.75
447.129	2678.75
447.35	2657.75
447.571	2655.75
447.792	2601.75
448.013	2658.75
448.234	2582.75
448.455	2572.75
448.675	2633.75
448.896	2674.75
449.117	2789.75
449.338	3040.75
449.559	3171.75
449.779	2810.75
450	2599.75
450.221	2578.75
450.442	2580.75
450.662	2519.75
450.883	2582.75
451.104	2534.75
451.324	2493.75
451.545	2552.75
451.766	2589.75
451.986	2626.75
452.207	2872.75
452.428	3614.75
452.648	5614.75
452.869	4693.75
453.089	3206.75
453.31	2932.75
453.53	3038.75
453.751	3104.75
453.971	3239.75
454.192	3074.75
454.412	2752.75
454.633	2574.75
454.853	2518.75
455.073	2474.75
455.294	2485.75
455.514	2428.75
455.734	2450.75
455.955	2410.75
456.175	2448.75
456.395	2441.75
456.616	2448.75
456.836	2510.75
457.056	2501.75
457.276	2521.75
457.497	2681.75
457.717	2723.75
457.937	2609.75
458.157	2560.75
458.377	2580.75
458.598	2624.75
458.818	2635.75
459.038	2632.75
459.258	2615.75
459.478	2698.75
459.698	2678.75
459.918	2725.75
460.138	2752.75
460.358	2800.75
460.578	2847.75
460.798	2860.75
461.018	2862.75
461.238	2872.75
461.458	2918.75
461.678	2870.75
461.898	3025.75
462.118	3001.75
462.338	3097.75
462.558	3133.75
462.777	3223.75
462.997	3297.75
463.217	3422.75
463.437	3521.75
463.657	3617.75
463.876	3604.75
464.096	3353.75
464.316	3206.75
464.536	3192.75
464.755	3112.75
464.975	3053.75
465.195	2884.75
465.414	2864.75
465.634	2769.75
465.854	2752.75
466.073	2745.75
466.293	2671.75
466.512	2661.75
466.732	2702.75
466.951	2832.75
467.171	3038.75
467.391	2993.75
467.61	2713.75
467.829	2651.75
468.049	2668.75
468.268	2533.75
468.488	2617.75
468.707	2579.75
468.927	2602.75
469.146	2614.75
469.365	2604.75
469.585	2641.75
469.804	2666.75
470.023	2726.75
470.243	2780.75
470.462	2853.75
470.681	3042.75
470.901	3324.75
471.12	3759.75
471.339	3774.75
471.558	3190.75
471.777	2896.75
471.997	2767.75
472.216	2706.75
472.435	2652.75
472.654	2604.75
472.873	2618.75
473.092	2618.75
473.311	2629.75
473.53	2604.75
473.749	2748.75
473.968	2830.75
474.187	2672.75
474.406	2574.75
474.625	2631.75
474.844	2642.75
475.063	2647.75
475.282	2647.75
475.501	2662.75
475.72	2676.75
475.939	2714.75
476.158	2719.75
476.377	2766.75
476.596	2772.75
476.814	2768.75
477.033	2747.75
477.252	2785.75
477.471	2793.75
477.69	2903.75
477.908	2938.75
478.127	2964.75
478.346	2946.75
478.564	3021.75
478.783	3053.75
479.002	3124.75
479.22	3094.75
479.439	3131.75
479.658	3096.75
479.876	3129.75
480.095	3115.75
480.313	3223.75
480.532	3232.75
480.751	3230.75
480.969	3221.75
481.188	3220.75
481.406	3167.75
481.624	3205.75
481.843	3106.75
482.061	3217.75
482.28	3183.75
482.498	3193.75
482.717	3203.75
482.935	3212.75
483.153	3228.75
483.372	3313.75
483.59	3376.75
483.808	3400.75
484.027	3439.75
484.245	3599.75
484.463	4111.75
484.681	4632.75
484.9	4151.75
485.118	3880.75
485.336	3743.75
485.554	3883.75
485.772	4065.75
485.99	4654.75
486.209	4957.75
486.427	4175.75
486.645	3695.75
486.863	3494.75
487.081	3458.75
487.299	3377.75
487.517	3428.75
487.735	3392.75
