Data from SnStandardFlinnAPT0064_LampEnergy10_LIBS07252019.E.O._I.C._HRD10591_15-19-39-493.txt Node
Date: Thu Jul 25 15:19:39 EDT 2019
User: cochatt
Spectrometer: HR+D1059
Trigger mode: 1
Integration Time (sec): 1.000000E-1
Scans to average: 1
Electric dark correction enabled: true
Nonlinearity correction enabled: false
Boxcar width: 0
XAxis mode: Wavelengths
Number of Pixels in Spectrum: 2048
>>>>>Begin Spectral Data<<<<<
223.165	-4.69
223.4	-4.69
223.635	-4.69
223.869	-21.69
224.104	-12.69
224.338	-10.69
224.573	-10.69
224.808	-22.69
225.042	1.31
225.277	-6.69
225.511	0.31
225.746	3.31
225.98	0.31
226.215	4.31
226.449	10.31
226.683	25.31
226.918	21.31
227.152	23.31
227.387	27.31
227.621	23.31
227.856	41.31
228.09	51.31
228.324	48.31
228.559	63.31
228.793	121.31
229.027	320.31
229.262	343.31
229.496	311.31
229.73	298.31
229.964	313.31
230.199	303.31
230.433	320.31
230.667	333.31
230.901	321.31
231.136	324.31
231.37	347.31
231.604	407.31
231.838	451.31
232.072	526.31
232.306	577.31
232.541	519.31
232.775	441.31
233.009	416.31
233.243	449.31
233.477	473.31
233.711	531.31
233.945	588.31
234.179	516.31
234.413	473.31
234.647	453.31
234.881	477.31
235.115	534.31
235.349	621.31
235.583	784.31
235.817	999.31
236.051	997.31
236.285	687.31
236.519	553.31
236.753	507.31
236.987	514.31
237.221	530.31
237.455	523.31
237.689	478.31
237.922	481.31
238.156	492.31
238.39	497.31
238.624	480.31
238.858	473.31
239.091	480.31
239.325	495.31
239.559	485.31
239.793	523.31
240.027	549.31
240.26	550.31
240.494	569.31
240.728	590.31
240.961	623.31
241.195	673.31
241.429	683.31
241.662	732.31
241.896	812.31
242.13	983.31
242.363	1287.31
242.597	1611.31
242.83	1616.31
243.064	1610.31
243.298	1862.31
243.531	1528.31
243.765	980.31
243.998	785.31
244.232	722.31
244.465	671.31
244.699	665.31
244.932	657.31
245.166	663.31
245.399	659.31
245.633	690.31
245.866	701.31
246.099	667.31
246.333	671.31
246.566	645.31
246.8	683.31
247.033	646.31
247.266	653.31
247.5	663.31
247.733	684.31
247.966	711.31
248.2	776.31
248.433	885.31
248.666	1007.31
248.899	956.31
249.133	868.31
249.366	886.31
249.599	983.31
249.832	1111.31
250.066	1122.31
250.299	858.31
250.532	805.31
250.765	753.31
250.998	737.31
251.231	741.31
251.465	740.31
251.698	730.31
251.931	740.31
252.164	748.31
252.397	755.31
252.63	784.31
252.863	836.31
253.096	776.31
253.329	797.31
253.562	781.31
253.795	789.31
254.028	780.31
254.261	826.31
254.494	869.31
254.727	1047.31
254.96	1299.31
255.193	1269.31
255.426	1008.31
255.659	917.31
255.892	886.31
256.124	867.31
256.357	891.31
256.59	949.31
256.823	1019.31
257.056	1156.31
257.289	1391.31
257.521	1527.31
257.754	1245.31
257.987	988.31
258.22	928.31
258.452	919.31
258.685	923.31
258.918	964.31
259.151	1000.31
259.383	1123.31
259.616	1240.31
259.849	1289.31
260.081	1095.31
260.314	985.31
260.547	967.31
260.779	951.31
261.012	951.31
261.244	957.31
261.477	978.31
261.71	978.31
261.942	989.31
262.175	1024.31
262.407	1051.31
262.64	1015.31
262.872	1082.31
263.105	1128.31
263.337	1196.31
263.57	1235.31
263.802	1234.31
264.035	1284.31
264.267	1329.31
264.499	1351.31
264.732	1343.31
264.964	1392.31
265.197	1394.31
265.429	1385.31
265.661	1444.31
265.894	1507.31
266.126	1712.31
266.358	1956.31
266.591	1910.31
266.823	1605.31
267.055	1428.31
267.287	1370.31
267.52	1309.31
267.752	1277.31
267.984	1258.31
268.216	1242.31
268.448	1247.31
268.681	1225.31
268.913	1231.31
269.145	1227.31
269.377	1231.31
269.609	1284.31
269.841	1323.31
270.073	1386.31
270.306	1640.31
270.538	2173.31
270.77	3291.31
271.002	3937.31
271.234	2875.31
271.466	1960.31
271.698	1563.31
271.93	1412.31
272.162	1326.31
272.394	1287.31
272.626	1274.31
272.858	1253.31
273.09	1233.31
273.322	1183.31
273.553	1206.31
273.785	1219.31
274.017	1185.31
274.249	1206.31
274.481	1228.31
274.713	1188.31
274.945	1200.31
275.176	1235.31
275.408	1239.31
275.64	1241.31
275.872	1253.31
276.104	1284.31
276.335	1301.31
276.567	1279.31
276.799	1282.31
277.031	1297.31
277.262	1311.31
277.494	1433.31
277.726	1557.31
277.957	1879.31
278.189	2128.31
278.421	2017.31
278.652	1847.31
278.884	1722.31
279.115	1536.31
279.347	1449.31
279.579	1403.31
279.81	1395.31
280.042	1408.31
280.273	1427.31
280.505	1461.31
280.736	1505.31
280.968	1588.31
281.199	1831.31
281.431	2107.31
281.662	2116.31
281.894	1827.31
282.125	1656.31
282.356	1652.31
282.588	1711.31
282.819	1753.31
283.051	1852.31
283.282	2029.31
283.513	2557.31
283.745	3601.31
283.976	5764.31
284.207	8101.31
284.439	7402.31
284.67	4783.31
284.901	3956.31
285.132	3991.31
285.364	3677.31
285.595	2822.31
285.826	2515.31
286.057	2851.31
286.288	3923.31
286.52	5312.31
286.751	5050.31
286.982	3180.31
287.213	2404.31
287.444	2042.31
287.675	1913.31
287.906	1855.31
288.138	1741.31
288.369	1746.31
288.6	1737.31
288.831	1664.31
289.062	1667.31
289.293	1713.31
289.524	1669.31
289.755	1676.31
289.986	1707.31
290.217	1685.31
290.448	1699.31
290.679	1711.31
290.91	1800.31
291.141	1908.31
291.371	2004.31
291.602	2179.31
291.833	1962.31
292.064	1768.31
292.295	1692.31
292.526	1647.31
292.757	1601.31
292.987	1643.31
293.218	1579.31
293.449	1594.31
293.68	1596.31
293.91	1607.31
294.141	1565.31
294.372	1547.31
294.603	1538.31
294.833	1548.31
295.064	1546.31
295.295	1548.31
295.525	1540.31
295.756	1519.31
295.987	1531.31
296.217	1589.31
296.448	1610.31
296.679	1575.31
296.909	1575.31
297.14	1611.31
297.37	1629.31
297.601	1606.31
297.831	1591.31
298.062	1619.31
298.292	1659.31
298.523	1669.31
298.753	1677.31
298.984	1714.31
299.214	1724.31
299.445	1773.31
299.675	1797.31
299.905	1833.31
300.136	1965.31
300.366	2184.31
300.597	2741.31
300.827	3930.31
301.057	5347.31
301.288	5383.31
301.518	3503.31
301.748	2685.31
301.979	2449.31
302.209	2310.31
302.439	2325.31
302.669	2520.31
302.9	3003.31
303.13	4237.31
303.36	6271.31
303.59	8391.31
303.82	7363.31
304.051	4427.31
304.281	3177.31
304.511	2617.31
304.741	2403.31
304.971	2227.31
305.201	2157.31
305.431	2021.31
305.661	1967.31
305.891	1921.31
306.121	1916.31
306.352	1851.31
306.582	1836.31
306.812	1809.31
307.042	1847.31
307.272	1827.31
307.502	1815.31
307.731	1801.31
307.961	1830.31
308.191	1819.31
308.421	1783.31
308.651	1796.31
308.881	1738.31
309.111	1813.31
309.341	1796.31
309.571	1850.31
309.8	1831.31
310.03	1854.31
310.26	1841.31
310.49	1835.31
310.72	1875.31
310.949	1837.31
311.179	1828.31
311.409	1929.31
311.639	1939.31
311.868	1945.31
312.098	1927.31
312.328	1957.31
312.557	1957.31
312.787	1963.31
313.017	1991.31
313.246	1999.31
313.476	1983.31
313.706	2141.31
313.935	2197.31
314.165	2376.31
314.394	2481.31
314.624	2374.31
314.853	2186.31
315.083	2175.31
315.312	2195.31
315.542	2167.31
315.771	2195.31
316.001	2276.31
316.23	2369.31
316.46	2472.31
316.689	2690.31
316.919	3297.31
317.148	4669.31
317.377	7179.31
317.607	10568.31
317.836	11025.31
318.065	6897.31
318.295	4484.31
318.524	3559.31
318.753	3063.31
318.983	2830.31
319.212	2626.31
319.441	2492.31
319.67	2490.31
319.9	2459.31
320.129	2392.31
320.358	2367.31
320.587	2321.31
320.816	2369.31
321.046	2353.31
321.275	2351.31
321.504	2415.31
321.733	2408.31
321.962	2479.31
322.191	2563.31
322.42	2551.31
322.649	2495.31
322.878	2470.31
323.108	2493.31
323.337	2530.31
323.566	2550.31
323.795	2577.31
324.024	2685.31
324.253	2781.31
324.482	2801.31
324.71	3027.31
324.939	3255.31
325.168	3335.31
325.397	3448.31
325.626	4117.31
325.855	5699.31
326.084	8806.31
326.313	12760.31
326.542	13581.31
326.77	9426.31
326.999	6233.31
327.228	5176.31
327.457	4919.31
327.686	4875.31
327.914	5234.31
328.143	6006.31
328.372	7091.31
328.6	7761.31
328.829	7031.31
329.058	5859.31
329.287	5096.31
329.515	4632.31
329.744	4290.31
329.972	4107.31
330.201	3876.31
330.43	3739.31
330.658	3617.31
330.887	3604.31
331.115	3494.31
331.344	3444.31
331.572	3424.31
331.801	3483.31
332.03	3493.31
332.258	3583.31
332.486	3758.31
332.715	4253.31
332.943	5306.31
333.172	6675.31
333.4	6702.31
333.629	5020.31
333.857	4552.31
334.085	4473.31
334.314	4704.31
334.542	5174.31
334.771	5954.31
334.999	7453.31
335.227	9241.31
335.455	10334.31
335.684	9379.31
335.912	7665.31
336.14	6473.31
336.369	5757.31
336.597	5216.31
336.825	4857.31
337.053	4471.31
337.281	4181.31
337.51	4007.31
337.738	3876.31
337.966	3700.31
338.194	3548.31
338.422	3438.31
338.65	3340.31
338.878	3270.31
339.106	3224.31
339.334	3164.31
339.562	3128.31
339.79	3005.31
340.018	3045.31
340.246	3027.31
340.474	2979.31
340.702	2994.31
340.93	2991.31
341.158	2988.31
341.386	2997.31
341.614	2985.31
341.842	2872.31
342.07	2817.31
342.298	2786.31
342.526	2759.31
342.754	2700.31
342.981	2710.31
343.209	2684.31
343.437	2699.31
343.665	2756.31
343.893	2764.31
344.12	2741.31
344.348	2771.31
344.576	2712.31
344.804	2695.31
345.031	2621.31
345.259	2647.31
345.487	2561.31
345.714	2503.31
345.942	2505.31
346.17	2487.31
346.397	2467.31
346.625	2510.31
346.853	2510.31
347.08	2500.31
347.308	2497.31
347.535	2530.31
347.763	2458.31
347.99	2458.31
348.218	2446.31
348.445	2433.31
348.673	2435.31
348.9	2481.31
349.128	2452.31
349.355	2401.31
349.583	2415.31
349.81	2391.31
350.037	2363.31
350.265	2402.31
350.492	2401.31
350.72	2367.31
350.947	2412.31
351.174	2392.31
351.402	2352.31
351.629	2354.31
351.856	2399.31
352.083	2375.31
352.311	2345.31
352.538	2335.31
352.765	2377.31
352.992	2317.31
353.22	2333.31
353.447	2370.31
353.674	2337.31
353.901	2404.31
354.128	2382.31
354.355	2379.31
354.583	2396.31
354.81	2327.31
355.037	2367.31
355.264	2406.31
355.491	2376.31
355.718	2396.31
355.945	2409.31
356.172	2387.31
356.399	2442.31
356.626	2469.31
356.853	2492.31
357.08	2524.31
357.307	2514.31
357.534	2534.31
357.761	2555.31
357.988	2561.31
358.215	2500.31
358.441	2508.31
358.668	2522.31
358.895	2509.31
359.122	2483.31
359.349	2516.31
359.576	2480.31
359.802	2501.31
360.029	2514.31
360.256	2504.31
360.483	2560.31
360.709	2515.31
360.936	2513.31
361.163	2516.31
361.39	2466.31
361.616	2524.31
361.843	2575.31
362.07	2534.31
362.296	2561.31
362.523	2485.31
362.749	2526.31
362.976	2553.31
363.203	2548.31
363.429	2482.31
363.656	2477.31
363.882	2492.31
364.109	2509.31
364.335	2505.31
364.562	2489.31
364.788	2503.31
365.015	2579.31
365.241	2618.31
365.468	2788.31
365.694	2922.31
365.92	2785.31
366.147	2609.31
366.373	2594.31
366.599	2624.31
366.826	2580.31
367.052	2518.31
367.278	2580.31
367.505	2586.31
367.731	2634.31
367.957	2563.31
368.184	2576.31
368.41	2628.31
368.636	2643.31
368.862	2715.31
369.089	2625.31
369.315	2619.31
369.541	2594.31
369.767	2615.31
369.993	2607.31
370.219	2531.31
370.445	2600.31
370.672	2604.31
370.898	2600.31
371.124	2631.31
371.35	2636.31
371.576	2709.31
371.802	2735.31
372.028	2714.31
372.254	2697.31
372.48	2717.31
372.706	2749.31
372.932	2761.31
373.158	2727.31
373.384	2696.31
373.61	2742.31
373.835	2767.31
374.061	2733.31
374.287	2812.31
374.513	2803.31
374.739	2841.31
374.965	2844.31
375.191	2796.31
375.416	2869.31
375.642	2755.31
375.868	2821.31
376.094	2802.31
376.319	2720.31
376.545	2695.31
376.771	2725.31
376.997	2671.31
377.222	2673.31
377.448	2707.31
377.674	2720.31
377.899	2684.31
378.125	2695.31
378.35	2713.31
378.576	2650.31
378.802	2762.31
379.027	2804.31
379.253	2831.31
379.478	3031.31
379.704	3562.31
379.929	5177.31
380.155	8055.31
380.38	8832.31
380.606	5467.31
380.831	3823.31
381.057	3231.31
381.282	2995.31
381.507	2872.31
381.733	2816.31
381.958	2724.31
382.184	2673.31
382.409	2674.31
382.634	2651.31
382.86	2663.31
383.085	2633.31
383.31	2631.31
383.535	2661.31
383.761	2646.31
383.986	2676.31
384.211	2701.31
384.436	2728.31
384.662	2695.31
384.887	2771.31
385.112	2701.31
385.337	2730.31
385.562	2695.31
385.787	2752.31
386.013	2787.31
386.238	2738.31
386.463	2715.31
386.688	2731.31
386.913	2666.31
387.138	2733.31
387.363	2726.31
387.588	2696.31
387.813	2773.31
388.038	2715.31
388.263	2737.31
388.488	2746.31
388.713	2779.31
388.938	2720.31
389.163	2679.31
389.387	2675.31
389.612	2705.31
389.837	2717.31
390.062	2661.31
390.287	2749.31
390.512	2761.31
390.736	2797.31
390.961	2877.31
391.186	2843.31
391.411	2841.31
391.636	2852.31
391.86	2848.31
392.085	2906.31
392.31	2866.31
392.534	2856.31
392.759	2812.31
392.984	2810.31
393.208	2896.31
393.433	2845.31
393.658	2854.31
393.882	2723.31
394.107	2745.31
394.331	2720.31
394.556	2771.31
394.78	2781.31
395.005	2759.31
395.229	2788.31
395.454	2799.31
395.678	2878.31
395.903	2770.31
396.127	2800.31
396.352	2837.31
396.576	2843.31
396.801	2845.31
397.025	2858.31
397.249	2912.31
397.474	2836.31
397.698	2830.31
397.922	2940.31
398.147	2890.31
398.371	2969.31
398.595	2976.31
398.82	3025.31
399.044	3162.31
399.268	3244.31
399.492	3436.31
399.717	3587.31
399.941	3532.31
400.165	3404.31
400.389	3301.31
400.613	3171.31
400.837	3085.31
401.062	3036.31
401.286	3019.31
401.51	2932.31
401.734	2971.31
401.958	3007.31
402.182	2979.31
402.406	2914.31
402.63	2986.31
402.854	3029.31
403.078	3045.31
403.302	3083.31
403.526	3079.31
403.75	3066.31
403.974	3144.31
404.198	3071.31
404.422	3075.31
404.645	3102.31
404.869	3055.31
405.093	3083.31
405.317	3092.31
405.541	3119.31
405.765	3171.31
405.988	3267.31
406.212	3191.31
406.436	3176.31
406.66	3255.31
406.883	3260.31
407.107	3292.31
407.331	3359.31
407.555	3318.31
407.778	3389.31
408.002	3371.31
408.226	3299.31
408.449	3315.31
408.673	3267.31
408.896	3184.31
409.12	3135.31
409.344	3185.31
409.567	3091.31
409.791	3132.31
410.014	3071.31
410.238	3141.31
410.461	3080.31
410.685	3113.31
410.908	3048.31
411.132	3033.31
411.355	2964.31
411.578	2978.31
411.802	3011.31
412.025	3000.31
412.249	3007.31
412.472	3005.31
412.695	2951.31
412.919	2915.31
413.142	2951.31
413.365	2955.31
413.589	2930.31
413.812	2937.31
414.035	2901.31
414.258	2911.31
414.482	2931.31
414.705	2893.31
414.928	2930.31
415.151	2943.31
415.374	2931.31
415.597	2890.31
415.821	2828.31
416.044	2811.31
416.267	2843.31
416.49	2863.31
416.713	2831.31
416.936	2846.31
417.159	2788.31
417.382	2767.31
417.605	2773.31
417.828	2806.31
418.051	2811.31
418.274	2840.31
418.497	2829.31
418.72	2893.31
418.943	2888.31
419.166	3005.31
419.389	3129.31
419.611	3125.31
419.834	2979.31
420.057	2967.31
420.28	2921.31
420.503	2790.31
420.726	2792.31
420.948	2763.31
421.171	2779.31
421.394	2808.31
421.617	2845.31
421.839	2905.31
422.062	2881.31
422.285	2806.31
422.507	2879.31
422.73	2907.31
422.953	2936.31
423.175	2919.31
423.398	2851.31
423.621	2802.31
423.843	2843.31
424.066	2833.31
424.288	2841.31
424.511	2835.31
424.733	2833.31
424.956	2804.31
425.178	2772.31
425.401	2754.31
425.623	2774.31
425.846	2679.31
426.068	2714.31
426.291	2701.31
426.513	2742.31
426.735	2725.31
426.958	2691.31
427.18	2630.31
427.402	2651.31
427.625	2681.31
427.847	2647.31
428.069	2598.31
428.292	2645.31
428.514	2617.31
428.736	2645.31
428.958	2626.31
429.181	2620.31
429.403	2600.31
429.625	2620.31
429.847	2658.31
430.069	2659.31
430.292	2742.31
430.514	2847.31
430.736	2803.31
430.958	2651.31
431.18	2618.31
431.402	2608.31
431.624	2610.31
431.846	2600.31
432.068	2572.31
432.29	2585.31
432.512	2573.31
432.734	2611.31
432.956	2561.31
433.178	2601.31
433.4	2641.31
433.622	2597.31
433.844	2629.31
434.066	2637.31
434.287	2641.31
434.509	2639.31
434.731	2692.31
434.953	2664.31
435.175	2656.31
435.397	2696.31
435.618	2623.31
435.84	2586.31
436.062	2562.31
436.284	2609.31
436.505	2544.31
436.727	2539.31
436.949	2579.31
437.17	2547.31
437.392	2553.31
437.614	2536.31
437.835	2466.31
438.057	2556.31
438.278	2534.31
438.5	2519.31
438.721	2581.31
438.943	2636.31
439.165	2696.31
439.386	2741.31
439.608	2661.31
439.829	2689.31
440.05	2797.31
440.272	2888.31
440.493	2697.31
440.715	2651.31
440.936	2680.31
441.158	2715.31
441.379	2746.31
441.6	2854.31
441.822	2929.31
442.043	3041.31
442.264	3164.31
442.486	2961.31
442.707	2859.31
442.928	2763.31
443.149	2763.31
443.371	2762.31
443.592	2772.31
443.813	2778.31
444.034	2773.31
444.255	2847.31
444.476	2889.31
444.698	2896.31
444.919	2952.31
445.14	3032.31
445.361	2891.31
445.582	2914.31
445.803	2820.31
446.024	2739.31
446.245	2768.31
446.466	2781.31
446.687	2731.31
446.908	2708.31
447.129	2616.31
447.35	2609.31
447.571	2603.31
447.792	2548.31
448.013	2605.31
448.234	2560.31
448.455	2572.31
448.675	2643.31
448.896	2721.31
449.117	2742.31
449.338	3031.31
449.559	3091.31
449.779	2823.31
450	2607.31
450.221	2553.31
450.442	2546.31
450.662	2510.31
450.883	2545.31
451.104	2571.31
451.324	2515.31
451.545	2496.31
451.766	2505.31
451.986	2611.31
452.207	2831.31
452.428	3692.31
452.648	5599.31
452.869	4729.31
453.089	3304.31
453.31	2981.31
453.53	2978.31
453.751	3004.31
453.971	3165.31
454.192	3077.31
454.412	2717.31
454.633	2574.31
454.853	2474.31
455.073	2471.31
455.294	2448.31
455.514	2372.31
455.734	2392.31
455.955	2360.31
456.175	2418.31
456.395	2380.31
456.616	2405.31
456.836	2437.31
457.056	2457.31
457.276	2435.31
457.497	2627.31
457.717	2635.31
457.937	2531.31
458.157	2539.31
458.377	2518.31
458.598	2555.31
458.818	2539.31
459.038	2573.31
459.258	2529.31
459.478	2583.31
459.698	2631.31
459.918	2684.31
460.138	2694.31
460.358	2737.31
460.578	2852.31
460.798	2830.31
461.018	2896.31
461.238	2809.31
461.458	2768.31
461.678	2829.31
461.898	2931.31
462.118	2956.31
462.338	3045.31
462.558	3008.31
462.777	3049.31
462.997	3239.31
463.217	3329.31
463.437	3395.31
463.657	3519.31
463.876	3473.31
464.096	3256.31
464.316	3184.31
464.536	3135.31
464.755	3050.31
464.975	3000.31
465.195	2871.31
465.414	2810.31
465.634	2744.31
465.854	2670.31
466.073	2667.31
466.293	2622.31
466.512	2689.31
466.732	2664.31
466.951	2833.31
467.171	3035.31
467.391	2946.31
467.61	2687.31
467.829	2598.31
468.049	2585.31
468.268	2564.31
468.488	2571.31
468.707	2513.31
468.927	2631.31
469.146	2559.31
469.365	2665.31
469.585	2668.31
469.804	2646.31
470.023	2717.31
470.243	2755.31
470.462	2865.31
470.681	3023.31
470.901	3282.31
471.12	3745.31
471.339	3747.31
471.558	3158.31
471.777	2887.31
471.997	2799.31
472.216	2705.31
472.435	2655.31
472.654	2579.31
472.873	2602.31
473.092	2580.31
473.311	2589.31
473.53	2603.31
473.749	2667.31
473.968	2727.31
474.187	2625.31
474.406	2576.31
474.625	2605.31
474.844	2585.31
475.063	2573.31
475.282	2599.31
475.501	2610.31
475.72	2635.31
475.939	2650.31
476.158	2662.31
476.377	2806.31
476.596	2725.31
476.814	2755.31
477.033	2755.31
477.252	2765.31
477.471	2800.31
477.69	2860.31
477.908	2900.31
478.127	2917.31
478.346	2948.31
478.564	3018.31
478.783	3028.31
479.002	3067.31
479.22	3048.31
479.439	3092.31
479.658	3066.31
479.876	3084.31
480.095	3159.31
480.313	3206.31
480.532	3223.31
480.751	3180.31
480.969	3122.31
481.188	3131.31
481.406	3164.31
481.624	3111.31
481.843	3177.31
482.061	3186.31
482.28	3159.31
482.498	3184.31
482.717	3107.31
482.935	3176.31
483.153	3208.31
483.372	3250.31
483.59	3241.31
483.808	3381.31
484.027	3425.31
484.245	3619.31
484.463	4022.31
484.681	4436.31
484.9	4177.31
485.118	3857.31
485.336	3787.31
485.554	3817.31
485.772	4042.31
485.99	4578.31
486.209	4790.31
486.427	4168.31
486.645	3717.31
486.863	3567.31
487.081	3473.31
487.299	3400.31
487.517	3388.31
487.735	3360.31
