Data from SnStandardFlinnAPT0064_LampEnergy5.5_LIBS07252019.E.O._I.C._HRD10591_15-16-45-492.txt Node
Date: Thu Jul 25 15:16:45 EDT 2019
User: cochatt
Spectrometer: HR+D1059
Trigger mode: 1
Integration Time (sec): 1.000000E-1
Scans to average: 1
Electric dark correction enabled: true
Nonlinearity correction enabled: false
Boxcar width: 0
XAxis mode: Wavelengths
Number of Pixels in Spectrum: 2048
>>>>>Begin Spectral Data<<<<<
223.165	-10.38
223.4	-10.38
223.635	-10.38
223.869	-10.38
224.104	-13.38
224.338	-25.38
224.573	-25.38
224.808	-21.38
225.042	-5.38
225.277	-7.38
225.511	4.62
225.746	4.62
225.98	3.62
226.215	17.62
226.449	17.62
226.683	16.62
226.918	21.62
227.152	32.62
227.387	33.62
227.621	31.62
227.856	43.62
228.09	56.62
228.324	50.62
228.559	52.62
228.793	81.62
229.027	134.62
229.262	161.62
229.496	143.62
229.73	174.62
229.964	161.62
230.199	144.62
230.433	155.62
230.667	178.62
230.901	166.62
231.136	186.62
231.37	200.62
231.604	178.62
231.838	218.62
232.072	242.62
232.306	262.62
232.541	223.62
232.775	207.62
233.009	197.62
233.243	182.62
233.477	215.62
233.711	240.62
233.945	267.62
234.179	235.62
234.413	222.62
234.647	220.62
234.881	242.62
235.115	235.62
235.349	291.62
235.583	342.62
235.817	443.62
236.051	434.62
236.285	314.62
236.519	235.62
236.753	244.62
236.987	246.62
237.221	238.62
237.455	243.62
237.689	214.62
237.922	242.62
238.156	238.62
238.39	225.62
238.624	232.62
238.858	241.62
239.091	226.62
239.325	245.62
239.559	242.62
239.793	254.62
240.027	242.62
240.26	255.62
240.494	260.62
240.728	275.62
240.961	272.62
241.195	284.62
241.429	283.62
241.662	307.62
241.896	340.62
242.13	399.62
242.363	510.62
242.597	646.62
242.83	626.62
243.064	623.62
243.298	741.62
243.531	636.62
243.765	418.62
243.998	335.62
244.232	314.62
244.465	303.62
244.699	290.62
244.932	288.62
245.166	308.62
245.399	302.62
245.633	307.62
245.866	304.62
246.099	312.62
246.333	283.62
246.566	299.62
246.8	304.62
247.033	306.62
247.266	308.62
247.5	300.62
247.733	316.62
247.966	307.62
248.2	354.62
248.433	376.62
248.666	426.62
248.899	398.62
249.133	362.62
249.366	380.62
249.599	410.62
249.832	446.62
250.066	451.62
250.299	366.62
250.532	352.62
250.765	356.62
250.998	320.62
251.231	355.62
251.465	363.62
251.698	335.62
251.931	344.62
252.164	347.62
252.397	350.62
252.63	366.62
252.863	367.62
253.096	358.62
253.329	348.62
253.562	359.62
253.795	348.62
254.028	366.62
254.261	368.62
254.494	384.62
254.727	459.62
254.96	542.62
255.193	527.62
255.426	409.62
255.659	377.62
255.892	375.62
256.124	386.62
256.357	393.62
256.59	408.62
256.823	419.62
257.056	466.62
257.289	544.62
257.521	583.62
257.754	522.62
257.987	435.62
258.22	404.62
258.452	393.62
258.685	425.62
258.918	427.62
259.151	412.62
259.383	443.62
259.616	506.62
259.849	520.62
260.081	472.62
260.314	443.62
260.547	418.62
260.779	421.62
261.012	417.62
261.244	422.62
261.477	435.62
261.71	443.62
261.942	446.62
262.175	466.62
262.407	455.62
262.64	477.62
262.872	490.62
263.105	505.62
263.337	531.62
263.57	584.62
263.802	584.62
264.035	562.62
264.267	601.62
264.499	605.62
264.732	634.62
264.964	632.62
265.197	630.62
265.429	631.62
265.661	636.62
265.894	682.62
266.126	760.62
266.358	807.62
266.591	779.62
266.823	702.62
267.055	637.62
267.287	615.62
267.52	577.62
267.752	565.62
267.984	561.62
268.216	572.62
268.448	561.62
268.681	530.62
268.913	532.62
269.145	551.62
269.377	518.62
269.609	543.62
269.841	555.62
270.073	608.62
270.306	690.62
270.538	877.62
270.77	1298.62
271.002	1558.62
271.234	1113.62
271.466	760.62
271.698	630.62
271.93	594.62
272.162	579.62
272.394	558.62
272.626	547.62
272.858	531.62
273.09	551.62
273.322	542.62
273.553	531.62
273.785	522.62
274.017	530.62
274.249	542.62
274.481	554.62
274.713	515.62
274.945	540.62
275.176	530.62
275.408	543.62
275.64	530.62
275.872	540.62
276.104	560.62
276.335	553.62
276.567	575.62
276.799	565.62
277.031	576.62
277.262	575.62
277.494	609.62
277.726	654.62
277.957	738.62
278.189	843.62
278.421	803.62
278.652	729.62
278.884	680.62
279.115	636.62
279.347	624.62
279.579	608.62
279.81	602.62
280.042	598.62
280.273	599.62
280.505	607.62
280.736	623.62
280.968	638.62
281.199	729.62
281.431	818.62
281.662	813.62
281.894	711.62
282.125	663.62
282.356	693.62
282.588	687.62
282.819	706.62
283.051	763.62
283.282	838.62
283.513	1014.62
283.745	1437.62
283.976	2355.62
284.207	3254.62
284.439	2867.62
284.67	1711.62
284.901	1385.62
285.132	1382.62
285.364	1319.62
285.595	1079.62
285.826	962.62
286.057	1148.62
286.288	1559.62
286.52	2050.62
286.751	1890.62
286.982	1204.62
287.213	901.62
287.444	828.62
287.675	746.62
287.906	732.62
288.138	729.62
288.369	729.62
288.6	736.62
288.831	716.62
289.062	720.62
289.293	741.62
289.524	712.62
289.755	726.62
289.986	716.62
290.217	736.62
290.448	719.62
290.679	756.62
290.91	728.62
291.141	770.62
291.371	805.62
291.602	832.62
291.833	777.62
292.064	719.62
292.295	694.62
292.526	702.62
292.757	699.62
292.987	694.62
293.218	704.62
293.449	701.62
293.68	694.62
293.91	687.62
294.141	691.62
294.372	672.62
294.603	662.62
294.833	671.62
295.064	678.62
295.295	692.62
295.525	662.62
295.756	673.62
295.987	682.62
296.217	674.62
296.448	681.62
296.679	679.62
296.909	673.62
297.14	686.62
297.37	706.62
297.601	718.62
297.831	699.62
298.062	714.62
298.292	702.62
298.523	729.62
298.753	742.62
298.984	722.62
299.214	725.62
299.445	754.62
299.675	763.62
299.905	774.62
300.136	802.62
300.366	889.62
300.597	1105.62
300.827	1532.62
301.057	2058.62
301.288	2055.62
301.518	1320.62
301.748	1022.62
301.979	939.62
302.209	896.62
302.439	929.62
302.669	978.62
302.9	1161.62
303.13	1635.62
303.36	2372.62
303.59	3206.62
303.82	2774.62
304.051	1642.62
304.281	1174.62
304.511	1018.62
304.741	946.62
304.971	869.62
305.201	836.62
305.431	815.62
305.661	793.62
305.891	824.62
306.121	790.62
306.352	779.62
306.582	791.62
306.812	787.62
307.042	788.62
307.272	771.62
307.502	776.62
307.731	804.62
307.961	796.62
308.191	790.62
308.421	782.62
308.651	791.62
308.881	794.62
309.111	799.62
309.341	802.62
309.571	776.62
309.8	801.62
310.03	802.62
310.26	791.62
310.49	814.62
310.72	804.62
310.949	795.62
311.179	815.62
311.409	808.62
311.639	831.62
311.868	818.62
312.098	830.62
312.328	864.62
312.557	841.62
312.787	840.62
313.017	844.62
313.246	859.62
313.476	851.62
313.706	872.62
313.935	913.62
314.165	971.62
314.394	1006.62
314.624	960.62
314.853	894.62
315.083	934.62
315.312	900.62
315.542	922.62
315.771	908.62
316.001	944.62
316.23	962.62
316.46	984.62
316.689	1094.62
316.919	1305.62
317.148	1888.62
317.377	2871.62
317.607	4290.62
317.836	4354.62
318.065	2472.62
318.295	1616.62
318.524	1323.62
318.753	1154.62
318.983	1056.62
319.212	1043.62
319.441	1036.62
319.67	996.62
319.9	974.62
320.129	988.62
320.358	996.62
320.587	982.62
320.816	972.62
321.046	989.62
321.275	1010.62
321.504	975.62
321.733	992.62
321.962	1025.62
322.191	1033.62
322.42	1033.62
322.649	1035.62
322.878	1054.62
323.108	1027.62
323.337	1034.62
323.566	1063.62
323.795	1100.62
324.024	1125.62
324.253	1132.62
324.482	1215.62
324.71	1221.62
324.939	1256.62
325.168	1321.62
325.397	1374.62
325.626	1573.62
325.855	2208.62
326.084	3433.62
326.313	5212.62
326.542	5464.62
326.77	3365.62
326.999	2178.62
327.228	1850.62
327.457	1780.62
327.686	1792.62
327.914	1898.62
328.143	2213.62
328.372	2551.62
328.6	2758.62
328.829	2503.62
329.058	2223.62
329.287	1954.62
329.515	1813.62
329.744	1660.62
329.972	1643.62
330.201	1554.62
330.43	1502.62
330.658	1478.62
330.887	1415.62
331.115	1425.62
331.344	1408.62
331.572	1429.62
331.801	1412.62
332.03	1407.62
332.258	1435.62
332.486	1510.62
332.715	1728.62
332.943	2066.62
333.172	2514.62
333.4	2475.62
333.629	1955.62
333.857	1778.62
334.085	1765.62
334.314	1833.62
334.542	2011.62
334.771	2293.62
334.999	2731.62
335.227	3347.62
335.455	3685.62
335.684	3370.62
335.912	2889.62
336.14	2494.62
336.369	2243.62
336.597	2058.62
336.825	1900.62
337.053	1818.62
337.281	1688.62
337.51	1648.62
337.738	1526.62
337.966	1477.62
338.194	1474.62
338.422	1439.62
338.65	1380.62
338.878	1368.62
339.106	1320.62
339.334	1332.62
339.562	1324.62
339.79	1311.62
340.018	1300.62
340.246	1278.62
340.474	1261.62
340.702	1261.62
340.93	1228.62
341.158	1225.62
341.386	1282.62
341.614	1242.62
341.842	1220.62
342.07	1198.62
342.298	1185.62
342.526	1176.62
342.754	1156.62
342.981	1163.62
343.209	1174.62
343.437	1155.62
343.665	1172.62
343.893	1206.62
344.12	1182.62
344.348	1192.62
344.576	1155.62
344.804	1150.62
345.031	1132.62
345.259	1115.62
345.487	1075.62
345.714	1084.62
345.942	1070.62
346.17	1083.62
346.397	1074.62
346.625	1080.62
346.853	1095.62
347.08	1049.62
347.308	1084.62
347.535	1055.62
347.763	1032.62
347.99	1062.62
348.218	1033.62
348.445	1042.62
348.673	1049.62
348.9	1051.62
349.128	1046.62
349.355	1066.62
349.583	1046.62
349.81	1025.62
350.037	1032.62
350.265	1038.62
350.492	1022.62
350.72	1052.62
350.947	1030.62
351.174	1020.62
351.402	1044.62
351.629	1017.62
351.856	1034.62
352.083	1028.62
352.311	987.62
352.538	993.62
352.765	1007.62
352.992	1024.62
353.22	1013.62
353.447	1016.62
353.674	1042.62
353.901	1015.62
354.128	1040.62
354.355	1012.62
354.583	1017.62
354.81	1051.62
355.037	1050.62
355.264	1048.62
355.491	1029.62
355.718	1051.62
355.945	1059.62
356.172	1069.62
356.399	1048.62
356.626	1032.62
356.853	1049.62
357.08	1058.62
357.307	1090.62
357.534	1115.62
357.761	1092.62
357.988	1084.62
358.215	1075.62
358.441	1071.62
358.668	1082.62
358.895	1085.62
359.122	1084.62
359.349	1081.62
359.576	1067.62
359.802	1084.62
360.029	1059.62
360.256	1102.62
360.483	1110.62
360.709	1080.62
360.936	1112.62
361.163	1075.62
361.39	1082.62
361.616	1115.62
361.843	1108.62
362.07	1093.62
362.296	1094.62
362.523	1067.62
362.749	1074.62
362.976	1118.62
363.203	1094.62
363.429	1068.62
363.656	1121.62
363.882	1090.62
364.109	1079.62
364.335	1097.62
364.562	1088.62
364.788	1089.62
365.015	1111.62
365.241	1147.62
365.468	1158.62
365.694	1188.62
365.92	1160.62
366.147	1114.62
366.373	1086.62
366.599	1126.62
366.826	1110.62
367.052	1086.62
367.278	1111.62
367.505	1092.62
367.731	1105.62
367.957	1112.62
368.184	1098.62
368.41	1131.62
368.636	1127.62
368.862	1128.62
369.089	1147.62
369.315	1145.62
369.541	1129.62
369.767	1136.62
369.993	1136.62
370.219	1120.62
370.445	1108.62
370.672	1136.62
370.898	1161.62
371.124	1156.62
371.35	1150.62
371.576	1160.62
371.802	1169.62
372.028	1160.62
372.254	1178.62
372.48	1187.62
372.706	1170.62
372.932	1194.62
373.158	1177.62
373.384	1205.62
373.61	1204.62
373.835	1196.62
374.061	1157.62
374.287	1165.62
374.513	1219.62
374.739	1229.62
374.965	1236.62
375.191	1238.62
375.416	1239.62
375.642	1211.62
375.868	1223.62
376.094	1199.62
376.319	1194.62
376.545	1192.62
376.771	1182.62
376.997	1183.62
377.222	1182.62
377.448	1154.62
377.674	1166.62
377.899	1137.62
378.125	1178.62
378.35	1167.62
378.576	1190.62
378.802	1156.62
379.027	1179.62
379.253	1229.62
379.478	1270.62
379.704	1458.62
379.929	2075.62
380.155	3072.62
380.38	3356.62
380.606	2025.62
380.831	1487.62
381.057	1336.62
381.282	1237.62
381.507	1191.62
381.733	1180.62
381.958	1194.62
382.184	1152.62
382.409	1187.62
382.634	1154.62
382.86	1188.62
383.085	1178.62
383.31	1153.62
383.535	1144.62
383.761	1142.62
383.986	1149.62
384.211	1203.62
384.436	1171.62
384.662	1214.62
384.887	1182.62
385.112	1207.62
385.337	1202.62
385.562	1184.62
385.787	1222.62
386.013	1212.62
386.238	1204.62
386.463	1226.62
386.688	1240.62
386.913	1186.62
387.138	1190.62
387.363	1246.62
387.588	1207.62
387.813	1176.62
388.038	1158.62
388.263	1194.62
388.488	1189.62
388.713	1201.62
388.938	1177.62
389.163	1187.62
389.387	1194.62
389.612	1214.62
389.837	1209.62
390.062	1196.62
390.287	1223.62
390.512	1191.62
390.736	1212.62
390.961	1257.62
391.186	1208.62
391.411	1278.62
391.636	1255.62
391.86	1278.62
392.085	1276.62
392.31	1283.62
392.534	1244.62
392.759	1215.62
392.984	1235.62
393.208	1257.62
393.433	1273.62
393.658	1284.62
393.882	1229.62
394.107	1251.62
394.331	1237.62
394.556	1188.62
394.78	1224.62
395.005	1251.62
395.229	1216.62
395.454	1257.62
395.678	1251.62
395.903	1263.62
396.127	1259.62
396.352	1253.62
396.576	1223.62
396.801	1254.62
397.025	1301.62
397.249	1269.62
397.474	1292.62
397.698	1292.62
397.922	1302.62
398.147	1266.62
398.371	1292.62
398.595	1320.62
398.82	1339.62
399.044	1388.62
399.268	1462.62
399.492	1530.62
399.717	1590.62
399.941	1583.62
400.165	1536.62
400.389	1449.62
400.613	1400.62
400.837	1378.62
401.062	1366.62
401.286	1359.62
401.51	1342.62
401.734	1302.62
401.958	1340.62
402.182	1305.62
402.406	1305.62
402.63	1336.62
402.854	1338.62
403.078	1359.62
403.302	1390.62
403.526	1366.62
403.75	1367.62
403.974	1391.62
404.198	1426.62
404.422	1372.62
404.645	1409.62
404.869	1379.62
405.093	1416.62
405.317	1407.62
405.541	1399.62
405.765	1391.62
405.988	1399.62
406.212	1393.62
406.436	1424.62
406.66	1457.62
406.883	1409.62
407.107	1461.62
407.331	1502.62
407.555	1491.62
407.778	1478.62
408.002	1464.62
408.226	1431.62
408.449	1471.62
408.673	1421.62
408.896	1419.62
409.12	1361.62
409.344	1411.62
409.567	1368.62
409.791	1404.62
410.014	1367.62
410.238	1342.62
410.461	1394.62
410.685	1371.62
410.908	1353.62
411.132	1336.62
411.355	1334.62
411.578	1320.62
411.802	1339.62
412.025	1298.62
412.249	1306.62
412.472	1307.62
412.695	1288.62
412.919	1309.62
413.142	1320.62
413.365	1315.62
413.589	1313.62
413.812	1263.62
414.035	1337.62
414.258	1323.62
414.482	1333.62
414.705	1323.62
414.928	1304.62
415.151	1263.62
415.374	1315.62
415.597	1297.62
415.821	1238.62
416.044	1223.62
416.267	1275.62
416.49	1262.62
416.713	1289.62
416.936	1300.62
417.159	1270.62
417.382	1294.62
417.605	1232.62
417.828	1276.62
418.051	1260.62
418.274	1271.62
418.497	1278.62
418.72	1302.62
418.943	1292.62
419.166	1320.62
419.389	1371.62
419.611	1408.62
419.834	1306.62
420.057	1317.62
420.28	1286.62
420.503	1284.62
420.726	1289.62
420.948	1259.62
421.171	1246.62
421.394	1233.62
421.617	1257.62
421.839	1287.62
422.062	1298.62
422.285	1272.62
422.507	1297.62
422.73	1320.62
422.953	1289.62
423.175	1343.62
423.398	1280.62
423.621	1285.62
423.843	1268.62
424.066	1283.62
424.288	1234.62
424.511	1234.62
424.733	1262.62
424.956	1249.62
425.178	1247.62
425.401	1234.62
425.623	1265.62
425.846	1243.62
426.068	1229.62
426.291	1223.62
426.513	1225.62
426.735	1181.62
426.958	1210.62
427.18	1179.62
427.402	1178.62
427.625	1198.62
427.847	1160.62
428.069	1180.62
428.292	1202.62
428.514	1158.62
428.736	1159.62
428.958	1155.62
429.181	1154.62
429.403	1134.62
429.625	1144.62
429.847	1164.62
430.069	1162.62
430.292	1223.62
430.514	1224.62
430.736	1246.62
430.958	1160.62
431.18	1170.62
431.402	1136.62
431.624	1132.62
431.846	1144.62
432.068	1158.62
432.29	1175.62
432.512	1146.62
432.734	1156.62
432.956	1156.62
433.178	1162.62
433.4	1180.62
433.622	1176.62
433.844	1173.62
434.066	1161.62
434.287	1136.62
434.509	1173.62
434.731	1145.62
434.953	1209.62
435.175	1212.62
435.397	1165.62
435.618	1181.62
435.84	1153.62
436.062	1126.62
436.284	1172.62
436.505	1137.62
436.727	1154.62
436.949	1159.62
437.17	1146.62
437.392	1145.62
437.614	1135.62
437.835	1103.62
438.057	1110.62
438.278	1117.62
438.5	1130.62
438.721	1134.62
438.943	1184.62
439.165	1183.62
439.386	1145.62
439.608	1210.62
439.829	1212.62
440.05	1260.62
440.272	1263.62
440.493	1209.62
440.715	1170.62
440.936	1208.62
441.158	1187.62
441.379	1222.62
441.6	1270.62
441.822	1320.62
442.043	1346.62
442.264	1381.62
442.486	1310.62
442.707	1275.62
442.928	1269.62
443.149	1242.62
443.371	1247.62
443.592	1220.62
443.813	1237.62
444.034	1262.62
444.255	1300.62
444.476	1295.62
444.698	1307.62
444.919	1337.62
445.14	1416.62
445.361	1346.62
445.582	1310.62
445.803	1237.62
446.024	1238.62
446.245	1263.62
446.466	1229.62
446.687	1188.62
446.908	1218.62
447.129	1161.62
447.35	1178.62
447.571	1171.62
447.792	1169.62
448.013	1157.62
448.234	1131.62
448.455	1148.62
448.675	1176.62
448.896	1153.62
449.117	1198.62
449.338	1291.62
449.559	1384.62
449.779	1222.62
450	1137.62
450.221	1152.62
450.442	1160.62
450.662	1126.62
450.883	1097.62
451.104	1122.62
451.324	1123.62
451.545	1120.62
451.766	1113.62
451.986	1118.62
452.207	1179.62
452.428	1461.62
452.648	2023.62
452.869	1742.62
453.089	1324.62
453.31	1228.62
453.53	1248.62
453.751	1265.62
453.971	1331.62
454.192	1322.62
454.412	1188.62
454.633	1110.62
454.853	1094.62
455.073	1067.62
455.294	1086.62
455.514	1052.62
455.734	1063.62
455.955	1049.62
456.175	1045.62
456.395	1050.62
456.616	1056.62
456.836	1080.62
457.056	1079.62
457.276	1034.62
457.497	1146.62
457.717	1108.62
457.937	1116.62
458.157	1107.62
458.377	1108.62
458.598	1117.62
458.818	1131.62
459.038	1163.62
459.258	1116.62
459.478	1125.62
459.698	1166.62
459.918	1171.62
460.138	1175.62
460.358	1226.62
460.578	1225.62
460.798	1225.62
461.018	1232.62
461.238	1212.62
461.458	1268.62
461.678	1279.62
461.898	1299.62
462.118	1273.62
462.338	1335.62
462.558	1319.62
462.777	1367.62
462.997	1403.62
463.217	1451.62
463.437	1500.62
463.657	1519.62
463.876	1507.62
464.096	1424.62
464.316	1376.62
464.536	1350.62
464.755	1346.62
464.975	1297.62
465.195	1272.62
465.414	1239.62
465.634	1170.62
465.854	1221.62
466.073	1164.62
466.293	1166.62
466.512	1156.62
466.732	1191.62
466.951	1224.62
467.171	1316.62
467.391	1279.62
467.61	1170.62
467.829	1178.62
468.049	1164.62
468.268	1142.62
468.488	1143.62
468.707	1170.62
468.927	1168.62
469.146	1160.62
469.365	1136.62
469.585	1123.62
469.804	1170.62
470.023	1183.62
470.243	1191.62
470.462	1261.62
470.681	1289.62
470.901	1384.62
471.12	1626.62
471.339	1656.62
471.558	1366.62
471.777	1251.62
471.997	1182.62
472.216	1159.62
472.435	1150.62
472.654	1099.62
472.873	1128.62
473.092	1128.62
473.311	1138.62
473.53	1139.62
473.749	1175.62
473.968	1218.62
474.187	1139.62
474.406	1143.62
474.625	1138.62
474.844	1141.62
475.063	1179.62
475.282	1118.62
475.501	1120.62
475.72	1160.62
475.939	1163.62
476.158	1174.62
476.377	1208.62
476.596	1189.62
476.814	1198.62
477.033	1188.62
477.252	1180.62
477.471	1227.62
477.69	1265.62
477.908	1275.62
478.127	1267.62
478.346	1291.62
478.564	1340.62
478.783	1355.62
479.002	1386.62
479.22	1346.62
479.439	1360.62
479.658	1334.62
479.876	1369.62
480.095	1363.62
480.313	1411.62
480.532	1402.62
480.751	1412.62
480.969	1380.62
481.188	1342.62
481.406	1344.62
481.624	1352.62
481.843	1355.62
482.061	1340.62
482.28	1338.62
482.498	1386.62
482.717	1339.62
482.935	1374.62
483.153	1333.62
483.372	1425.62
483.59	1451.62
483.808	1410.62
484.027	1489.62
484.245	1539.62
484.463	1698.62
484.681	1916.62
484.9	1757.62
485.118	1594.62
485.336	1576.62
485.554	1590.62
485.772	1658.62
485.99	1921.62
486.209	2100.62
486.427	1736.62
486.645	1549.62
486.863	1515.62
487.081	1484.62
487.299	1457.62
487.517	1469.62
487.735	1481.62
487.953	1470.62
488.171	1434.62
488.389	1457.62
488.607	1463.62
488.825	1416.62
489.043	1407.62
489.261	1406.62
489.479	1414.62
489.696	1417.62
489.914	1438.62
490.132	1430.62
490.35	1416.62
490.568	1435.62
490.786	1480.62
