Data from SnStandardFlinnAPT0064_QswitchEnergy10_LIBS07252019.E.O._I.C._HRD10591_15-28-46-973.txt Node
Date: Thu Jul 25 15:28:46 EDT 2019
User: cochatt
Spectrometer: HR+D1059
Trigger mode: 1
Integration Time (sec): 1.000000E-1
Scans to average: 1
Electric dark correction enabled: true
Nonlinearity correction enabled: false
Boxcar width: 0
XAxis mode: Wavelengths
Number of Pixels in Spectrum: 2048
>>>>>Begin Spectral Data<<<<<
223.165	-18.12
223.4	-18.12
223.635	-18.12
223.869	-23.12
224.104	-13.12
224.338	-9.12
224.573	-16.12
224.808	-21.12
225.042	-14.12
225.277	-3.12
225.511	-3.12
225.746	-8.12
225.98	4.88
226.215	8.88
226.449	28.88
226.683	26.88
226.918	29.88
227.152	29.88
227.387	39.88
227.621	39.88
227.856	43.88
228.09	57.88
228.324	57.88
228.559	68.88
228.793	57.88
229.027	75.88
229.262	57.88
229.496	79.88
229.73	78.88
229.964	74.88
230.199	82.88
230.433	70.88
230.667	72.88
230.901	79.88
231.136	95.88
231.37	98.88
231.604	97.88
231.838	106.88
232.072	125.88
232.306	127.88
232.541	103.88
232.775	85.88
233.009	80.88
233.243	85.88
233.477	94.88
233.711	107.88
233.945	107.88
234.179	101.88
234.413	74.88
234.647	83.88
234.881	94.88
235.115	73.88
235.349	95.88
235.583	112.88
235.817	129.88
236.051	141.88
236.285	92.88
236.519	79.88
236.753	87.88
236.987	80.88
237.221	76.88
237.455	77.88
237.689	84.88
237.922	83.88
238.156	77.88
238.39	92.88
238.624	96.88
238.858	88.88
239.091	84.88
239.325	90.88
239.559	89.88
239.793	81.88
240.027	80.88
240.26	71.88
240.494	85.88
240.728	85.88
240.961	91.88
241.195	97.88
241.429	90.88
241.662	82.88
241.896	92.88
242.13	108.88
242.363	123.88
242.597	185.88
242.83	146.88
243.064	154.88
243.298	197.88
243.531	173.88
243.765	96.88
243.998	81.88
244.232	88.88
244.465	82.88
244.699	87.88
244.932	76.88
245.166	87.88
245.399	96.88
245.633	91.88
245.866	99.88
246.099	76.88
246.333	83.88
246.566	76.88
246.8	74.88
247.033	86.88
247.266	76.88
247.5	65.88
247.733	91.88
247.966	88.88
248.2	92.88
248.433	114.88
248.666	127.88
248.899	121.88
249.133	109.88
249.366	102.88
249.599	107.88
249.832	135.88
250.066	144.88
250.299	90.88
250.532	75.88
250.765	74.88
250.998	91.88
251.231	91.88
251.465	85.88
251.698	86.88
251.931	95.88
252.164	102.88
252.397	97.88
252.63	105.88
252.863	107.88
253.096	81.88
253.329	95.88
253.562	104.88
253.795	96.88
254.028	96.88
254.261	87.88
254.494	97.88
254.727	134.88
254.96	159.88
255.193	136.88
255.426	106.88
255.659	100.88
255.892	100.88
256.124	91.88
256.357	98.88
256.59	85.88
256.823	103.88
257.056	110.88
257.289	147.88
257.521	196.88
257.754	128.88
257.987	100.88
258.22	81.88
258.452	81.88
258.685	101.88
258.918	90.88
259.151	92.88
259.383	113.88
259.616	150.88
259.849	161.88
260.081	107.88
260.314	91.88
260.547	88.88
260.779	92.88
261.012	81.88
261.244	83.88
261.477	86.88
261.71	81.88
261.942	82.88
262.175	73.88
262.407	99.88
262.64	92.88
262.872	58.88
263.105	90.88
263.337	78.88
263.57	89.88
263.802	93.88
264.035	116.88
264.267	93.88
264.499	92.88
264.732	99.88
264.964	92.88
265.197	96.88
265.429	91.88
265.661	90.88
265.894	107.88
266.126	137.88
266.358	183.88
266.591	157.88
266.823	104.88
267.055	81.88
267.287	76.88
267.52	80.88
267.752	88.88
267.984	78.88
268.216	89.88
268.448	100.88
268.681	97.88
268.913	91.88
269.145	85.88
269.377	95.88
269.609	92.88
269.841	108.88
270.073	119.88
270.306	124.88
270.538	240.88
270.77	354.88
271.002	411.88
271.234	213.88
271.466	115.88
271.698	96.88
271.93	94.88
272.162	99.88
272.394	94.88
272.626	94.88
272.858	78.88
273.09	91.88
273.322	90.88
273.553	75.88
273.785	86.88
274.017	83.88
274.249	98.88
274.481	94.88
274.713	98.88
274.945	102.88
275.176	94.88
275.408	90.88
275.64	96.88
275.872	92.88
276.104	93.88
276.335	111.88
276.567	104.88
276.799	105.88
277.031	102.88
277.262	99.88
277.494	106.88
277.726	146.88
277.957	204.88
278.189	276.88
278.421	281.88
278.652	224.88
278.884	216.88
279.115	162.88
279.347	116.88
279.579	112.88
279.81	96.88
280.042	102.88
280.273	114.88
280.505	108.88
280.736	118.88
280.968	124.88
281.199	196.88
281.431	276.88
281.662	308.88
281.894	164.88
282.125	124.88
282.356	116.88
282.588	130.88
282.819	124.88
283.051	123.88
283.282	141.88
283.513	227.88
283.745	356.88
283.976	627.88
284.207	891.88
284.439	677.88
284.67	297.88
284.901	289.88
285.132	414.88
285.364	447.88
285.595	241.88
285.826	188.88
286.057	292.88
286.288	475.88
286.52	704.88
286.751	566.88
286.982	223.88
287.213	151.88
287.444	115.88
287.675	121.88
287.906	106.88
288.138	93.88
288.369	101.88
288.6	106.88
288.831	109.88
289.062	108.88
289.293	90.88
289.524	89.88
289.755	97.88
289.986	102.88
290.217	84.88
290.448	97.88
290.679	109.88
290.91	138.88
291.141	186.88
291.371	297.88
291.602	362.88
291.833	248.88
292.064	116.88
292.295	105.88
292.526	94.88
292.757	94.88
292.987	100.88
293.218	100.88
293.449	105.88
293.68	88.88
293.91	99.88
294.141	93.88
294.372	94.88
294.603	98.88
294.833	88.88
295.064	93.88
295.295	96.88
295.525	86.88
295.756	95.88
295.987	87.88
296.217	91.88
296.448	108.88
296.679	92.88
296.909	110.88
297.14	110.88
297.37	108.88
297.601	102.88
297.831	94.88
298.062	108.88
298.292	102.88
298.523	109.88
298.753	109.88
298.984	105.88
299.214	137.88
299.445	121.88
299.675	131.88
299.905	126.88
300.136	127.88
300.366	168.88
300.597	308.88
300.827	515.88
301.057	782.88
301.288	723.88
301.518	277.88
301.748	172.88
301.979	149.88
302.209	131.88
302.439	154.88
302.669	180.88
302.9	315.88
303.13	569.88
303.36	1009.88
303.59	1474.88
303.82	985.88
304.051	342.88
304.281	187.88
304.511	141.88
304.741	134.88
304.971	125.88
305.201	124.88
305.431	119.88
305.661	115.88
305.891	109.88
306.121	111.88
306.352	115.88
306.582	116.88
306.812	110.88
307.042	121.88
307.272	111.88
307.502	113.88
307.731	111.88
307.961	115.88
308.191	120.88
308.421	115.88
308.651	113.88
308.881	115.88
309.111	103.88
309.341	119.88
309.571	113.88
309.8	111.88
310.03	118.88
310.26	117.88
310.49	119.88
310.72	116.88
310.949	115.88
311.179	114.88
311.409	113.88
311.639	97.88
311.868	125.88
312.098	117.88
312.328	117.88
312.557	128.88
312.787	120.88
313.017	115.88
313.246	128.88
313.476	117.88
313.706	138.88
313.935	186.88
314.165	221.88
314.394	275.88
314.624	203.88
314.853	136.88
315.083	127.88
315.312	144.88
315.542	160.88
315.771	148.88
316.001	150.88
316.23	147.88
316.46	159.88
316.689	191.88
316.919	298.88
317.148	570.88
317.377	1056.88
317.607	1743.88
317.836	1627.88
318.065	612.88
318.295	255.88
318.524	175.88
318.753	144.88
318.983	134.88
319.212	128.88
319.441	130.88
319.67	115.88
319.9	115.88
320.129	124.88
320.358	123.88
320.587	130.88
320.816	119.88
321.046	128.88
321.275	131.88
321.504	154.88
321.733	166.88
321.962	199.88
322.191	185.88
322.42	147.88
322.649	139.88
322.878	135.88
323.108	145.88
323.337	127.88
323.566	143.88
323.795	131.88
324.024	137.88
324.253	158.88
324.482	192.88
324.71	258.88
324.939	316.88
325.168	267.88
325.397	210.88
325.626	285.88
325.855	556.88
326.084	1090.88
326.313	1845.88
326.542	1843.88
326.77	703.88
326.999	309.88
327.228	257.88
327.457	259.88
327.686	262.88
327.914	186.88
328.143	146.88
328.372	129.88
328.6	137.88
328.829	129.88
329.058	139.88
329.287	134.88
329.515	126.88
329.744	120.88
329.972	125.88
330.201	130.88
330.43	117.88
330.658	123.88
330.887	127.88
331.115	138.88
331.344	129.88
331.572	131.88
331.801	131.88
332.03	142.88
332.258	130.88
332.486	175.88
332.715	315.88
332.943	586.88
333.172	872.88
333.4	761.88
333.629	287.88
333.857	152.88
334.085	139.88
334.314	123.88
334.542	128.88
334.771	137.88
334.999	136.88
335.227	139.88
335.455	121.88
335.684	129.88
335.912	123.88
336.14	114.88
336.369	135.88
336.597	111.88
336.825	118.88
337.053	111.88
337.281	113.88
337.51	123.88
337.738	134.88
337.966	117.88
338.194	117.88
338.422	120.88
338.65	107.88
338.878	131.88
339.106	127.88
339.334	134.88
339.562	120.88
339.79	112.88
340.018	128.88
340.246	123.88
340.474	118.88
340.702	115.88
340.93	111.88
341.158	121.88
341.386	124.88
341.614	131.88
341.842	125.88
342.07	141.88
342.298	130.88
342.526	113.88
342.754	121.88
342.981	109.88
343.209	123.88
343.437	111.88
343.665	113.88
343.893	123.88
344.12	111.88
344.348	107.88
344.576	116.88
344.804	113.88
345.031	125.88
345.259	128.88
345.487	115.88
345.714	119.88
345.942	131.88
346.17	127.88
346.397	131.88
346.625	114.88
346.853	106.88
347.08	120.88
347.308	114.88
347.535	104.88
347.763	94.88
347.99	119.88
348.218	113.88
348.445	123.88
348.673	121.88
348.9	136.88
349.128	136.88
349.355	133.88
349.583	144.88
349.81	134.88
350.037	125.88
350.265	116.88
350.492	119.88
350.72	113.88
350.947	120.88
351.174	124.88
351.402	147.88
351.629	129.88
351.856	128.88
352.083	117.88
352.311	118.88
352.538	124.88
352.765	130.88
352.992	108.88
353.22	125.88
353.447	119.88
353.674	117.88
353.901	106.88
354.128	111.88
354.355	111.88
354.583	113.88
354.81	122.88
355.037	122.88
355.264	122.88
355.491	102.88
355.718	104.88
355.945	105.88
356.172	111.88
356.399	119.88
356.626	111.88
356.853	115.88
357.08	116.88
357.307	118.88
357.534	116.88
357.761	121.88
357.988	114.88
358.215	123.88
358.441	121.88
358.668	143.88
358.895	120.88
359.122	117.88
359.349	100.88
359.576	113.88
359.802	131.88
360.029	123.88
360.256	114.88
360.483	121.88
360.709	122.88
360.936	124.88
361.163	120.88
361.39	124.88
361.616	124.88
361.843	111.88
362.07	123.88
362.296	121.88
362.523	97.88
362.749	95.88
362.976	106.88
363.203	105.88
363.429	116.88
363.656	120.88
363.882	117.88
364.109	118.88
364.335	111.88
364.562	111.88
364.788	114.88
365.015	123.88
365.241	153.88
365.468	203.88
365.694	303.88
365.92	243.88
366.147	141.88
366.373	107.88
366.599	105.88
366.826	116.88
367.052	91.88
367.278	105.88
367.505	114.88
367.731	99.88
367.957	116.88
368.184	112.88
368.41	125.88
368.636	119.88
368.862	101.88
369.089	101.88
369.315	119.88
369.541	100.88
369.767	125.88
369.993	113.88
370.219	111.88
370.445	120.88
370.672	125.88
370.898	123.88
371.124	104.88
371.35	108.88
371.576	128.88
371.802	117.88
372.028	122.88
372.254	119.88
372.48	120.88
372.706	111.88
372.932	125.88
373.158	123.88
373.384	120.88
373.61	112.88
373.835	125.88
374.061	128.88
374.287	121.88
374.513	114.88
374.739	123.88
374.965	112.88
375.191	114.88
375.416	115.88
375.642	131.88
375.868	118.88
376.094	116.88
376.319	127.88
376.545	122.88
376.771	122.88
376.997	112.88
377.222	121.88
377.448	119.88
377.674	107.88
377.899	122.88
378.125	101.88
378.35	117.88
378.576	124.88
378.802	119.88
379.027	120.88
379.253	153.88
379.478	212.88
379.704	349.88
379.929	879.88
380.155	1855.88
380.38	1907.88
380.606	582.88
380.831	208.88
381.057	147.88
381.282	133.88
381.507	127.88
381.733	117.88
381.958	113.88
382.184	124.88
382.409	120.88
382.634	104.88
382.86	115.88
383.085	111.88
383.31	114.88
383.535	108.88
383.761	123.88
383.986	115.88
384.211	109.88
384.436	102.88
384.662	104.88
384.887	95.88
385.112	124.88
385.337	103.88
385.562	107.88
385.787	111.88
386.013	117.88
386.238	130.88
386.463	106.88
386.688	107.88
386.913	126.88
387.138	101.88
387.363	98.88
387.588	103.88
387.813	106.88
388.038	104.88
388.263	119.88
388.488	106.88
388.713	111.88
388.938	112.88
389.163	113.88
389.387	103.88
389.612	108.88
389.837	116.88
390.062	114.88
390.287	118.88
390.512	94.88
390.736	111.88
390.961	107.88
391.186	104.88
391.411	106.88
391.636	112.88
391.86	101.88
392.085	98.88
392.31	114.88
392.534	106.88
392.759	93.88
392.984	105.88
393.208	123.88
393.433	164.88
393.658	177.88
393.882	122.88
394.107	102.88
394.331	105.88
394.556	108.88
394.78	105.88
395.005	110.88
395.229	103.88
395.454	109.88
395.678	112.88
395.903	107.88
396.127	110.88
396.352	110.88
396.576	103.88
396.801	124.88
397.025	140.88
397.249	133.88
397.474	119.88
397.698	109.88
397.922	115.88
398.147	106.88
398.371	107.88
398.595	114.88
398.82	119.88
399.044	90.88
399.268	100.88
399.492	113.88
399.717	112.88
399.941	112.88
400.165	104.88
400.389	108.88
400.613	99.88
400.837	103.88
401.062	103.88
401.286	108.88
401.51	103.88
401.734	105.88
401.958	112.88
402.182	93.88
402.406	99.88
402.63	97.88
402.854	95.88
403.078	104.88
403.302	98.88
403.526	118.88
403.75	92.88
403.974	109.88
404.198	88.88
404.422	111.88
404.645	112.88
404.869	112.88
405.093	98.88
405.317	94.88
405.541	121.88
405.765	147.88
405.988	167.88
406.212	125.88
406.436	115.88
406.66	113.88
406.883	100.88
407.107	108.88
407.331	91.88
407.555	91.88
407.778	104.88
408.002	113.88
408.226	111.88
408.449	98.88
408.673	120.88
408.896	103.88
409.12	115.88
409.344	115.88
409.567	108.88
409.791	113.88
410.014	103.88
410.238	120.88
410.461	100.88
410.685	99.88
410.908	98.88
411.132	100.88
411.355	99.88
411.578	98.88
411.802	97.88
412.025	110.88
412.249	118.88
412.472	99.88
412.695	99.88
412.919	109.88
413.142	112.88
413.365	103.88
413.589	121.88
413.812	103.88
414.035	123.88
414.258	116.88
414.482	111.88
414.705	113.88
414.928	106.88
415.151	111.88
415.374	103.88
415.597	104.88
415.821	93.88
416.044	88.88
416.267	103.88
416.49	106.88
416.713	107.88
416.936	96.88
417.159	110.88
417.382	114.88
417.605	101.88
417.828	114.88
418.051	83.88
418.274	108.88
418.497	85.88
418.72	110.88
418.943	123.88
419.166	99.88
419.389	114.88
419.611	125.88
419.834	111.88
420.057	111.88
420.28	106.88
420.503	106.88
420.726	106.88
420.948	92.88
421.171	112.88
421.394	111.88
421.617	93.88
421.839	108.88
422.062	94.88
422.285	93.88
422.507	100.88
422.73	136.88
422.953	147.88
423.175	112.88
423.398	102.88
423.621	95.88
423.843	94.88
424.066	93.88
424.288	96.88
424.511	97.88
424.733	96.88
424.956	97.88
425.178	103.88
425.401	104.88
425.623	117.88
425.846	97.88
426.068	89.88
426.291	92.88
426.513	98.88
426.735	115.88
426.958	83.88
427.18	113.88
427.402	115.88
427.625	117.88
427.847	109.88
428.069	105.88
428.292	109.88
428.514	100.88
428.736	104.88
428.958	103.88
429.181	114.88
429.403	102.88
429.625	94.88
429.847	114.88
430.069	120.88
430.292	128.88
430.514	109.88
430.736	112.88
430.958	111.88
431.18	106.88
431.402	92.88
431.624	111.88
431.846	102.88
432.068	93.88
432.29	95.88
432.512	92.88
432.734	102.88
432.956	115.88
433.178	103.88
433.4	102.88
433.622	110.88
433.844	90.88
434.066	101.88
434.287	117.88
434.509	107.88
434.731	102.88
434.953	100.88
435.175	112.88
435.397	105.88
435.618	101.88
435.84	101.88
436.062	88.88
436.284	103.88
436.505	92.88
436.727	102.88
436.949	92.88
437.17	101.88
437.392	88.88
437.614	102.88
437.835	114.88
438.057	98.88
438.278	106.88
438.5	100.88
438.721	105.88
438.943	116.88
439.165	130.88
439.386	116.88
439.608	109.88
439.829	104.88
440.05	123.88
440.272	131.88
440.493	108.88
440.715	89.88
440.936	94.88
441.158	98.88
441.379	104.88
441.6	101.88
441.822	118.88
442.043	115.88
442.264	138.88
442.486	125.88
442.707	108.88
442.928	111.88
443.149	79.88
443.371	111.88
443.592	92.88
443.813	103.88
444.034	88.88
444.255	106.88
444.476	100.88
444.698	102.88
444.919	92.88
445.14	203.88
445.361	132.88
445.582	101.88
445.803	94.88
446.024	108.88
446.245	112.88
446.466	124.88
446.687	118.88
446.908	108.88
447.129	100.88
447.35	106.88
447.571	94.88
447.792	115.88
448.013	103.88
448.234	104.88
448.455	109.88
448.675	111.88
448.896	119.88
449.117	117.88
449.338	133.88
449.559	163.88
449.779	131.88
450	120.88
450.221	104.88
450.442	121.88
450.662	123.88
450.883	112.88
451.104	122.88
451.324	123.88
451.545	127.88
451.766	127.88
451.986	147.88
452.207	223.88
452.428	664.88
452.648	1615.88
452.869	889.88
453.089	244.88
453.31	130.88
453.53	136.88
453.751	152.88
453.971	183.88
454.192	171.88
454.412	120.88
454.633	101.88
454.853	96.88
455.073	105.88
455.294	108.88
455.514	107.88
455.734	93.88
455.955	108.88
456.175	94.88
456.395	100.88
456.616	96.88
456.836	114.88
457.056	95.88
457.276	113.88
457.497	124.88
457.717	135.88
457.937	111.88
458.157	104.88
458.377	97.88
458.598	87.88
458.818	100.88
459.038	91.88
459.258	95.88
459.478	85.88
459.698	98.88
459.918	95.88
460.138	103.88
460.358	111.88
460.578	102.88
460.798	95.88
461.018	104.88
461.238	84.88
461.458	90.88
461.678	107.88
461.898	92.88
462.118	88.88
462.338	117.88
462.558	100.88
462.777	108.88
462.997	116.88
463.217	116.88
463.437	132.88
463.657	190.88
463.876	203.88
464.096	146.88
464.316	120.88
464.536	114.88
464.755	100.88
464.975	98.88
465.195	109.88
465.414	104.88
465.634	92.88
465.854	90.88
466.073	99.88
466.293	100.88
466.512	106.88
466.732	111.88
466.951	113.88
467.171	146.88
467.391	156.88
467.61	102.88
467.829	106.88
468.049	102.88
468.268	94.88
468.488	103.88
468.707	86.88
468.927	111.88
469.146	108.88
469.365	106.88
469.585	116.88
469.804	105.88
470.023	104.88
470.243	101.88
470.462	111.88
470.681	121.88
470.901	144.88
471.12	216.88
471.339	223.88
471.558	147.88
471.777	117.88
471.997	120.88
472.216	111.88
472.435	101.88
472.654	99.88
472.873	95.88
473.092	101.88
473.311	99.88
473.53	108.88
473.749	97.88
473.968	119.88
474.187	122.88
474.406	96.88
474.625	107.88
474.844	96.88
475.063	109.88
475.282	92.88
475.501	122.88
475.72	104.88
475.939	100.88
476.158	120.88
476.377	118.88
476.596	109.88
476.814	120.88
477.033	105.88
477.252	88.88
477.471	84.88
477.69	99.88
477.908	92.88
478.127	105.88
478.346	94.88
478.564	94.88
478.783	91.88
479.002	97.88
479.22	89.88
479.439	108.88
479.658	87.88
479.876	105.88
480.095	93.88
480.313	100.88
480.532	101.88
480.751	105.88
480.969	108.88
481.188	90.88
481.406	108.88
481.624	116.88
481.843	123.88
482.061	127.88
482.28	101.88
482.498	80.88
482.717	95.88
482.935	97.88
483.153	96.88
483.372	115.88
483.59	106.88
483.808	115.88
484.027	114.88
484.245	141.88
484.463	197.88
484.681	267.88
484.9	154.88
485.118	118.88
485.336	115.88
485.554	120.88
485.772	143.88
485.99	197.88
486.209	275.88
486.427	177.88
486.645	128.88
486.863	111.88
487.081	106.88
487.299	116.88
487.517	107.88
487.735	100.88
487.953	115.88
488.171	121.88
488.389	104.88
488.607	103.88
488.825	93.88
489.043	106.88
489.261	121.88
489.479	100.88
489.696	87.88
489.914	119.88
490.132	111.88
490.35	107.88
490.568	104.88
490.786	92.88
491.003	116.88
491.221	121.88
491.439	109.88
491.657	105.88
491.874	92.88
492.092	108.88
492.31	132.88
492.527	115.88
492.745	104.88
492.963	107.88
493.18	113.88
493.398	131.88
493.615	101.88
493.833	101.88
494.05	120.88
494.268	104.88
494.485	97.88
494.703	113.88
494.92	113.88
495.138	106.88
495.355	130.88
495.573	116.88
495.79	100.88
496.008	123.88
496.225	101.88
496.442	94.88
496.66	118.88
496.877	177.88
497.094	167.88
497.312	118.88
497.529	116.88
497.746	111.88
497.963	114.88
498.181	115.88
498.398	111.88
498.615	115.88
498.832	116.88
499.049	126.88
499.267	148.88
499.484	164.88
499.701	137.88
499.918	119.88
500.135	99.88
500.352	100.88
500.569	107.88
500.786	105.88
501.003	100.88
501.22	89.88
501.437	102.88
501.654	114.88
501.871	98.88
502.088	101.88
502.305	105.88
502.522	97.88
502.739	96.88
502.956	109.88
503.172	108.88
503.389	102.88
503.606	109.88
503.823	113.88
504.04	107.88
504.256	102.88
504.473	104.88
504.69	101.88
504.907	119.88
505.123	129.88
505.34	114.88
505.557	109.88
505.773	105.88
