Data from SnStandardFlinnAPT0064_LampEnergy10_LIBS07252019.E.O._I.C._HRD10591_15-21-10-494.txt Node
Date: Thu Jul 25 15:21:10 EDT 2019
User: cochatt
Spectrometer: HR+D1059
Trigger mode: 1
Integration Time (sec): 1.000000E-1
Scans to average: 1
Electric dark correction enabled: true
Nonlinearity correction enabled: false
Boxcar width: 0
XAxis mode: Wavelengths
Number of Pixels in Spectrum: 2048
>>>>>Begin Spectral Data<<<<<
223.165	-13
223.4	-13
223.635	-13
223.869	-14
224.104	-11
224.338	-25
224.573	-27
224.808	-9
225.042	-2
225.277	14
225.511	-3
225.746	11
225.98	-7
226.215	8
226.449	15
226.683	15
226.918	18
227.152	30
227.387	36
227.621	40
227.856	41
228.09	40
228.324	50
228.559	54
228.793	124
229.027	295
229.262	346
229.496	302
229.73	312
229.964	288
230.199	300
230.433	308
230.667	286
230.901	321
231.136	318
231.37	344
231.604	388
231.838	442
232.072	514
232.306	590
232.541	487
232.775	404
233.009	414
233.243	428
233.477	468
233.711	517
233.945	581
234.179	508
234.413	432
234.647	434
234.881	461
235.115	515
235.349	616
235.583	800
235.817	1009
236.051	1004
236.285	642
236.519	506
236.753	487
236.987	497
237.221	532
237.455	512
237.689	471
237.922	444
238.156	481
238.39	493
238.624	498
238.858	487
239.091	477
239.325	481
239.559	489
239.793	530
240.027	522
240.26	526
240.494	565
240.728	568
240.961	611
241.195	645
241.429	674
241.662	705
241.896	794
242.13	948
242.363	1235
242.597	1649
242.83	1536
243.064	1552
243.298	1837
243.531	1486
243.765	959
243.998	772
244.232	688
244.465	643
244.699	650
244.932	629
245.166	658
245.399	676
245.633	676
245.866	694
246.099	669
246.333	651
246.566	661
246.8	628
247.033	639
247.266	655
247.5	648
247.733	686
247.966	705
248.2	732
248.433	859
248.666	1006
248.899	968
249.133	811
249.366	868
249.599	956
249.832	1090
250.066	1082
250.299	859
250.532	773
250.765	754
250.998	732
251.231	746
251.465	717
251.698	715
251.931	734
252.164	732
252.397	765
252.63	772
252.863	790
253.096	782
253.329	766
253.562	773
253.795	768
254.028	806
254.261	834
254.494	877
254.727	1039
254.96	1244
255.193	1230
255.426	951
255.659	872
255.892	859
256.124	877
256.357	887
256.59	917
256.823	988
257.056	1107
257.289	1356
257.521	1499
257.754	1197
257.987	971
258.22	914
258.452	904
258.685	920
258.918	916
259.151	1006
259.383	1073
259.616	1224
259.849	1289
260.081	1079
260.314	1019
260.547	973
260.779	960
261.012	945
261.244	961
261.477	965
261.71	992
261.942	992
262.175	1001
262.407	1037
262.64	1047
262.872	1097
263.105	1113
263.337	1191
263.57	1253
263.802	1259
264.035	1286
264.267	1367
264.499	1352
264.732	1426
264.964	1450
265.197	1446
265.429	1458
265.661	1458
265.894	1562
266.126	1725
266.358	1955
266.591	1931
266.823	1605
267.055	1456
267.287	1393
267.52	1306
267.752	1258
267.984	1276
268.216	1241
268.448	1264
268.681	1268
268.913	1232
269.145	1202
269.377	1246
269.609	1248
269.841	1288
270.073	1352
270.306	1600
270.538	2155
270.77	3211
271.002	3998
271.234	2773
271.466	1852
271.698	1508
271.93	1409
272.162	1333
272.394	1292
272.626	1236
272.858	1245
273.09	1222
273.322	1202
273.553	1197
273.785	1213
274.017	1188
274.249	1213
274.481	1176
274.713	1216
274.945	1185
275.176	1203
275.408	1209
275.64	1238
275.872	1247
276.104	1235
276.335	1265
276.567	1266
276.799	1267
277.031	1300
277.262	1329
277.494	1392
277.726	1568
277.957	1815
278.189	2107
278.421	1966
278.652	1745
278.884	1647
279.115	1444
279.347	1408
279.579	1377
279.81	1406
280.042	1373
280.273	1426
280.505	1446
280.736	1469
280.968	1606
281.199	1745
281.431	2038
281.662	2091
281.894	1782
282.125	1630
282.356	1646
282.588	1651
282.819	1702
283.051	1812
283.282	1997
283.513	2462
283.745	3576
283.976	5642
284.207	8075
284.439	7296
284.67	4492
284.901	3736
285.132	3724
285.364	3570
285.595	2700
285.826	2402
286.057	2791
286.288	3843
286.52	5297
286.751	4935
286.982	3021
287.213	2246
287.444	1947
287.675	1828
287.906	1754
288.138	1701
288.369	1683
288.6	1705
288.831	1653
289.062	1671
289.293	1652
289.524	1694
289.755	1703
289.986	1674
290.217	1736
290.448	1709
290.679	1701
290.91	1762
291.141	1894
291.371	2016
291.602	2114
291.833	1928
292.064	1722
292.295	1643
292.526	1632
292.757	1611
292.987	1617
293.218	1600
293.449	1601
293.68	1579
293.91	1566
294.141	1567
294.372	1543
294.603	1563
294.833	1550
295.064	1550
295.295	1584
295.525	1556
295.756	1556
295.987	1514
296.217	1542
296.448	1568
296.679	1561
296.909	1572
297.14	1575
297.37	1614
297.601	1630
297.831	1627
298.062	1634
298.292	1621
298.523	1690
298.753	1704
298.984	1704
299.214	1692
299.445	1754
299.675	1754
299.905	1827
300.136	1932
300.366	2113
300.597	2740
300.827	3808
301.057	5248
301.288	5263
301.518	3362
301.748	2600
301.979	2352
302.209	2264
302.439	2260
302.669	2417
302.9	2936
303.13	4120
303.36	6108
303.59	8250
303.82	7196
304.051	4174
304.281	3024
304.511	2485
304.741	2305
304.971	2217
305.201	2065
305.431	2028
305.661	1976
305.891	1917
306.121	1893
306.352	1838
306.582	1827
306.812	1828
307.042	1857
307.272	1777
307.502	1825
307.731	1829
307.961	1774
308.191	1793
308.421	1806
308.651	1815
308.881	1771
309.111	1816
309.341	1828
309.571	1828
309.8	1864
310.03	1862
310.26	1856
310.49	1867
310.72	1857
310.949	1855
311.179	1897
311.409	1901
311.639	1871
311.868	1903
312.098	1919
312.328	1939
312.557	1948
312.787	1953
313.017	1988
313.246	1968
313.476	2022
313.706	2094
313.935	2219
314.165	2401
314.394	2490
314.624	2356
314.853	2143
315.083	2116
315.312	2096
315.542	2183
315.771	2198
316.001	2248
316.23	2338
316.46	2413
316.689	2665
316.919	3222
317.148	4600
317.377	7114
317.607	10514
317.836	10890
318.065	6700
318.295	4250
318.524	3366
318.753	2965
318.983	2722
319.212	2510
319.441	2481
319.67	2432
319.9	2373
320.129	2372
320.358	2303
320.587	2304
320.816	2337
321.046	2337
321.275	2366
321.504	2398
321.733	2458
321.962	2502
322.191	2528
322.42	2480
322.649	2467
322.878	2460
323.108	2445
323.337	2521
323.566	2561
323.795	2601
324.024	2657
324.253	2710
324.482	2873
324.71	2974
324.939	3145
325.168	3279
325.397	3440
325.626	3973
325.855	5615
326.084	8715
326.313	12657
326.542	13427
326.77	8932
326.999	5897
327.228	4934
327.457	4702
327.686	4733
327.914	5076
328.143	5908
328.372	7058
328.6	7750
328.829	6892
329.058	5697
329.287	5004
329.515	4524
329.744	4223
329.972	4017
330.201	3874
330.43	3710
330.658	3617
330.887	3528
331.115	3460
331.344	3470
331.572	3440
331.801	3502
332.03	3523
332.258	3525
332.486	3741
332.715	4296
332.943	5341
333.172	6594
333.4	6496
333.629	4963
333.857	4484
334.085	4428
334.314	4667
334.542	5182
334.771	5974
334.999	7311
335.227	9226
335.455	10180
335.684	9293
335.912	7536
336.14	6380
336.369	5682
336.597	5273
336.825	4793
337.053	4502
337.281	4276
337.51	3956
337.738	3831
337.966	3694
338.194	3623
338.422	3443
338.65	3390
338.878	3338
339.106	3238
339.334	3182
339.562	3153
339.79	3058
340.018	3070
340.246	3005
340.474	2991
340.702	3013
340.93	2998
341.158	2983
341.386	2987
341.614	2971
341.842	2904
342.07	2792
342.298	2827
342.526	2778
342.754	2697
342.981	2726
343.209	2691
343.437	2756
343.665	2789
343.893	2791
344.12	2818
344.348	2728
344.576	2762
344.804	2720
345.031	2596
345.259	2622
345.487	2570
345.714	2532
345.942	2514
346.17	2576
346.397	2483
346.625	2542
346.853	2577
347.08	2503
347.308	2508
347.535	2481
347.763	2480
347.99	2443
348.218	2470
348.445	2490
348.673	2466
348.9	2472
349.128	2459
349.355	2419
349.583	2480
349.81	2423
350.037	2415
350.265	2401
350.492	2378
350.72	2436
350.947	2373
351.174	2384
351.402	2392
351.629	2410
351.856	2384
352.083	2369
352.311	2355
352.538	2349
352.765	2358
352.992	2314
353.22	2371
353.447	2349
353.674	2361
353.901	2408
354.128	2416
354.355	2354
354.583	2460
354.81	2397
355.037	2398
355.264	2393
355.491	2429
355.718	2440
355.945	2472
356.172	2521
356.399	2477
356.626	2510
356.853	2539
357.08	2492
357.307	2510
357.534	2554
357.761	2579
357.988	2556
358.215	2586
358.441	2543
358.668	2532
358.895	2519
359.122	2536
359.349	2532
359.576	2499
359.802	2517
360.029	2507
360.256	2506
360.483	2522
360.709	2579
360.936	2565
361.163	2550
361.39	2528
361.616	2528
361.843	2563
362.07	2605
362.296	2529
362.523	2568
362.749	2539
362.976	2502
363.203	2480
363.429	2492
363.656	2514
363.882	2485
364.109	2528
364.335	2509
364.562	2516
364.788	2566
365.015	2613
365.241	2566
365.468	2814
365.694	2947
365.92	2844
366.147	2629
366.373	2619
366.599	2619
366.826	2601
367.052	2592
367.278	2658
367.505	2597
367.731	2602
367.957	2613
368.184	2606
368.41	2696
368.636	2628
368.862	2651
369.089	2635
369.315	2609
369.541	2622
369.767	2634
369.993	2594
370.219	2616
370.445	2621
370.672	2689
370.898	2656
371.124	2668
371.35	2695
371.576	2760
371.802	2717
372.028	2762
372.254	2756
372.48	2720
372.706	2773
372.932	2812
373.158	2800
373.384	2804
373.61	2785
373.835	2822
374.061	2784
374.287	2891
374.513	2826
374.739	2864
374.965	2882
375.191	2900
375.416	2841
375.642	2826
375.868	2873
376.094	2810
376.319	2725
376.545	2791
376.771	2733
376.997	2663
377.222	2772
377.448	2702
377.674	2726
377.899	2667
378.125	2685
378.35	2756
378.576	2726
378.802	2745
379.027	2839
379.253	2898
379.478	3032
379.704	3568
379.929	5144
380.155	7882
380.38	8602
380.606	5260
380.831	3670
381.057	3184
381.282	2976
381.507	2878
381.733	2820
381.958	2674
382.184	2663
382.409	2734
382.634	2704
382.86	2685
383.085	2681
383.31	2662
383.535	2650
383.761	2689
383.986	2708
384.211	2748
384.436	2753
384.662	2800
384.887	2798
385.112	2796
385.337	2785
385.562	2778
385.787	2712
386.013	2818
386.238	2793
386.463	2732
386.688	2827
386.913	2778
387.138	2794
387.363	2734
387.588	2724
387.813	2733
388.038	2746
388.263	2783
388.488	2760
388.713	2749
388.938	2772
389.163	2762
389.387	2760
389.612	2792
389.837	2784
390.062	2753
390.287	2745
390.512	2764
390.736	2825
390.961	2846
391.186	2888
391.411	2888
391.636	2909
391.86	2898
392.085	2929
392.31	2876
392.534	2866
392.759	2867
392.984	2818
393.208	2771
393.433	2851
393.658	2828
393.882	2769
394.107	2770
394.331	2770
394.556	2768
394.78	2793
395.005	2859
395.229	2825
395.454	2891
395.678	2893
395.903	2851
396.127	2896
396.352	2866
396.576	2813
396.801	2882
397.025	2860
397.249	2878
397.474	2925
397.698	2921
397.922	2878
398.147	2906
398.371	2969
398.595	3000
398.82	3064
399.044	3232
399.268	3354
399.492	3544
399.717	3644
399.941	3664
400.165	3458
400.389	3393
400.613	3221
400.837	3161
401.062	3092
401.286	3096
401.51	3009
401.734	3020
401.958	3080
402.182	3080
402.406	3030
402.63	3053
402.854	3117
403.078	3139
403.302	3128
403.526	3144
403.75	3143
403.974	3176
404.198	3116
404.422	3176
404.645	3201
404.869	3122
405.093	3130
405.317	3182
405.541	3186
405.765	3175
405.988	3247
406.212	3284
406.436	3264
406.66	3257
406.883	3270
407.107	3367
407.331	3408
407.555	3462
407.778	3424
408.002	3396
408.226	3389
408.449	3420
408.673	3280
408.896	3278
409.12	3252
409.344	3189
409.567	3174
409.791	3180
410.014	3180
410.238	3125
410.461	3130
410.685	3146
410.908	3070
411.132	3115
411.355	3021
411.578	3080
411.802	3024
412.025	3016
412.249	3110
412.472	3076
412.695	2986
412.919	2958
413.142	2968
413.365	2984
413.589	3003
413.812	2987
414.035	2957
414.258	2982
414.482	2972
414.705	2968
414.928	2983
415.151	3027
415.374	2938
415.597	2931
415.821	2853
416.044	2853
416.267	2864
416.49	2845
416.713	2879
416.936	2868
417.159	2827
417.382	2754
417.605	2742
417.828	2864
418.051	2926
418.274	2883
418.497	2880
418.72	2989
418.943	2904
419.166	3030
419.389	3222
419.611	3184
419.834	3044
420.057	3000
420.28	2948
420.503	2856
420.726	2840
420.948	2874
421.171	2885
421.394	2874
421.617	2853
421.839	2879
422.062	2905
422.285	2801
422.507	2909
422.73	2923
422.953	2941
423.175	2991
423.398	2966
423.621	2864
423.843	2849
424.066	2860
424.288	2859
424.511	2898
424.733	2856
424.956	2870
425.178	2822
425.401	2844
425.623	2856
425.846	2761
426.068	2736
426.291	2720
426.513	2814
426.735	2700
426.958	2712
427.18	2689
427.402	2686
427.625	2728
427.847	2694
428.069	2668
428.292	2684
428.514	2686
428.736	2658
428.958	2672
429.181	2569
429.403	2624
429.625	2685
429.847	2644
430.069	2681
430.292	2762
430.514	2861
430.736	2876
430.958	2734
431.18	2624
431.402	2605
431.624	2633
431.846	2620
432.068	2544
432.29	2624
432.512	2537
432.734	2660
432.956	2584
433.178	2680
433.4	2604
433.622	2648
433.844	2713
434.066	2654
434.287	2656
434.509	2645
434.731	2728
434.953	2732
435.175	2764
435.397	2713
435.618	2668
435.84	2631
436.062	2587
436.284	2582
436.505	2614
436.727	2631
436.949	2628
437.17	2614
437.392	2520
437.614	2628
437.835	2518
438.057	2534
438.278	2491
438.5	2559
438.721	2594
438.943	2684
439.165	2728
439.386	2707
439.608	2720
439.829	2688
440.05	2755
440.272	2858
440.493	2740
440.715	2738
440.936	2675
441.158	2772
441.379	2748
441.6	2847
441.822	2958
442.043	3090
442.264	3192
442.486	2941
442.707	2839
442.928	2805
443.149	2827
443.371	2774
443.592	2841
443.813	2801
444.034	2818
444.255	2885
444.476	2965
444.698	2939
444.919	2993
445.14	3057
445.361	2961
445.582	2862
445.803	2842
446.024	2796
446.245	2837
446.466	2846
446.687	2713
446.908	2734
447.129	2662
447.35	2627
447.571	2657
447.792	2584
448.013	2605
448.234	2568
448.455	2591
448.675	2626
448.896	2689
449.117	2755
449.338	2983
449.559	3148
449.779	2796
450	2605
450.221	2525
450.442	2578
450.662	2501
450.883	2526
451.104	2517
451.324	2516
451.545	2514
451.766	2577
451.986	2549
452.207	2777
452.428	3600
452.648	5442
452.869	4572
453.089	3124
453.31	2983
453.53	2858
453.751	3018
453.971	3188
454.192	3141
454.412	2703
454.633	2584
454.853	2524
455.073	2449
455.294	2483
455.514	2446
455.734	2427
455.955	2393
456.175	2367
456.395	2400
456.616	2412
456.836	2398
457.056	2446
457.276	2432
457.497	2588
457.717	2650
457.937	2574
458.157	2533
458.377	2560
458.598	2542
458.818	2605
459.038	2622
459.258	2646
459.478	2654
459.698	2661
459.918	2662
460.138	2695
460.358	2822
460.578	2805
460.798	2855
461.018	2868
461.238	2820
461.458	2870
461.678	2850
461.898	2985
462.118	3020
462.338	3021
462.558	3080
462.777	3147
462.997	3268
463.217	3424
463.437	3492
463.657	3556
463.876	3516
464.096	3365
464.316	3259
464.536	3161
464.755	3122
464.975	3002
465.195	2885
465.414	2826
465.634	2729
465.854	2686
466.073	2662
466.293	2656
466.512	2655
466.732	2689
466.951	2777
467.171	2986
467.391	2946
467.61	2666
467.829	2658
468.049	2629
468.268	2535
468.488	2564
468.707	2539
468.927	2539
469.146	2562
469.365	2627
469.585	2624
469.804	2681
470.023	2750
470.243	2797
470.462	2856
470.681	2980
470.901	3290
471.12	3785
471.339	3766
471.558	3142
471.777	2877
471.997	2786
472.216	2670
472.435	2649
472.654	2613
472.873	2573
473.092	2568
473.311	2581
473.53	2621
473.749	2717
473.968	2776
474.187	2663
474.406	2578
474.625	2610
474.844	2614
475.063	2614
475.282	2623
475.501	2585
475.72	2623
475.939	2638
476.158	2667
476.377	2785
476.596	2740
476.814	2730
477.033	2762
477.252	2785
477.471	2830
477.69	2830
477.908	2906
478.127	2935
478.346	2949
478.564	3003
478.783	3046
479.002	3078
479.22	3071
479.439	3147
479.658	3155
479.876	3107
480.095	3131
480.313	3200
480.532	3190
480.751	3196
480.969	3172
481.188	3170
481.406	3100
481.624	3106
481.843	3196
482.061	3227
482.28	3112
482.498	3132
482.717	3170
482.935	3190
483.153	3222
483.372	3300
483.59	3303
483.808	3305
484.027	3435
484.245	3587
484.463	4060
484.681	4543
484.9	4131
485.118	3808
485.336	3722
485.554	3773
485.772	3994
485.99	4578
486.209	4951
486.427	4160
486.645	3655
486.863	3563
487.081	3473
487.299	3410
487.517	3358
487.735	3310
487.953	3350
488.171	3316
488.389	3292
488.607	3254
488.825	3291
489.043	3161
489.261	3214
489.479	3227
489.696	3231
489.914	3248
490.132	3252
490.35	3284
490.568	3341
490.786	3336
491.003	3344
491.221	3399
491.439	3342
491.657	3336
491.874	3356
492.092	3398
492.31	3494
492.527	3382
492.745	3385
492.963	3347
493.18	3372
493.398	3338
493.615	3340
493.833	3402
494.05	3380
494.268	3411
494.485	3461
494.703	3466
494.92	3444
495.138	3381
495.355	3372
495.573	3413
495.79	3452
496.008	3470
496.225	3474
496.442	3582
496.66	3645
496.877	3913
497.094	3845
497.312	3691
497.529	3636
497.746	3761
497.963	3800
498.181	3920
498.398	3978
498.615	4106
498.832	4257
499.049	4417
499.267	4743
499.484	5101
499.701	5072
499.918	5173
500.135	5453
500.352	5714
500.569	5780
500.786	5717
501.003	5605
501.22	5256
501.437	4960
501.654	4745
501.871	4557
502.088	4324
502.305	4203
502.522	4106
502.739	3978
502.956	3894
503.172	3776
503.389	3696
503.606	3697
503.823	3626
504.04	3548
504.256	3568
504.473	3567
504.69	3545
504.907	3499
505.123	3415
505.34	3312
505.557	3273
505.773	3242
505.99	3242
506.207	3105
506.423	3099
506.64	3062
506.856	3020
507.073	3010
507.289	3051
507.506	3066
507.722	2985
507.939	2995
508.155	2955
508.372	2978
508.588	2933
508.805	2955
509.021	2936
509.238	3002
509.454	3173
509.67	3338
509.887	3109
510.103	3056
510.319	2966
510.536	2952
510.752	2940
510.968	2875
511.184	2850
511.401	2946
511.617	2870
511.833	2833
512.049	2826
512.265	2800
512.481	2824
512.698	2844
512.914	2793
513.13	2811
513.346	2807
513.562	2817
513.778	2815
513.994	2856
514.21	2924
514.426	3167
514.642	3269
514.858	2985
515.074	2919
515.29	2888
515.506	2864
515.721	2894
515.937	2925
516.153	2929
516.369	2968
516.585	3005
516.801	3031
517.016	3101
517.232	3147
517.448	3220
517.664	3240
517.879	3228
518.095	3249
518.311	3182
518.527	3173
518.742	3164
518.958	3184
519.173	3247
519.389	3108
519.605	2987
519.82	2918
520.036	2940
520.251	2819
520.467	2836
520.682	2837
520.898	2770
521.113	2786
521.329	2786
521.544	2784
521.76	2800
521.975	2803
522.19	2709
522.406	2802
522.621	2731
522.836	2772
523.052	2767
523.267	2696
523.482	2685
523.698	2750
523.913	2696
524.128	2748
524.343	2728
524.559	2713
524.774	2649
524.989	2732
525.204	2686
525.419	2688
525.634	2683
525.849	2697
526.064	2694
526.28	2694
526.495	2686
526.71	2713
526.925	2697
527.14	2623
527.355	2726
527.57	2694
527.785	2802
527.999	2719
528.214	2805
528.429	2780
528.644	2828
528.859	2809
529.074	2836
529.289	2856
529.503	2967
529.718	2919
529.933	2853
530.148	2853
530.363	2872
530.577	2881
530.792	2887
531.007	2886
531.221	2932
531.436	2910
531.651	2985
531.865	3038
532.08	3096
532.295	3159
532.509	3356
532.724	3395
532.938	3426
533.153	3498
533.367	3844
533.582	3972
533.796	3911
534.011	3716
534.225	3511
534.44	3498
534.654	3393
534.868	3290
535.083	3238
535.297	3193
535.511	3138
535.726	3129
535.94	3097
536.154	2985
536.369	2989
536.583	2924
536.797	2906
537.011	2860
537.225	2865
537.44	2790
537.654	2828
537.868	2760
538.082	2757
538.296	2698
538.51	2669
538.724	2713
538.938	2722
539.153	2654
539.367	2694
539.581	2599
539.795	2616
540.009	2627
540.222	2612
540.436	2616
540.65	2635
540.864	2636
541.078	2673
541.292	2881
541.506	3348
541.72	3508
541.934	2985
542.147	2844
542.361	2750
