Data from SnStandardFlinnAPT0064_QswitchEnergy10_LIBS07252019.E.O._I.C._HRD10591_15-27-44-973.txt Node
Date: Thu Jul 25 15:27:44 EDT 2019
User: cochatt
Spectrometer: HR+D1059
Trigger mode: 1
Integration Time (sec): 1.000000E-1
Scans to average: 1
Electric dark correction enabled: true
Nonlinearity correction enabled: false
Boxcar width: 0
XAxis mode: Wavelengths
Number of Pixels in Spectrum: 2048
>>>>>Begin Spectral Data<<<<<
223.165	-19.5
223.4	-19.5
223.635	-19.5
223.869	-25.5
224.104	-25.5
224.338	-14.5
224.573	-27.5
224.808	7.5
225.042	-8.5
225.277	-9.5
225.511	9.5
225.746	2.5
225.98	14.5
226.215	4.5
226.449	13.5
226.683	22.5
226.918	21.5
227.152	34.5
227.387	54.5
227.621	43.5
227.856	47.5
228.09	52.5
228.324	51.5
228.559	67.5
228.793	65.5
229.027	80.5
229.262	74.5
229.496	70.5
229.73	64.5
229.964	76.5
230.199	62.5
230.433	88.5
230.667	80.5
230.901	67.5
231.136	80.5
231.37	84.5
231.604	91.5
231.838	101.5
232.072	115.5
232.306	130.5
232.541	85.5
232.775	96.5
233.009	79.5
233.243	92.5
233.477	84.5
233.711	90.5
233.945	110.5
234.179	91.5
234.413	87.5
234.647	71.5
234.881	77.5
235.115	69.5
235.349	89.5
235.583	115.5
235.817	111.5
236.051	131.5
236.285	98.5
236.519	84.5
236.753	89.5
236.987	81.5
237.221	73.5
237.455	79.5
237.689	86.5
237.922	67.5
238.156	70.5
238.39	86.5
238.624	85.5
238.858	90.5
239.091	75.5
239.325	89.5
239.559	82.5
239.793	73.5
240.027	79.5
240.26	65.5
240.494	88.5
240.728	91.5
240.961	85.5
241.195	91.5
241.429	87.5
241.662	70.5
241.896	69.5
242.13	98.5
242.363	127.5
242.597	162.5
242.83	147.5
243.064	136.5
243.298	172.5
243.531	145.5
243.765	99.5
243.998	92.5
244.232	75.5
244.465	78.5
244.699	89.5
244.932	79.5
245.166	83.5
245.399	93.5
245.633	91.5
245.866	78.5
246.099	77.5
246.333	86.5
246.566	87.5
246.8	84.5
247.033	93.5
247.266	79.5
247.5	81.5
247.733	84.5
247.966	87.5
248.2	90.5
248.433	89.5
248.666	132.5
248.899	118.5
249.133	88.5
249.366	95.5
249.599	103.5
249.832	115.5
250.066	101.5
250.299	101.5
250.532	96.5
250.765	75.5
250.998	84.5
251.231	69.5
251.465	75.5
251.698	93.5
251.931	95.5
252.164	89.5
252.397	94.5
252.63	85.5
252.863	98.5
253.096	91.5
253.329	100.5
253.562	92.5
253.795	67.5
254.028	99.5
254.261	90.5
254.494	87.5
254.727	115.5
254.96	142.5
255.193	129.5
255.426	98.5
255.659	86.5
255.892	101.5
256.124	94.5
256.357	96.5
256.59	106.5
256.823	101.5
257.056	115.5
257.289	148.5
257.521	185.5
257.754	118.5
257.987	90.5
258.22	88.5
258.452	79.5
258.685	102.5
258.918	90.5
259.151	101.5
259.383	107.5
259.616	124.5
259.849	133.5
260.081	89.5
260.314	100.5
260.547	83.5
260.779	82.5
261.012	108.5
261.244	92.5
261.477	80.5
261.71	85.5
261.942	90.5
262.175	84.5
262.407	77.5
262.64	83.5
262.872	75.5
263.105	75.5
263.337	95.5
263.57	89.5
263.802	86.5
264.035	85.5
264.267	95.5
264.499	91.5
264.732	87.5
264.964	88.5
265.197	88.5
265.429	92.5
265.661	87.5
265.894	98.5
266.126	115.5
266.358	147.5
266.591	155.5
266.823	95.5
267.055	81.5
267.287	95.5
267.52	97.5
267.752	97.5
267.984	85.5
268.216	90.5
268.448	76.5
268.681	90.5
268.913	85.5
269.145	87.5
269.377	98.5
269.609	100.5
269.841	99.5
270.073	102.5
270.306	130.5
270.538	189.5
270.77	305.5
271.002	374.5
271.234	189.5
271.466	114.5
271.698	93.5
271.93	97.5
272.162	89.5
272.394	84.5
272.626	88.5
272.858	90.5
273.09	92.5
273.322	82.5
273.553	90.5
273.785	103.5
274.017	92.5
274.249	83.5
274.481	102.5
274.713	84.5
274.945	104.5
275.176	74.5
275.408	88.5
275.64	90.5
275.872	95.5
276.104	100.5
276.335	98.5
276.567	99.5
276.799	92.5
277.031	84.5
277.262	84.5
277.494	89.5
277.726	125.5
277.957	163.5
278.189	217.5
278.421	210.5
278.652	181.5
278.884	179.5
279.115	131.5
279.347	103.5
279.579	93.5
279.81	83.5
280.042	102.5
280.273	107.5
280.505	111.5
280.736	117.5
280.968	112.5
281.199	176.5
281.431	231.5
281.662	263.5
281.894	151.5
282.125	115.5
282.356	118.5
282.588	97.5
282.819	113.5
283.051	112.5
283.282	140.5
283.513	181.5
283.745	306.5
283.976	516.5
284.207	725.5
284.439	573.5
284.67	260.5
284.901	259.5
285.132	333.5
285.364	351.5
285.595	212.5
285.826	173.5
286.057	231.5
286.288	397.5
286.52	593.5
286.751	496.5
286.982	186.5
287.213	122.5
287.444	113.5
287.675	95.5
287.906	88.5
288.138	90.5
288.369	92.5
288.6	94.5
288.831	93.5
289.062	90.5
289.293	81.5
289.524	97.5
289.755	90.5
289.986	95.5
290.217	87.5
290.448	94.5
290.679	106.5
290.91	131.5
291.141	175.5
291.371	220.5
291.602	246.5
291.833	170.5
292.064	106.5
292.295	113.5
292.526	99.5
292.757	99.5
292.987	101.5
293.218	99.5
293.449	97.5
293.68	84.5
293.91	87.5
294.141	99.5
294.372	89.5
294.603	101.5
294.833	97.5
295.064	98.5
295.295	96.5
295.525	83.5
295.756	105.5
295.987	90.5
296.217	100.5
296.448	112.5
296.679	96.5
296.909	101.5
297.14	89.5
297.37	104.5
297.601	97.5
297.831	99.5
298.062	102.5
298.292	100.5
298.523	99.5
298.753	106.5
298.984	105.5
299.214	101.5
299.445	111.5
299.675	106.5
299.905	119.5
300.136	124.5
300.366	155.5
300.597	257.5
300.827	427.5
301.057	643.5
301.288	600.5
301.518	243.5
301.748	155.5
301.979	122.5
302.209	133.5
302.439	143.5
302.669	151.5
302.9	254.5
303.13	476.5
303.36	857.5
303.59	1140.5
303.82	779.5
304.051	269.5
304.281	153.5
304.511	147.5
304.741	93.5
304.971	104.5
305.201	98.5
305.431	97.5
305.661	112.5
305.891	107.5
306.121	105.5
306.352	116.5
306.582	100.5
306.812	102.5
307.042	109.5
307.272	95.5
307.502	80.5
307.731	104.5
307.961	93.5
308.191	98.5
308.421	92.5
308.651	113.5
308.881	103.5
309.111	110.5
309.341	111.5
309.571	101.5
309.8	116.5
310.03	131.5
310.26	112.5
310.49	108.5
310.72	105.5
310.949	99.5
311.179	105.5
311.409	104.5
311.639	82.5
311.868	99.5
312.098	104.5
312.328	106.5
312.557	123.5
312.787	122.5
313.017	128.5
313.246	117.5
313.476	122.5
313.706	131.5
313.935	159.5
314.165	183.5
314.394	211.5
314.624	176.5
314.853	123.5
315.083	125.5
315.312	119.5
315.542	115.5
315.771	129.5
316.001	123.5
316.23	154.5
316.46	144.5
316.689	161.5
316.919	239.5
317.148	469.5
317.377	865.5
317.607	1384.5
317.836	1321.5
318.065	490.5
318.295	219.5
318.524	149.5
318.753	144.5
318.983	123.5
319.212	131.5
319.441	113.5
319.67	129.5
319.9	122.5
320.129	100.5
320.358	115.5
320.587	131.5
320.816	113.5
321.046	109.5
321.275	133.5
321.504	125.5
321.733	148.5
321.962	169.5
322.191	143.5
322.42	135.5
322.649	124.5
322.878	121.5
323.108	114.5
323.337	118.5
323.566	124.5
323.795	143.5
324.024	127.5
324.253	150.5
324.482	172.5
324.71	224.5
324.939	263.5
325.168	203.5
325.397	175.5
325.626	260.5
325.855	467.5
326.084	893.5
326.313	1486.5
326.542	1512.5
326.77	580.5
326.999	255.5
327.228	199.5
327.457	211.5
327.686	223.5
327.914	158.5
328.143	145.5
328.372	123.5
328.6	121.5
328.829	123.5
329.058	123.5
329.287	124.5
329.515	113.5
329.744	125.5
329.972	124.5
330.201	111.5
330.43	116.5
330.658	118.5
330.887	106.5
331.115	112.5
331.344	119.5
331.572	116.5
331.801	128.5
332.03	126.5
332.258	133.5
332.486	170.5
332.715	284.5
332.943	458.5
333.172	709.5
333.4	607.5
333.629	241.5
333.857	142.5
334.085	125.5
334.314	111.5
334.542	135.5
334.771	111.5
334.999	123.5
335.227	129.5
335.455	115.5
335.684	111.5
335.912	116.5
336.14	119.5
336.369	113.5
336.597	116.5
336.825	126.5
337.053	144.5
337.281	105.5
337.51	117.5
337.738	113.5
337.966	111.5
338.194	113.5
338.422	120.5
338.65	126.5
338.878	108.5
339.106	114.5
339.334	114.5
339.562	123.5
339.79	114.5
340.018	115.5
340.246	99.5
340.474	109.5
340.702	124.5
340.93	115.5
341.158	116.5
341.386	116.5
341.614	116.5
341.842	117.5
342.07	113.5
342.298	100.5
342.526	121.5
342.754	110.5
342.981	107.5
343.209	120.5
343.437	108.5
343.665	101.5
343.893	115.5
344.12	114.5
344.348	100.5
344.576	113.5
344.804	99.5
345.031	105.5
345.259	116.5
345.487	101.5
345.714	117.5
345.942	117.5
346.17	116.5
346.397	114.5
346.625	92.5
346.853	111.5
347.08	107.5
347.308	115.5
347.535	115.5
347.763	87.5
347.99	100.5
348.218	114.5
348.445	123.5
348.673	117.5
348.9	113.5
349.128	109.5
349.355	115.5
349.583	112.5
349.81	107.5
350.037	113.5
350.265	110.5
350.492	103.5
350.72	115.5
350.947	124.5
351.174	117.5
351.402	106.5
351.629	109.5
351.856	96.5
352.083	111.5
352.311	108.5
352.538	107.5
352.765	115.5
352.992	106.5
353.22	102.5
353.447	105.5
353.674	113.5
353.901	114.5
354.128	93.5
354.355	105.5
354.583	89.5
354.81	99.5
355.037	111.5
355.264	100.5
355.491	96.5
355.718	104.5
355.945	91.5
356.172	101.5
356.399	111.5
356.626	114.5
356.853	113.5
357.08	108.5
357.307	95.5
357.534	115.5
357.761	96.5
357.988	102.5
358.215	99.5
358.441	105.5
358.668	98.5
358.895	106.5
359.122	119.5
359.349	121.5
359.576	120.5
359.802	104.5
360.029	100.5
360.256	121.5
360.483	113.5
360.709	113.5
360.936	95.5
361.163	106.5
361.39	100.5
361.616	113.5
361.843	108.5
362.07	102.5
362.296	111.5
362.523	106.5
362.749	111.5
362.976	111.5
363.203	119.5
363.429	98.5
363.656	120.5
363.882	105.5
364.109	111.5
364.335	115.5
364.562	108.5
364.788	102.5
365.015	107.5
365.241	124.5
365.468	169.5
365.694	233.5
365.92	192.5
366.147	105.5
366.373	100.5
366.599	109.5
366.826	104.5
367.052	104.5
367.278	89.5
367.505	103.5
367.731	90.5
367.957	88.5
368.184	86.5
368.41	103.5
368.636	109.5
368.862	99.5
369.089	108.5
369.315	105.5
369.541	92.5
369.767	100.5
369.993	101.5
370.219	110.5
370.445	117.5
370.672	105.5
370.898	105.5
371.124	96.5
371.35	121.5
371.576	111.5
371.802	116.5
372.028	113.5
372.254	92.5
372.48	101.5
372.706	114.5
372.932	112.5
373.158	117.5
373.384	121.5
373.61	97.5
373.835	107.5
374.061	117.5
374.287	122.5
374.513	116.5
374.739	95.5
374.965	107.5
375.191	106.5
375.416	104.5
375.642	119.5
375.868	96.5
376.094	107.5
376.319	111.5
376.545	98.5
376.771	106.5
376.997	105.5
377.222	111.5
377.448	107.5
377.674	101.5
377.899	105.5
378.125	112.5
378.35	120.5
378.576	108.5
378.802	116.5
379.027	127.5
379.253	138.5
379.478	183.5
379.704	296.5
379.929	722.5
380.155	1502.5
380.38	1542.5
380.606	483.5
380.831	180.5
381.057	131.5
381.282	111.5
381.507	102.5
381.733	99.5
381.958	113.5
382.184	102.5
382.409	94.5
382.634	96.5
382.86	96.5
383.085	104.5
383.31	101.5
383.535	99.5
383.761	98.5
383.986	105.5
384.211	107.5
384.436	105.5
384.662	116.5
384.887	106.5
385.112	95.5
385.337	104.5
385.562	106.5
385.787	107.5
386.013	106.5
386.238	99.5
386.463	99.5
386.688	109.5
386.913	102.5
387.138	107.5
387.363	113.5
387.588	117.5
387.813	97.5
388.038	119.5
388.263	105.5
388.488	103.5
388.713	95.5
388.938	111.5
389.163	104.5
389.387	113.5
389.612	93.5
389.837	113.5
390.062	94.5
390.287	111.5
390.512	79.5
390.736	95.5
390.961	107.5
391.186	95.5
391.411	80.5
391.636	96.5
391.86	99.5
392.085	96.5
392.31	97.5
392.534	118.5
392.759	90.5
392.984	112.5
393.208	123.5
393.433	131.5
393.658	133.5
393.882	113.5
394.107	93.5
394.331	99.5
394.556	98.5
394.78	82.5
395.005	101.5
395.229	112.5
395.454	93.5
395.678	100.5
395.903	91.5
396.127	90.5
396.352	102.5
396.576	112.5
396.801	121.5
397.025	125.5
397.249	125.5
397.474	121.5
397.698	99.5
397.922	91.5
398.147	98.5
398.371	96.5
398.595	100.5
398.82	97.5
399.044	101.5
399.268	102.5
399.492	86.5
399.717	97.5
399.941	103.5
400.165	103.5
400.389	106.5
400.613	99.5
400.837	92.5
401.062	95.5
401.286	105.5
401.51	98.5
401.734	108.5
401.958	82.5
402.182	91.5
402.406	103.5
402.63	87.5
402.854	106.5
403.078	105.5
403.302	102.5
403.526	115.5
403.75	93.5
403.974	89.5
404.198	96.5
404.422	99.5
404.645	105.5
404.869	94.5
405.093	77.5
405.317	91.5
405.541	117.5
405.765	120.5
405.988	142.5
406.212	124.5
406.436	92.5
406.66	96.5
406.883	99.5
407.107	90.5
407.331	96.5
407.555	100.5
407.778	99.5
408.002	97.5
408.226	101.5
408.449	94.5
408.673	104.5
408.896	85.5
409.12	87.5
409.344	105.5
409.567	98.5
409.791	96.5
410.014	95.5
410.238	106.5
410.461	105.5
410.685	94.5
410.908	95.5
411.132	101.5
411.355	118.5
411.578	79.5
411.802	95.5
412.025	105.5
412.249	96.5
412.472	91.5
412.695	97.5
412.919	100.5
413.142	84.5
413.365	96.5
413.589	97.5
413.812	97.5
414.035	115.5
414.258	111.5
414.482	95.5
414.705	113.5
414.928	91.5
415.151	97.5
415.374	101.5
415.597	109.5
415.821	88.5
416.044	100.5
416.267	105.5
416.49	89.5
416.713	91.5
416.936	92.5
417.159	82.5
417.382	104.5
417.605	93.5
417.828	93.5
418.051	92.5
418.274	104.5
418.497	107.5
418.72	96.5
418.943	97.5
419.166	108.5
419.389	115.5
419.611	111.5
419.834	109.5
420.057	93.5
420.28	98.5
420.503	89.5
420.726	108.5
420.948	92.5
421.171	96.5
421.394	89.5
421.617	90.5
421.839	112.5
422.062	104.5
422.285	95.5
422.507	100.5
422.73	123.5
422.953	139.5
423.175	113.5
423.398	95.5
423.621	94.5
423.843	85.5
424.066	100.5
424.288	90.5
424.511	102.5
424.733	99.5
424.956	103.5
425.178	99.5
425.401	105.5
425.623	92.5
425.846	96.5
426.068	97.5
426.291	112.5
426.513	85.5
426.735	103.5
426.958	97.5
427.18	96.5
427.402	96.5
427.625	98.5
427.847	87.5
428.069	103.5
428.292	93.5
428.514	101.5
428.736	102.5
428.958	114.5
429.181	87.5
429.403	96.5
429.625	101.5
429.847	105.5
430.069	109.5
430.292	93.5
430.514	103.5
430.736	107.5
430.958	100.5
431.18	92.5
431.402	94.5
431.624	96.5
431.846	101.5
432.068	96.5
432.29	104.5
432.512	99.5
432.734	100.5
432.956	95.5
433.178	89.5
433.4	84.5
433.622	96.5
433.844	100.5
434.066	98.5
434.287	87.5
434.509	86.5
434.731	88.5
434.953	104.5
435.175	75.5
435.397	96.5
435.618	99.5
435.84	94.5
436.062	91.5
436.284	107.5
436.505	86.5
436.727	96.5
436.949	94.5
437.17	112.5
437.392	105.5
437.614	91.5
437.835	106.5
438.057	84.5
438.278	93.5
438.5	99.5
438.721	96.5
438.943	103.5
439.165	114.5
439.386	105.5
439.608	112.5
439.829	122.5
440.05	123.5
440.272	123.5
440.493	106.5
440.715	105.5
440.936	100.5
441.158	98.5
441.379	98.5
441.6	103.5
441.822	97.5
442.043	117.5
442.264	123.5
442.486	128.5
442.707	109.5
442.928	102.5
443.149	89.5
443.371	93.5
443.592	96.5
443.813	95.5
444.034	99.5
444.255	106.5
444.476	96.5
444.698	104.5
444.919	93.5
445.14	177.5
445.361	135.5
445.582	103.5
445.803	97.5
446.024	103.5
446.245	100.5
446.466	104.5
446.687	116.5
446.908	115.5
447.129	103.5
447.35	102.5
447.571	93.5
447.792	100.5
448.013	93.5
448.234	81.5
448.455	109.5
448.675	107.5
448.896	95.5
449.117	106.5
449.338	117.5
449.559	156.5
449.779	112.5
450	117.5
450.221	109.5
450.442	109.5
450.662	105.5
450.883	111.5
451.104	111.5
451.324	111.5
451.545	103.5
451.766	108.5
451.986	138.5
452.207	223.5
452.428	521.5
452.648	1225.5
452.869	694.5
453.089	193.5
453.31	117.5
453.53	121.5
453.751	137.5
453.971	159.5
454.192	142.5
454.412	111.5
454.633	93.5
454.853	87.5
455.073	91.5
455.294	99.5
455.514	106.5
455.734	95.5
455.955	95.5
456.175	80.5
456.395	79.5
456.616	97.5
456.836	104.5
457.056	96.5
457.276	81.5
457.497	105.5
457.717	124.5
457.937	113.5
458.157	87.5
458.377	109.5
458.598	109.5
458.818	94.5
459.038	87.5
459.258	90.5
459.478	81.5
459.698	106.5
459.918	87.5
460.138	98.5
460.358	92.5
460.578	92.5
460.798	95.5
461.018	105.5
461.238	88.5
461.458	89.5
461.678	95.5
461.898	113.5
462.118	83.5
462.338	109.5
462.558	91.5
462.777	85.5
462.997	106.5
463.217	93.5
463.437	126.5
463.657	175.5
463.876	185.5
464.096	125.5
464.316	91.5
464.536	101.5
464.755	92.5
464.975	93.5
465.195	85.5
465.414	95.5
465.634	91.5
465.854	96.5
466.073	102.5
466.293	88.5
466.512	98.5
466.732	107.5
466.951	120.5
467.171	133.5
467.391	134.5
467.61	105.5
467.829	100.5
468.049	105.5
468.268	109.5
468.488	91.5
468.707	98.5
468.927	106.5
469.146	108.5
469.365	105.5
469.585	111.5
469.804	106.5
470.023	107.5
470.243	91.5
470.462	100.5
470.681	107.5
470.901	135.5
471.12	198.5
471.339	199.5
471.558	120.5
471.777	116.5
471.997	98.5
472.216	104.5
472.435	90.5
472.654	87.5
472.873	79.5
473.092	99.5
473.311	107.5
473.53	94.5
473.749	112.5
473.968	98.5
474.187	99.5
474.406	96.5
474.625	81.5
474.844	103.5
475.063	100.5
475.282	104.5
475.501	106.5
475.72	99.5
475.939	93.5
476.158	106.5
476.377	99.5
476.596	98.5
476.814	88.5
477.033	103.5
477.252	91.5
477.471	104.5
477.69	98.5
477.908	94.5
478.127	107.5
478.346	87.5
478.564	101.5
478.783	102.5
479.002	90.5
479.22	98.5
479.439	97.5
479.658	104.5
479.876	83.5
480.095	87.5
480.313	83.5
480.532	97.5
480.751	103.5
480.969	96.5
481.188	90.5
481.406	110.5
481.624	106.5
481.843	123.5
482.061	115.5
482.28	96.5
482.498	99.5
482.717	91.5
482.935	84.5
483.153	91.5
483.372	115.5
483.59	107.5
483.808	99.5
484.027	93.5
484.245	121.5
484.463	151.5
484.681	216.5
484.9	151.5
485.118	116.5
485.336	98.5
485.554	109.5
485.772	141.5
485.99	179.5
486.209	248.5
486.427	139.5
486.645	128.5
486.863	111.5
487.081	111.5
487.299	109.5
487.517	110.5
487.735	99.5
487.953	86.5
488.171	104.5
488.389	95.5
488.607	97.5
488.825	114.5
489.043	89.5
489.261	91.5
489.479	108.5
489.696	81.5
489.914	97.5
490.132	103.5
490.35	94.5
490.568	96.5
490.786	105.5
491.003	99.5
491.221	108.5
491.439	99.5
491.657	114.5
491.874	102.5
492.092	96.5
492.31	81.5
492.527	91.5
492.745	97.5
492.963	120.5
493.18	115.5
493.398	116.5
493.615	113.5
493.833	109.5
494.05	107.5
494.268	106.5
494.485	112.5
494.703	118.5
494.92	113.5
495.138	106.5
495.355	107.5
495.573	118.5
495.79	104.5
496.008	95.5
496.225	107.5
496.442	123.5
496.66	119.5
496.877	162.5
497.094	156.5
497.312	107.5
497.529	96.5
497.746	88.5
497.963	98.5
498.181	100.5
498.398	104.5
498.615	94.5
498.832	108.5
499.049	111.5
499.267	141.5
499.484	149.5
499.701	111.5
499.918	86.5
500.135	107.5
500.352	91.5
500.569	97.5
500.786	92.5
501.003	91.5
501.22	96.5
501.437	96.5
501.654	93.5
501.871	94.5
502.088	104.5
502.305	88.5
502.522	103.5
502.739	101.5
502.956	93.5
503.172	103.5
503.389	87.5
503.606	120.5
503.823	118.5
504.04	102.5
504.256	107.5
504.473	109.5
504.69	103.5
504.907	103.5
505.123	116.5
505.34	108.5
505.557	109.5
505.773	107.5
505.99	97.5
506.207	96.5
506.423	123.5
506.64	109.5
506.856	111.5
507.073	106.5
507.289	100.5
507.506	98.5
507.722	91.5
507.939	102.5
508.155	105.5
508.372	111.5
508.588	106.5
508.805	108.5
509.021	104.5
509.238	97.5
509.454	144.5
509.67	165.5
509.887	115.5
510.103	96.5
510.319	107.5
510.536	107.5
510.752	117.5
510.968	122.5
511.184	93.5
511.401	95.5
511.617	96.5
511.833	95.5
512.049	106.5
512.265	100.5
512.481	84.5
512.698	88.5
512.914	103.5
513.13	108.5
513.346	97.5
513.562	97.5
513.778	104.5
513.994	88.5
514.21	107.5
514.426	149.5
514.642	173.5
514.858	106.5
515.074	111.5
515.29	80.5
515.506	96.5
515.721	114.5
515.937	105.5
516.153	102.5
516.369	102.5
516.585	110.5
516.801	101.5
517.016	100.5
517.232	102.5
517.448	101.5
517.664	106.5
517.879	110.5
518.095	107.5
518.311	96.5
518.527	104.5
518.742	106.5
518.958	110.5
519.173	149.5
519.389	124.5
519.605	115.5
519.82	94.5
520.036	107.5
520.251	101.5
520.467	87.5
520.682	99.5
520.898	106.5
521.113	88.5
521.329	100.5
521.544	99.5
521.76	105.5
521.975	101.5
522.19	115.5
522.406	102.5
522.621	109.5
522.836	98.5
523.052	105.5
523.267	78.5
523.482	89.5
523.698	100.5
523.913	100.5
524.128	96.5
524.343	94.5
524.559	89.5
524.774	91.5
524.989	96.5
525.204	103.5
525.419	93.5
525.634	84.5
525.849	92.5
526.064	83.5
526.28	85.5
526.495	89.5
526.71	98.5
526.925	107.5
527.14	85.5
527.355	97.5
