Data from SnStandardFlinnAPT0064_QswitchEnergy10_LIBS07252019.E.O._I.C._HRD10591_15-28-29-973.txt Node
Date: Thu Jul 25 15:28:29 EDT 2019
User: cochatt
Spectrometer: HR+D1059
Trigger mode: 1
Integration Time (sec): 1.000000E-1
Scans to average: 1
Electric dark correction enabled: true
Nonlinearity correction enabled: false
Boxcar width: 0
XAxis mode: Wavelengths
Number of Pixels in Spectrum: 2048
>>>>>Begin Spectral Data<<<<<
223.165	-31.19
223.4	-31.19
223.635	-31.19
223.869	-18.19
224.104	-23.19
224.338	-6.19
224.573	-2.19
224.808	-0.19
225.042	-3.19
225.277	-0.19
225.511	-2.19
225.746	-0.19
225.98	15.81
226.215	5.81
226.449	3.81
226.683	15.81
226.918	31.81
227.152	13.81
227.387	34.81
227.621	35.81
227.856	23.81
228.09	40.81
228.324	44.81
228.559	57.81
228.793	51.81
229.027	56.81
229.262	70.81
229.496	57.81
229.73	72.81
229.964	59.81
230.199	79.81
230.433	66.81
230.667	81.81
230.901	83.81
231.136	68.81
231.37	91.81
231.604	82.81
231.838	96.81
232.072	128.81
232.306	124.81
232.541	81.81
232.775	88.81
233.009	100.81
233.243	85.81
233.477	81.81
233.711	86.81
233.945	100.81
234.179	71.81
234.413	71.81
234.647	92.81
234.881	78.81
235.115	84.81
235.349	94.81
235.583	118.81
235.817	133.81
236.051	145.81
236.285	88.81
236.519	84.81
236.753	81.81
236.987	70.81
237.221	69.81
237.455	86.81
237.689	69.81
237.922	73.81
238.156	63.81
238.39	77.81
238.624	89.81
238.858	72.81
239.091	79.81
239.325	74.81
239.559	81.81
239.793	84.81
240.027	92.81
240.26	66.81
240.494	71.81
240.728	74.81
240.961	93.81
241.195	99.81
241.429	87.81
241.662	79.81
241.896	85.81
242.13	92.81
242.363	135.81
242.597	164.81
242.83	142.81
243.064	132.81
243.298	180.81
243.531	156.81
243.765	112.81
243.998	94.81
244.232	74.81
244.465	78.81
244.699	72.81
244.932	82.81
245.166	75.81
245.399	95.81
245.633	93.81
245.866	72.81
246.099	70.81
246.333	82.81
246.566	79.81
246.8	71.81
247.033	73.81
247.266	78.81
247.5	80.81
247.733	85.81
247.966	80.81
248.2	88.81
248.433	97.81
248.666	125.81
248.899	120.81
249.133	88.81
249.366	111.81
249.599	110.81
249.832	127.81
250.066	125.81
250.299	93.81
250.532	95.81
250.765	83.81
250.998	84.81
251.231	86.81
251.465	70.81
251.698	81.81
251.931	89.81
252.164	79.81
252.397	77.81
252.63	101.81
252.863	108.81
253.096	86.81
253.329	88.81
253.562	83.81
253.795	98.81
254.028	78.81
254.261	96.81
254.494	109.81
254.727	113.81
254.96	142.81
255.193	139.81
255.426	93.81
255.659	92.81
255.892	99.81
256.124	91.81
256.357	80.81
256.59	92.81
256.823	88.81
257.056	108.81
257.289	152.81
257.521	187.81
257.754	140.81
257.987	79.81
258.22	93.81
258.452	80.81
258.685	87.81
258.918	86.81
259.151	83.81
259.383	119.81
259.616	137.81
259.849	153.81
260.081	109.81
260.314	85.81
260.547	84.81
260.779	98.81
261.012	87.81
261.244	82.81
261.477	96.81
261.71	86.81
261.942	83.81
262.175	80.81
262.407	83.81
262.64	86.81
262.872	92.81
263.105	89.81
263.337	89.81
263.57	77.81
263.802	84.81
264.035	84.81
264.267	84.81
264.499	80.81
264.732	85.81
264.964	85.81
265.197	92.81
265.429	87.81
265.661	94.81
265.894	111.81
266.126	130.81
266.358	167.81
266.591	148.81
266.823	107.81
267.055	85.81
267.287	66.81
267.52	93.81
267.752	97.81
267.984	93.81
268.216	98.81
268.448	94.81
268.681	80.81
268.913	77.81
269.145	82.81
269.377	94.81
269.609	97.81
269.841	107.81
270.073	109.81
270.306	143.81
270.538	198.81
270.77	335.81
271.002	378.81
271.234	191.81
271.466	120.81
271.698	89.81
271.93	78.81
272.162	90.81
272.394	91.81
272.626	90.81
272.858	81.81
273.09	77.81
273.322	91.81
273.553	82.81
273.785	81.81
274.017	79.81
274.249	92.81
274.481	71.81
274.713	101.81
274.945	98.81
275.176	91.81
275.408	91.81
275.64	95.81
275.872	88.81
276.104	87.81
276.335	93.81
276.567	110.81
276.799	95.81
277.031	88.81
277.262	87.81
277.494	105.81
277.726	131.81
277.957	179.81
278.189	261.81
278.421	230.81
278.652	193.81
278.884	209.81
279.115	149.81
279.347	104.81
279.579	85.81
279.81	98.81
280.042	95.81
280.273	102.81
280.505	114.81
280.736	94.81
280.968	129.81
281.199	182.81
281.431	252.81
281.662	272.81
281.894	190.81
282.125	115.81
282.356	97.81
282.588	104.81
282.819	104.81
283.051	120.81
283.282	119.81
283.513	206.81
283.745	328.81
283.976	603.81
284.207	855.81
284.439	653.81
284.67	301.81
284.901	280.81
285.132	351.81
285.364	404.81
285.595	229.81
285.826	159.81
286.057	272.81
286.288	457.81
286.52	635.81
286.751	531.81
286.982	197.81
287.213	112.81
287.444	100.81
287.675	93.81
287.906	88.81
288.138	90.81
288.369	92.81
288.6	91.81
288.831	84.81
289.062	100.81
289.293	105.81
289.524	97.81
289.755	77.81
289.986	100.81
290.217	98.81
290.448	103.81
290.679	104.81
290.91	122.81
291.141	171.81
291.371	261.81
291.602	323.81
291.833	210.81
292.064	131.81
292.295	115.81
292.526	100.81
292.757	84.81
292.987	102.81
293.218	92.81
293.449	104.81
293.68	81.81
293.91	112.81
294.141	96.81
294.372	83.81
294.603	84.81
294.833	99.81
295.064	85.81
295.295	101.81
295.525	81.81
295.756	101.81
295.987	95.81
296.217	109.81
296.448	99.81
296.679	103.81
296.909	104.81
297.14	108.81
297.37	102.81
297.601	104.81
297.831	100.81
298.062	100.81
298.292	111.81
298.523	102.81
298.753	107.81
298.984	100.81
299.214	93.81
299.445	102.81
299.675	108.81
299.905	119.81
300.136	154.81
300.366	178.81
300.597	273.81
300.827	476.81
301.057	739.81
301.288	664.81
301.518	271.81
301.748	157.81
301.979	135.81
302.209	128.81
302.439	154.81
302.669	185.81
302.9	314.81
303.13	555.81
303.36	970.81
303.59	1299.81
303.82	917.81
304.051	315.81
304.281	164.81
304.511	141.81
304.741	107.81
304.971	122.81
305.201	119.81
305.431	105.81
305.661	109.81
305.891	112.81
306.121	110.81
306.352	105.81
306.582	88.81
306.812	119.81
307.042	115.81
307.272	113.81
307.502	105.81
307.731	88.81
307.961	101.81
308.191	89.81
308.421	108.81
308.651	84.81
308.881	102.81
309.111	102.81
309.341	97.81
309.571	117.81
309.8	102.81
310.03	90.81
310.26	111.81
310.49	107.81
310.72	109.81
310.949	100.81
311.179	97.81
311.409	102.81
311.639	105.81
311.868	100.81
312.098	105.81
312.328	92.81
312.557	110.81
312.787	119.81
313.017	115.81
313.246	119.81
313.476	110.81
313.706	115.81
313.935	157.81
314.165	210.81
314.394	256.81
314.624	202.81
314.853	137.81
315.083	130.81
315.312	135.81
315.542	131.81
315.771	133.81
316.001	138.81
316.23	146.81
316.46	152.81
316.689	187.81
316.919	270.81
317.148	538.81
317.377	969.81
317.607	1587.81
317.836	1503.81
318.065	570.81
318.295	234.81
318.524	163.81
318.753	136.81
318.983	116.81
319.212	123.81
319.441	139.81
319.67	144.81
319.9	118.81
320.129	129.81
320.358	121.81
320.587	109.81
320.816	117.81
321.046	130.81
321.275	136.81
321.504	143.81
321.733	137.81
321.962	165.81
322.191	169.81
322.42	136.81
322.649	133.81
322.878	123.81
323.108	115.81
323.337	132.81
323.566	145.81
323.795	133.81
324.024	141.81
324.253	149.81
324.482	193.81
324.71	272.81
324.939	296.81
325.168	244.81
325.397	208.81
325.626	281.81
325.855	530.81
326.084	997.81
326.313	1730.81
326.542	1663.81
326.77	674.81
326.999	270.81
327.228	235.81
327.457	239.81
327.686	229.81
327.914	155.81
328.143	139.81
328.372	145.81
328.6	119.81
328.829	117.81
329.058	130.81
329.287	113.81
329.515	123.81
329.744	115.81
329.972	126.81
330.201	102.81
330.43	118.81
330.658	111.81
330.887	126.81
331.115	121.81
331.344	125.81
331.572	119.81
331.801	108.81
332.03	115.81
332.258	143.81
332.486	192.81
332.715	295.81
332.943	540.81
333.172	827.81
333.4	701.81
333.629	261.81
333.857	164.81
334.085	127.81
334.314	125.81
334.542	119.81
334.771	121.81
334.999	114.81
335.227	117.81
335.455	116.81
335.684	127.81
335.912	113.81
336.14	107.81
336.369	136.81
336.597	110.81
336.825	104.81
337.053	121.81
337.281	121.81
337.51	108.81
337.738	120.81
337.966	111.81
338.194	103.81
338.422	123.81
338.65	104.81
338.878	125.81
339.106	115.81
339.334	122.81
339.562	129.81
339.79	124.81
340.018	114.81
340.246	111.81
340.474	104.81
340.702	121.81
340.93	131.81
341.158	96.81
341.386	119.81
341.614	127.81
341.842	132.81
342.07	116.81
342.298	108.81
342.526	112.81
342.754	112.81
342.981	119.81
343.209	121.81
343.437	124.81
343.665	116.81
343.893	100.81
344.12	113.81
344.348	110.81
344.576	108.81
344.804	107.81
345.031	114.81
345.259	102.81
345.487	125.81
345.714	117.81
345.942	100.81
346.17	110.81
346.397	111.81
346.625	102.81
346.853	103.81
347.08	99.81
347.308	105.81
347.535	100.81
347.763	112.81
347.99	103.81
348.218	98.81
348.445	90.81
348.673	108.81
348.9	128.81
349.128	127.81
349.355	137.81
349.583	120.81
349.81	135.81
350.037	111.81
350.265	123.81
350.492	128.81
350.72	105.81
350.947	117.81
351.174	112.81
351.402	129.81
351.629	115.81
351.856	105.81
352.083	116.81
352.311	120.81
352.538	105.81
352.765	107.81
352.992	116.81
353.22	112.81
353.447	117.81
353.674	97.81
353.901	119.81
354.128	116.81
354.355	103.81
354.583	109.81
354.81	113.81
355.037	114.81
355.264	87.81
355.491	115.81
355.718	97.81
355.945	95.81
356.172	98.81
356.399	97.81
356.626	124.81
356.853	107.81
357.08	102.81
357.307	104.81
357.534	94.81
357.761	108.81
357.988	104.81
358.215	103.81
358.441	108.81
358.668	107.81
358.895	113.81
359.122	119.81
359.349	115.81
359.576	104.81
359.802	112.81
360.029	107.81
360.256	106.81
360.483	107.81
360.709	110.81
360.936	109.81
361.163	124.81
361.39	110.81
361.616	113.81
361.843	102.81
362.07	110.81
362.296	124.81
362.523	101.81
362.749	112.81
362.976	109.81
363.203	105.81
363.429	106.81
363.656	108.81
363.882	101.81
364.109	117.81
364.335	114.81
364.562	99.81
364.788	100.81
365.015	109.81
365.241	144.81
365.468	199.81
365.694	268.81
365.92	237.81
366.147	112.81
366.373	102.81
366.599	94.81
366.826	86.81
367.052	98.81
367.278	101.81
367.505	114.81
367.731	111.81
367.957	104.81
368.184	115.81
368.41	115.81
368.636	110.81
368.862	102.81
369.089	92.81
369.315	103.81
369.541	100.81
369.767	115.81
369.993	107.81
370.219	99.81
370.445	116.81
370.672	111.81
370.898	103.81
371.124	113.81
371.35	110.81
371.576	104.81
371.802	107.81
372.028	107.81
372.254	109.81
372.48	116.81
372.706	109.81
372.932	102.81
373.158	123.81
373.384	109.81
373.61	123.81
373.835	120.81
374.061	121.81
374.287	115.81
374.513	119.81
374.739	106.81
374.965	126.81
375.191	118.81
375.416	103.81
375.642	112.81
375.868	109.81
376.094	104.81
376.319	105.81
376.545	99.81
376.771	85.81
376.997	119.81
377.222	109.81
377.448	100.81
377.674	107.81
377.899	119.81
378.125	117.81
378.35	109.81
378.576	112.81
378.802	126.81
379.027	127.81
379.253	148.81
379.478	187.81
379.704	321.81
379.929	848.81
380.155	1699.81
380.38	1768.81
380.606	567.81
380.831	191.81
381.057	148.81
381.282	123.81
381.507	120.81
381.733	117.81
381.958	116.81
382.184	118.81
382.409	103.81
382.634	115.81
382.86	106.81
383.085	105.81
383.31	104.81
383.535	100.81
383.761	110.81
383.986	106.81
384.211	99.81
384.436	101.81
384.662	101.81
384.887	117.81
385.112	88.81
385.337	102.81
385.562	102.81
385.787	98.81
386.013	103.81
386.238	112.81
386.463	101.81
386.688	109.81
386.913	98.81
387.138	112.81
387.363	101.81
387.588	111.81
387.813	89.81
388.038	107.81
388.263	119.81
388.488	95.81
388.713	104.81
388.938	99.81
389.163	98.81
389.387	97.81
389.612	107.81
389.837	100.81
390.062	105.81
390.287	116.81
390.512	99.81
390.736	107.81
390.961	102.81
391.186	105.81
391.411	95.81
391.636	96.81
391.86	98.81
392.085	88.81
392.31	85.81
392.534	91.81
392.759	96.81
392.984	102.81
393.208	122.81
393.433	150.81
393.658	148.81
393.882	111.81
394.107	96.81
394.331	85.81
394.556	84.81
394.78	85.81
395.005	108.81
395.229	99.81
395.454	99.81
395.678	107.81
395.903	105.81
396.127	94.81
396.352	93.81
396.576	96.81
396.801	97.81
397.025	135.81
397.249	97.81
397.474	107.81
397.698	94.81
397.922	89.81
398.147	87.81
398.371	97.81
398.595	96.81
398.82	102.81
399.044	103.81
399.268	102.81
399.492	96.81
399.717	97.81
399.941	87.81
400.165	103.81
400.389	75.81
400.613	103.81
400.837	110.81
401.062	95.81
401.286	96.81
401.51	103.81
401.734	95.81
401.958	102.81
402.182	103.81
402.406	91.81
402.63	98.81
402.854	95.81
403.078	102.81
403.302	94.81
403.526	96.81
403.75	96.81
403.974	89.81
404.198	91.81
404.422	98.81
404.645	77.81
404.869	96.81
405.093	105.81
405.317	95.81
405.541	109.81
405.765	141.81
405.988	136.81
406.212	125.81
406.436	109.81
406.66	111.81
406.883	108.81
407.107	96.81
407.331	103.81
407.555	93.81
407.778	84.81
408.002	100.81
408.226	100.81
408.449	94.81
408.673	99.81
408.896	89.81
409.12	92.81
409.344	84.81
409.567	86.81
409.791	80.81
410.014	104.81
410.238	102.81
410.461	107.81
410.685	100.81
410.908	93.81
411.132	96.81
411.355	83.81
411.578	103.81
411.802	99.81
412.025	88.81
412.249	110.81
412.472	108.81
412.695	107.81
412.919	106.81
413.142	111.81
413.365	101.81
413.589	104.81
413.812	99.81
414.035	119.81
414.258	94.81
414.482	88.81
414.705	104.81
414.928	103.81
415.151	110.81
415.374	107.81
415.597	101.81
415.821	96.81
416.044	91.81
416.267	87.81
416.49	89.81
416.713	99.81
416.936	75.81
417.159	93.81
417.382	97.81
417.605	94.81
417.828	88.81
418.051	96.81
418.274	95.81
418.497	99.81
418.72	92.81
418.943	87.81
419.166	105.81
419.389	108.81
419.611	116.81
419.834	103.81
420.057	107.81
420.28	91.81
420.503	94.81
420.726	95.81
420.948	98.81
421.171	96.81
421.394	94.81
421.617	89.81
421.839	82.81
422.062	95.81
422.285	78.81
422.507	90.81
422.73	123.81
422.953	140.81
423.175	101.81
423.398	80.81
423.621	103.81
423.843	91.81
424.066	95.81
424.288	80.81
424.511	102.81
424.733	93.81
424.956	98.81
425.178	94.81
425.401	97.81
425.623	96.81
425.846	71.81
426.068	83.81
426.291	91.81
426.513	103.81
426.735	85.81
426.958	122.81
427.18	86.81
427.402	83.81
427.625	102.81
427.847	91.81
428.069	77.81
428.292	97.81
428.514	93.81
428.736	93.81
428.958	88.81
429.181	94.81
429.403	93.81
429.625	109.81
429.847	102.81
430.069	104.81
430.292	103.81
430.514	97.81
430.736	105.81
430.958	102.81
431.18	97.81
431.402	96.81
431.624	95.81
431.846	87.81
432.068	92.81
432.29	98.81
432.512	95.81
432.734	84.81
432.956	111.81
433.178	98.81
433.4	96.81
433.622	108.81
433.844	76.81
434.066	92.81
434.287	88.81
434.509	87.81
434.731	87.81
434.953	91.81
435.175	90.81
435.397	100.81
435.618	96.81
435.84	101.81
436.062	87.81
436.284	91.81
436.505	89.81
436.727	91.81
436.949	83.81
437.17	99.81
437.392	94.81
437.614	84.81
437.835	88.81
438.057	91.81
438.278	92.81
438.5	99.81
438.721	96.81
438.943	84.81
439.165	100.81
439.386	98.81
439.608	106.81
439.829	103.81
440.05	119.81
440.272	118.81
440.493	95.81
440.715	87.81
440.936	97.81
441.158	108.81
441.379	97.81
441.6	101.81
441.822	89.81
442.043	111.81
442.264	123.81
442.486	96.81
442.707	100.81
442.928	114.81
443.149	90.81
443.371	105.81
443.592	90.81
443.813	102.81
444.034	77.81
444.255	93.81
444.476	89.81
444.698	89.81
444.919	90.81
445.14	192.81
445.361	135.81
445.582	79.81
445.803	86.81
446.024	89.81
446.245	100.81
446.466	104.81
446.687	119.81
446.908	99.81
447.129	98.81
447.35	97.81
447.571	77.81
447.792	94.81
448.013	112.81
448.234	101.81
448.455	90.81
448.675	98.81
448.896	90.81
449.117	120.81
449.338	131.81
449.559	139.81
449.779	104.81
450	115.81
450.221	101.81
450.442	119.81
450.662	122.81
450.883	109.81
451.104	113.81
451.324	110.81
451.545	107.81
451.766	110.81
451.986	137.81
452.207	227.81
452.428	604.81
452.648	1503.81
452.869	824.81
453.089	207.81
453.31	129.81
453.53	124.81
453.751	136.81
453.971	155.81
454.192	162.81
454.412	102.81
454.633	80.81
454.853	82.81
455.073	88.81
455.294	95.81
455.514	86.81
455.734	90.81
455.955	85.81
456.175	107.81
456.395	98.81
456.616	100.81
456.836	101.81
457.056	96.81
457.276	109.81
457.497	115.81
457.717	131.81
457.937	97.81
458.157	88.81
458.377	85.81
458.598	89.81
458.818	74.81
459.038	89.81
459.258	82.81
459.478	91.81
459.698	82.81
459.918	87.81
460.138	87.81
460.358	102.81
460.578	78.81
460.798	83.81
461.018	88.81
461.238	92.81
461.458	86.81
461.678	96.81
461.898	99.81
462.118	83.81
462.338	91.81
462.558	111.81
462.777	98.81
462.997	109.81
463.217	108.81
463.437	137.81
463.657	177.81
463.876	200.81
464.096	126.81
464.316	111.81
464.536	89.81
464.755	94.81
464.975	91.81
465.195	96.81
465.414	105.81
465.634	80.81
465.854	96.81
466.073	95.81
466.293	83.81
466.512	82.81
466.732	103.81
466.951	107.81
467.171	131.81
467.391	130.81
467.61	108.81
467.829	96.81
468.049	104.81
468.268	76.81
468.488	93.81
468.707	89.81
468.927	109.81
469.146	84.81
469.365	99.81
469.585	101.81
469.804	107.81
470.023	105.81
470.243	103.81
470.462	97.81
470.681	107.81
470.901	127.81
471.12	189.81
471.339	204.81
471.558	133.81
471.777	114.81
471.997	86.81
472.216	101.81
472.435	98.81
472.654	104.81
472.873	86.81
473.092	85.81
473.311	88.81
473.53	93.81
473.749	107.81
473.968	97.81
474.187	82.81
474.406	104.81
474.625	97.81
474.844	94.81
475.063	90.81
475.282	95.81
475.501	92.81
475.72	95.81
475.939	94.81
476.158	89.81
476.377	104.81
476.596	113.81
476.814	93.81
477.033	89.81
477.252	99.81
477.471	82.81
477.69	93.81
477.908	95.81
478.127	96.81
478.346	97.81
478.564	92.81
478.783	93.81
479.002	78.81
479.22	82.81
479.439	109.81
479.658	92.81
479.876	93.81
480.095	101.81
480.313	96.81
480.532	74.81
480.751	92.81
480.969	94.81
481.188	93.81
481.406	94.81
481.624	98.81
481.843	118.81
482.061	117.81
482.28	94.81
482.498	107.81
482.717	107.81
482.935	87.81
483.153	101.81
483.372	95.81
483.59	97.81
483.808	94.81
484.027	107.81
484.245	120.81
484.463	174.81
484.681	238.81
484.9	150.81
485.118	127.81
485.336	103.81
485.554	102.81
485.772	132.81
485.99	200.81
486.209	272.81
486.427	163.81
486.645	118.81
486.863	96.81
487.081	105.81
487.299	91.81
487.517	93.81
487.735	103.81
487.953	90.81
488.171	85.81
488.389	100.81
488.607	100.81
488.825	88.81
489.043	103.81
489.261	93.81
489.479	100.81
489.696	97.81
489.914	108.81
490.132	97.81
490.35	81.81
490.568	101.81
490.786	112.81
491.003	96.81
491.221	107.81
491.439	107.81
491.657	104.81
491.874	99.81
492.092	99.81
492.31	92.81
492.527	110.81
492.745	93.81
492.963	114.81
493.18	105.81
493.398	109.81
493.615	111.81
493.833	100.81
494.05	106.81
494.268	94.81
494.485	99.81
494.703	98.81
494.92	108.81
495.138	98.81
495.355	104.81
495.573	107.81
495.79	103.81
496.008	103.81
496.225	89.81
496.442	96.81
496.66	121.81
496.877	157.81
497.094	139.81
497.312	114.81
497.529	95.81
497.746	96.81
497.963	100.81
498.181	94.81
498.398	101.81
498.615	109.81
498.832	104.81
499.049	120.81
499.267	145.81
499.484	161.81
499.701	110.81
499.918	111.81
500.135	92.81
500.352	99.81
500.569	88.81
500.786	99.81
501.003	88.81
501.22	94.81
501.437	93.81
501.654	112.81
501.871	95.81
502.088	103.81
502.305	108.81
502.522	94.81
502.739	92.81
502.956	97.81
503.172	98.81
503.389	95.81
503.606	98.81
503.823	92.81
504.04	82.81
504.256	102.81
504.473	102.81
504.69	120.81
504.907	115.81
505.123	109.81
505.34	100.81
505.557	105.81
505.773	104.81
505.99	94.81
506.207	100.81
506.423	111.81
506.64	104.81
506.856	111.81
507.073	102.81
507.289	87.81
507.506	103.81
507.722	109.81
507.939	91.81
508.155	96.81
508.372	83.81
508.588	78.81
508.805	95.81
509.021	96.81
