Data from SnStandardFlinnAPT0064_LampEnergy10_LIBS07252019.E.O._I.C._HRD10591_15-22-36-494.txt Node
Date: Thu Jul 25 15:22:36 EDT 2019
User: cochatt
Spectrometer: HR+D1059
Trigger mode: 1
Integration Time (sec): 1.000000E-1
Scans to average: 1
Electric dark correction enabled: true
Nonlinearity correction enabled: false
Boxcar width: 0
XAxis mode: Wavelengths
Number of Pixels in Spectrum: 2048
>>>>>Begin Spectral Data<<<<<
223.165	-12.75
223.4	-12.75
223.635	-12.75
223.869	-22.75
224.104	-21.75
224.338	-11.75
224.573	-15.75
224.808	-10.75
225.042	0.25
225.277	-12.75
225.511	-8.75
225.746	-9.75
225.98	2.25
226.215	8.25
226.449	17.25
226.683	33.25
226.918	35.25
227.152	30.25
227.387	28.25
227.621	45.25
227.856	38.25
228.09	51.25
228.324	48.25
228.559	60.25
228.793	101.25
229.027	295.25
229.262	324.25
229.496	289.25
229.73	298.25
229.964	291.25
230.199	295.25
230.433	302.25
230.667	317.25
230.901	294.25
231.136	310.25
231.37	343.25
231.604	366.25
231.838	430.25
232.072	497.25
232.306	556.25
232.541	473.25
232.775	416.25
233.009	401.25
233.243	398.25
233.477	442.25
233.711	514.25
233.945	577.25
234.179	518.25
234.413	434.25
234.647	437.25
234.881	445.25
235.115	507.25
235.349	612.25
235.583	752.25
235.817	999.25
236.051	943.25
236.285	640.25
236.519	531.25
236.753	490.25
236.987	492.25
237.221	532.25
237.455	495.25
237.689	452.25
237.922	445.25
238.156	465.25
238.39	483.25
238.624	504.25
238.858	475.25
239.091	462.25
239.325	503.25
239.559	480.25
239.793	496.25
240.027	502.25
240.26	512.25
240.494	556.25
240.728	560.25
240.961	599.25
241.195	626.25
241.429	676.25
241.662	676.25
241.896	739.25
242.13	922.25
242.363	1209.25
242.597	1564.25
242.83	1487.25
243.064	1516.25
243.298	1760.25
243.531	1472.25
243.765	917.25
243.998	768.25
244.232	661.25
244.465	648.25
244.699	640.25
244.932	624.25
245.166	651.25
245.399	661.25
245.633	659.25
245.866	684.25
246.099	656.25
246.333	623.25
246.566	621.25
246.8	615.25
247.033	640.25
247.266	646.25
247.5	630.25
247.733	679.25
247.966	709.25
248.2	754.25
248.433	866.25
248.666	975.25
248.899	897.25
249.133	833.25
249.366	860.25
249.599	938.25
249.832	1070.25
250.066	1040.25
250.299	848.25
250.532	760.25
250.765	753.25
250.998	732.25
251.231	732.25
251.465	712.25
251.698	727.25
251.931	759.25
252.164	744.25
252.397	754.25
252.63	760.25
252.863	777.25
253.096	794.25
253.329	784.25
253.562	770.25
253.795	778.25
254.028	799.25
254.261	822.25
254.494	853.25
254.727	1005.25
254.96	1210.25
255.193	1191.25
255.426	974.25
255.659	873.25
255.892	885.25
256.124	871.25
256.357	868.25
256.59	908.25
256.823	931.25
257.056	1062.25
257.289	1335.25
257.521	1463.25
257.754	1171.25
257.987	950.25
258.22	918.25
258.452	896.25
258.685	896.25
258.918	932.25
259.151	1004.25
259.383	1078.25
259.616	1197.25
259.849	1255.25
260.081	1068.25
260.314	983.25
260.547	946.25
260.779	928.25
261.012	937.25
261.244	946.25
261.477	967.25
261.71	993.25
261.942	988.25
262.175	1015.25
262.407	1042.25
262.64	1031.25
262.872	1095.25
263.105	1121.25
263.337	1205.25
263.57	1247.25
263.802	1280.25
264.035	1317.25
264.267	1352.25
264.499	1332.25
264.732	1402.25
264.964	1411.25
265.197	1417.25
265.429	1435.25
265.661	1513.25
265.894	1574.25
266.126	1765.25
266.358	1946.25
266.591	1900.25
266.823	1589.25
267.055	1434.25
267.287	1370.25
267.52	1312.25
267.752	1292.25
267.984	1266.25
268.216	1228.25
268.448	1232.25
268.681	1239.25
268.913	1200.25
269.145	1241.25
269.377	1245.25
269.609	1239.25
269.841	1281.25
270.073	1362.25
270.306	1568.25
270.538	2109.25
270.77	3124.25
271.002	3799.25
271.234	2654.25
271.466	1822.25
271.698	1509.25
271.93	1349.25
272.162	1312.25
272.394	1257.25
272.626	1226.25
272.858	1222.25
273.09	1214.25
273.322	1217.25
273.553	1202.25
273.785	1186.25
274.017	1199.25
274.249	1190.25
274.481	1192.25
274.713	1205.25
274.945	1219.25
275.176	1208.25
275.408	1163.25
275.64	1202.25
275.872	1216.25
276.104	1233.25
276.335	1230.25
276.567	1241.25
276.799	1265.25
277.031	1295.25
277.262	1288.25
277.494	1410.25
277.726	1536.25
277.957	1821.25
278.189	2097.25
278.421	1909.25
278.652	1700.25
278.884	1649.25
279.115	1478.25
279.347	1404.25
279.579	1350.25
279.81	1360.25
280.042	1392.25
280.273	1374.25
280.505	1414.25
280.736	1464.25
280.968	1586.25
281.199	1727.25
281.431	2012.25
281.662	2037.25
281.894	1754.25
282.125	1608.25
282.356	1589.25
282.588	1647.25
282.819	1703.25
283.051	1781.25
283.282	1942.25
283.513	2428.25
283.745	3482.25
283.976	5551.25
284.207	7943.25
284.439	7188.25
284.67	4440.25
284.901	3603.25
285.132	3602.25
285.364	3388.25
285.595	2675.25
285.826	2384.25
286.057	2824.25
286.288	3778.25
286.52	5091.25
286.751	4771.25
286.982	2943.25
287.213	2166.25
287.444	1937.25
287.675	1815.25
287.906	1774.25
288.138	1703.25
288.369	1662.25
288.6	1635.25
288.831	1642.25
289.062	1636.25
289.293	1662.25
289.524	1646.25
289.755	1678.25
289.986	1688.25
290.217	1698.25
290.448	1689.25
290.679	1738.25
290.91	1737.25
291.141	1877.25
291.371	1988.25
291.602	2125.25
291.833	1918.25
292.064	1718.25
292.295	1672.25
292.526	1620.25
292.757	1599.25
292.987	1568.25
293.218	1588.25
293.449	1550.25
293.68	1611.25
293.91	1560.25
294.141	1576.25
294.372	1575.25
294.603	1526.25
294.833	1550.25
295.064	1530.25
295.295	1525.25
295.525	1553.25
295.756	1552.25
295.987	1554.25
296.217	1543.25
296.448	1554.25
296.679	1547.25
296.909	1575.25
297.14	1561.25
297.37	1569.25
297.601	1565.25
297.831	1621.25
298.062	1621.25
298.292	1633.25
298.523	1678.25
298.753	1670.25
298.984	1688.25
299.214	1749.25
299.445	1744.25
299.675	1734.25
299.905	1804.25
300.136	1916.25
300.366	2106.25
300.597	2704.25
300.827	3785.25
301.057	5137.25
301.288	5126.25
301.518	3290.25
301.748	2530.25
301.979	2298.25
302.209	2196.25
302.439	2297.25
302.669	2400.25
302.9	2889.25
303.13	4097.25
303.36	6081.25
303.59	8072.25
303.82	7017.25
304.051	4054.25
304.281	2926.25
304.511	2469.25
304.741	2265.25
304.971	2170.25
305.201	2045.25
305.431	1982.25
305.661	1920.25
305.891	1890.25
306.121	1851.25
306.352	1849.25
306.582	1810.25
306.812	1848.25
307.042	1831.25
307.272	1838.25
307.502	1813.25
307.731	1790.25
307.961	1768.25
308.191	1777.25
308.421	1785.25
308.651	1818.25
308.881	1789.25
309.111	1814.25
309.341	1801.25
309.571	1824.25
309.8	1817.25
310.03	1840.25
310.26	1854.25
310.49	1809.25
310.72	1863.25
310.949	1875.25
311.179	1853.25
311.409	1904.25
311.639	1918.25
311.868	1913.25
312.098	1904.25
312.328	1938.25
312.557	1942.25
312.787	1887.25
313.017	1948.25
313.246	1977.25
313.476	1993.25
313.706	2072.25
313.935	2164.25
314.165	2332.25
314.394	2460.25
314.624	2342.25
314.853	2152.25
315.083	2101.25
315.312	2166.25
315.542	2190.25
315.771	2177.25
316.001	2196.25
316.23	2328.25
316.46	2358.25
316.689	2620.25
316.919	3192.25
317.148	4568.25
317.377	7026.25
317.607	10244.25
317.836	10628.25
318.065	6335.25
318.295	4130.25
318.524	3260.25
318.753	2905.25
318.983	2675.25
319.212	2542.25
319.441	2483.25
319.67	2404.25
319.9	2320.25
320.129	2399.25
320.358	2351.25
320.587	2321.25
320.816	2339.25
321.046	2343.25
321.275	2326.25
321.504	2332.25
321.733	2428.25
321.962	2465.25
322.191	2514.25
322.42	2460.25
322.649	2440.25
322.878	2477.25
323.108	2477.25
323.337	2480.25
323.566	2515.25
323.795	2610.25
324.024	2656.25
324.253	2740.25
324.482	2793.25
324.71	2951.25
324.939	3154.25
325.168	3207.25
325.397	3313.25
325.626	3943.25
325.855	5538.25
326.084	8590.25
326.313	12436.25
326.542	13175.25
326.77	8855.25
326.999	5780.25
327.228	4789.25
327.457	4588.25
327.686	4690.25
327.914	4967.25
328.143	5754.25
328.372	7012.25
328.6	7573.25
328.829	6729.25
329.058	5628.25
329.287	4986.25
329.515	4505.25
329.744	4200.25
329.972	4035.25
330.201	3822.25
330.43	3694.25
330.658	3601.25
330.887	3469.25
331.115	3472.25
331.344	3484.25
331.572	3375.25
331.801	3374.25
332.03	3472.25
332.258	3519.25
332.486	3723.25
332.715	4219.25
332.943	5205.25
333.172	6446.25
333.4	6400.25
333.629	4861.25
333.857	4383.25
334.085	4434.25
334.314	4642.25
334.542	5017.25
334.771	5892.25
334.999	7300.25
335.227	9023.25
335.455	10172.25
335.684	9164.25
335.912	7523.25
336.14	6353.25
336.369	5642.25
336.597	5115.25
336.825	4748.25
337.053	4441.25
337.281	4156.25
337.51	4052.25
337.738	3767.25
337.966	3650.25
338.194	3552.25
338.422	3427.25
338.65	3398.25
338.878	3305.25
339.106	3240.25
339.334	3170.25
339.562	3142.25
339.79	3102.25
340.018	3059.25
340.246	2993.25
340.474	3043.25
340.702	2991.25
340.93	3042.25
341.158	3032.25
341.386	2966.25
341.614	2975.25
341.842	2908.25
342.07	2787.25
342.298	2790.25
342.526	2746.25
342.754	2686.25
342.981	2703.25
343.209	2728.25
343.437	2773.25
343.665	2806.25
343.893	2798.25
344.12	2862.25
344.348	2782.25
344.576	2750.25
344.804	2687.25
345.031	2662.25
345.259	2654.25
345.487	2567.25
345.714	2544.25
345.942	2567.25
346.17	2596.25
346.397	2538.25
346.625	2496.25
346.853	2493.25
347.08	2493.25
347.308	2509.25
347.535	2555.25
347.763	2492.25
347.99	2500.25
348.218	2525.25
348.445	2435.25
348.673	2461.25
348.9	2443.25
349.128	2440.25
349.355	2452.25
349.583	2408.25
349.81	2430.25
350.037	2386.25
350.265	2389.25
350.492	2368.25
350.72	2362.25
350.947	2383.25
351.174	2416.25
351.402	2380.25
351.629	2346.25
351.856	2398.25
352.083	2417.25
352.311	2405.25
352.538	2343.25
352.765	2357.25
352.992	2330.25
353.22	2386.25
353.447	2316.25
353.674	2352.25
353.901	2409.25
354.128	2416.25
354.355	2397.25
354.583	2370.25
354.81	2387.25
355.037	2408.25
355.264	2430.25
355.491	2423.25
355.718	2405.25
355.945	2405.25
356.172	2469.25
356.399	2466.25
356.626	2534.25
356.853	2452.25
357.08	2526.25
357.307	2543.25
357.534	2542.25
357.761	2591.25
357.988	2605.25
358.215	2500.25
358.441	2570.25
358.668	2517.25
358.895	2585.25
359.122	2518.25
359.349	2552.25
359.576	2517.25
359.802	2540.25
360.029	2525.25
360.256	2576.25
360.483	2524.25
360.709	2558.25
360.936	2543.25
361.163	2565.25
361.39	2561.25
361.616	2560.25
361.843	2573.25
362.07	2570.25
362.296	2570.25
362.523	2525.25
362.749	2560.25
362.976	2543.25
363.203	2540.25
363.429	2470.25
363.656	2535.25
363.882	2536.25
364.109	2501.25
364.335	2536.25
364.562	2508.25
364.788	2542.25
365.015	2595.25
365.241	2647.25
365.468	2803.25
365.694	2938.25
365.92	2878.25
366.147	2649.25
366.373	2590.25
366.599	2557.25
366.826	2569.25
367.052	2546.25
367.278	2627.25
367.505	2598.25
367.731	2650.25
367.957	2590.25
368.184	2634.25
368.41	2667.25
368.636	2670.25
368.862	2681.25
369.089	2635.25
369.315	2589.25
369.541	2644.25
369.767	2647.25
369.993	2611.25
370.219	2614.25
370.445	2698.25
370.672	2630.25
370.898	2642.25
371.124	2656.25
371.35	2675.25
371.576	2783.25
371.802	2736.25
372.028	2732.25
372.254	2749.25
372.48	2736.25
372.706	2823.25
372.932	2826.25
373.158	2794.25
373.384	2783.25
373.61	2824.25
373.835	2807.25
374.061	2787.25
374.287	2847.25
374.513	2876.25
374.739	2847.25
374.965	2889.25
375.191	2903.25
375.416	2917.25
375.642	2814.25
375.868	2843.25
376.094	2829.25
376.319	2800.25
376.545	2807.25
376.771	2744.25
376.997	2759.25
377.222	2714.25
377.448	2702.25
377.674	2708.25
377.899	2766.25
378.125	2707.25
378.35	2716.25
378.576	2727.25
378.802	2762.25
379.027	2780.25
379.253	2906.25
379.478	3116.25
379.704	3598.25
379.929	5156.25
380.155	7872.25
380.38	8544.25
380.606	5171.25
380.831	3578.25
381.057	3133.25
381.282	2917.25
381.507	2841.25
381.733	2774.25
381.958	2746.25
382.184	2752.25
382.409	2725.25
382.634	2686.25
382.86	2624.25
383.085	2659.25
383.31	2643.25
383.535	2685.25
383.761	2676.25
383.986	2726.25
384.211	2737.25
384.436	2740.25
384.662	2746.25
384.887	2834.25
385.112	2789.25
385.337	2780.25
385.562	2769.25
385.787	2758.25
386.013	2743.25
386.238	2820.25
386.463	2741.25
386.688	2765.25
386.913	2712.25
387.138	2766.25
387.363	2748.25
387.588	2739.25
387.813	2793.25
388.038	2677.25
388.263	2775.25
388.488	2772.25
388.713	2790.25
388.938	2758.25
389.163	2744.25
389.387	2779.25
389.612	2742.25
389.837	2797.25
390.062	2776.25
390.287	2806.25
390.512	2791.25
390.736	2824.25
390.961	2888.25
391.186	2888.25
391.411	2885.25
391.636	2890.25
391.86	2946.25
392.085	2953.25
392.31	2946.25
392.534	2930.25
392.759	2862.25
392.984	2827.25
393.208	2916.25
393.433	2914.25
393.658	2924.25
393.882	2782.25
394.107	2782.25
394.331	2829.25
394.556	2824.25
394.78	2830.25
395.005	2865.25
395.229	2820.25
395.454	2909.25
395.678	2884.25
395.903	2902.25
396.127	2855.25
396.352	2860.25
396.576	2830.25
396.801	2932.25
397.025	2973.25
397.249	2955.25
397.474	2941.25
397.698	2929.25
397.922	2993.25
398.147	2909.25
398.371	2974.25
398.595	2985.25
398.82	3039.25
399.044	3153.25
399.268	3360.25
399.492	3546.25
399.717	3684.25
399.941	3685.25
400.165	3532.25
400.389	3405.25
400.613	3262.25
400.837	3134.25
401.062	3148.25
401.286	3062.25
401.51	3060.25
401.734	3048.25
401.958	3111.25
402.182	3063.25
402.406	3031.25
402.63	3062.25
402.854	3139.25
403.078	3106.25
403.302	3137.25
403.526	3156.25
403.75	3160.25
403.974	3187.25
404.198	3167.25
404.422	3198.25
404.645	3159.25
404.869	3161.25
405.093	3152.25
405.317	3126.25
405.541	3223.25
405.765	3254.25
405.988	3246.25
406.212	3264.25
406.436	3270.25
406.66	3324.25
406.883	3271.25
407.107	3369.25
407.331	3476.25
407.555	3480.25
407.778	3470.25
408.002	3427.25
408.226	3346.25
408.449	3456.25
408.673	3312.25
408.896	3268.25
409.12	3239.25
409.344	3240.25
409.567	3234.25
409.791	3209.25
410.014	3177.25
410.238	3165.25
410.461	3211.25
410.685	3138.25
410.908	3095.25
411.132	3132.25
411.355	3018.25
411.578	3052.25
411.802	3077.25
412.025	3057.25
412.249	3058.25
412.472	3077.25
412.695	2984.25
412.919	2947.25
413.142	3005.25
413.365	2997.25
413.589	3019.25
413.812	2925.25
414.035	3042.25
414.258	3031.25
414.482	2997.25
414.705	2981.25
414.928	3015.25
415.151	3014.25
415.374	2952.25
415.597	2945.25
415.821	2918.25
416.044	2892.25
416.267	2862.25
416.49	2903.25
416.713	2847.25
416.936	2891.25
417.159	2786.25
417.382	2823.25
417.605	2814.25
417.828	2789.25
418.051	2894.25
418.274	2903.25
418.497	2921.25
418.72	2983.25
418.943	2898.25
419.166	3086.25
419.389	3248.25
419.611	3157.25
419.834	3069.25
420.057	2964.25
420.28	2949.25
420.503	2884.25
420.726	2855.25
420.948	2842.25
421.171	2914.25
421.394	2889.25
421.617	2843.25
421.839	2928.25
422.062	2892.25
422.285	2820.25
422.507	2955.25
422.73	2892.25
422.953	2957.25
423.175	2967.25
423.398	2937.25
423.621	2861.25
423.843	2900.25
424.066	2922.25
424.288	2876.25
424.511	2824.25
424.733	2877.25
424.956	2814.25
425.178	2820.25
425.401	2857.25
425.623	2854.25
425.846	2781.25
426.068	2788.25
426.291	2760.25
426.513	2811.25
426.735	2757.25
426.958	2783.25
427.18	2724.25
427.402	2707.25
427.625	2737.25
427.847	2646.25
428.069	2661.25
428.292	2667.25
428.514	2686.25
428.736	2661.25
428.958	2662.25
429.181	2589.25
429.403	2620.25
429.625	2626.25
429.847	2637.25
430.069	2704.25
430.292	2812.25
430.514	2887.25
430.736	2844.25
430.958	2666.25
431.18	2699.25
431.402	2634.25
431.624	2602.25
431.846	2619.25
432.068	2591.25
432.29	2589.25
432.512	2613.25
432.734	2683.25
432.956	2605.25
433.178	2679.25
433.4	2679.25
433.622	2653.25
433.844	2682.25
434.066	2608.25
434.287	2661.25
434.509	2708.25
434.731	2702.25
434.953	2698.25
435.175	2749.25
435.397	2756.25
435.618	2655.25
435.84	2655.25
436.062	2588.25
436.284	2593.25
436.505	2598.25
436.727	2599.25
436.949	2633.25
437.17	2580.25
437.392	2616.25
437.614	2574.25
437.835	2498.25
438.057	2546.25
438.278	2537.25
438.5	2538.25
438.721	2581.25
438.943	2656.25
439.165	2702.25
439.386	2672.25
439.608	2760.25
439.829	2726.25
440.05	2825.25
440.272	2900.25
440.493	2726.25
440.715	2729.25
440.936	2704.25
441.158	2737.25
441.379	2740.25
441.6	2878.25
441.822	2930.25
442.043	3129.25
442.264	3158.25
442.486	2926.25
442.707	2874.25
442.928	2842.25
443.149	2812.25
443.371	2805.25
443.592	2812.25
443.813	2813.25
444.034	2881.25
444.255	2891.25
444.476	2939.25
444.698	2966.25
444.919	3059.25
445.14	3146.25
445.361	2966.25
445.582	2908.25
445.803	2842.25
446.024	2791.25
446.245	2826.25
446.466	2739.25
446.687	2748.25
446.908	2806.25
447.129	2667.25
447.35	2673.25
447.571	2655.25
447.792	2614.25
448.013	2617.25
448.234	2559.25
448.455	2601.25
448.675	2604.25
448.896	2627.25
449.117	2755.25
449.338	3009.25
449.559	3057.25
449.779	2762.25
450	2621.25
450.221	2550.25
450.442	2512.25
450.662	2536.25
450.883	2481.25
451.104	2523.25
451.324	2487.25
451.545	2511.25
451.766	2535.25
451.986	2613.25
452.207	2785.25
452.428	3617.25
452.648	5383.25
452.869	4523.25
453.089	3105.25
453.31	2936.25
453.53	2938.25
453.751	2986.25
453.971	3151.25
454.192	3100.25
454.412	2687.25
454.633	2580.25
454.853	2502.25
455.073	2440.25
455.294	2428.25
455.514	2388.25
455.734	2398.25
455.955	2352.25
456.175	2361.25
456.395	2405.25
456.616	2420.25
456.836	2472.25
457.056	2453.25
457.276	2481.25
457.497	2659.25
457.717	2663.25
457.937	2545.25
458.157	2500.25
458.377	2528.25
458.598	2600.25
458.818	2644.25
459.038	2597.25
459.258	2580.25
459.478	2656.25
459.698	2698.25
459.918	2707.25
460.138	2700.25
460.358	2772.25
460.578	2813.25
460.798	2831.25
461.018	2856.25
461.238	2850.25
461.458	2879.25
461.678	2846.25
461.898	2938.25
462.118	3014.25
462.338	3069.25
462.558	3038.25
462.777	3121.25
462.997	3287.25
463.217	3376.25
463.437	3447.25
463.657	3544.25
463.876	3537.25
464.096	3350.25
464.316	3196.25
464.536	3104.25
464.755	3075.25
464.975	3012.25
465.195	2924.25
465.414	2815.25
465.634	2797.25
465.854	2694.25
466.073	2738.25
466.293	2640.25
466.512	2604.25
466.732	2645.25
466.951	2845.25
467.171	3028.25
467.391	2908.25
467.61	2721.25
467.829	2614.25
468.049	2601.25
468.268	2551.25
468.488	2552.25
468.707	2593.25
468.927	2525.25
469.146	2516.25
469.365	2613.25
469.585	2633.25
469.804	2654.25
470.023	2756.25
470.243	2752.25
470.462	2810.25
470.681	2937.25
470.901	3248.25
471.12	3736.25
471.339	3739.25
471.558	3174.25
471.777	2872.25
471.997	2748.25
472.216	2625.25
472.435	2655.25
472.654	2610.25
472.873	2598.25
473.092	2615.25
473.311	2569.25
473.53	2610.25
473.749	2671.25
473.968	2774.25
474.187	2647.25
474.406	2606.25
474.625	2545.25
474.844	2606.25
475.063	2599.25
475.282	2584.25
475.501	2583.25
475.72	2619.25
475.939	2649.25
476.158	2686.25
476.377	2752.25
476.596	2727.25
476.814	2749.25
477.033	2733.25
477.252	2805.25
477.471	2815.25
477.69	2915.25
477.908	2897.25
478.127	2980.25
478.346	2942.25
478.564	2954.25
478.783	3052.25
479.002	3090.25
479.22	3086.25
479.439	3104.25
479.658	3107.25
479.876	3106.25
480.095	3117.25
480.313	3244.25
480.532	3176.25
480.751	3214.25
480.969	3156.25
481.188	3144.25
481.406	3152.25
481.624	3097.25
481.843	3128.25
482.061	3191.25
482.28	3184.25
482.498	3153.25
482.717	3117.25
482.935	3169.25
483.153	3210.25
483.372	3259.25
483.59	3302.25
483.808	3325.25
484.027	3414.25
484.245	3636.25
484.463	4059.25
484.681	4441.25
484.9	4070.25
485.118	3795.25
485.336	3666.25
485.554	3740.25
485.772	3981.25
485.99	4507.25
486.209	4828.25
486.427	4112.25
486.645	3688.25
486.863	3487.25
487.081	3400.25
487.299	3404.25
487.517	3308.25
487.735	3351.25
