Data from SnStandardFlinnAPT0064_QswitchEnergy10_LIBS07252019.E.O._I.C._HRD10591_15-27-55-973.txt Node
Date: Thu Jul 25 15:27:55 EDT 2019
User: cochatt
Spectrometer: HR+D1059
Trigger mode: 1
Integration Time (sec): 1.000000E-1
Scans to average: 1
Electric dark correction enabled: true
Nonlinearity correction enabled: false
Boxcar width: 0
XAxis mode: Wavelengths
Number of Pixels in Spectrum: 2048
>>>>>Begin Spectral Data<<<<<
223.165	-9.56
223.4	-9.56
223.635	-9.56
223.869	-18.56
224.104	-14.56
224.338	-3.56
224.573	-13.56
224.808	-15.56
225.042	-14.56
225.277	-15.56
225.511	-13.56
225.746	13.44
225.98	-0.56
226.215	10.44
226.449	15.44
226.683	30.44
226.918	19.44
227.152	30.44
227.387	38.44
227.621	39.44
227.856	31.44
228.09	40.44
228.324	49.44
228.559	60.44
228.793	60.44
229.027	68.44
229.262	67.44
229.496	65.44
229.73	74.44
229.964	68.44
230.199	66.44
230.433	66.44
230.667	71.44
230.901	68.44
231.136	74.44
231.37	79.44
231.604	89.44
231.838	97.44
232.072	111.44
232.306	108.44
232.541	91.44
232.775	86.44
233.009	81.44
233.243	91.44
233.477	85.44
233.711	92.44
233.945	98.44
234.179	104.44
234.413	85.44
234.647	64.44
234.881	72.44
235.115	88.44
235.349	86.44
235.583	96.44
235.817	114.44
236.051	116.44
236.285	98.44
236.519	92.44
236.753	73.44
236.987	80.44
237.221	82.44
237.455	61.44
237.689	78.44
237.922	79.44
238.156	77.44
238.39	72.44
238.624	75.44
238.858	60.44
239.091	65.44
239.325	76.44
239.559	84.44
239.793	90.44
240.027	99.44
240.26	67.44
240.494	77.44
240.728	86.44
240.961	75.44
241.195	68.44
241.429	87.44
241.662	80.44
241.896	84.44
242.13	89.44
242.363	124.44
242.597	172.44
242.83	139.44
243.064	122.44
243.298	156.44
243.531	146.44
243.765	91.44
243.998	94.44
244.232	77.44
244.465	72.44
244.699	72.44
244.932	65.44
245.166	77.44
245.399	72.44
245.633	80.44
245.866	101.44
246.099	83.44
246.333	72.44
246.566	75.44
246.8	94.44
247.033	78.44
247.266	64.44
247.5	77.44
247.733	62.44
247.966	85.44
248.2	86.44
248.433	121.44
248.666	109.44
248.899	108.44
249.133	99.44
249.366	89.44
249.599	95.44
249.832	122.44
250.066	124.44
250.299	83.44
250.532	85.44
250.765	85.44
250.998	82.44
251.231	72.44
251.465	76.44
251.698	85.44
251.931	75.44
252.164	82.44
252.397	78.44
252.63	80.44
252.863	91.44
253.096	82.44
253.329	101.44
253.562	93.44
253.795	92.44
254.028	91.44
254.261	73.44
254.494	93.44
254.727	118.44
254.96	135.44
255.193	125.44
255.426	88.44
255.659	71.44
255.892	83.44
256.124	96.44
256.357	75.44
256.59	81.44
256.823	98.44
257.056	108.44
257.289	134.44
257.521	156.44
257.754	117.44
257.987	99.44
258.22	89.44
258.452	81.44
258.685	77.44
258.918	84.44
259.151	86.44
259.383	100.44
259.616	142.44
259.849	133.44
260.081	113.44
260.314	83.44
260.547	73.44
260.779	83.44
261.012	82.44
261.244	80.44
261.477	72.44
261.71	81.44
261.942	76.44
262.175	90.44
262.407	89.44
262.64	77.44
262.872	87.44
263.105	83.44
263.337	83.44
263.57	88.44
263.802	102.44
264.035	93.44
264.267	71.44
264.499	95.44
264.732	89.44
264.964	83.44
265.197	80.44
265.429	89.44
265.661	69.44
265.894	104.44
266.126	124.44
266.358	172.44
266.591	142.44
266.823	108.44
267.055	79.44
267.287	81.44
267.52	81.44
267.752	80.44
267.984	94.44
268.216	86.44
268.448	79.44
268.681	87.44
268.913	81.44
269.145	79.44
269.377	90.44
269.609	85.44
269.841	84.44
270.073	111.44
270.306	120.44
270.538	177.44
270.77	310.44
271.002	356.44
271.234	189.44
271.466	105.44
271.698	87.44
271.93	82.44
272.162	85.44
272.394	96.44
272.626	77.44
272.858	79.44
273.09	84.44
273.322	84.44
273.553	81.44
273.785	95.44
274.017	90.44
274.249	81.44
274.481	73.44
274.713	101.44
274.945	95.44
275.176	96.44
275.408	90.44
275.64	96.44
275.872	79.44
276.104	98.44
276.335	104.44
276.567	102.44
276.799	75.44
277.031	96.44
277.262	93.44
277.494	100.44
277.726	128.44
277.957	176.44
278.189	240.44
278.421	229.44
278.652	190.44
278.884	173.44
279.115	128.44
279.347	112.44
279.579	93.44
279.81	99.44
280.042	104.44
280.273	102.44
280.505	106.44
280.736	100.44
280.968	117.44
281.199	179.44
281.431	238.44
281.662	266.44
281.894	147.44
282.125	101.44
282.356	99.44
282.588	99.44
282.819	109.44
283.051	132.44
283.282	132.44
283.513	187.44
283.745	305.44
283.976	517.44
284.207	726.44
284.439	562.44
284.67	265.44
284.901	244.44
285.132	339.44
285.364	353.44
285.595	213.44
285.826	169.44
286.057	238.44
286.288	385.44
286.52	580.44
286.751	484.44
286.982	197.44
287.213	123.44
287.444	85.44
287.675	102.44
287.906	96.44
288.138	95.44
288.369	89.44
288.6	86.44
288.831	108.44
289.062	93.44
289.293	86.44
289.524	93.44
289.755	96.44
289.986	99.44
290.217	114.44
290.448	89.44
290.679	97.44
290.91	130.44
291.141	167.44
291.371	232.44
291.602	269.44
291.833	169.44
292.064	110.44
292.295	100.44
292.526	106.44
292.757	94.44
292.987	82.44
293.218	84.44
293.449	87.44
293.68	92.44
293.91	102.44
294.141	89.44
294.372	100.44
294.603	73.44
294.833	94.44
295.064	96.44
295.295	83.44
295.525	110.44
295.756	98.44
295.987	90.44
296.217	101.44
296.448	73.44
296.679	94.44
296.909	85.44
297.14	102.44
297.37	96.44
297.601	107.44
297.831	97.44
298.062	90.44
298.292	96.44
298.523	98.44
298.753	97.44
298.984	89.44
299.214	102.44
299.445	116.44
299.675	114.44
299.905	114.44
300.136	130.44
300.366	178.44
300.597	252.44
300.827	428.44
301.057	646.44
301.288	572.44
301.518	249.44
301.748	142.44
301.979	135.44
302.209	137.44
302.439	150.44
302.669	154.44
302.9	291.44
303.13	462.44
303.36	835.44
303.59	1146.44
303.82	798.44
304.051	291.44
304.281	152.44
304.511	139.44
304.741	114.44
304.971	112.44
305.201	109.44
305.431	104.44
305.661	85.44
305.891	95.44
306.121	111.44
306.352	97.44
306.582	98.44
306.812	108.44
307.042	118.44
307.272	104.44
307.502	93.44
307.731	116.44
307.961	110.44
308.191	109.44
308.421	113.44
308.651	105.44
308.881	108.44
309.111	96.44
309.341	95.44
309.571	96.44
309.8	97.44
310.03	112.44
310.26	103.44
310.49	92.44
310.72	108.44
310.949	110.44
311.179	119.44
311.409	99.44
311.639	102.44
311.868	116.44
312.098	112.44
312.328	107.44
312.557	116.44
312.787	117.44
313.017	105.44
313.246	116.44
313.476	116.44
313.706	125.44
313.935	159.44
314.165	194.44
314.394	217.44
314.624	183.44
314.853	123.44
315.083	124.44
315.312	115.44
315.542	124.44
315.771	132.44
316.001	121.44
316.23	146.44
316.46	135.44
316.689	169.44
316.919	262.44
317.148	487.44
317.377	868.44
317.607	1405.44
317.836	1290.44
318.065	512.44
318.295	216.44
318.524	139.44
318.753	146.44
318.983	118.44
319.212	114.44
319.441	121.44
319.67	101.44
319.9	110.44
320.129	122.44
320.358	121.44
320.587	117.44
320.816	109.44
321.046	112.44
321.275	123.44
321.504	128.44
321.733	144.44
321.962	161.44
322.191	159.44
322.42	147.44
322.649	125.44
322.878	117.44
323.108	128.44
323.337	124.44
323.566	119.44
323.795	129.44
324.024	129.44
324.253	151.44
324.482	172.44
324.71	216.44
324.939	293.44
325.168	234.44
325.397	176.44
325.626	260.44
325.855	482.44
326.084	894.44
326.313	1528.44
326.542	1484.44
326.77	598.44
326.999	258.44
327.228	210.44
327.457	230.44
327.686	218.44
327.914	160.44
328.143	142.44
328.372	123.44
328.6	116.44
328.829	124.44
329.058	111.44
329.287	118.44
329.515	117.44
329.744	115.44
329.972	124.44
330.201	108.44
330.43	117.44
330.658	126.44
330.887	120.44
331.115	113.44
331.344	124.44
331.572	128.44
331.801	122.44
332.03	106.44
332.258	130.44
332.486	157.44
332.715	272.44
332.943	487.44
333.172	701.44
333.4	622.44
333.629	241.44
333.857	146.44
334.085	130.44
334.314	131.44
334.542	108.44
334.771	124.44
334.999	122.44
335.227	113.44
335.455	118.44
335.684	112.44
335.912	111.44
336.14	113.44
336.369	109.44
336.597	102.44
336.825	92.44
337.053	102.44
337.281	112.44
337.51	111.44
337.738	115.44
337.966	120.44
338.194	124.44
338.422	103.44
338.65	128.44
338.878	118.44
339.106	125.44
339.334	127.44
339.562	111.44
339.79	121.44
340.018	108.44
340.246	104.44
340.474	112.44
340.702	116.44
340.93	112.44
341.158	114.44
341.386	102.44
341.614	118.44
341.842	124.44
342.07	112.44
342.298	115.44
342.526	113.44
342.754	98.44
342.981	114.44
343.209	101.44
343.437	118.44
343.665	109.44
343.893	113.44
344.12	113.44
344.348	111.44
344.576	102.44
344.804	97.44
345.031	103.44
345.259	102.44
345.487	117.44
345.714	112.44
345.942	102.44
346.17	101.44
346.397	104.44
346.625	93.44
346.853	112.44
347.08	94.44
347.308	116.44
347.535	103.44
347.763	78.44
347.99	97.44
348.218	98.44
348.445	92.44
348.673	105.44
348.9	126.44
349.128	118.44
349.355	119.44
349.583	119.44
349.81	117.44
350.037	115.44
350.265	125.44
350.492	109.44
350.72	105.44
350.947	108.44
351.174	109.44
351.402	105.44
351.629	86.44
351.856	100.44
352.083	110.44
352.311	115.44
352.538	112.44
352.765	116.44
352.992	105.44
353.22	95.44
353.447	106.44
353.674	94.44
353.901	111.44
354.128	96.44
354.355	101.44
354.583	104.44
354.81	116.44
355.037	100.44
355.264	102.44
355.491	109.44
355.718	110.44
355.945	100.44
356.172	106.44
356.399	109.44
356.626	102.44
356.853	109.44
357.08	96.44
357.307	84.44
357.534	90.44
357.761	105.44
357.988	118.44
358.215	105.44
358.441	94.44
358.668	105.44
358.895	100.44
359.122	105.44
359.349	108.44
359.576	112.44
359.802	112.44
360.029	116.44
360.256	104.44
360.483	117.44
360.709	122.44
360.936	110.44
361.163	100.44
361.39	94.44
361.616	114.44
361.843	113.44
362.07	115.44
362.296	115.44
362.523	102.44
362.749	104.44
362.976	94.44
363.203	108.44
363.429	110.44
363.656	109.44
363.882	119.44
364.109	105.44
364.335	106.44
364.562	112.44
364.788	118.44
365.015	114.44
365.241	137.44
365.468	189.44
365.694	249.44
365.92	204.44
366.147	117.44
366.373	112.44
366.599	104.44
366.826	108.44
367.052	88.44
367.278	94.44
367.505	101.44
367.731	110.44
367.957	102.44
368.184	118.44
368.41	134.44
368.636	126.44
368.862	99.44
369.089	90.44
369.315	104.44
369.541	108.44
369.767	84.44
369.993	113.44
370.219	105.44
370.445	112.44
370.672	99.44
370.898	103.44
371.124	110.44
371.35	96.44
371.576	88.44
371.802	113.44
372.028	106.44
372.254	95.44
372.48	104.44
372.706	111.44
372.932	100.44
373.158	106.44
373.384	101.44
373.61	106.44
373.835	125.44
374.061	108.44
374.287	117.44
374.513	114.44
374.739	115.44
374.965	108.44
375.191	104.44
375.416	115.44
375.642	114.44
375.868	112.44
376.094	102.44
376.319	98.44
376.545	95.44
376.771	102.44
376.997	108.44
377.222	110.44
377.448	112.44
377.674	119.44
377.899	100.44
378.125	95.44
378.35	126.44
378.576	116.44
378.802	112.44
379.027	129.44
379.253	147.44
379.478	177.44
379.704	308.44
379.929	741.44
380.155	1486.44
380.38	1557.44
380.606	500.44
380.831	188.44
381.057	124.44
381.282	133.44
381.507	120.44
381.733	112.44
381.958	113.44
382.184	113.44
382.409	105.44
382.634	102.44
382.86	122.44
383.085	104.44
383.31	108.44
383.535	93.44
383.761	99.44
383.986	108.44
384.211	100.44
384.436	105.44
384.662	105.44
384.887	113.44
385.112	108.44
385.337	116.44
385.562	97.44
385.787	106.44
386.013	113.44
386.238	113.44
386.463	100.44
386.688	108.44
386.913	100.44
387.138	104.44
387.363	105.44
387.588	117.44
387.813	118.44
388.038	122.44
388.263	98.44
388.488	109.44
388.713	104.44
388.938	90.44
389.163	109.44
389.387	104.44
389.612	90.44
389.837	113.44
390.062	100.44
390.287	112.44
390.512	97.44
390.736	104.44
390.961	106.44
391.186	108.44
391.411	86.44
391.636	103.44
391.86	110.44
392.085	100.44
392.31	101.44
392.534	95.44
392.759	84.44
392.984	98.44
393.208	104.44
393.433	131.44
393.658	117.44
393.882	108.44
394.107	78.44
394.331	99.44
394.556	112.44
394.78	98.44
395.005	105.44
395.229	100.44
395.454	96.44
395.678	111.44
395.903	101.44
396.127	93.44
396.352	101.44
396.576	112.44
396.801	119.44
397.025	118.44
397.249	109.44
397.474	115.44
397.698	101.44
397.922	87.44
398.147	99.44
398.371	90.44
398.595	97.44
398.82	95.44
399.044	97.44
399.268	92.44
399.492	85.44
399.717	86.44
399.941	95.44
400.165	93.44
400.389	90.44
400.613	114.44
400.837	105.44
401.062	88.44
401.286	101.44
401.51	104.44
401.734	101.44
401.958	95.44
402.182	91.44
402.406	93.44
402.63	107.44
402.854	102.44
403.078	99.44
403.302	100.44
403.526	100.44
403.75	104.44
403.974	101.44
404.198	106.44
404.422	96.44
404.645	89.44
404.869	84.44
405.093	91.44
405.317	97.44
405.541	108.44
405.765	138.44
405.988	156.44
406.212	121.44
406.436	100.44
406.66	95.44
406.883	95.44
407.107	98.44
407.331	102.44
407.555	105.44
407.778	93.44
408.002	94.44
408.226	86.44
408.449	108.44
408.673	103.44
408.896	96.44
409.12	89.44
409.344	79.44
409.567	103.44
409.791	82.44
410.014	88.44
410.238	114.44
410.461	103.44
410.685	97.44
410.908	84.44
411.132	105.44
411.355	96.44
411.578	90.44
411.802	100.44
412.025	106.44
412.249	103.44
412.472	102.44
412.695	89.44
412.919	104.44
413.142	96.44
413.365	95.44
413.589	108.44
413.812	104.44
414.035	102.44
414.258	89.44
414.482	96.44
414.705	113.44
414.928	105.44
415.151	104.44
415.374	116.44
415.597	98.44
415.821	93.44
416.044	88.44
416.267	118.44
416.49	103.44
416.713	84.44
416.936	104.44
417.159	88.44
417.382	95.44
417.605	90.44
417.828	93.44
418.051	106.44
418.274	110.44
418.497	100.44
418.72	106.44
418.943	93.44
419.166	108.44
419.389	100.44
419.611	96.44
419.834	89.44
420.057	102.44
420.28	89.44
420.503	102.44
420.726	90.44
420.948	94.44
421.171	98.44
421.394	97.44
421.617	86.44
421.839	98.44
422.062	103.44
422.285	108.44
422.507	101.44
422.73	114.44
422.953	124.44
423.175	118.44
423.398	105.44
423.621	102.44
423.843	96.44
424.066	85.44
424.288	97.44
424.511	107.44
424.733	102.44
424.956	108.44
425.178	101.44
425.401	99.44
425.623	78.44
425.846	85.44
426.068	93.44
426.291	83.44
426.513	89.44
426.735	101.44
426.958	90.44
427.18	96.44
427.402	100.44
427.625	97.44
427.847	86.44
428.069	90.44
428.292	98.44
428.514	98.44
428.736	99.44
428.958	102.44
429.181	89.44
429.403	86.44
429.625	93.44
429.847	92.44
430.069	98.44
430.292	118.44
430.514	95.44
430.736	88.44
430.958	82.44
431.18	76.44
431.402	88.44
431.624	96.44
431.846	89.44
432.068	96.44
432.29	100.44
432.512	75.44
432.734	85.44
432.956	100.44
433.178	85.44
433.4	93.44
433.622	87.44
433.844	88.44
434.066	83.44
434.287	97.44
434.509	107.44
434.731	89.44
434.953	89.44
435.175	86.44
435.397	91.44
435.618	94.44
435.84	88.44
436.062	90.44
436.284	100.44
436.505	99.44
436.727	86.44
436.949	77.44
437.17	104.44
437.392	113.44
437.614	87.44
437.835	82.44
438.057	74.44
438.278	88.44
438.5	90.44
438.721	88.44
438.943	103.44
439.165	116.44
439.386	103.44
439.608	108.44
439.829	90.44
440.05	114.44
440.272	118.44
440.493	92.44
440.715	82.44
440.936	96.44
441.158	93.44
441.379	89.44
441.6	103.44
441.822	106.44
442.043	112.44
442.264	127.44
442.486	103.44
442.707	103.44
442.928	102.44
443.149	82.44
443.371	110.44
443.592	95.44
443.813	91.44
444.034	100.44
444.255	95.44
444.476	94.44
444.698	91.44
444.919	89.44
445.14	167.44
445.361	135.44
445.582	103.44
445.803	103.44
446.024	96.44
446.245	101.44
446.466	96.44
446.687	97.44
446.908	96.44
447.129	97.44
447.35	117.44
447.571	114.44
447.792	89.44
448.013	88.44
448.234	83.44
448.455	91.44
448.675	98.44
448.896	94.44
449.117	104.44
449.338	115.44
449.559	142.44
449.779	118.44
450	88.44
450.221	102.44
450.442	124.44
450.662	105.44
450.883	97.44
451.104	109.44
451.324	121.44
451.545	98.44
451.766	119.44
451.986	125.44
452.207	197.44
452.428	551.44
452.648	1312.44
452.869	712.44
453.089	197.44
453.31	119.44
453.53	113.44
453.751	139.44
453.971	140.44
454.192	145.44
454.412	103.44
454.633	83.44
454.853	91.44
455.073	89.44
455.294	87.44
455.514	93.44
455.734	97.44
455.955	97.44
456.175	95.44
456.395	95.44
456.616	85.44
456.836	101.44
457.056	84.44
457.276	85.44
457.497	107.44
457.717	126.44
457.937	109.44
458.157	88.44
458.377	106.44
458.598	80.44
458.818	99.44
459.038	89.44
459.258	86.44
459.478	103.44
459.698	89.44
459.918	98.44
460.138	78.44
460.358	87.44
460.578	84.44
460.798	90.44
461.018	73.44
461.238	101.44
461.458	95.44
461.678	88.44
461.898	96.44
462.118	99.44
462.338	104.44
462.558	90.44
462.777	105.44
462.997	98.44
463.217	105.44
463.437	121.44
463.657	160.44
463.876	174.44
464.096	125.44
464.316	114.44
464.536	86.44
464.755	74.44
464.975	77.44
465.195	97.44
465.414	101.44
465.634	80.44
465.854	90.44
466.073	85.44
466.293	88.44
466.512	100.44
466.732	96.44
466.951	109.44
467.171	145.44
467.391	136.44
467.61	104.44
467.829	102.44
468.049	89.44
468.268	93.44
468.488	95.44
468.707	106.44
468.927	97.44
469.146	98.44
469.365	95.44
469.585	100.44
469.804	84.44
470.023	102.44
470.243	96.44
470.462	88.44
470.681	103.44
470.901	141.44
471.12	181.44
471.339	191.44
471.558	136.44
471.777	101.44
471.997	100.44
472.216	99.44
472.435	92.44
472.654	94.44
472.873	88.44
473.092	76.44
473.311	89.44
473.53	89.44
473.749	100.44
473.968	103.44
474.187	80.44
474.406	93.44
474.625	83.44
474.844	114.44
475.063	88.44
475.282	87.44
475.501	107.44
475.72	97.44
475.939	93.44
476.158	97.44
476.377	98.44
476.596	103.44
476.814	109.44
477.033	101.44
477.252	91.44
477.471	93.44
477.69	119.44
477.908	88.44
478.127	82.44
478.346	109.44
478.564	104.44
478.783	98.44
479.002	91.44
479.22	89.44
479.439	96.44
479.658	86.44
479.876	87.44
480.095	95.44
480.313	95.44
480.532	87.44
480.751	95.44
480.969	87.44
481.188	91.44
481.406	88.44
481.624	80.44
481.843	112.44
482.061	102.44
482.28	95.44
482.498	101.44
482.717	110.44
482.935	101.44
483.153	108.44
483.372	106.44
483.59	113.44
483.808	100.44
484.027	97.44
484.245	127.44
484.463	161.44
484.681	218.44
484.9	150.44
485.118	117.44
485.336	95.44
485.554	96.44
485.772	123.44
485.99	179.44
486.209	233.44
486.427	158.44
486.645	114.44
486.863	104.44
487.081	96.44
487.299	101.44
487.517	103.44
487.735	88.44
487.953	97.44
488.171	111.44
488.389	96.44
488.607	89.44
488.825	104.44
489.043	92.44
489.261	95.44
489.479	111.44
489.696	95.44
489.914	105.44
490.132	96.44
490.35	99.44
490.568	89.44
490.786	100.44
491.003	96.44
491.221	112.44
491.439	104.44
491.657	97.44
491.874	96.44
492.092	105.44
492.31	95.44
492.527	114.44
492.745	105.44
492.963	101.44
493.18	93.44
493.398	93.44
493.615	93.44
493.833	98.44
494.05	96.44
494.268	108.44
494.485	117.44
494.703	110.44
494.92	109.44
495.138	98.44
495.355	111.44
495.573	105.44
495.79	98.44
496.008	113.44
496.225	100.44
496.442	104.44
496.66	124.44
496.877	146.44
497.094	156.44
497.312	105.44
497.529	100.44
497.746	85.44
497.963	97.44
498.181	97.44
498.398	115.44
498.615	98.44
498.832	101.44
499.049	105.44
499.267	129.44
499.484	153.44
499.701	120.44
499.918	108.44
500.135	110.44
500.352	111.44
500.569	104.44
500.786	84.44
501.003	79.44
501.22	102.44
501.437	94.44
501.654	101.44
501.871	104.44
502.088	88.44
502.305	93.44
502.522	88.44
502.739	88.44
502.956	97.44
503.172	101.44
503.389	90.44
503.606	92.44
503.823	91.44
504.04	99.44
504.256	116.44
504.473	108.44
504.69	84.44
504.907	92.44
505.123	121.44
505.34	84.44
505.557	107.44
505.773	95.44
505.99	100.44
506.207	112.44
506.423	94.44
506.64	87.44
506.856	96.44
507.073	98.44
507.289	91.44
507.506	95.44
507.722	100.44
507.939	88.44
508.155	108.44
508.372	95.44
508.588	82.44
508.805	73.44
509.021	102.44
