Data from SnStandardFlinnAPT0064_LampEnergy5.5_LIBS07252019.E.O._I.C._HRD10591_15-17-32-492.txt Node
Date: Thu Jul 25 15:17:32 EDT 2019
User: cochatt
Spectrometer: HR+D1059
Trigger mode: 1
Integration Time (sec): 1.000000E-1
Scans to average: 1
Electric dark correction enabled: true
Nonlinearity correction enabled: false
Boxcar width: 0
XAxis mode: Wavelengths
Number of Pixels in Spectrum: 2048
>>>>>Begin Spectral Data<<<<<
223.165	-12.75
223.4	-12.75
223.635	-12.75
223.869	-15.75
224.104	-24.75
224.338	-27.75
224.573	1.25
224.808	-4.75
225.042	-15.75
225.277	-10.75
225.511	-12.75
225.746	9.25
225.98	3.25
226.215	15.25
226.449	21.25
226.683	14.25
226.918	24.25
227.152	36.25
227.387	30.25
227.621	23.25
227.856	36.25
228.09	26.25
228.324	44.25
228.559	52.25
228.793	83.25
229.027	140.25
229.262	175.25
229.496	169.25
229.73	159.25
229.964	164.25
230.199	162.25
230.433	193.25
230.667	175.25
230.901	177.25
231.136	182.25
231.37	193.25
231.604	205.25
231.838	224.25
232.072	250.25
232.306	279.25
232.541	234.25
232.775	217.25
233.009	218.25
233.243	214.25
233.477	229.25
233.711	255.25
233.945	280.25
234.179	266.25
234.413	213.25
234.647	227.25
234.881	242.25
235.115	263.25
235.349	306.25
235.583	358.25
235.817	491.25
236.051	495.25
236.285	314.25
236.519	264.25
236.753	242.25
236.987	245.25
237.221	267.25
237.455	259.25
237.689	240.25
237.922	211.25
238.156	233.25
238.39	232.25
238.624	246.25
238.858	250.25
239.091	241.25
239.325	244.25
239.559	234.25
239.793	239.25
240.027	263.25
240.26	265.25
240.494	277.25
240.728	266.25
240.961	282.25
241.195	298.25
241.429	327.25
241.662	328.25
241.896	372.25
242.13	430.25
242.363	568.25
242.597	712.25
242.83	680.25
243.064	701.25
243.298	837.25
243.531	673.25
243.765	441.25
243.998	352.25
244.232	328.25
244.465	312.25
244.699	333.25
244.932	303.25
245.166	321.25
245.399	323.25
245.633	334.25
245.866	317.25
246.099	319.25
246.333	280.25
246.566	297.25
246.8	302.25
247.033	304.25
247.266	302.25
247.5	333.25
247.733	315.25
247.966	320.25
248.2	354.25
248.433	413.25
248.666	441.25
248.899	411.25
249.133	376.25
249.366	401.25
249.599	432.25
249.832	477.25
250.066	509.25
250.299	410.25
250.532	362.25
250.765	357.25
250.998	359.25
251.231	334.25
251.465	352.25
251.698	361.25
251.931	347.25
252.164	360.25
252.397	368.25
252.63	375.25
252.863	374.25
253.096	366.25
253.329	372.25
253.562	356.25
253.795	364.25
254.028	393.25
254.261	383.25
254.494	418.25
254.727	469.25
254.96	573.25
255.193	579.25
255.426	426.25
255.659	397.25
255.892	411.25
256.124	404.25
256.357	414.25
256.59	421.25
256.823	455.25
257.056	496.25
257.289	602.25
257.521	630.25
257.754	537.25
257.987	455.25
258.22	419.25
258.452	420.25
258.685	403.25
258.918	433.25
259.151	443.25
259.383	499.25
259.616	526.25
259.849	564.25
260.081	494.25
260.314	433.25
260.547	434.25
260.779	424.25
261.012	426.25
261.244	440.25
261.477	478.25
261.71	451.25
261.942	463.25
262.175	474.25
262.407	506.25
262.64	509.25
262.872	501.25
263.105	530.25
263.337	562.25
263.57	575.25
263.802	596.25
264.035	618.25
264.267	618.25
264.499	650.25
264.732	655.25
264.964	689.25
265.197	655.25
265.429	651.25
265.661	687.25
265.894	726.25
266.126	792.25
266.358	857.25
266.591	839.25
266.823	738.25
267.055	648.25
267.287	627.25
267.52	631.25
267.752	609.25
267.984	588.25
268.216	591.25
268.448	591.25
268.681	601.25
268.913	586.25
269.145	587.25
269.377	571.25
269.609	585.25
269.841	587.25
270.073	635.25
270.306	731.25
270.538	993.25
270.77	1452.25
271.002	1725.25
271.234	1203.25
271.466	791.25
271.698	654.25
271.93	633.25
272.162	610.25
272.394	576.25
272.626	597.25
272.858	556.25
273.09	555.25
273.322	544.25
273.553	532.25
273.785	554.25
274.017	570.25
274.249	557.25
274.481	563.25
274.713	537.25
274.945	563.25
275.176	548.25
275.408	551.25
275.64	555.25
275.872	557.25
276.104	561.25
276.335	581.25
276.567	590.25
276.799	577.25
277.031	591.25
277.262	608.25
277.494	635.25
277.726	682.25
277.957	771.25
278.189	910.25
278.421	843.25
278.652	760.25
278.884	721.25
279.115	653.25
279.347	637.25
279.579	623.25
279.81	628.25
280.042	622.25
280.273	662.25
280.505	675.25
280.736	643.25
280.968	691.25
281.199	751.25
281.431	843.25
281.662	872.25
281.894	777.25
282.125	721.25
282.356	725.25
282.588	738.25
282.819	738.25
283.051	773.25
283.282	875.25
283.513	1067.25
283.745	1605.25
283.976	2500.25
284.207	3664.25
284.439	3223.25
284.67	1841.25
284.901	1527.25
285.132	1517.25
285.364	1441.25
285.595	1115.25
285.826	1046.25
286.057	1215.25
286.288	1679.25
286.52	2280.25
286.751	2099.25
286.982	1309.25
287.213	962.25
287.444	833.25
287.675	805.25
287.906	766.25
288.138	783.25
288.369	761.25
288.6	762.25
288.831	742.25
289.062	763.25
289.293	726.25
289.524	753.25
289.755	745.25
289.986	767.25
290.217	758.25
290.448	762.25
290.679	759.25
290.91	767.25
291.141	806.25
291.371	841.25
291.602	895.25
291.833	831.25
292.064	762.25
292.295	729.25
292.526	734.25
292.757	734.25
292.987	718.25
293.218	718.25
293.449	702.25
293.68	720.25
293.91	717.25
294.141	711.25
294.372	718.25
294.603	714.25
294.833	691.25
295.064	704.25
295.295	683.25
295.525	695.25
295.756	697.25
295.987	698.25
296.217	687.25
296.448	691.25
296.679	694.25
296.909	702.25
297.14	730.25
297.37	712.25
297.601	732.25
297.831	715.25
298.062	707.25
298.292	737.25
298.523	746.25
298.753	755.25
298.984	774.25
299.214	770.25
299.445	755.25
299.675	767.25
299.905	796.25
300.136	855.25
300.366	957.25
300.597	1184.25
300.827	1667.25
301.057	2302.25
301.288	2225.25
301.518	1434.25
301.748	1087.25
301.979	1001.25
302.209	971.25
302.439	984.25
302.669	1039.25
302.9	1240.25
303.13	1766.25
303.36	2605.25
303.59	3576.25
303.82	3099.25
304.051	1741.25
304.281	1258.25
304.511	1049.25
304.741	998.25
304.971	929.25
305.201	893.25
305.431	879.25
305.661	861.25
305.891	842.25
306.121	821.25
306.352	820.25
306.582	824.25
306.812	814.25
307.042	799.25
307.272	825.25
307.502	817.25
307.731	794.25
307.961	788.25
308.191	816.25
308.421	807.25
308.651	807.25
308.881	803.25
309.111	810.25
309.341	803.25
309.571	827.25
309.8	816.25
310.03	830.25
310.26	823.25
310.49	840.25
310.72	826.25
310.949	807.25
311.179	835.25
311.409	858.25
311.639	889.25
311.868	872.25
312.098	869.25
312.328	874.25
312.557	887.25
312.787	851.25
313.017	884.25
313.246	873.25
313.476	883.25
313.706	898.25
313.935	945.25
314.165	983.25
314.394	1035.25
314.624	1021.25
314.853	939.25
315.083	915.25
315.312	940.25
315.542	1000.25
315.771	953.25
316.001	965.25
316.23	1020.25
316.46	1051.25
316.689	1137.25
316.919	1370.25
317.148	2007.25
317.377	3134.25
317.607	4667.25
317.836	4800.25
318.065	2756.25
318.295	1687.25
318.524	1399.25
318.753	1252.25
318.983	1153.25
319.212	1088.25
319.441	1070.25
319.67	1033.25
319.9	1052.25
320.129	1039.25
320.358	1037.25
320.587	1009.25
320.816	1019.25
321.046	1046.25
321.275	1049.25
321.504	1046.25
321.733	1040.25
321.962	1063.25
322.191	1114.25
322.42	1091.25
322.649	1076.25
322.878	1066.25
323.108	1080.25
323.337	1067.25
323.566	1127.25
323.795	1144.25
324.024	1157.25
324.253	1137.25
324.482	1217.25
324.71	1291.25
324.939	1352.25
325.168	1350.25
325.397	1443.25
325.626	1702.25
325.855	2414.25
326.084	3792.25
326.313	5734.25
326.542	6037.25
326.77	3693.25
326.999	2353.25
327.228	1962.25
327.457	1915.25
327.686	1909.25
327.914	2071.25
328.143	2276.25
328.372	2670.25
328.6	2899.25
328.829	2714.25
329.058	2336.25
329.287	2050.25
329.515	1872.25
329.744	1750.25
329.972	1692.25
330.201	1613.25
330.43	1607.25
330.658	1560.25
330.887	1479.25
331.115	1475.25
331.344	1458.25
331.572	1439.25
331.801	1477.25
332.03	1495.25
332.258	1528.25
332.486	1575.25
332.715	1796.25
332.943	2205.25
333.172	2745.25
333.4	2632.25
333.629	2053.25
333.857	1870.25
334.085	1866.25
334.314	1926.25
334.542	2087.25
334.771	2399.25
334.999	2808.25
335.227	3511.25
335.455	3909.25
335.684	3616.25
335.912	3076.25
336.14	2602.25
336.369	2336.25
336.597	2140.25
336.825	2021.25
337.053	1906.25
337.281	1781.25
337.51	1676.25
337.738	1618.25
337.966	1560.25
338.194	1502.25
338.422	1470.25
338.65	1451.25
338.878	1440.25
339.106	1353.25
339.334	1407.25
339.562	1391.25
339.79	1336.25
340.018	1320.25
340.246	1300.25
340.474	1309.25
340.702	1282.25
340.93	1297.25
341.158	1293.25
341.386	1271.25
341.614	1306.25
341.842	1268.25
342.07	1266.25
342.298	1221.25
342.526	1222.25
342.754	1224.25
342.981	1202.25
343.209	1191.25
343.437	1223.25
343.665	1222.25
343.893	1240.25
344.12	1244.25
344.348	1235.25
344.576	1207.25
344.804	1200.25
345.031	1120.25
345.259	1141.25
345.487	1153.25
345.714	1141.25
345.942	1141.25
346.17	1133.25
346.397	1130.25
346.625	1125.25
346.853	1111.25
347.08	1119.25
347.308	1103.25
347.535	1103.25
347.763	1109.25
347.99	1114.25
348.218	1092.25
348.445	1111.25
348.673	1086.25
348.9	1104.25
349.128	1116.25
349.355	1071.25
349.583	1059.25
349.81	1077.25
350.037	1073.25
350.265	1066.25
350.492	1026.25
350.72	1049.25
350.947	1047.25
351.174	1038.25
351.402	1053.25
351.629	1047.25
351.856	1059.25
352.083	1051.25
352.311	1045.25
352.538	1045.25
352.765	1033.25
352.992	1040.25
353.22	1037.25
353.447	1015.25
353.674	1061.25
353.901	1075.25
354.128	1043.25
354.355	1072.25
354.583	1062.25
354.81	1062.25
355.037	1066.25
355.264	1069.25
355.491	1051.25
355.718	1075.25
355.945	1082.25
356.172	1069.25
356.399	1089.25
356.626	1090.25
356.853	1104.25
357.08	1106.25
357.307	1120.25
357.534	1096.25
357.761	1106.25
357.988	1122.25
358.215	1142.25
358.441	1107.25
358.668	1083.25
358.895	1113.25
359.122	1103.25
359.349	1137.25
359.576	1126.25
359.802	1105.25
360.029	1119.25
360.256	1108.25
360.483	1118.25
360.709	1119.25
360.936	1126.25
361.163	1104.25
361.39	1129.25
361.616	1123.25
361.843	1155.25
362.07	1141.25
362.296	1125.25
362.523	1160.25
362.749	1143.25
362.976	1156.25
363.203	1131.25
363.429	1117.25
363.656	1119.25
363.882	1139.25
364.109	1099.25
364.335	1122.25
364.562	1124.25
364.788	1157.25
365.015	1142.25
365.241	1141.25
365.468	1217.25
365.694	1260.25
365.92	1216.25
366.147	1148.25
366.373	1142.25
366.599	1157.25
366.826	1135.25
367.052	1149.25
367.278	1138.25
367.505	1147.25
367.731	1129.25
367.957	1127.25
368.184	1156.25
368.41	1207.25
368.636	1185.25
368.862	1157.25
369.089	1160.25
369.315	1174.25
369.541	1176.25
369.767	1143.25
369.993	1171.25
370.219	1151.25
370.445	1158.25
370.672	1216.25
370.898	1205.25
371.124	1193.25
371.35	1197.25
371.576	1197.25
371.802	1213.25
372.028	1188.25
372.254	1235.25
372.48	1240.25
372.706	1211.25
372.932	1250.25
373.158	1216.25
373.384	1231.25
373.61	1251.25
373.835	1229.25
374.061	1214.25
374.287	1250.25
374.513	1282.25
374.739	1280.25
374.965	1305.25
375.191	1286.25
375.416	1277.25
375.642	1250.25
375.868	1249.25
376.094	1261.25
376.319	1242.25
376.545	1201.25
376.771	1212.25
376.997	1188.25
377.222	1189.25
377.448	1197.25
377.674	1208.25
377.899	1220.25
378.125	1190.25
378.35	1182.25
378.576	1206.25
378.802	1223.25
379.027	1219.25
379.253	1254.25
379.478	1355.25
379.704	1547.25
379.929	2217.25
380.155	3402.25
380.38	3669.25
380.606	2191.25
380.831	1530.25
381.057	1375.25
381.282	1301.25
381.507	1267.25
381.733	1223.25
381.958	1219.25
382.184	1229.25
382.409	1225.25
382.634	1199.25
382.86	1208.25
383.085	1161.25
383.31	1202.25
383.535	1215.25
383.761	1190.25
383.986	1221.25
384.211	1214.25
384.436	1219.25
384.662	1230.25
384.887	1209.25
385.112	1229.25
385.337	1231.25
385.562	1245.25
385.787	1218.25
386.013	1231.25
386.238	1233.25
386.463	1225.25
386.688	1226.25
386.913	1211.25
387.138	1239.25
387.363	1230.25
387.588	1221.25
387.813	1225.25
388.038	1240.25
388.263	1234.25
388.488	1237.25
388.713	1254.25
388.938	1246.25
389.163	1209.25
389.387	1222.25
389.612	1225.25
389.837	1240.25
390.062	1235.25
390.287	1273.25
390.512	1245.25
390.736	1258.25
390.961	1286.25
391.186	1266.25
391.411	1279.25
391.636	1288.25
391.86	1290.25
392.085	1323.25
392.31	1302.25
392.534	1298.25
392.759	1317.25
392.984	1267.25
393.208	1259.25
393.433	1278.25
393.658	1257.25
393.882	1229.25
394.107	1232.25
394.331	1245.25
394.556	1269.25
394.78	1267.25
395.005	1261.25
395.229	1243.25
395.454	1263.25
395.678	1289.25
395.903	1275.25
396.127	1302.25
396.352	1289.25
396.576	1256.25
396.801	1290.25
397.025	1319.25
397.249	1304.25
397.474	1314.25
397.698	1302.25
397.922	1306.25
398.147	1331.25
398.371	1334.25
398.595	1362.25
398.82	1379.25
399.044	1426.25
399.268	1510.25
399.492	1576.25
399.717	1653.25
399.941	1627.25
400.165	1567.25
400.389	1533.25
400.613	1451.25
400.837	1409.25
401.062	1365.25
401.286	1365.25
401.51	1354.25
401.734	1385.25
401.958	1387.25
402.182	1406.25
402.406	1375.25
402.63	1405.25
402.854	1363.25
403.078	1370.25
403.302	1422.25
403.526	1410.25
403.75	1386.25
403.974	1427.25
404.198	1418.25
404.422	1451.25
404.645	1404.25
404.869	1411.25
405.093	1427.25
405.317	1425.25
405.541	1440.25
405.765	1469.25
405.988	1442.25
406.212	1485.25
406.436	1453.25
406.66	1423.25
406.883	1488.25
407.107	1502.25
407.331	1521.25
407.555	1533.25
407.778	1520.25
408.002	1518.25
408.226	1534.25
408.449	1506.25
408.673	1452.25
408.896	1426.25
409.12	1421.25
409.344	1445.25
409.567	1434.25
409.791	1420.25
410.014	1421.25
410.238	1396.25
410.461	1428.25
410.685	1399.25
410.908	1370.25
411.132	1389.25
411.355	1329.25
411.578	1331.25
411.802	1365.25
412.025	1362.25
412.249	1392.25
412.472	1415.25
412.695	1342.25
412.919	1348.25
413.142	1350.25
413.365	1314.25
413.589	1325.25
413.812	1315.25
414.035	1311.25
414.258	1328.25
414.482	1321.25
414.705	1357.25
414.928	1335.25
415.151	1352.25
415.374	1321.25
415.597	1306.25
415.821	1266.25
416.044	1331.25
416.267	1295.25
416.49	1289.25
416.713	1267.25
416.936	1271.25
417.159	1270.25
417.382	1299.25
417.605	1255.25
417.828	1279.25
418.051	1308.25
418.274	1318.25
418.497	1298.25
418.72	1340.25
418.943	1277.25
419.166	1361.25
419.389	1413.25
419.611	1444.25
419.834	1338.25
420.057	1362.25
420.28	1339.25
420.503	1287.25
420.726	1249.25
420.948	1252.25
421.171	1299.25
421.394	1282.25
421.617	1304.25
421.839	1319.25
422.062	1300.25
422.285	1310.25
422.507	1298.25
422.73	1309.25
422.953	1348.25
423.175	1340.25
423.398	1279.25
423.621	1283.25
423.843	1306.25
424.066	1327.25
424.288	1288.25
424.511	1263.25
424.733	1305.25
424.956	1316.25
425.178	1278.25
425.401	1280.25
425.623	1266.25
425.846	1256.25
426.068	1279.25
426.291	1279.25
426.513	1230.25
426.735	1253.25
426.958	1205.25
427.18	1213.25
427.402	1211.25
427.625	1244.25
427.847	1226.25
428.069	1211.25
428.292	1214.25
428.514	1215.25
428.736	1213.25
428.958	1234.25
429.181	1167.25
429.403	1198.25
429.625	1177.25
429.847	1206.25
430.069	1218.25
430.292	1232.25
430.514	1248.25
430.736	1286.25
430.958	1230.25
431.18	1199.25
431.402	1189.25
431.624	1180.25
431.846	1163.25
432.068	1145.25
432.29	1162.25
432.512	1185.25
432.734	1179.25
432.956	1181.25
433.178	1243.25
433.4	1203.25
433.622	1190.25
433.844	1229.25
434.066	1175.25
434.287	1182.25
434.509	1190.25
434.731	1226.25
434.953	1272.25
435.175	1249.25
435.397	1223.25
435.618	1188.25
435.84	1215.25
436.062	1171.25
436.284	1192.25
436.505	1177.25
436.727	1205.25
436.949	1197.25
437.17	1174.25
437.392	1185.25
437.614	1134.25
437.835	1127.25
438.057	1155.25
438.278	1133.25
438.5	1149.25
438.721	1147.25
438.943	1191.25
439.165	1242.25
439.386	1236.25
439.608	1249.25
439.829	1264.25
440.05	1313.25
440.272	1261.25
440.493	1234.25
440.715	1250.25
440.936	1253.25
441.158	1231.25
441.379	1245.25
441.6	1335.25
441.822	1290.25
442.043	1411.25
442.264	1478.25
442.486	1368.25
442.707	1319.25
442.928	1296.25
443.149	1284.25
443.371	1238.25
443.592	1291.25
443.813	1298.25
444.034	1309.25
444.255	1301.25
444.476	1350.25
444.698	1384.25
444.919	1393.25
445.14	1490.25
445.361	1386.25
445.582	1295.25
445.803	1302.25
446.024	1274.25
446.245	1283.25
446.466	1281.25
446.687	1219.25
446.908	1264.25
447.129	1245.25
447.35	1215.25
447.571	1225.25
447.792	1179.25
448.013	1201.25
448.234	1138.25
448.455	1185.25
448.675	1184.25
448.896	1208.25
449.117	1279.25
449.338	1384.25
449.559	1425.25
449.779	1279.25
450	1151.25
450.221	1158.25
450.442	1161.25
450.662	1164.25
450.883	1123.25
451.104	1157.25
451.324	1135.25
451.545	1169.25
451.766	1165.25
451.986	1176.25
452.207	1277.25
452.428	1521.25
452.648	2139.25
452.869	1845.25
453.089	1373.25
453.31	1306.25
453.53	1264.25
453.751	1297.25
453.971	1390.25
454.192	1399.25
454.412	1191.25
454.633	1172.25
454.853	1105.25
455.073	1098.25
455.294	1091.25
455.514	1099.25
455.734	1080.25
455.955	1075.25
456.175	1096.25
456.395	1077.25
456.616	1098.25
456.836	1127.25
457.056	1086.25
457.276	1115.25
457.497	1147.25
457.717	1157.25
457.937	1143.25
458.157	1130.25
458.377	1161.25
458.598	1174.25
458.818	1189.25
459.038	1161.25
459.258	1177.25
459.478	1191.25
459.698	1204.25
459.918	1217.25
460.138	1241.25
460.358	1280.25
460.578	1256.25
460.798	1280.25
461.018	1273.25
461.238	1271.25
461.458	1331.25
461.678	1313.25
461.898	1345.25
462.118	1320.25
462.338	1329.25
462.558	1393.25
462.777	1397.25
462.997	1477.25
463.217	1498.25
463.437	1582.25
463.657	1535.25
463.876	1605.25
464.096	1473.25
464.316	1459.25
464.536	1382.25
464.755	1366.25
464.975	1375.25
465.195	1315.25
465.414	1268.25
465.634	1234.25
465.854	1229.25
466.073	1230.25
466.293	1229.25
466.512	1190.25
466.732	1211.25
466.951	1265.25
467.171	1356.25
467.391	1322.25
467.61	1203.25
467.829	1162.25
468.049	1197.25
468.268	1149.25
468.488	1188.25
468.707	1177.25
468.927	1198.25
469.146	1148.25
469.365	1175.25
469.585	1195.25
469.804	1218.25
470.023	1265.25
470.243	1271.25
470.462	1304.25
470.681	1350.25
470.901	1437.25
471.12	1701.25
471.339	1709.25
471.558	1425.25
471.777	1295.25
471.997	1249.25
472.216	1189.25
472.435	1201.25
472.654	1191.25
472.873	1176.25
473.092	1185.25
473.311	1181.25
473.53	1175.25
473.749	1190.25
473.968	1246.25
474.187	1177.25
474.406	1188.25
474.625	1190.25
474.844	1203.25
475.063	1178.25
475.282	1206.25
475.501	1142.25
475.72	1187.25
475.939	1199.25
476.158	1205.25
476.377	1256.25
476.596	1238.25
476.814	1246.25
477.033	1232.25
477.252	1253.25
477.471	1300.25
477.69	1284.25
477.908	1322.25
478.127	1346.25
478.346	1359.25
478.564	1338.25
478.783	1361.25
479.002	1378.25
479.22	1374.25
479.439	1385.25
479.658	1369.25
479.876	1378.25
480.095	1392.25
480.313	1417.25
480.532	1470.25
480.751	1415.25
480.969	1404.25
481.188	1400.25
481.406	1383.25
481.624	1369.25
481.843	1409.25
482.061	1373.25
482.28	1389.25
482.498	1409.25
482.717	1388.25
482.935	1417.25
483.153	1448.25
483.372	1475.25
483.59	1469.25
483.808	1468.25
484.027	1503.25
484.245	1649.25
484.463	1779.25
484.681	2001.25
484.9	1795.25
485.118	1643.25
485.336	1606.25
485.554	1664.25
485.772	1726.25
485.99	1993.25
486.209	2221.25
486.427	1825.25
486.645	1595.25
486.863	1597.25
487.081	1533.25
487.299	1529.25
487.517	1521.25
487.735	1510.25
487.953	1567.25
488.171	1527.25
488.389	1511.25
488.607	1453.25
488.825	1483.25
489.043	1429.25
489.261	1456.25
489.479	1443.25
489.696	1448.25
489.914	1471.25
490.132	1446.25
490.35	1488.25
490.568	1476.25
