Data from SnStandardFlinnAPT0064_LampEnergy10_LIBS07252019.E.O._I.C._HRD10591_15-20-01-493.txt Node
Date: Thu Jul 25 15:20:01 EDT 2019
User: cochatt
Spectrometer: HR+D1059
Trigger mode: 1
Integration Time (sec): 1.000000E-1
Scans to average: 1
Electric dark correction enabled: true
Nonlinearity correction enabled: false
Boxcar width: 0
XAxis mode: Wavelengths
Number of Pixels in Spectrum: 2048
>>>>>Begin Spectral Data<<<<<
223.165	-24.06
223.4	-24.06
223.635	-24.06
223.869	-15.06
224.104	-32.06
224.338	-9.06
224.573	-13.06
224.808	-12.06
225.042	-18.06
225.277	-2.06
225.511	0.94
225.746	2.94
225.98	6.94
226.215	9.94
226.449	16.94
226.683	14.94
226.918	24.94
227.152	47.94
227.387	28.94
227.621	38.94
227.856	34.94
228.09	27.94
228.324	50.94
228.559	54.94
228.793	132.94
229.027	308.94
229.262	336.94
229.496	306.94
229.73	286.94
229.964	299.94
230.199	317.94
230.433	298.94
230.667	294.94
230.901	311.94
231.136	312.94
231.37	358.94
231.604	392.94
231.838	432.94
232.072	526.94
232.306	552.94
232.541	466.94
232.775	424.94
233.009	418.94
233.243	412.94
233.477	463.94
233.711	517.94
233.945	587.94
234.179	548.94
234.413	458.94
234.647	448.94
234.881	492.94
235.115	501.94
235.349	614.94
235.583	786.94
235.817	1020.94
236.051	1015.94
236.285	674.94
236.519	538.94
236.753	493.94
236.987	500.94
237.221	534.94
237.455	518.94
237.689	476.94
237.922	464.94
238.156	474.94
238.39	494.94
238.624	532.94
238.858	485.94
239.091	483.94
239.325	510.94
239.559	494.94
239.793	512.94
240.027	504.94
240.26	537.94
240.494	564.94
240.728	602.94
240.961	619.94
241.195	659.94
241.429	685.94
241.662	722.94
241.896	820.94
242.13	968.94
242.363	1267.94
242.597	1634.94
242.83	1558.94
243.064	1580.94
243.298	1814.94
243.531	1532.94
243.765	975.94
243.998	797.94
244.232	702.94
244.465	672.94
244.699	664.94
244.932	658.94
245.166	638.94
245.399	705.94
245.633	679.94
245.866	702.94
246.099	689.94
246.333	636.94
246.566	625.94
246.8	611.94
247.033	666.94
247.266	656.94
247.5	659.94
247.733	707.94
247.966	699.94
248.2	766.94
248.433	888.94
248.666	1007.94
248.899	943.94
249.133	854.94
249.366	890.94
249.599	966.94
249.832	1140.94
250.066	1143.94
250.299	881.94
250.532	797.94
250.765	774.94
250.998	767.94
251.231	765.94
251.465	734.94
251.698	772.94
251.931	755.94
252.164	759.94
252.397	775.94
252.63	801.94
252.863	792.94
253.096	796.94
253.329	804.94
253.562	791.94
253.795	785.94
254.028	800.94
254.261	813.94
254.494	916.94
254.727	1020.94
254.96	1272.94
255.193	1239.94
255.426	974.94
255.659	899.94
255.892	870.94
256.124	858.94
256.357	855.94
256.59	891.94
256.823	991.94
257.056	1112.94
257.289	1363.94
257.521	1528.94
257.754	1223.94
257.987	1009.94
258.22	920.94
258.452	924.94
258.685	938.94
258.918	955.94
259.151	990.94
259.383	1088.94
259.616	1225.94
259.849	1280.94
260.081	1095.94
260.314	978.94
260.547	968.94
260.779	952.94
261.012	978.94
261.244	966.94
261.477	999.94
261.71	1000.94
261.942	1010.94
262.175	1016.94
262.407	1009.94
262.64	1050.94
262.872	1078.94
263.105	1137.94
263.337	1187.94
263.57	1269.94
263.802	1285.94
264.035	1288.94
264.267	1332.94
264.499	1402.94
264.732	1441.94
264.964	1448.94
265.197	1385.94
265.429	1430.94
265.661	1444.94
265.894	1528.94
266.126	1754.94
266.358	1968.94
266.591	1874.94
266.823	1606.94
267.055	1452.94
267.287	1381.94
267.52	1344.94
267.752	1296.94
267.984	1243.94
268.216	1246.94
268.448	1230.94
268.681	1198.94
268.913	1239.94
269.145	1292.94
269.377	1248.94
269.609	1230.94
269.841	1304.94
270.073	1359.94
270.306	1605.94
270.538	2166.94
270.77	3272.94
271.002	4062.94
271.234	2857.94
271.466	1908.94
271.698	1582.94
271.93	1428.94
272.162	1340.94
272.394	1277.94
272.626	1282.94
272.858	1212.94
273.09	1230.94
273.322	1206.94
273.553	1186.94
273.785	1192.94
274.017	1203.94
274.249	1218.94
274.481	1189.94
274.713	1215.94
274.945	1190.94
275.176	1216.94
275.408	1246.94
275.64	1223.94
275.872	1223.94
276.104	1278.94
276.335	1298.94
276.567	1286.94
276.799	1274.94
277.031	1311.94
277.262	1344.94
277.494	1391.94
277.726	1549.94
277.957	1861.94
278.189	2130.94
278.421	1989.94
278.652	1788.94
278.884	1666.94
279.115	1487.94
279.347	1436.94
279.579	1408.94
279.81	1403.94
280.042	1362.94
280.273	1429.94
280.505	1462.94
280.736	1498.94
280.968	1635.94
281.199	1788.94
281.431	2044.94
281.662	2115.94
281.894	1771.94
282.125	1687.94
282.356	1669.94
282.588	1650.94
282.819	1748.94
283.051	1811.94
283.282	2001.94
283.513	2564.94
283.745	3667.94
283.976	5825.94
284.207	8158.94
284.439	7520.94
284.67	4717.94
284.901	3807.94
285.132	3875.94
285.364	3631.94
285.595	2786.94
285.826	2500.94
286.057	2917.94
286.288	3916.94
286.52	5324.94
286.751	4997.94
286.982	3154.94
287.213	2339.94
287.444	2035.94
287.675	1890.94
287.906	1816.94
288.138	1704.94
288.369	1707.94
288.6	1682.94
288.831	1680.94
289.062	1694.94
289.293	1711.94
289.524	1706.94
289.755	1687.94
289.986	1703.94
290.217	1700.94
290.448	1710.94
290.679	1732.94
290.91	1800.94
291.141	1921.94
291.371	2027.94
291.602	2116.94
291.833	1951.94
292.064	1758.94
292.295	1686.94
292.526	1664.94
292.757	1631.94
292.987	1616.94
293.218	1590.94
293.449	1601.94
293.68	1579.94
293.91	1566.94
294.141	1566.94
294.372	1581.94
294.603	1566.94
294.833	1583.94
295.064	1545.94
295.295	1584.94
295.525	1562.94
295.756	1558.94
295.987	1544.94
296.217	1579.94
296.448	1650.94
296.679	1587.94
296.909	1614.94
297.14	1577.94
297.37	1653.94
297.601	1651.94
297.831	1604.94
298.062	1655.94
298.292	1657.94
298.523	1682.94
298.753	1733.94
298.984	1710.94
299.214	1747.94
299.445	1767.94
299.675	1746.94
299.905	1855.94
300.136	1946.94
300.366	2141.94
300.597	2775.94
300.827	3890.94
301.057	5327.94
301.288	5286.94
301.518	3467.94
301.748	2626.94
301.979	2431.94
302.209	2335.94
302.439	2338.94
302.669	2495.94
302.9	3031.94
303.13	4182.94
303.36	6221.94
303.59	8362.94
303.82	7346.94
304.051	4387.94
304.281	3103.94
304.511	2597.94
304.741	2332.94
304.971	2208.94
305.201	2109.94
305.431	2044.94
305.661	1956.94
305.891	1905.94
306.121	1916.94
306.352	1877.94
306.582	1838.94
306.812	1828.94
307.042	1866.94
307.272	1851.94
307.502	1779.94
307.731	1819.94
307.961	1834.94
308.191	1795.94
308.421	1802.94
308.651	1795.94
308.881	1757.94
309.111	1842.94
309.341	1807.94
309.571	1810.94
309.8	1885.94
310.03	1843.94
310.26	1868.94
310.49	1873.94
310.72	1856.94
310.949	1884.94
311.179	1885.94
311.409	1878.94
311.639	1934.94
311.868	1928.94
312.098	1981.94
312.328	1965.94
312.557	1958.94
312.787	1960.94
313.017	1990.94
313.246	2012.94
313.476	1998.94
313.706	2093.94
313.935	2197.94
314.165	2364.94
314.394	2483.94
314.624	2349.94
314.853	2210.94
315.083	2206.94
315.312	2179.94
315.542	2174.94
315.771	2190.94
316.001	2284.94
316.23	2322.94
316.46	2471.94
316.689	2682.94
316.919	3263.94
317.148	4642.94
317.377	7237.94
317.607	10609.94
317.836	11055.94
318.065	6784.94
318.295	4451.94
318.524	3539.94
318.753	3048.94
318.983	2807.94
319.212	2613.94
319.441	2518.94
319.67	2424.94
319.9	2405.94
320.129	2386.94
320.358	2390.94
320.587	2323.94
320.816	2386.94
321.046	2351.94
321.275	2354.94
321.504	2403.94
321.733	2419.94
321.962	2510.94
322.191	2575.94
322.42	2540.94
322.649	2499.94
322.878	2474.94
323.108	2476.94
323.337	2528.94
323.566	2556.94
323.795	2626.94
324.024	2660.94
324.253	2726.94
324.482	2828.94
324.71	3027.94
324.939	3246.94
325.168	3376.94
325.397	3451.94
325.626	4106.94
325.855	5740.94
326.084	8880.94
326.313	12886.94
326.542	13604.94
326.77	9335.94
326.999	6079.94
327.228	5174.94
327.457	4890.94
327.686	4862.94
327.914	5253.94
328.143	6173.94
328.372	7191.94
328.6	7958.94
328.829	7149.94
329.058	5907.94
329.287	5167.94
329.515	4735.94
329.744	4351.94
329.972	4090.94
330.201	3896.94
330.43	3746.94
330.658	3645.94
330.887	3616.94
331.115	3498.94
331.344	3445.94
331.572	3464.94
331.801	3536.94
332.03	3521.94
332.258	3575.94
332.486	3742.94
332.715	4287.94
332.943	5343.94
333.172	6694.94
333.4	6629.94
333.629	5076.94
333.857	4583.94
334.085	4504.94
334.314	4759.94
334.542	5230.94
334.771	6055.94
334.999	7511.94
335.227	9357.94
335.455	10504.94
335.684	9552.94
335.912	7783.94
336.14	6648.94
336.369	5841.94
336.597	5276.94
336.825	4903.94
337.053	4628.94
337.281	4309.94
337.51	4052.94
337.738	3890.94
337.966	3723.94
338.194	3576.94
338.422	3516.94
338.65	3398.94
338.878	3309.94
339.106	3228.94
339.334	3244.94
339.562	3181.94
339.79	3120.94
340.018	3070.94
340.246	2990.94
340.474	3020.94
340.702	3025.94
340.93	2998.94
341.158	3000.94
341.386	2975.94
341.614	2981.94
341.842	2919.94
342.07	2846.94
342.298	2811.94
342.526	2803.94
342.754	2742.94
342.981	2731.94
343.209	2676.94
343.437	2708.94
343.665	2755.94
343.893	2791.94
344.12	2771.94
344.348	2767.94
344.576	2748.94
344.804	2720.94
345.031	2625.94
345.259	2598.94
345.487	2611.94
345.714	2583.94
345.942	2538.94
346.17	2558.94
346.397	2528.94
346.625	2526.94
346.853	2524.94
347.08	2538.94
347.308	2486.94
347.535	2501.94
347.763	2483.94
347.99	2490.94
348.218	2479.94
348.445	2471.94
348.673	2508.94
348.9	2476.94
349.128	2452.94
349.355	2445.94
349.583	2474.94
349.81	2445.94
350.037	2386.94
350.265	2393.94
350.492	2451.94
350.72	2418.94
350.947	2375.94
351.174	2387.94
351.402	2413.94
351.629	2360.94
351.856	2397.94
352.083	2404.94
352.311	2390.94
352.538	2356.94
352.765	2394.94
352.992	2358.94
353.22	2354.94
353.447	2374.94
353.674	2387.94
353.901	2372.94
354.128	2432.94
354.355	2406.94
354.583	2428.94
354.81	2402.94
355.037	2396.94
355.264	2412.94
355.491	2400.94
355.718	2415.94
355.945	2436.94
356.172	2478.94
356.399	2473.94
356.626	2463.94
356.853	2533.94
357.08	2463.94
357.307	2557.94
357.534	2532.94
357.761	2577.94
357.988	2598.94
358.215	2585.94
358.441	2533.94
358.668	2551.94
358.895	2593.94
359.122	2515.94
359.349	2533.94
359.576	2513.94
359.802	2571.94
360.029	2529.94
360.256	2533.94
360.483	2554.94
360.709	2502.94
360.936	2535.94
361.163	2543.94
361.39	2567.94
361.616	2548.94
361.843	2506.94
362.07	2526.94
362.296	2535.94
362.523	2545.94
362.749	2558.94
362.976	2524.94
363.203	2542.94
363.429	2500.94
363.656	2503.94
363.882	2529.94
364.109	2587.94
364.335	2505.94
364.562	2529.94
364.788	2586.94
365.015	2588.94
365.241	2647.94
365.468	2803.94
365.694	2909.94
365.92	2834.94
366.147	2642.94
366.373	2591.94
366.599	2612.94
366.826	2578.94
367.052	2579.94
367.278	2616.94
367.505	2592.94
367.731	2606.94
367.957	2650.94
368.184	2606.94
368.41	2616.94
368.636	2624.94
368.862	2657.94
369.089	2615.94
369.315	2604.94
369.541	2614.94
369.767	2630.94
369.993	2625.94
370.219	2627.94
370.445	2672.94
370.672	2691.94
370.898	2634.94
371.124	2647.94
371.35	2702.94
371.576	2672.94
371.802	2746.94
372.028	2742.94
372.254	2717.94
372.48	2734.94
372.706	2744.94
372.932	2765.94
373.158	2697.94
373.384	2804.94
373.61	2754.94
373.835	2741.94
374.061	2785.94
374.287	2799.94
374.513	2804.94
374.739	2926.94
374.965	2897.94
375.191	2882.94
375.416	2880.94
375.642	2833.94
375.868	2818.94
376.094	2828.94
376.319	2747.94
376.545	2759.94
376.771	2704.94
376.997	2746.94
377.222	2755.94
377.448	2702.94
377.674	2754.94
377.899	2684.94
378.125	2712.94
378.35	2670.94
378.576	2738.94
378.802	2759.94
379.027	2829.94
379.253	2886.94
379.478	3040.94
379.704	3658.94
379.929	5166.94
380.155	7956.94
380.38	8696.94
380.606	5345.94
380.831	3700.94
381.057	3208.94
381.282	3014.94
381.507	2853.94
381.733	2781.94
381.958	2731.94
382.184	2690.94
382.409	2685.94
382.634	2657.94
382.86	2678.94
383.085	2648.94
383.31	2675.94
383.535	2711.94
383.761	2664.94
383.986	2712.94
384.211	2710.94
384.436	2757.94
384.662	2705.94
384.887	2773.94
385.112	2759.94
385.337	2776.94
385.562	2734.94
385.787	2738.94
386.013	2767.94
386.238	2773.94
386.463	2774.94
386.688	2758.94
386.913	2720.94
387.138	2732.94
387.363	2758.94
387.588	2709.94
387.813	2726.94
388.038	2750.94
388.263	2746.94
388.488	2773.94
388.713	2706.94
388.938	2754.94
389.163	2694.94
389.387	2723.94
389.612	2712.94
389.837	2768.94
390.062	2768.94
390.287	2794.94
390.512	2817.94
390.736	2754.94
390.961	2852.94
391.186	2832.94
391.411	2832.94
391.636	2869.94
391.86	2927.94
392.085	2891.94
392.31	2836.94
392.534	2821.94
392.759	2857.94
392.984	2816.94
393.208	2818.94
393.433	2857.94
393.658	2768.94
393.882	2770.94
394.107	2774.94
394.331	2773.94
394.556	2816.94
394.78	2860.94
395.005	2844.94
395.229	2842.94
395.454	2892.94
395.678	2875.94
395.903	2897.94
396.127	2853.94
396.352	2860.94
396.576	2783.94
396.801	2816.94
397.025	2930.94
397.249	2882.94
397.474	2868.94
397.698	2890.94
397.922	2915.94
398.147	2928.94
398.371	2969.94
398.595	3018.94
398.82	3068.94
399.044	3147.94
399.268	3311.94
399.492	3508.94
399.717	3566.94
399.941	3654.94
400.165	3459.94
400.389	3331.94
400.613	3228.94
400.837	3095.94
401.062	3066.94
401.286	2996.94
401.51	3019.94
401.734	3011.94
401.958	3075.94
402.182	3071.94
402.406	3030.94
402.63	3008.94
402.854	3151.94
403.078	3039.94
403.302	3157.94
403.526	3084.94
403.75	3091.94
403.974	3174.94
404.198	3136.94
404.422	3174.94
404.645	3146.94
404.869	3122.94
405.093	3104.94
405.317	3095.94
405.541	3147.94
405.765	3199.94
405.988	3312.94
406.212	3312.94
406.436	3195.94
406.66	3239.94
406.883	3219.94
407.107	3318.94
407.331	3367.94
407.555	3441.94
407.778	3419.94
408.002	3406.94
408.226	3396.94
408.449	3334.94
408.673	3299.94
408.896	3153.94
409.12	3187.94
409.344	3207.94
409.567	3123.94
409.791	3151.94
410.014	3202.94
410.238	3122.94
410.461	3122.94
410.685	3132.94
410.908	3102.94
411.132	3087.94
411.355	3038.94
411.578	3038.94
411.802	2987.94
412.025	3003.94
412.249	3028.94
412.472	3027.94
412.695	2971.94
412.919	2958.94
413.142	2974.94
413.365	2936.94
413.589	3008.94
413.812	2940.94
414.035	2927.94
414.258	2959.94
414.482	2911.94
414.705	2980.94
414.928	2987.94
415.151	2939.94
415.374	2957.94
415.597	2943.94
415.821	2834.94
416.044	2846.94
416.267	2885.94
416.49	2830.94
416.713	2816.94
416.936	2816.94
417.159	2775.94
417.382	2798.94
417.605	2806.94
417.828	2834.94
418.051	2918.94
418.274	2850.94
418.497	2919.94
418.72	2943.94
418.943	2865.94
419.166	3060.94
419.389	3223.94
419.611	3081.94
419.834	3061.94
420.057	2974.94
420.28	2875.94
420.503	2787.94
420.726	2842.94
420.948	2840.94
421.171	2802.94
421.394	2839.94
421.617	2841.94
421.839	2849.94
422.062	2878.94
422.285	2838.94
422.507	2894.94
422.73	2894.94
422.953	2935.94
423.175	2992.94
423.398	2975.94
423.621	2852.94
423.843	2916.94
424.066	2898.94
424.288	2890.94
424.511	2862.94
424.733	2828.94
424.956	2824.94
425.178	2824.94
425.401	2820.94
425.623	2831.94
425.846	2760.94
426.068	2740.94
426.291	2765.94
426.513	2727.94
426.735	2709.94
426.958	2735.94
427.18	2668.94
427.402	2674.94
427.625	2698.94
427.847	2615.94
428.069	2628.94
428.292	2682.94
428.514	2671.94
428.736	2639.94
428.958	2640.94
429.181	2624.94
429.403	2670.94
429.625	2640.94
429.847	2610.94
430.069	2714.94
430.292	2766.94
430.514	2852.94
430.736	2814.94
430.958	2720.94
431.18	2610.94
431.402	2614.94
431.624	2602.94
431.846	2658.94
432.068	2585.94
432.29	2616.94
432.512	2559.94
432.734	2640.94
432.956	2573.94
433.178	2634.94
433.4	2621.94
433.622	2651.94
433.844	2645.94
434.066	2624.94
434.287	2616.94
434.509	2671.94
434.731	2705.94
434.953	2716.94
435.175	2697.94
435.397	2732.94
435.618	2686.94
435.84	2675.94
436.062	2619.94
436.284	2613.94
436.505	2576.94
436.727	2638.94
436.949	2581.94
437.17	2641.94
437.392	2554.94
437.614	2555.94
437.835	2537.94
438.057	2530.94
438.278	2514.94
438.5	2540.94
438.721	2623.94
438.943	2695.94
439.165	2680.94
439.386	2727.94
439.608	2691.94
439.829	2746.94
440.05	2840.94
440.272	2919.94
440.493	2670.94
440.715	2678.94
440.936	2699.94
441.158	2716.94
441.379	2716.94
441.6	2858.94
441.822	2925.94
442.043	3084.94
442.264	3191.94
442.486	3008.94
442.707	2848.94
442.928	2776.94
443.149	2783.94
443.371	2787.94
443.592	2816.94
443.813	2802.94
444.034	2846.94
444.255	2840.94
444.476	2862.94
444.698	2968.94
444.919	3027.94
445.14	3112.94
445.361	2935.94
445.582	2845.94
445.803	2830.94
446.024	2752.94
446.245	2791.94
446.466	2775.94
446.687	2777.94
446.908	2728.94
447.129	2685.94
447.35	2630.94
447.571	2645.94
447.792	2574.94
448.013	2590.94
448.234	2548.94
448.455	2561.94
448.675	2599.94
448.896	2678.94
449.117	2743.94
449.338	2994.94
449.559	3127.94
449.779	2845.94
450	2606.94
450.221	2598.94
450.442	2542.94
450.662	2529.94
450.883	2520.94
451.104	2532.94
451.324	2507.94
451.545	2525.94
451.766	2550.94
451.986	2543.94
452.207	2830.94
452.428	3633.94
452.648	5465.94
452.869	4571.94
453.089	3218.94
453.31	2962.94
453.53	2959.94
453.751	3058.94
453.971	3163.94
454.192	3155.94
454.412	2681.94
454.633	2519.94
454.853	2508.94
455.073	2480.94
455.294	2424.94
455.514	2406.94
455.734	2417.94
455.955	2413.94
456.175	2386.94
456.395	2418.94
456.616	2416.94
456.836	2459.94
457.056	2445.94
457.276	2443.94
457.497	2617.94
457.717	2627.94
457.937	2538.94
458.157	2523.94
458.377	2516.94
458.598	2587.94
458.818	2591.94
459.038	2625.94
459.258	2618.94
459.478	2631.94
459.698	2673.94
459.918	2684.94
460.138	2677.94
460.358	2765.94
460.578	2807.94
460.798	2854.94
461.018	2816.94
461.238	2887.94
461.458	2898.94
461.678	2842.94
461.898	2940.94
462.118	2957.94
462.338	3044.94
462.558	3126.94
462.777	3097.94
462.997	3313.94
463.217	3359.94
463.437	3590.94
463.657	3597.94
463.876	3532.94
464.096	3375.94
464.316	3196.94
464.536	3120.94
464.755	3094.94
464.975	2959.94
465.195	2896.94
465.414	2805.94
465.634	2750.94
465.854	2740.94
466.073	2676.94
466.293	2654.94
466.512	2647.94
466.732	2657.94
466.951	2797.94
467.171	3004.94
467.391	2965.94
467.61	2688.94
467.829	2645.94
468.049	2599.94
468.268	2583.94
468.488	2541.94
468.707	2579.94
468.927	2548.94
469.146	2579.94
469.365	2602.94
469.585	2626.94
469.804	2681.94
470.023	2712.94
470.243	2740.94
470.462	2862.94
470.681	3011.94
470.901	3331.94
471.12	3779.94
471.339	3812.94
471.558	3181.94
471.777	2874.94
471.997	2743.94
472.216	2718.94
472.435	2655.94
472.654	2604.94
472.873	2601.94
473.092	2598.94
473.311	2568.94
473.53	2663.94
473.749	2664.94
473.968	2774.94
474.187	2610.94
474.406	2588.94
474.625	2562.94
474.844	2574.94
475.063	2604.94
475.282	2651.94
475.501	2603.94
475.72	2624.94
475.939	2668.94
476.158	2727.94
476.377	2747.94
476.596	2738.94
476.814	2726.94
477.033	2739.94
477.252	2766.94
477.471	2852.94
477.69	2874.94
477.908	2872.94
478.127	2934.94
478.346	2959.94
478.564	2985.94
478.783	3047.94
479.002	3115.94
479.22	3073.94
479.439	3108.94
479.658	3076.94
479.876	3088.94
480.095	3080.94
480.313	3175.94
480.532	3199.94
480.751	3262.94
480.969	3160.94
481.188	3158.94
481.406	3164.94
481.624	3138.94
481.843	3125.94
482.061	3185.94
482.28	3125.94
482.498	3129.94
482.717	3131.94
482.935	3198.94
483.153	3185.94
483.372	3240.94
483.59	3304.94
483.808	3364.94
484.027	3436.94
484.245	3662.94
484.463	4090.94
484.681	4563.94
484.9	4166.94
485.118	3858.94
485.336	3682.94
485.554	3781.94
485.772	4016.94
485.99	4607.94
486.209	4900.94
486.427	4132.94
486.645	3680.94
486.863	3557.94
487.081	3452.94
487.299	3400.94
487.517	3361.94
487.735	3372.94
