Data from SnStandardFlinnAPT0064_LampEnergy5.5_LIBS07252019.E.O._I.C._HRD10591_15-16-29-492.txt Node
Date: Thu Jul 25 15:16:29 EDT 2019
User: cochatt
Spectrometer: HR+D1059
Trigger mode: 1
Integration Time (sec): 1.000000E-1
Scans to average: 1
Electric dark correction enabled: true
Nonlinearity correction enabled: false
Boxcar width: 0
XAxis mode: Wavelengths
Number of Pixels in Spectrum: 2048
>>>>>Begin Spectral Data<<<<<
223.165	-18.38
223.4	-18.38
223.635	-18.38
223.869	-15.38
224.104	-11.38
224.338	-9.38
224.573	-4.38
224.808	-20.38
225.042	-5.38
225.277	-1.38
225.511	3.62
225.746	-5.38
225.98	-1.38
226.215	5.62
226.449	19.62
226.683	28.62
226.918	9.62
227.152	25.62
227.387	34.62
227.621	40.62
227.856	60.62
228.09	48.62
228.324	42.62
228.559	49.62
228.793	92.62
229.027	148.62
229.262	165.62
229.496	150.62
229.73	163.62
229.964	153.62
230.199	139.62
230.433	155.62
230.667	157.62
230.901	173.62
231.136	171.62
231.37	185.62
231.604	184.62
231.838	204.62
232.072	239.62
232.306	266.62
232.541	223.62
232.775	210.62
233.009	204.62
233.243	232.62
233.477	221.62
233.711	249.62
233.945	270.62
234.179	246.62
234.413	212.62
234.647	215.62
234.881	239.62
235.115	246.62
235.349	306.62
235.583	356.62
235.817	430.62
236.051	424.62
236.285	316.62
236.519	256.62
236.753	241.62
236.987	244.62
237.221	237.62
237.455	238.62
237.689	200.62
237.922	225.62
238.156	211.62
238.39	234.62
238.624	220.62
238.858	227.62
239.091	225.62
239.325	248.62
239.559	229.62
239.793	250.62
240.027	227.62
240.26	244.62
240.494	241.62
240.728	267.62
240.961	277.62
241.195	296.62
241.429	305.62
241.662	324.62
241.896	340.62
242.13	396.62
242.363	516.62
242.597	663.62
242.83	622.62
243.064	645.62
243.298	740.62
243.531	619.62
243.765	418.62
243.998	330.62
244.232	294.62
244.465	302.62
244.699	292.62
244.932	296.62
245.166	291.62
245.399	304.62
245.633	312.62
245.866	308.62
246.099	321.62
246.333	289.62
246.566	297.62
246.8	298.62
247.033	285.62
247.266	290.62
247.5	306.62
247.733	301.62
247.966	310.62
248.2	330.62
248.433	374.62
248.666	398.62
248.899	397.62
249.133	372.62
249.366	362.62
249.599	402.62
249.832	461.62
250.066	432.62
250.299	367.62
250.532	333.62
250.765	321.62
250.998	329.62
251.231	342.62
251.465	336.62
251.698	357.62
251.931	332.62
252.164	349.62
252.397	354.62
252.63	344.62
252.863	353.62
253.096	344.62
253.329	346.62
253.562	350.62
253.795	324.62
254.028	359.62
254.261	355.62
254.494	366.62
254.727	433.62
254.96	509.62
255.193	513.62
255.426	423.62
255.659	386.62
255.892	376.62
256.124	362.62
256.357	384.62
256.59	399.62
256.823	415.62
257.056	459.62
257.289	528.62
257.521	594.62
257.754	484.62
257.987	423.62
258.22	401.62
258.452	394.62
258.685	390.62
258.918	396.62
259.151	442.62
259.383	467.62
259.616	502.62
259.849	512.62
260.081	474.62
260.314	438.62
260.547	420.62
260.779	413.62
261.012	419.62
261.244	421.62
261.477	445.62
261.71	445.62
261.942	440.62
262.175	469.62
262.407	454.62
262.64	477.62
262.872	476.62
263.105	532.62
263.337	518.62
263.57	553.62
263.802	577.62
264.035	578.62
264.267	592.62
264.499	598.62
264.732	605.62
264.964	634.62
265.197	618.62
265.429	599.62
265.661	641.62
265.894	660.62
266.126	741.62
266.358	804.62
266.591	784.62
266.823	674.62
267.055	653.62
267.287	605.62
267.52	584.62
267.752	579.62
267.984	536.62
268.216	550.62
268.448	564.62
268.681	550.62
268.913	524.62
269.145	555.62
269.377	525.62
269.609	537.62
269.841	590.62
270.073	597.62
270.306	671.62
270.538	892.62
270.77	1268.62
271.002	1521.62
271.234	1056.62
271.466	751.62
271.698	648.62
271.93	585.62
272.162	567.62
272.394	575.62
272.626	538.62
272.858	520.62
273.09	519.62
273.322	530.62
273.553	546.62
273.785	512.62
274.017	546.62
274.249	507.62
274.481	514.62
274.713	533.62
274.945	548.62
275.176	541.62
275.408	530.62
275.64	531.62
275.872	552.62
276.104	548.62
276.335	558.62
276.567	542.62
276.799	561.62
277.031	546.62
277.262	587.62
277.494	608.62
277.726	619.62
277.957	725.62
278.189	802.62
278.421	802.62
278.652	699.62
278.884	656.62
279.115	618.62
279.347	598.62
279.579	601.62
279.81	591.62
280.042	609.62
280.273	603.62
280.505	633.62
280.736	634.62
280.968	653.62
281.199	707.62
281.431	792.62
281.662	798.62
281.894	720.62
282.125	678.62
282.356	673.62
282.588	680.62
282.819	712.62
283.051	737.62
283.282	803.62
283.513	986.62
283.745	1413.62
283.976	2294.62
284.207	3220.62
284.439	2844.62
284.67	1721.62
284.901	1383.62
285.132	1382.62
285.364	1288.62
285.595	1030.62
285.826	941.62
286.057	1132.62
286.288	1580.62
286.52	2033.62
286.751	1844.62
286.982	1168.62
287.213	870.62
287.444	788.62
287.675	762.62
287.906	733.62
288.138	706.62
288.369	699.62
288.6	686.62
288.831	709.62
289.062	713.62
289.293	720.62
289.524	712.62
289.755	709.62
289.986	725.62
290.217	698.62
290.448	722.62
290.679	697.62
290.91	730.62
291.141	750.62
291.371	810.62
291.602	822.62
291.833	757.62
292.064	728.62
292.295	698.62
292.526	676.62
292.757	686.62
292.987	668.62
293.218	664.62
293.449	659.62
293.68	669.62
293.91	675.62
294.141	665.62
294.372	695.62
294.603	643.62
294.833	641.62
295.064	655.62
295.295	658.62
295.525	662.62
295.756	666.62
295.987	665.62
296.217	676.62
296.448	676.62
296.679	671.62
296.909	674.62
297.14	685.62
297.37	678.62
297.601	665.62
297.831	686.62
298.062	693.62
298.292	720.62
298.523	704.62
298.753	684.62
298.984	704.62
299.214	706.62
299.445	712.62
299.675	738.62
299.905	768.62
300.136	773.62
300.366	885.62
300.597	1105.62
300.827	1527.62
301.057	2022.62
301.288	1991.62
301.518	1307.62
301.748	1006.62
301.979	904.62
302.209	894.62
302.439	918.62
302.669	965.62
302.9	1152.62
303.13	1577.62
303.36	2320.62
303.59	3115.62
303.82	2636.62
304.051	1609.62
304.281	1146.62
304.511	984.62
304.741	924.62
304.971	864.62
305.201	848.62
305.431	818.62
305.661	793.62
305.891	797.62
306.121	796.62
306.352	777.62
306.582	774.62
306.812	757.62
307.042	783.62
307.272	789.62
307.502	747.62
307.731	760.62
307.961	757.62
308.191	782.62
308.421	738.62
308.651	769.62
308.881	734.62
309.111	758.62
309.341	750.62
309.571	779.62
309.8	779.62
310.03	778.62
310.26	778.62
310.49	756.62
310.72	790.62
310.949	809.62
311.179	811.62
311.409	789.62
311.639	804.62
311.868	820.62
312.098	809.62
312.328	824.62
312.557	823.62
312.787	822.62
313.017	853.62
313.246	843.62
313.476	838.62
313.706	877.62
313.935	926.62
314.165	946.62
314.394	973.62
314.624	946.62
314.853	896.62
315.083	890.62
315.312	893.62
315.542	916.62
315.771	904.62
316.001	934.62
316.23	950.62
316.46	981.62
316.689	1074.62
316.919	1303.62
317.148	1830.62
317.377	2840.62
317.607	4174.62
317.836	4173.62
318.065	2447.62
318.295	1588.62
318.524	1244.62
318.753	1113.62
318.983	1108.62
319.212	1003.62
319.441	995.62
319.67	993.62
319.9	955.62
320.129	974.62
320.358	960.62
320.587	967.62
320.816	955.62
321.046	951.62
321.275	952.62
321.504	980.62
321.733	1008.62
321.962	1011.62
322.191	1016.62
322.42	1035.62
322.649	1025.62
322.878	1013.62
323.108	1010.62
323.337	1028.62
323.566	1043.62
323.795	1072.62
324.024	1061.62
324.253	1100.62
324.482	1120.62
324.71	1204.62
324.939	1240.62
325.168	1302.62
325.397	1314.62
325.626	1563.62
325.855	2204.62
326.084	3480.62
326.313	5027.62
326.542	5262.62
326.77	3347.62
326.999	2279.62
327.228	1852.62
327.457	1755.62
327.686	1797.62
327.914	1895.62
328.143	2170.62
328.372	2510.62
328.6	2717.62
328.829	2507.62
329.058	2219.62
329.287	1952.62
329.515	1790.62
329.744	1678.62
329.972	1592.62
330.201	1485.62
330.43	1462.62
330.658	1440.62
330.887	1376.62
331.115	1436.62
331.344	1382.62
331.572	1381.62
331.801	1357.62
332.03	1405.62
332.258	1413.62
332.486	1502.62
332.715	1713.62
332.943	2004.62
333.172	2473.62
333.4	2436.62
333.629	1906.62
333.857	1762.62
334.085	1724.62
334.314	1834.62
334.542	1935.62
334.771	2270.62
334.999	2697.62
335.227	3260.62
335.455	3629.62
335.684	3383.62
335.912	2864.62
336.14	2484.62
336.369	2197.62
336.597	2033.62
336.825	1910.62
337.053	1762.62
337.281	1686.62
337.51	1623.62
337.738	1513.62
337.966	1505.62
338.194	1425.62
338.422	1408.62
338.65	1343.62
338.878	1378.62
339.106	1328.62
339.334	1316.62
339.562	1268.62
339.79	1245.62
340.018	1271.62
340.246	1248.62
340.474	1247.62
340.702	1250.62
340.93	1249.62
341.158	1214.62
341.386	1232.62
341.614	1217.62
341.842	1184.62
342.07	1170.62
342.298	1122.62
342.526	1124.62
342.754	1117.62
342.981	1124.62
343.209	1118.62
343.437	1141.62
343.665	1187.62
343.893	1153.62
344.12	1150.62
344.348	1153.62
344.576	1127.62
344.804	1120.62
345.031	1104.62
345.259	1094.62
345.487	1082.62
345.714	1052.62
345.942	1036.62
346.17	1016.62
346.397	1056.62
346.625	1055.62
346.853	1073.62
347.08	1027.62
347.308	1054.62
347.535	1054.62
347.763	1042.62
347.99	1050.62
348.218	1045.62
348.445	1038.62
348.673	1033.62
348.9	1009.62
349.128	1028.62
349.355	990.62
349.583	1001.62
349.81	1044.62
350.037	1018.62
350.265	1000.62
350.492	1008.62
350.72	1034.62
350.947	989.62
351.174	1001.62
351.402	1035.62
351.629	1014.62
351.856	996.62
352.083	1009.62
352.311	977.62
352.538	1000.62
352.765	1004.62
352.992	1017.62
353.22	993.62
353.447	998.62
353.674	1008.62
353.901	1010.62
354.128	1009.62
354.355	1003.62
354.583	1003.62
354.81	1013.62
355.037	1026.62
355.264	982.62
355.491	1044.62
355.718	1053.62
355.945	1068.62
356.172	1031.62
356.399	1038.62
356.626	1048.62
356.853	1048.62
357.08	1044.62
357.307	1050.62
357.534	1066.62
357.761	1086.62
357.988	1084.62
358.215	1089.62
358.441	1072.62
358.668	1066.62
358.895	1059.62
359.122	1047.62
359.349	1074.62
359.576	1059.62
359.802	1072.62
360.029	1089.62
360.256	1080.62
360.483	1082.62
360.709	1091.62
360.936	1076.62
361.163	1061.62
361.39	1058.62
361.616	1113.62
361.843	1066.62
362.07	1075.62
362.296	1041.62
362.523	1069.62
362.749	1087.62
362.976	1073.62
363.203	1090.62
363.429	1063.62
363.656	1067.62
363.882	1067.62
364.109	1066.62
364.335	1051.62
364.562	1050.62
364.788	1076.62
365.015	1069.62
365.241	1108.62
365.468	1148.62
365.694	1168.62
365.92	1176.62
366.147	1090.62
366.373	1100.62
366.599	1062.62
366.826	1083.62
367.052	1070.62
367.278	1093.62
367.505	1125.62
367.731	1102.62
367.957	1101.62
368.184	1097.62
368.41	1132.62
368.636	1109.62
368.862	1089.62
369.089	1114.62
369.315	1113.62
369.541	1114.62
369.767	1120.62
369.993	1123.62
370.219	1109.62
370.445	1107.62
370.672	1115.62
370.898	1125.62
371.124	1162.62
371.35	1154.62
371.576	1154.62
371.802	1145.62
372.028	1142.62
372.254	1170.62
372.48	1149.62
372.706	1188.62
372.932	1184.62
373.158	1174.62
373.384	1172.62
373.61	1187.62
373.835	1197.62
374.061	1162.62
374.287	1187.62
374.513	1190.62
374.739	1203.62
374.965	1212.62
375.191	1202.62
375.416	1195.62
375.642	1160.62
375.868	1184.62
376.094	1189.62
376.319	1150.62
376.545	1178.62
376.771	1150.62
376.997	1189.62
377.222	1149.62
377.448	1138.62
377.674	1140.62
377.899	1150.62
378.125	1117.62
378.35	1163.62
378.576	1154.62
378.802	1153.62
379.027	1197.62
379.253	1195.62
379.478	1250.62
379.704	1464.62
379.929	2037.62
380.155	2996.62
380.38	3199.62
380.606	2004.62
380.831	1440.62
381.057	1325.62
381.282	1196.62
381.507	1177.62
381.733	1158.62
381.958	1156.62
382.184	1131.62
382.409	1149.62
382.634	1170.62
382.86	1133.62
383.085	1146.62
383.31	1163.62
383.535	1166.62
383.761	1162.62
383.986	1144.62
384.211	1162.62
384.436	1172.62
384.662	1164.62
384.887	1194.62
385.112	1164.62
385.337	1171.62
385.562	1173.62
385.787	1188.62
386.013	1177.62
386.238	1196.62
386.463	1185.62
386.688	1176.62
386.913	1176.62
387.138	1131.62
387.363	1179.62
387.588	1184.62
387.813	1174.62
388.038	1187.62
388.263	1188.62
388.488	1188.62
388.713	1146.62
388.938	1184.62
389.163	1186.62
389.387	1188.62
389.612	1168.62
389.837	1205.62
390.062	1145.62
390.287	1174.62
390.512	1176.62
390.736	1213.62
390.961	1242.62
391.186	1217.62
391.411	1207.62
391.636	1235.62
391.86	1233.62
392.085	1256.62
392.31	1233.62
392.534	1225.62
392.759	1209.62
392.984	1183.62
393.208	1238.62
393.433	1246.62
393.658	1265.62
393.882	1204.62
394.107	1179.62
394.331	1201.62
394.556	1194.62
394.78	1204.62
395.005	1196.62
395.229	1200.62
395.454	1226.62
395.678	1258.62
395.903	1221.62
396.127	1194.62
396.352	1209.62
396.576	1225.62
396.801	1226.62
397.025	1274.62
397.249	1240.62
397.474	1228.62
397.698	1238.62
397.922	1249.62
398.147	1240.62
398.371	1260.62
398.595	1317.62
398.82	1337.62
399.044	1372.62
399.268	1392.62
399.492	1504.62
399.717	1572.62
399.941	1570.62
400.165	1481.62
400.389	1442.62
400.613	1397.62
400.837	1354.62
401.062	1339.62
401.286	1318.62
401.51	1285.62
401.734	1294.62
401.958	1316.62
402.182	1295.62
402.406	1314.62
402.63	1348.62
402.854	1308.62
403.078	1335.62
403.302	1331.62
403.526	1329.62
403.75	1333.62
403.974	1361.62
404.198	1387.62
404.422	1358.62
404.645	1357.62
404.869	1332.62
405.093	1365.62
405.317	1334.62
405.541	1381.62
405.765	1333.62
405.988	1361.62
406.212	1367.62
406.436	1352.62
406.66	1409.62
406.883	1367.62
407.107	1387.62
407.331	1449.62
407.555	1474.62
407.778	1425.62
408.002	1442.62
408.226	1432.62
408.449	1456.62
408.673	1389.62
408.896	1382.62
409.12	1378.62
409.344	1392.62
409.567	1344.62
409.791	1356.62
410.014	1343.62
410.238	1352.62
410.461	1354.62
410.685	1319.62
410.908	1329.62
411.132	1309.62
411.355	1293.62
411.578	1288.62
411.802	1300.62
412.025	1344.62
412.249	1297.62
412.472	1288.62
412.695	1275.62
412.919	1278.62
413.142	1289.62
413.365	1276.62
413.589	1265.62
413.812	1273.62
414.035	1270.62
414.258	1309.62
414.482	1300.62
414.705	1294.62
414.928	1272.62
415.151	1278.62
415.374	1251.62
415.597	1264.62
415.821	1227.62
416.044	1214.62
416.267	1229.62
416.49	1249.62
416.713	1237.62
416.936	1261.62
417.159	1244.62
417.382	1216.62
417.605	1197.62
417.828	1222.62
418.051	1194.62
418.274	1232.62
418.497	1244.62
418.72	1280.62
418.943	1256.62
419.166	1319.62
419.389	1375.62
419.611	1344.62
419.834	1316.62
420.057	1310.62
420.28	1256.62
420.503	1231.62
420.726	1239.62
420.948	1251.62
421.171	1241.62
421.394	1230.62
421.617	1249.62
421.839	1197.62
422.062	1269.62
422.285	1253.62
422.507	1235.62
422.73	1257.62
422.953	1261.62
423.175	1234.62
423.398	1294.62
423.621	1241.62
423.843	1250.62
424.066	1226.62
424.288	1238.62
424.511	1212.62
424.733	1248.62
424.956	1230.62
425.178	1245.62
425.401	1234.62
425.623	1257.62
425.846	1185.62
426.068	1204.62
426.291	1207.62
426.513	1204.62
426.735	1218.62
426.958	1193.62
427.18	1186.62
427.402	1152.62
427.625	1173.62
427.847	1154.62
428.069	1148.62
428.292	1192.62
428.514	1162.62
428.736	1135.62
428.958	1131.62
429.181	1122.62
429.403	1156.62
429.625	1142.62
429.847	1146.62
430.069	1172.62
430.292	1194.62
430.514	1195.62
430.736	1206.62
430.958	1146.62
431.18	1113.62
431.402	1144.62
431.624	1134.62
431.846	1148.62
432.068	1107.62
432.29	1147.62
432.512	1113.62
432.734	1123.62
432.956	1126.62
433.178	1154.62
433.4	1148.62
433.622	1149.62
433.844	1165.62
434.066	1179.62
434.287	1153.62
434.509	1131.62
434.731	1154.62
434.953	1177.62
435.175	1208.62
435.397	1194.62
435.618	1150.62
435.84	1162.62
436.062	1106.62
436.284	1158.62
436.505	1145.62
436.727	1144.62
436.949	1132.62
437.17	1143.62
437.392	1119.62
437.614	1109.62
437.835	1080.62
438.057	1093.62
438.278	1111.62
438.5	1088.62
438.721	1116.62
438.943	1179.62
439.165	1203.62
439.386	1184.62
439.608	1171.62
439.829	1182.62
440.05	1235.62
440.272	1241.62
440.493	1174.62
440.715	1203.62
440.936	1178.62
441.158	1158.62
441.379	1162.62
441.6	1223.62
441.822	1270.62
442.043	1316.62
442.264	1334.62
442.486	1274.62
442.707	1252.62
442.928	1205.62
443.149	1200.62
443.371	1204.62
443.592	1233.62
443.813	1272.62
444.034	1217.62
444.255	1249.62
444.476	1291.62
444.698	1338.62
444.919	1322.62
445.14	1357.62
445.361	1330.62
445.582	1237.62
445.803	1244.62
446.024	1234.62
446.245	1229.62
446.466	1236.62
446.687	1181.62
446.908	1214.62
447.129	1162.62
447.35	1137.62
447.571	1152.62
447.792	1164.62
448.013	1102.62
448.234	1145.62
448.455	1106.62
448.675	1122.62
448.896	1128.62
449.117	1202.62
449.338	1284.62
449.559	1332.62
449.779	1190.62
450	1120.62
450.221	1130.62
450.442	1101.62
450.662	1097.62
450.883	1080.62
451.104	1088.62
451.324	1072.62
451.545	1121.62
451.766	1086.62
451.986	1079.62
452.207	1152.62
452.428	1459.62
452.648	1972.62
452.869	1728.62
453.089	1283.62
453.31	1200.62
453.53	1220.62
453.751	1233.62
453.971	1323.62
454.192	1290.62
454.412	1149.62
454.633	1081.62
454.853	1062.62
455.073	1055.62
455.294	1053.62
455.514	1042.62
455.734	1044.62
455.955	1049.62
456.175	1090.62
456.395	1041.62
456.616	1040.62
456.836	1106.62
457.056	1090.62
457.276	1062.62
457.497	1108.62
457.717	1143.62
457.937	1107.62
458.157	1129.62
458.377	1059.62
458.598	1125.62
458.818	1113.62
459.038	1081.62
459.258	1109.62
459.478	1132.62
459.698	1139.62
459.918	1180.62
460.138	1206.62
460.358	1220.62
460.578	1215.62
460.798	1212.62
461.018	1225.62
461.238	1219.62
461.458	1256.62
461.678	1229.62
461.898	1264.62
462.118	1245.62
462.338	1307.62
462.558	1315.62
462.777	1357.62
462.997	1372.62
463.217	1438.62
463.437	1459.62
463.657	1483.62
463.876	1513.62
464.096	1434.62
464.316	1372.62
464.536	1336.62
464.755	1347.62
464.975	1296.62
465.195	1248.62
465.414	1205.62
465.634	1196.62
465.854	1189.62
466.073	1150.62
466.293	1146.62
466.512	1155.62
466.732	1160.62
466.951	1208.62
467.171	1281.62
467.391	1273.62
467.61	1164.62
467.829	1145.62
468.049	1126.62
468.268	1118.62
468.488	1125.62
468.707	1122.62
468.927	1121.62
469.146	1117.62
469.365	1133.62
469.585	1166.62
469.804	1172.62
470.023	1177.62
470.243	1213.62
470.462	1246.62
470.681	1271.62
470.901	1372.62
471.12	1576.62
471.339	1570.62
471.558	1319.62
471.777	1248.62
471.997	1186.62
472.216	1138.62
472.435	1108.62
472.654	1124.62
472.873	1110.62
473.092	1107.62
473.311	1125.62
473.53	1122.62
473.749	1128.62
473.968	1170.62
474.187	1142.62
474.406	1126.62
474.625	1141.62
474.844	1141.62
475.063	1121.62
475.282	1120.62
475.501	1163.62
475.72	1129.62
475.939	1129.62
476.158	1161.62
476.377	1186.62
476.596	1194.62
476.814	1177.62
477.033	1185.62
477.252	1196.62
477.471	1201.62
477.69	1209.62
477.908	1248.62
478.127	1276.62
478.346	1249.62
478.564	1307.62
478.783	1321.62
479.002	1311.62
479.22	1348.62
479.439	1322.62
479.658	1349.62
479.876	1339.62
480.095	1346.62
480.313	1343.62
480.532	1368.62
480.751	1396.62
480.969	1300.62
481.188	1332.62
481.406	1316.62
481.624	1288.62
481.843	1280.62
482.061	1313.62
482.28	1345.62
482.498	1338.62
482.717	1311.62
482.935	1384.62
483.153	1411.62
483.372	1389.62
483.59	1404.62
483.808	1412.62
484.027	1421.62
484.245	1499.62
484.463	1675.62
484.681	1862.62
484.9	1693.62
485.118	1584.62
485.336	1584.62
485.554	1575.62
485.772	1650.62
485.99	1873.62
486.209	2024.62
486.427	1694.62
486.645	1551.62
486.863	1497.62
487.081	1461.62
487.299	1453.62
487.517	1400.62
487.735	1425.62
487.953	1474.62
488.171	1451.62
488.389	1423.62
488.607	1406.62
488.825	1375.62
489.043	1378.62
489.261	1364.62
489.479	1385.62
489.696	1401.62
489.914	1369.62
490.132	1404.62
490.35	1400.62
490.568	1456.62
490.786	1447.62
491.003	1440.62
