Data from SnStandardFlinnAPT0064_QswitchEnergy10_LIBS07252019.E.O._I.C._HRD10591_15-27-10-973.txt Node
Date: Thu Jul 25 15:27:10 EDT 2019
User: cochatt
Spectrometer: HR+D1059
Trigger mode: 1
Integration Time (sec): 1.000000E-1
Scans to average: 1
Electric dark correction enabled: true
Nonlinearity correction enabled: false
Boxcar width: 0
XAxis mode: Wavelengths
Number of Pixels in Spectrum: 2048
>>>>>Begin Spectral Data<<<<<
223.165	-19.44
223.4	-19.44
223.635	-19.44
223.869	-19.44
224.104	-19.44
224.338	-5.44
224.573	-21.44
224.808	-5.44
225.042	-6.44
225.277	-14.44
225.511	-0.44
225.746	10.56
225.98	2.56
226.215	15.56
226.449	10.56
226.683	19.56
226.918	21.56
227.152	31.56
227.387	32.56
227.621	42.56
227.856	33.56
228.09	36.56
228.324	60.56
228.559	56.56
228.793	62.56
229.027	86.56
229.262	68.56
229.496	73.56
229.73	75.56
229.964	66.56
230.199	62.56
230.433	80.56
230.667	79.56
230.901	84.56
231.136	72.56
231.37	84.56
231.604	84.56
231.838	98.56
232.072	105.56
232.306	121.56
232.541	86.56
232.775	68.56
233.009	83.56
233.243	80.56
233.477	94.56
233.711	82.56
233.945	94.56
234.179	88.56
234.413	79.56
234.647	81.56
234.881	84.56
235.115	71.56
235.349	84.56
235.583	104.56
235.817	112.56
236.051	130.56
236.285	103.56
236.519	86.56
236.753	84.56
236.987	84.56
237.221	78.56
237.455	72.56
237.689	88.56
237.922	90.56
238.156	70.56
238.39	87.56
238.624	72.56
238.858	87.56
239.091	75.56
239.325	76.56
239.559	73.56
239.793	85.56
240.027	81.56
240.26	71.56
240.494	85.56
240.728	81.56
240.961	74.56
241.195	80.56
241.429	85.56
241.662	70.56
241.896	88.56
242.13	103.56
242.363	124.56
242.597	152.56
242.83	126.56
243.064	138.56
243.298	154.56
243.531	149.56
243.765	85.56
243.998	89.56
244.232	81.56
244.465	87.56
244.699	75.56
244.932	83.56
245.166	83.56
245.399	78.56
245.633	72.56
245.866	78.56
246.099	83.56
246.333	77.56
246.566	81.56
246.8	83.56
247.033	86.56
247.266	91.56
247.5	71.56
247.733	67.56
247.966	91.56
248.2	90.56
248.433	102.56
248.666	124.56
248.899	104.56
249.133	86.56
249.366	96.56
249.599	112.56
249.832	116.56
250.066	105.56
250.299	80.56
250.532	76.56
250.765	76.56
250.998	92.56
251.231	78.56
251.465	77.56
251.698	72.56
251.931	78.56
252.164	80.56
252.397	80.56
252.63	88.56
252.863	88.56
253.096	95.56
253.329	94.56
253.562	88.56
253.795	111.56
254.028	80.56
254.261	83.56
254.494	87.56
254.727	100.56
254.96	142.56
255.193	125.56
255.426	78.56
255.659	101.56
255.892	72.56
256.124	85.56
256.357	90.56
256.59	94.56
256.823	94.56
257.056	101.56
257.289	130.56
257.521	146.56
257.754	115.56
257.987	82.56
258.22	92.56
258.452	73.56
258.685	87.56
258.918	84.56
259.151	96.56
259.383	104.56
259.616	131.56
259.849	122.56
260.081	94.56
260.314	77.56
260.547	94.56
260.779	102.56
261.012	71.56
261.244	74.56
261.477	77.56
261.71	87.56
261.942	85.56
262.175	99.56
262.407	82.56
262.64	88.56
262.872	73.56
263.105	70.56
263.337	100.56
263.57	92.56
263.802	84.56
264.035	84.56
264.267	81.56
264.499	90.56
264.732	82.56
264.964	78.56
265.197	83.56
265.429	94.56
265.661	92.56
265.894	87.56
266.126	110.56
266.358	125.56
266.591	135.56
266.823	100.56
267.055	74.56
267.287	88.56
267.52	84.56
267.752	88.56
267.984	107.56
268.216	87.56
268.448	101.56
268.681	78.56
268.913	94.56
269.145	91.56
269.377	97.56
269.609	84.56
269.841	107.56
270.073	102.56
270.306	117.56
270.538	174.56
270.77	282.56
271.002	339.56
271.234	182.56
271.466	96.56
271.698	103.56
271.93	105.56
272.162	88.56
272.394	78.56
272.626	88.56
272.858	96.56
273.09	102.56
273.322	81.56
273.553	83.56
273.785	94.56
274.017	76.56
274.249	80.56
274.481	84.56
274.713	79.56
274.945	98.56
275.176	84.56
275.408	95.56
275.64	97.56
275.872	91.56
276.104	96.56
276.335	90.56
276.567	89.56
276.799	87.56
277.031	80.56
277.262	90.56
277.494	108.56
277.726	120.56
277.957	144.56
278.189	211.56
278.421	212.56
278.652	168.56
278.884	167.56
279.115	124.56
279.347	98.56
279.579	91.56
279.81	85.56
280.042	97.56
280.273	96.56
280.505	99.56
280.736	93.56
280.968	110.56
281.199	143.56
281.431	206.56
281.662	231.56
281.894	146.56
282.125	108.56
282.356	99.56
282.588	103.56
282.819	115.56
283.051	119.56
283.282	139.56
283.513	169.56
283.745	293.56
283.976	487.56
284.207	702.56
284.439	535.56
284.67	228.56
284.901	222.56
285.132	308.56
285.364	335.56
285.595	206.56
285.826	155.56
286.057	229.56
286.288	363.56
286.52	539.56
286.751	446.56
286.982	180.56
287.213	112.56
287.444	97.56
287.675	95.56
287.906	75.56
288.138	93.56
288.369	94.56
288.6	93.56
288.831	84.56
289.062	89.56
289.293	83.56
289.524	78.56
289.755	85.56
289.986	99.56
290.217	95.56
290.448	102.56
290.679	80.56
290.91	110.56
291.141	122.56
291.371	202.56
291.602	223.56
291.833	165.56
292.064	98.56
292.295	93.56
292.526	102.56
292.757	85.56
292.987	87.56
293.218	90.56
293.449	87.56
293.68	86.56
293.91	89.56
294.141	95.56
294.372	99.56
294.603	102.56
294.833	91.56
295.064	94.56
295.295	78.56
295.525	81.56
295.756	89.56
295.987	92.56
296.217	91.56
296.448	111.56
296.679	91.56
296.909	91.56
297.14	81.56
297.37	99.56
297.601	72.56
297.831	107.56
298.062	98.56
298.292	96.56
298.523	89.56
298.753	99.56
298.984	87.56
299.214	110.56
299.445	84.56
299.675	96.56
299.905	103.56
300.136	119.56
300.366	148.56
300.597	235.56
300.827	402.56
301.057	602.56
301.288	537.56
301.518	232.56
301.748	132.56
301.979	122.56
302.209	120.56
302.439	123.56
302.669	154.56
302.9	245.56
303.13	404.56
303.36	715.56
303.59	1026.56
303.82	694.56
304.051	248.56
304.281	138.56
304.511	117.56
304.741	110.56
304.971	111.56
305.201	104.56
305.431	104.56
305.661	102.56
305.891	98.56
306.121	95.56
306.352	102.56
306.582	107.56
306.812	94.56
307.042	118.56
307.272	107.56
307.502	88.56
307.731	101.56
307.961	98.56
308.191	94.56
308.421	103.56
308.651	90.56
308.881	87.56
309.111	106.56
309.341	108.56
309.571	118.56
309.8	107.56
310.03	106.56
310.26	115.56
310.49	98.56
310.72	92.56
310.949	94.56
311.179	94.56
311.409	112.56
311.639	106.56
311.868	108.56
312.098	95.56
312.328	103.56
312.557	117.56
312.787	91.56
313.017	112.56
313.246	99.56
313.476	106.56
313.706	105.56
313.935	140.56
314.165	158.56
314.394	195.56
314.624	145.56
314.853	116.56
315.083	110.56
315.312	118.56
315.542	111.56
315.771	126.56
316.001	125.56
316.23	134.56
316.46	131.56
316.689	156.56
316.919	213.56
317.148	438.56
317.377	778.56
317.607	1273.56
317.836	1190.56
318.065	454.56
318.295	190.56
318.524	129.56
318.753	120.56
318.983	102.56
319.212	134.56
319.441	119.56
319.67	109.56
319.9	105.56
320.129	100.56
320.358	110.56
320.587	110.56
320.816	115.56
321.046	113.56
321.275	118.56
321.504	119.56
321.733	126.56
321.962	134.56
322.191	131.56
322.42	135.56
322.649	116.56
322.878	118.56
323.108	116.56
323.337	121.56
323.566	126.56
323.795	125.56
324.024	123.56
324.253	135.56
324.482	133.56
324.71	190.56
324.939	243.56
325.168	219.56
325.397	161.56
325.626	212.56
325.855	434.56
326.084	812.56
326.313	1391.56
326.542	1358.56
326.77	504.56
326.999	235.56
327.228	180.56
327.457	186.56
327.686	203.56
327.914	144.56
328.143	122.56
328.372	115.56
328.6	124.56
328.829	114.56
329.058	117.56
329.287	122.56
329.515	118.56
329.744	105.56
329.972	106.56
330.201	99.56
330.43	120.56
330.658	95.56
330.887	110.56
331.115	94.56
331.344	95.56
331.572	106.56
331.801	124.56
332.03	111.56
332.258	101.56
332.486	156.56
332.715	247.56
332.943	433.56
333.172	654.56
333.4	580.56
333.629	210.56
333.857	135.56
334.085	104.56
334.314	120.56
334.542	106.56
334.771	105.56
334.999	112.56
335.227	98.56
335.455	134.56
335.684	121.56
335.912	115.56
336.14	114.56
336.369	97.56
336.597	106.56
336.825	104.56
337.053	104.56
337.281	96.56
337.51	107.56
337.738	116.56
337.966	102.56
338.194	104.56
338.422	111.56
338.65	109.56
338.878	112.56
339.106	95.56
339.334	112.56
339.562	107.56
339.79	105.56
340.018	104.56
340.246	108.56
340.474	100.56
340.702	105.56
340.93	108.56
341.158	98.56
341.386	108.56
341.614	110.56
341.842	103.56
342.07	120.56
342.298	120.56
342.526	111.56
342.754	122.56
342.981	105.56
343.209	117.56
343.437	107.56
343.665	101.56
343.893	102.56
344.12	105.56
344.348	95.56
344.576	107.56
344.804	112.56
345.031	99.56
345.259	104.56
345.487	102.56
345.714	92.56
345.942	119.56
346.17	90.56
346.397	105.56
346.625	103.56
346.853	98.56
347.08	92.56
347.308	95.56
347.535	89.56
347.763	88.56
347.99	96.56
348.218	98.56
348.445	106.56
348.673	105.56
348.9	119.56
349.128	111.56
349.355	115.56
349.583	119.56
349.81	102.56
350.037	106.56
350.265	100.56
350.492	115.56
350.72	97.56
350.947	98.56
351.174	111.56
351.402	106.56
351.629	107.56
351.856	104.56
352.083	105.56
352.311	106.56
352.538	91.56
352.765	116.56
352.992	99.56
353.22	116.56
353.447	92.56
353.674	103.56
353.901	92.56
354.128	85.56
354.355	90.56
354.583	95.56
354.81	90.56
355.037	112.56
355.264	103.56
355.491	106.56
355.718	96.56
355.945	103.56
356.172	91.56
356.399	99.56
356.626	98.56
356.853	123.56
357.08	108.56
357.307	102.56
357.534	105.56
357.761	105.56
357.988	104.56
358.215	92.56
358.441	91.56
358.668	112.56
358.895	102.56
359.122	109.56
359.349	114.56
359.576	109.56
359.802	126.56
360.029	107.56
360.256	100.56
360.483	110.56
360.709	94.56
360.936	100.56
361.163	99.56
361.39	116.56
361.616	100.56
361.843	101.56
362.07	113.56
362.296	94.56
362.523	98.56
362.749	89.56
362.976	94.56
363.203	117.56
363.429	112.56
363.656	96.56
363.882	111.56
364.109	120.56
364.335	91.56
364.562	94.56
364.788	101.56
365.015	107.56
365.241	131.56
365.468	178.56
365.694	199.56
365.92	162.56
366.147	106.56
366.373	93.56
366.599	85.56
366.826	105.56
367.052	103.56
367.278	102.56
367.505	97.56
367.731	95.56
367.957	100.56
368.184	112.56
368.41	115.56
368.636	95.56
368.862	99.56
369.089	98.56
369.315	94.56
369.541	100.56
369.767	96.56
369.993	96.56
370.219	104.56
370.445	105.56
370.672	112.56
370.898	103.56
371.124	108.56
371.35	110.56
371.576	110.56
371.802	111.56
372.028	92.56
372.254	102.56
372.48	110.56
372.706	97.56
372.932	105.56
373.158	108.56
373.384	107.56
373.61	121.56
373.835	101.56
374.061	111.56
374.287	114.56
374.513	110.56
374.739	119.56
374.965	78.56
375.191	105.56
375.416	106.56
375.642	104.56
375.868	113.56
376.094	104.56
376.319	95.56
376.545	104.56
376.771	102.56
376.997	94.56
377.222	92.56
377.448	105.56
377.674	108.56
377.899	114.56
378.125	99.56
378.35	107.56
378.576	107.56
378.802	115.56
379.027	107.56
379.253	124.56
379.478	158.56
379.704	282.56
379.929	647.56
380.155	1323.56
380.38	1394.56
380.606	450.56
380.831	157.56
381.057	128.56
381.282	106.56
381.507	107.56
381.733	101.56
381.958	110.56
382.184	90.56
382.409	115.56
382.634	113.56
382.86	105.56
383.085	98.56
383.31	111.56
383.535	105.56
383.761	94.56
383.986	97.56
384.211	100.56
384.436	103.56
384.662	101.56
384.887	95.56
385.112	99.56
385.337	108.56
385.562	104.56
385.787	98.56
386.013	107.56
386.238	100.56
386.463	91.56
386.688	102.56
386.913	91.56
387.138	99.56
387.363	119.56
387.588	101.56
387.813	97.56
388.038	103.56
388.263	96.56
388.488	85.56
388.713	96.56
388.938	101.56
389.163	93.56
389.387	105.56
389.612	100.56
389.837	82.56
390.062	108.56
390.287	114.56
390.512	93.56
390.736	108.56
390.961	82.56
391.186	94.56
391.411	113.56
391.636	95.56
391.86	103.56
392.085	97.56
392.31	97.56
392.534	106.56
392.759	96.56
392.984	105.56
393.208	110.56
393.433	126.56
393.658	121.56
393.882	93.56
394.107	99.56
394.331	94.56
394.556	92.56
394.78	102.56
395.005	97.56
395.229	94.56
395.454	98.56
395.678	95.56
395.903	84.56
396.127	90.56
396.352	85.56
396.576	99.56
396.801	99.56
397.025	118.56
397.249	115.56
397.474	92.56
397.698	111.56
397.922	87.56
398.147	91.56
398.371	88.56
398.595	91.56
398.82	92.56
399.044	95.56
399.268	95.56
399.492	89.56
399.717	95.56
399.941	102.56
400.165	102.56
400.389	91.56
400.613	94.56
400.837	100.56
401.062	97.56
401.286	91.56
401.51	80.56
401.734	98.56
401.958	88.56
402.182	92.56
402.406	96.56
402.63	100.56
402.854	102.56
403.078	95.56
403.302	92.56
403.526	93.56
403.75	84.56
403.974	97.56
404.198	94.56
404.422	82.56
404.645	104.56
404.869	94.56
405.093	91.56
405.317	85.56
405.541	107.56
405.765	127.56
405.988	120.56
406.212	119.56
406.436	97.56
406.66	98.56
406.883	87.56
407.107	110.56
407.331	99.56
407.555	95.56
407.778	94.56
408.002	86.56
408.226	97.56
408.449	95.56
408.673	91.56
408.896	82.56
409.12	83.56
409.344	107.56
409.567	96.56
409.791	98.56
410.014	103.56
410.238	96.56
410.461	90.56
410.685	88.56
410.908	92.56
411.132	97.56
411.355	93.56
411.578	97.56
411.802	95.56
412.025	108.56
412.249	93.56
412.472	104.56
412.695	102.56
412.919	94.56
413.142	96.56
413.365	92.56
413.589	104.56
413.812	83.56
414.035	105.56
414.258	103.56
414.482	103.56
414.705	109.56
414.928	86.56
415.151	88.56
415.374	107.56
415.597	89.56
415.821	81.56
416.044	94.56
416.267	94.56
416.49	79.56
416.713	103.56
416.936	84.56
417.159	104.56
417.382	97.56
417.605	91.56
417.828	84.56
418.051	85.56
418.274	87.56
418.497	89.56
418.72	94.56
418.943	95.56
419.166	118.56
419.389	96.56
419.611	103.56
419.834	88.56
420.057	99.56
420.28	92.56
420.503	89.56
420.726	99.56
420.948	83.56
421.171	106.56
421.394	95.56
421.617	93.56
421.839	84.56
422.062	106.56
422.285	88.56
422.507	93.56
422.73	110.56
422.953	97.56
423.175	107.56
423.398	104.56
423.621	89.56
423.843	81.56
424.066	99.56
424.288	85.56
424.511	107.56
424.733	81.56
424.956	95.56
425.178	98.56
425.401	103.56
425.623	86.56
425.846	97.56
426.068	88.56
426.291	98.56
426.513	83.56
426.735	87.56
426.958	86.56
427.18	86.56
427.402	92.56
427.625	97.56
427.847	102.56
428.069	75.56
428.292	101.56
428.514	83.56
428.736	100.56
428.958	86.56
429.181	94.56
429.403	98.56
429.625	90.56
429.847	99.56
430.069	106.56
430.292	114.56
430.514	105.56
430.736	96.56
430.958	91.56
431.18	93.56
431.402	100.56
431.624	110.56
431.846	86.56
432.068	94.56
432.29	89.56
432.512	97.56
432.734	93.56
432.956	106.56
433.178	86.56
433.4	98.56
433.622	87.56
433.844	98.56
434.066	104.56
434.287	96.56
434.509	91.56
434.731	85.56
434.953	96.56
435.175	90.56
435.397	84.56
435.618	90.56
435.84	80.56
436.062	88.56
436.284	87.56
436.505	89.56
436.727	72.56
436.949	79.56
437.17	94.56
437.392	97.56
437.614	79.56
437.835	80.56
438.057	81.56
438.278	79.56
438.5	90.56
438.721	75.56
438.943	91.56
439.165	122.56
439.386	117.56
439.608	106.56
439.829	99.56
440.05	104.56
440.272	110.56
440.493	102.56
440.715	103.56
440.936	97.56
441.158	93.56
441.379	98.56
441.6	103.56
441.822	84.56
442.043	103.56
442.264	127.56
442.486	126.56
442.707	97.56
442.928	101.56
443.149	94.56
443.371	94.56
443.592	101.56
443.813	84.56
444.034	92.56
444.255	94.56
444.476	103.56
444.698	88.56
444.919	93.56
445.14	220.56
445.361	161.56
445.582	102.56
445.803	90.56
446.024	108.56
446.245	98.56
446.466	98.56
446.687	105.56
446.908	111.56
447.129	107.56
447.35	86.56
447.571	90.56
447.792	77.56
448.013	91.56
448.234	99.56
448.455	91.56
448.675	101.56
448.896	97.56
449.117	88.56
449.338	117.56
449.559	141.56
449.779	122.56
450	103.56
450.221	91.56
450.442	97.56
450.662	106.56
450.883	83.56
451.104	94.56
451.324	115.56
451.545	114.56
451.766	108.56
451.986	124.56
452.207	174.56
452.428	428.56
452.648	1033.56
452.869	592.56
453.089	174.56
453.31	99.56
453.53	118.56
453.751	130.56
453.971	166.56
454.192	150.56
454.412	113.56
454.633	89.56
454.853	93.56
455.073	107.56
455.294	91.56
455.514	99.56
455.734	98.56
455.955	84.56
456.175	99.56
456.395	79.56
456.616	84.56
456.836	93.56
457.056	80.56
457.276	87.56
457.497	100.56
457.717	117.56
457.937	112.56
458.157	101.56
458.377	88.56
458.598	79.56
458.818	89.56
459.038	98.56
459.258	84.56
459.478	92.56
459.698	87.56
459.918	92.56
460.138	90.56
460.358	100.56
460.578	101.56
460.798	94.56
461.018	84.56
461.238	86.56
461.458	84.56
461.678	87.56
461.898	84.56
462.118	96.56
462.338	98.56
462.558	86.56
462.777	98.56
462.997	94.56
463.217	91.56
463.437	116.56
463.657	177.56
463.876	167.56
464.096	115.56
464.316	105.56
464.536	87.56
464.755	98.56
464.975	80.56
465.195	88.56
465.414	99.56
465.634	86.56
465.854	90.56
466.073	90.56
466.293	95.56
466.512	87.56
466.732	105.56
466.951	104.56
467.171	131.56
467.391	124.56
467.61	88.56
467.829	91.56
468.049	92.56
468.268	95.56
468.488	88.56
468.707	98.56
468.927	94.56
469.146	101.56
469.365	86.56
469.585	88.56
469.804	96.56
470.023	95.56
470.243	98.56
470.462	99.56
470.681	106.56
470.901	121.56
471.12	179.56
471.339	192.56
471.558	124.56
471.777	102.56
471.997	114.56
472.216	108.56
472.435	91.56
472.654	93.56
472.873	99.56
473.092	99.56
473.311	87.56
473.53	91.56
473.749	89.56
473.968	103.56
474.187	97.56
474.406	96.56
474.625	97.56
474.844	96.56
475.063	91.56
475.282	98.56
475.501	88.56
475.72	95.56
475.939	95.56
476.158	108.56
476.377	102.56
476.596	112.56
476.814	97.56
477.033	88.56
477.252	88.56
477.471	97.56
477.69	87.56
477.908	96.56
478.127	87.56
478.346	95.56
478.564	79.56
478.783	92.56
479.002	89.56
479.22	100.56
479.439	87.56
479.658	88.56
479.876	90.56
480.095	80.56
480.313	98.56
480.532	82.56
480.751	97.56
480.969	94.56
481.188	93.56
481.406	95.56
481.624	91.56
481.843	105.56
482.061	103.56
482.28	98.56
482.498	90.56
482.717	87.56
482.935	92.56
483.153	99.56
483.372	92.56
483.59	89.56
483.808	94.56
484.027	98.56
484.245	103.56
484.463	160.56
484.681	229.56
484.9	139.56
485.118	110.56
485.336	96.56
485.554	94.56
485.772	138.56
485.99	180.56
486.209	246.56
486.427	154.56
486.645	105.56
486.863	93.56
487.081	98.56
487.299	85.56
487.517	92.56
487.735	98.56
487.953	97.56
488.171	98.56
488.389	102.56
488.607	117.56
488.825	87.56
489.043	97.56
489.261	92.56
489.479	101.56
489.696	96.56
489.914	103.56
490.132	90.56
490.35	110.56
490.568	105.56
490.786	98.56
491.003	103.56
491.221	86.56
491.439	92.56
491.657	108.56
491.874	101.56
492.092	107.56
492.31	103.56
492.527	98.56
492.745	89.56
492.963	103.56
493.18	115.56
493.398	100.56
493.615	87.56
493.833	107.56
494.05	102.56
494.268	96.56
494.485	98.56
494.703	105.56
494.92	101.56
495.138	106.56
495.355	112.56
495.573	97.56
495.79	80.56
496.008	103.56
496.225	97.56
496.442	101.56
496.66	108.56
496.877	148.56
497.094	144.56
497.312	104.56
497.529	110.56
497.746	101.56
497.963	101.56
498.181	89.56
498.398	110.56
498.615	105.56
498.832	98.56
499.049	96.56
499.267	120.56
499.484	140.56
499.701	102.56
499.918	114.56
500.135	110.56
500.352	99.56
500.569	97.56
500.786	102.56
501.003	92.56
501.22	96.56
501.437	87.56
501.654	99.56
501.871	86.56
502.088	86.56
502.305	92.56
502.522	88.56
502.739	96.56
502.956	91.56
503.172	94.56
503.389	85.56
503.606	104.56
503.823	96.56
504.04	108.56
504.256	99.56
504.473	114.56
504.69	89.56
504.907	118.56
505.123	99.56
505.34	88.56
505.557	98.56
505.773	106.56
505.99	96.56
506.207	95.56
506.423	97.56
506.64	103.56
506.856	98.56
507.073	100.56
507.289	88.56
507.506	102.56
507.722	99.56
507.939	83.56
508.155	82.56
508.372	87.56
508.588	103.56
508.805	98.56
509.021	87.56
509.238	96.56
509.454	133.56
509.67	150.56
509.887	101.56
510.103	102.56
510.319	91.56
510.536	89.56
510.752	110.56
