Data from SnStandardFlinnAPT0064_QswitchEnergy10_LIBS07252019.E.O._I.C._HRD10591_15-25-50-972.txt Node
Date: Thu Jul 25 15:25:50 EDT 2019
User: cochatt
Spectrometer: HR+D1059
Trigger mode: 1
Integration Time (sec): 1.000000E-1
Scans to average: 1
Electric dark correction enabled: true
Nonlinearity correction enabled: false
Boxcar width: 0
XAxis mode: Wavelengths
Number of Pixels in Spectrum: 2048
>>>>>Begin Spectral Data<<<<<
223.165	-17.25
223.4	-17.25
223.635	-17.25
223.869	-21.25
224.104	-15.25
224.338	-12.25
224.573	-7.25
224.808	-9.25
225.042	-4.25
225.277	-10.25
225.511	-0.25
225.746	-3.25
225.98	-0.25
226.215	13.75
226.449	13.75
226.683	13.75
226.918	31.75
227.152	27.75
227.387	25.75
227.621	34.75
227.856	51.75
228.09	42.75
228.324	44.75
228.559	65.75
228.793	72.75
229.027	73.75
229.262	74.75
229.496	72.75
229.73	80.75
229.964	77.75
230.199	85.75
230.433	72.75
230.667	80.75
230.901	88.75
231.136	69.75
231.37	79.75
231.604	92.75
231.838	109.75
232.072	127.75
232.306	123.75
232.541	97.75
232.775	96.75
233.009	92.75
233.243	89.75
233.477	90.75
233.711	93.75
233.945	101.75
234.179	100.75
234.413	95.75
234.647	78.75
234.881	79.75
235.115	86.75
235.349	94.75
235.583	108.75
235.817	120.75
236.051	125.75
236.285	84.75
236.519	74.75
236.753	72.75
236.987	71.75
237.221	84.75
237.455	75.75
237.689	80.75
237.922	89.75
238.156	70.75
238.39	90.75
238.624	87.75
238.858	84.75
239.091	74.75
239.325	77.75
239.559	78.75
239.793	79.75
240.027	88.75
240.26	82.75
240.494	84.75
240.728	77.75
240.961	82.75
241.195	97.75
241.429	95.75
241.662	96.75
241.896	88.75
242.13	82.75
242.363	119.75
242.597	149.75
242.83	121.75
243.064	120.75
243.298	174.75
243.531	134.75
243.765	96.75
243.998	91.75
244.232	81.75
244.465	81.75
244.699	90.75
244.932	75.75
245.166	82.75
245.399	102.75
245.633	86.75
245.866	89.75
246.099	80.75
246.333	82.75
246.566	88.75
246.8	95.75
247.033	86.75
247.266	85.75
247.5	74.75
247.733	95.75
247.966	81.75
248.2	102.75
248.433	108.75
248.666	125.75
248.899	119.75
249.133	97.75
249.366	111.75
249.599	102.75
249.832	117.75
250.066	124.75
250.299	76.75
250.532	79.75
250.765	88.75
250.998	87.75
251.231	86.75
251.465	82.75
251.698	89.75
251.931	79.75
252.164	80.75
252.397	94.75
252.63	99.75
252.863	102.75
253.096	77.75
253.329	99.75
253.562	93.75
253.795	98.75
254.028	89.75
254.261	72.75
254.494	105.75
254.727	109.75
254.96	136.75
255.193	115.75
255.426	105.75
255.659	92.75
255.892	95.75
256.124	84.75
256.357	82.75
256.59	100.75
256.823	93.75
257.056	98.75
257.289	141.75
257.521	153.75
257.754	131.75
257.987	92.75
258.22	101.75
258.452	89.75
258.685	89.75
258.918	93.75
259.151	107.75
259.383	105.75
259.616	129.75
259.849	127.75
260.081	96.75
260.314	97.75
260.547	82.75
260.779	87.75
261.012	80.75
261.244	93.75
261.477	92.75
261.71	93.75
261.942	87.75
262.175	92.75
262.407	74.75
262.64	93.75
262.872	91.75
263.105	70.75
263.337	85.75
263.57	97.75
263.802	91.75
264.035	95.75
264.267	90.75
264.499	96.75
264.732	81.75
264.964	99.75
265.197	83.75
265.429	76.75
265.661	93.75
265.894	102.75
266.126	117.75
266.358	135.75
266.591	136.75
266.823	87.75
267.055	85.75
267.287	102.75
267.52	94.75
267.752	93.75
267.984	106.75
268.216	81.75
268.448	95.75
268.681	92.75
268.913	89.75
269.145	98.75
269.377	86.75
269.609	103.75
269.841	88.75
270.073	103.75
270.306	117.75
270.538	161.75
270.77	261.75
271.002	320.75
271.234	194.75
271.466	123.75
271.698	97.75
271.93	101.75
272.162	87.75
272.394	92.75
272.626	81.75
272.858	82.75
273.09	100.75
273.322	97.75
273.553	74.75
273.785	73.75
274.017	89.75
274.249	97.75
274.481	90.75
274.713	80.75
274.945	82.75
275.176	96.75
275.408	95.75
275.64	92.75
275.872	102.75
276.104	108.75
276.335	106.75
276.567	94.75
276.799	81.75
277.031	85.75
277.262	93.75
277.494	96.75
277.726	125.75
277.957	166.75
278.189	221.75
278.421	215.75
278.652	185.75
278.884	179.75
279.115	127.75
279.347	98.75
279.579	93.75
279.81	104.75
280.042	92.75
280.273	102.75
280.505	99.75
280.736	105.75
280.968	108.75
281.199	147.75
281.431	217.75
281.662	236.75
281.894	149.75
282.125	105.75
282.356	96.75
282.588	107.75
282.819	118.75
283.051	114.75
283.282	121.75
283.513	171.75
283.745	258.75
283.976	453.75
284.207	637.75
284.439	488.75
284.67	245.75
284.901	235.75
285.132	301.75
285.364	329.75
285.595	201.75
285.826	170.75
286.057	233.75
286.288	359.75
286.52	499.75
286.751	394.75
286.982	167.75
287.213	111.75
287.444	101.75
287.675	103.75
287.906	99.75
288.138	101.75
288.369	97.75
288.6	91.75
288.831	97.75
289.062	95.75
289.293	81.75
289.524	84.75
289.755	93.75
289.986	85.75
290.217	101.75
290.448	111.75
290.679	92.75
290.91	126.75
291.141	151.75
291.371	206.75
291.602	258.75
291.833	192.75
292.064	119.75
292.295	107.75
292.526	100.75
292.757	102.75
292.987	103.75
293.218	94.75
293.449	95.75
293.68	101.75
293.91	95.75
294.141	103.75
294.372	105.75
294.603	91.75
294.833	102.75
295.064	90.75
295.295	84.75
295.525	88.75
295.756	90.75
295.987	97.75
296.217	92.75
296.448	87.75
296.679	99.75
296.909	90.75
297.14	100.75
297.37	102.75
297.601	91.75
297.831	96.75
298.062	94.75
298.292	101.75
298.523	94.75
298.753	102.75
298.984	105.75
299.214	108.75
299.445	102.75
299.675	114.75
299.905	120.75
300.136	127.75
300.366	150.75
300.597	239.75
300.827	401.75
301.057	588.75
301.288	517.75
301.518	221.75
301.748	137.75
301.979	133.75
302.209	128.75
302.439	136.75
302.669	164.75
302.9	241.75
303.13	423.75
303.36	725.75
303.59	990.75
303.82	699.75
304.051	257.75
304.281	142.75
304.511	109.75
304.741	121.75
304.971	121.75
305.201	117.75
305.431	107.75
305.661	101.75
305.891	92.75
306.121	95.75
306.352	104.75
306.582	106.75
306.812	111.75
307.042	115.75
307.272	115.75
307.502	103.75
307.731	90.75
307.961	106.75
308.191	108.75
308.421	109.75
308.651	99.75
308.881	107.75
309.111	113.75
309.341	107.75
309.571	98.75
309.8	115.75
310.03	97.75
310.26	110.75
310.49	109.75
310.72	119.75
310.949	114.75
311.179	99.75
311.409	104.75
311.639	107.75
311.868	102.75
312.098	109.75
312.328	111.75
312.557	107.75
312.787	116.75
313.017	101.75
313.246	113.75
313.476	115.75
313.706	121.75
313.935	129.75
314.165	181.75
314.394	212.75
314.624	171.75
314.853	123.75
315.083	114.75
315.312	122.75
315.542	119.75
315.771	108.75
316.001	127.75
316.23	131.75
316.46	146.75
316.689	174.75
316.919	233.75
317.148	407.75
317.377	753.75
317.607	1217.75
317.836	1140.75
318.065	455.75
318.295	199.75
318.524	147.75
318.753	137.75
318.983	121.75
319.212	124.75
319.441	106.75
319.67	103.75
319.9	105.75
320.129	120.75
320.358	123.75
320.587	113.75
320.816	103.75
321.046	124.75
321.275	119.75
321.504	124.75
321.733	131.75
321.962	145.75
322.191	137.75
322.42	136.75
322.649	119.75
322.878	121.75
323.108	126.75
323.337	115.75
323.566	128.75
323.795	123.75
324.024	122.75
324.253	139.75
324.482	154.75
324.71	195.75
324.939	242.75
325.168	203.75
325.397	163.75
325.626	227.75
325.855	406.75
326.084	759.75
326.313	1298.75
326.542	1248.75
326.77	511.75
326.999	238.75
327.228	204.75
327.457	193.75
327.686	210.75
327.914	153.75
328.143	134.75
328.372	118.75
328.6	125.75
328.829	128.75
329.058	125.75
329.287	115.75
329.515	118.75
329.744	118.75
329.972	117.75
330.201	104.75
330.43	108.75
330.658	91.75
330.887	106.75
331.115	110.75
331.344	119.75
331.572	125.75
331.801	113.75
332.03	121.75
332.258	116.75
332.486	159.75
332.715	242.75
332.943	419.75
333.172	647.75
333.4	550.75
333.629	222.75
333.857	128.75
334.085	123.75
334.314	118.75
334.542	124.75
334.771	120.75
334.999	119.75
335.227	113.75
335.455	110.75
335.684	112.75
335.912	115.75
336.14	113.75
336.369	111.75
336.597	108.75
336.825	109.75
337.053	87.75
337.281	106.75
337.51	99.75
337.738	119.75
337.966	107.75
338.194	106.75
338.422	116.75
338.65	115.75
338.878	118.75
339.106	125.75
339.334	95.75
339.562	121.75
339.79	113.75
340.018	101.75
340.246	104.75
340.474	119.75
340.702	117.75
340.93	126.75
341.158	110.75
341.386	106.75
341.614	118.75
341.842	127.75
342.07	120.75
342.298	118.75
342.526	108.75
342.754	111.75
342.981	111.75
343.209	117.75
343.437	104.75
343.665	95.75
343.893	108.75
344.12	107.75
344.348	102.75
344.576	110.75
344.804	104.75
345.031	109.75
345.259	108.75
345.487	110.75
345.714	113.75
345.942	106.75
346.17	97.75
346.397	110.75
346.625	95.75
346.853	113.75
347.08	107.75
347.308	116.75
347.535	104.75
347.763	91.75
347.99	106.75
348.218	110.75
348.445	111.75
348.673	125.75
348.9	131.75
349.128	119.75
349.355	111.75
349.583	128.75
349.81	112.75
350.037	103.75
350.265	87.75
350.492	116.75
350.72	103.75
350.947	115.75
351.174	113.75
351.402	126.75
351.629	113.75
351.856	99.75
352.083	97.75
352.311	116.75
352.538	108.75
352.765	105.75
352.992	105.75
353.22	104.75
353.447	105.75
353.674	96.75
353.901	113.75
354.128	107.75
354.355	108.75
354.583	101.75
354.81	110.75
355.037	107.75
355.264	101.75
355.491	114.75
355.718	113.75
355.945	111.75
356.172	113.75
356.399	102.75
356.626	104.75
356.853	116.75
357.08	106.75
357.307	112.75
357.534	109.75
357.761	101.75
357.988	111.75
358.215	108.75
358.441	103.75
358.668	113.75
358.895	111.75
359.122	116.75
359.349	99.75
359.576	136.75
359.802	110.75
360.029	114.75
360.256	119.75
360.483	106.75
360.709	89.75
360.936	111.75
361.163	107.75
361.39	99.75
361.616	108.75
361.843	102.75
362.07	110.75
362.296	122.75
362.523	106.75
362.749	102.75
362.976	121.75
363.203	113.75
363.429	101.75
363.656	119.75
363.882	108.75
364.109	111.75
364.335	100.75
364.562	93.75
364.788	97.75
365.015	119.75
365.241	137.75
365.468	181.75
365.694	221.75
365.92	193.75
366.147	116.75
366.373	93.75
366.599	106.75
366.826	100.75
367.052	92.75
367.278	96.75
367.505	100.75
367.731	99.75
367.957	116.75
368.184	99.75
368.41	131.75
368.636	121.75
368.862	100.75
369.089	88.75
369.315	97.75
369.541	115.75
369.767	107.75
369.993	108.75
370.219	92.75
370.445	102.75
370.672	99.75
370.898	99.75
371.124	97.75
371.35	107.75
371.576	81.75
371.802	110.75
372.028	102.75
372.254	94.75
372.48	110.75
372.706	107.75
372.932	110.75
373.158	108.75
373.384	121.75
373.61	123.75
373.835	110.75
374.061	121.75
374.287	100.75
374.513	109.75
374.739	107.75
374.965	94.75
375.191	102.75
375.416	97.75
375.642	98.75
375.868	111.75
376.094	102.75
376.319	84.75
376.545	110.75
376.771	92.75
376.997	108.75
377.222	106.75
377.448	99.75
377.674	103.75
377.899	115.75
378.125	98.75
378.35	105.75
378.576	121.75
378.802	120.75
379.027	117.75
379.253	142.75
379.478	161.75
379.704	267.75
379.929	644.75
380.155	1303.75
380.38	1357.75
380.606	447.75
380.831	170.75
381.057	117.75
381.282	109.75
381.507	110.75
381.733	99.75
381.958	115.75
382.184	102.75
382.409	95.75
382.634	121.75
382.86	108.75
383.085	93.75
383.31	96.75
383.535	121.75
383.761	102.75
383.986	106.75
384.211	117.75
384.436	88.75
384.662	113.75
384.887	93.75
385.112	98.75
385.337	102.75
385.562	98.75
385.787	93.75
386.013	110.75
386.238	106.75
386.463	105.75
386.688	108.75
386.913	84.75
387.138	95.75
387.363	95.75
387.588	99.75
387.813	104.75
388.038	108.75
388.263	113.75
388.488	105.75
388.713	121.75
388.938	113.75
389.163	95.75
389.387	93.75
389.612	98.75
389.837	104.75
390.062	97.75
390.287	107.75
390.512	100.75
390.736	94.75
390.961	102.75
391.186	96.75
391.411	100.75
391.636	102.75
391.86	118.75
392.085	106.75
392.31	108.75
392.534	104.75
392.759	94.75
392.984	88.75
393.208	109.75
393.433	109.75
393.658	110.75
393.882	100.75
394.107	97.75
394.331	108.75
394.556	95.75
394.78	91.75
395.005	90.75
395.229	89.75
395.454	99.75
395.678	128.75
395.903	97.75
396.127	103.75
396.352	86.75
396.576	102.75
396.801	110.75
397.025	121.75
397.249	104.75
397.474	105.75
397.698	109.75
397.922	93.75
398.147	101.75
398.371	99.75
398.595	99.75
398.82	99.75
399.044	109.75
399.268	101.75
399.492	94.75
399.717	99.75
399.941	103.75
400.165	102.75
400.389	102.75
400.613	86.75
400.837	101.75
401.062	100.75
401.286	107.75
401.51	90.75
401.734	96.75
401.958	98.75
402.182	78.75
402.406	98.75
402.63	95.75
402.854	98.75
403.078	103.75
403.302	99.75
403.526	102.75
403.75	94.75
403.974	104.75
404.198	105.75
404.422	98.75
404.645	106.75
404.869	111.75
405.093	109.75
405.317	108.75
405.541	110.75
405.765	138.75
405.988	148.75
406.212	93.75
406.436	111.75
406.66	96.75
406.883	102.75
407.107	103.75
407.331	97.75
407.555	90.75
407.778	106.75
408.002	106.75
408.226	100.75
408.449	100.75
408.673	99.75
408.896	84.75
409.12	99.75
409.344	94.75
409.567	89.75
409.791	102.75
410.014	97.75
410.238	86.75
410.461	103.75
410.685	100.75
410.908	93.75
411.132	102.75
411.355	93.75
411.578	105.75
411.802	98.75
412.025	98.75
412.249	87.75
412.472	107.75
412.695	95.75
412.919	84.75
413.142	107.75
413.365	104.75
413.589	121.75
413.812	105.75
414.035	101.75
414.258	101.75
414.482	104.75
414.705	110.75
414.928	114.75
415.151	108.75
415.374	115.75
415.597	96.75
415.821	103.75
416.044	105.75
416.267	100.75
416.49	102.75
416.713	94.75
416.936	92.75
417.159	96.75
417.382	96.75
417.605	92.75
417.828	92.75
418.051	98.75
418.274	91.75
418.497	96.75
418.72	97.75
418.943	103.75
419.166	107.75
419.389	101.75
419.611	108.75
419.834	109.75
420.057	107.75
420.28	80.75
420.503	102.75
420.726	113.75
420.948	98.75
421.171	96.75
421.394	106.75
421.617	93.75
421.839	92.75
422.062	83.75
422.285	97.75
422.507	100.75
422.73	128.75
422.953	119.75
423.175	97.75
423.398	103.75
423.621	93.75
423.843	87.75
424.066	101.75
424.288	105.75
424.511	92.75
424.733	100.75
424.956	105.75
425.178	88.75
425.401	112.75
425.623	110.75
425.846	88.75
426.068	101.75
426.291	104.75
426.513	99.75
426.735	94.75
426.958	95.75
427.18	98.75
427.402	106.75
427.625	96.75
427.847	102.75
428.069	97.75
428.292	99.75
428.514	119.75
428.736	107.75
428.958	93.75
429.181	89.75
429.403	100.75
429.625	101.75
429.847	110.75
430.069	101.75
430.292	100.75
430.514	113.75
430.736	103.75
430.958	110.75
431.18	91.75
431.402	98.75
431.624	87.75
431.846	101.75
432.068	79.75
432.29	95.75
432.512	109.75
432.734	90.75
432.956	91.75
433.178	86.75
433.4	94.75
433.622	78.75
433.844	91.75
434.066	102.75
434.287	95.75
434.509	93.75
434.731	90.75
434.953	99.75
435.175	98.75
435.397	102.75
435.618	89.75
435.84	94.75
436.062	103.75
436.284	99.75
436.505	111.75
436.727	102.75
436.949	93.75
437.17	88.75
437.392	96.75
437.614	99.75
437.835	100.75
438.057	87.75
438.278	98.75
438.5	88.75
438.721	107.75
438.943	95.75
439.165	116.75
439.386	131.75
439.608	109.75
439.829	108.75
440.05	106.75
440.272	121.75
440.493	117.75
440.715	88.75
440.936	101.75
441.158	86.75
441.379	88.75
441.6	115.75
441.822	114.75
442.043	117.75
442.264	129.75
442.486	124.75
442.707	95.75
442.928	106.75
443.149	97.75
443.371	96.75
443.592	101.75
443.813	90.75
444.034	101.75
444.255	98.75
444.476	101.75
444.698	100.75
444.919	97.75
445.14	221.75
445.361	141.75
445.582	102.75
445.803	90.75
446.024	112.75
446.245	101.75
446.466	88.75
446.687	105.75
446.908	97.75
447.129	99.75
447.35	95.75
447.571	98.75
447.792	94.75
448.013	95.75
448.234	107.75
448.455	104.75
448.675	97.75
448.896	114.75
449.117	115.75
449.338	125.75
449.559	150.75
449.779	122.75
450	102.75
450.221	116.75
450.442	110.75
450.662	106.75
450.883	101.75
451.104	107.75
451.324	106.75
451.545	99.75
451.766	110.75
451.986	123.75
452.207	169.75
452.428	466.75
452.648	1151.75
452.869	655.75
453.089	181.75
453.31	104.75
453.53	115.75
453.751	120.75
453.971	137.75
454.192	140.75
454.412	99.75
454.633	105.75
454.853	104.75
455.073	106.75
455.294	88.75
455.514	105.75
455.734	94.75
455.955	97.75
456.175	90.75
456.395	91.75
456.616	105.75
456.836	106.75
457.056	98.75
457.276	114.75
457.497	109.75
457.717	106.75
457.937	111.75
458.157	94.75
458.377	102.75
458.598	82.75
458.818	102.75
459.038	92.75
459.258	98.75
459.478	94.75
459.698	70.75
459.918	74.75
460.138	90.75
460.358	92.75
460.578	93.75
460.798	89.75
461.018	81.75
461.238	96.75
461.458	98.75
461.678	87.75
461.898	87.75
462.118	106.75
462.338	101.75
462.558	97.75
462.777	94.75
462.997	82.75
463.217	107.75
463.437	135.75
463.657	193.75
463.876	187.75
464.096	127.75
464.316	98.75
464.536	106.75
464.755	101.75
464.975	95.75
465.195	92.75
465.414	90.75
465.634	98.75
465.854	87.75
466.073	79.75
466.293	92.75
466.512	90.75
466.732	111.75
466.951	106.75
467.171	156.75
467.391	121.75
467.61	94.75
467.829	89.75
468.049	107.75
468.268	93.75
468.488	92.75
468.707	106.75
468.927	96.75
469.146	87.75
469.365	113.75
469.585	110.75
469.804	97.75
470.023	109.75
470.243	80.75
470.462	97.75
470.681	112.75
470.901	118.75
471.12	166.75
471.339	188.75
471.558	143.75
471.777	114.75
471.997	99.75
472.216	99.75
472.435	94.75
472.654	83.75
472.873	90.75
473.092	82.75
473.311	95.75
473.53	98.75
473.749	87.75
473.968	89.75
474.187	103.75
474.406	88.75
474.625	98.75
474.844	85.75
475.063	105.75
475.282	106.75
475.501	90.75
475.72	85.75
475.939	89.75
476.158	98.75
476.377	110.75
476.596	104.75
476.814	99.75
477.033	101.75
477.252	111.75
477.471	97.75
477.69	94.75
477.908	98.75
478.127	89.75
478.346	106.75
478.564	93.75
478.783	93.75
479.002	108.75
479.22	95.75
479.439	82.75
479.658	86.75
479.876	93.75
480.095	98.75
480.313	95.75
480.532	99.75
480.751	95.75
480.969	92.75
481.188	82.75
481.406	92.75
481.624	94.75
481.843	105.75
482.061	133.75
482.28	89.75
482.498	97.75
482.717	120.75
482.935	100.75
483.153	100.75
483.372	98.75
483.59	104.75
483.808	85.75
484.027	100.75
484.245	124.75
484.463	151.75
484.681	212.75
484.9	133.75
485.118	115.75
485.336	96.75
485.554	101.75
485.772	126.75
485.99	155.75
486.209	220.75
486.427	151.75
486.645	117.75
486.863	107.75
487.081	97.75
487.299	85.75
487.517	97.75
487.735	103.75
487.953	97.75
488.171	116.75
488.389	104.75
488.607	93.75
488.825	97.75
489.043	94.75
489.261	101.75
489.479	101.75
489.696	111.75
489.914	80.75
490.132	106.75
490.35	104.75
490.568	100.75
490.786	95.75
491.003	111.75
491.221	109.75
491.439	125.75
491.657	99.75
491.874	105.75
492.092	104.75
492.31	106.75
492.527	116.75
492.745	104.75
492.963	85.75
493.18	113.75
493.398	110.75
493.615	100.75
493.833	103.75
494.05	103.75
494.268	87.75
494.485	103.75
494.703	114.75
494.92	102.75
495.138	99.75
495.355	101.75
495.573	96.75
495.79	90.75
496.008	96.75
496.225	100.75
496.442	115.75
496.66	121.75
496.877	137.75
497.094	152.75
497.312	114.75
497.529	97.75
497.746	89.75
497.963	98.75
498.181	92.75
498.398	105.75
498.615	91.75
498.832	94.75
499.049	118.75
499.267	124.75
499.484	135.75
499.701	124.75
499.918	92.75
500.135	111.75
500.352	116.75
500.569	86.75
500.786	90.75
501.003	93.75
501.22	101.75
501.437	98.75
501.654	101.75
501.871	101.75
502.088	75.75
502.305	100.75
502.522	104.75
502.739	118.75
502.956	87.75
503.172	102.75
503.389	98.75
503.606	105.75
503.823	98.75
504.04	94.75
504.256	101.75
504.473	106.75
504.69	113.75
504.907	106.75
505.123	110.75
505.34	98.75
505.557	113.75
505.773	98.75
505.99	103.75
506.207	104.75
506.423	100.75
506.64	108.75
506.856	91.75
507.073	106.75
507.289	100.75
507.506	79.75
507.722	106.75
507.939	95.75
508.155	100.75
508.372	98.75
