Data from SnStandardFlinnAPT0064_QswitchEnergy10_LIBS07252019.E.O._I.C._HRD10591_15-28-22-973.txt Node
Date: Thu Jul 25 15:28:22 EDT 2019
User: cochatt
Spectrometer: HR+D1059
Trigger mode: 1
Integration Time (sec): 1.000000E-1
Scans to average: 1
Electric dark correction enabled: true
Nonlinearity correction enabled: false
Boxcar width: 0
XAxis mode: Wavelengths
Number of Pixels in Spectrum: 2048
>>>>>Begin Spectral Data<<<<<
223.165	-23.25
223.4	-23.25
223.635	-23.25
223.869	-32.25
224.104	-10.25
224.338	-6.25
224.573	-6.25
224.808	-14.25
225.042	-5.25
225.277	3.75
225.511	1.75
225.746	-8.25
225.98	-1.25
226.215	15.75
226.449	11.75
226.683	26.75
226.918	29.75
227.152	17.75
227.387	37.75
227.621	47.75
227.856	42.75
228.09	43.75
228.324	49.75
228.559	56.75
228.793	58.75
229.027	79.75
229.262	71.75
229.496	74.75
229.73	77.75
229.964	66.75
230.199	57.75
230.433	85.75
230.667	84.75
230.901	84.75
231.136	86.75
231.37	93.75
231.604	94.75
231.838	103.75
232.072	122.75
232.306	126.75
232.541	94.75
232.775	83.75
233.009	87.75
233.243	86.75
233.477	98.75
233.711	99.75
233.945	109.75
234.179	95.75
234.413	80.75
234.647	87.75
234.881	88.75
235.115	83.75
235.349	99.75
235.583	102.75
235.817	137.75
236.051	127.75
236.285	103.75
236.519	95.75
236.753	89.75
236.987	67.75
237.221	73.75
237.455	74.75
237.689	75.75
237.922	88.75
238.156	81.75
238.39	68.75
238.624	89.75
238.858	89.75
239.091	97.75
239.325	87.75
239.559	83.75
239.793	81.75
240.027	88.75
240.26	75.75
240.494	75.75
240.728	78.75
240.961	95.75
241.195	93.75
241.429	87.75
241.662	93.75
241.896	81.75
242.13	102.75
242.363	134.75
242.597	153.75
242.83	143.75
243.064	129.75
243.298	192.75
243.531	156.75
243.765	100.75
243.998	87.75
244.232	80.75
244.465	81.75
244.699	83.75
244.932	80.75
245.166	77.75
245.399	93.75
245.633	83.75
245.866	93.75
246.099	84.75
246.333	77.75
246.566	80.75
246.8	71.75
247.033	79.75
247.266	78.75
247.5	72.75
247.733	91.75
247.966	72.75
248.2	102.75
248.433	98.75
248.666	111.75
248.899	113.75
249.133	85.75
249.366	101.75
249.599	119.75
249.832	128.75
250.066	135.75
250.299	102.75
250.532	94.75
250.765	87.75
250.998	75.75
251.231	82.75
251.465	79.75
251.698	82.75
251.931	66.75
252.164	80.75
252.397	90.75
252.63	74.75
252.863	100.75
253.096	95.75
253.329	102.75
253.562	102.75
253.795	103.75
254.028	95.75
254.261	83.75
254.494	95.75
254.727	107.75
254.96	152.75
255.193	129.75
255.426	101.75
255.659	95.75
255.892	84.75
256.124	96.75
256.357	77.75
256.59	87.75
256.823	81.75
257.056	104.75
257.289	143.75
257.521	188.75
257.754	122.75
257.987	91.75
258.22	93.75
258.452	84.75
258.685	88.75
258.918	87.75
259.151	110.75
259.383	111.75
259.616	146.75
259.849	158.75
260.081	103.75
260.314	76.75
260.547	86.75
260.779	83.75
261.012	78.75
261.244	96.75
261.477	81.75
261.71	88.75
261.942	103.75
262.175	89.75
262.407	87.75
262.64	65.75
262.872	86.75
263.105	74.75
263.337	97.75
263.57	75.75
263.802	89.75
264.035	84.75
264.267	95.75
264.499	82.75
264.732	96.75
264.964	87.75
265.197	85.75
265.429	88.75
265.661	104.75
265.894	102.75
266.126	136.75
266.358	166.75
266.591	145.75
266.823	98.75
267.055	90.75
267.287	88.75
267.52	90.75
267.752	91.75
267.984	89.75
268.216	81.75
268.448	93.75
268.681	100.75
268.913	75.75
269.145	97.75
269.377	90.75
269.609	85.75
269.841	90.75
270.073	95.75
270.306	130.75
270.538	219.75
270.77	340.75
271.002	386.75
271.234	209.75
271.466	111.75
271.698	97.75
271.93	93.75
272.162	79.75
272.394	94.75
272.626	90.75
272.858	77.75
273.09	81.75
273.322	94.75
273.553	76.75
273.785	91.75
274.017	86.75
274.249	83.75
274.481	79.75
274.713	96.75
274.945	92.75
275.176	64.75
275.408	84.75
275.64	87.75
275.872	78.75
276.104	99.75
276.335	102.75
276.567	102.75
276.799	96.75
277.031	87.75
277.262	106.75
277.494	114.75
277.726	126.75
277.957	191.75
278.189	264.75
278.421	262.75
278.652	209.75
278.884	193.75
279.115	153.75
279.347	120.75
279.579	107.75
279.81	100.75
280.042	100.75
280.273	103.75
280.505	101.75
280.736	98.75
280.968	130.75
281.199	202.75
281.431	271.75
281.662	285.75
281.894	168.75
282.125	111.75
282.356	112.75
282.588	104.75
282.819	121.75
283.051	117.75
283.282	143.75
283.513	197.75
283.745	329.75
283.976	612.75
284.207	822.75
284.439	638.75
284.67	284.75
284.901	259.75
285.132	379.75
285.364	420.75
285.595	240.75
285.826	163.75
286.057	258.75
286.288	457.75
286.52	651.75
286.751	521.75
286.982	209.75
287.213	125.75
287.444	117.75
287.675	96.75
287.906	102.75
288.138	99.75
288.369	89.75
288.6	88.75
288.831	98.75
289.062	99.75
289.293	82.75
289.524	98.75
289.755	101.75
289.986	91.75
290.217	89.75
290.448	112.75
290.679	100.75
290.91	135.75
291.141	178.75
291.371	263.75
291.602	312.75
291.833	217.75
292.064	126.75
292.295	113.75
292.526	99.75
292.757	88.75
292.987	107.75
293.218	90.75
293.449	103.75
293.68	90.75
293.91	95.75
294.141	89.75
294.372	109.75
294.603	95.75
294.833	102.75
295.064	112.75
295.295	97.75
295.525	100.75
295.756	88.75
295.987	97.75
296.217	104.75
296.448	94.75
296.679	94.75
296.909	94.75
297.14	91.75
297.37	110.75
297.601	113.75
297.831	98.75
298.062	95.75
298.292	100.75
298.523	99.75
298.753	111.75
298.984	97.75
299.214	106.75
299.445	112.75
299.675	110.75
299.905	114.75
300.136	125.75
300.366	156.75
300.597	304.75
300.827	492.75
301.057	755.75
301.288	669.75
301.518	277.75
301.748	161.75
301.979	145.75
302.209	145.75
302.439	145.75
302.669	188.75
302.9	286.75
303.13	567.75
303.36	935.75
303.59	1342.75
303.82	901.75
304.051	328.75
304.281	175.75
304.511	130.75
304.741	120.75
304.971	118.75
305.201	115.75
305.431	112.75
305.661	113.75
305.891	108.75
306.121	99.75
306.352	101.75
306.582	116.75
306.812	127.75
307.042	118.75
307.272	112.75
307.502	103.75
307.731	110.75
307.961	120.75
308.191	105.75
308.421	105.75
308.651	100.75
308.881	104.75
309.111	103.75
309.341	111.75
309.571	112.75
309.8	111.75
310.03	99.75
310.26	102.75
310.49	113.75
310.72	107.75
310.949	100.75
311.179	111.75
311.409	112.75
311.639	104.75
311.868	95.75
312.098	119.75
312.328	105.75
312.557	106.75
312.787	121.75
313.017	113.75
313.246	115.75
313.476	120.75
313.706	133.75
313.935	185.75
314.165	201.75
314.394	254.75
314.624	197.75
314.853	136.75
315.083	128.75
315.312	129.75
315.542	141.75
315.771	134.75
316.001	141.75
316.23	142.75
316.46	160.75
316.689	189.75
316.919	291.75
317.148	561.75
317.377	978.75
317.607	1592.75
317.836	1480.75
318.065	588.75
318.295	232.75
318.524	167.75
318.753	145.75
318.983	122.75
319.212	121.75
319.441	121.75
319.67	117.75
319.9	111.75
320.129	127.75
320.358	128.75
320.587	122.75
320.816	119.75
321.046	121.75
321.275	113.75
321.504	150.75
321.733	142.75
321.962	165.75
322.191	186.75
322.42	145.75
322.649	125.75
322.878	129.75
323.108	123.75
323.337	143.75
323.566	143.75
323.795	146.75
324.024	135.75
324.253	129.75
324.482	175.75
324.71	256.75
324.939	296.75
325.168	263.75
325.397	204.75
325.626	277.75
325.855	546.75
326.084	1062.75
326.313	1743.75
326.542	1680.75
326.77	675.75
326.999	302.75
327.228	238.75
327.457	261.75
327.686	249.75
327.914	177.75
328.143	146.75
328.372	145.75
328.6	132.75
328.829	135.75
329.058	123.75
329.287	113.75
329.515	125.75
329.744	122.75
329.972	130.75
330.201	114.75
330.43	129.75
330.658	125.75
330.887	118.75
331.115	123.75
331.344	130.75
331.572	123.75
331.801	120.75
332.03	126.75
332.258	137.75
332.486	197.75
332.715	319.75
332.943	545.75
333.172	823.75
333.4	708.75
333.629	266.75
333.857	151.75
334.085	133.75
334.314	130.75
334.542	118.75
334.771	131.75
334.999	120.75
335.227	134.75
335.455	136.75
335.684	116.75
335.912	123.75
336.14	125.75
336.369	119.75
336.597	106.75
336.825	106.75
337.053	121.75
337.281	117.75
337.51	108.75
337.738	120.75
337.966	122.75
338.194	119.75
338.422	120.75
338.65	120.75
338.878	119.75
339.106	134.75
339.334	127.75
339.562	125.75
339.79	122.75
340.018	129.75
340.246	131.75
340.474	114.75
340.702	121.75
340.93	112.75
341.158	121.75
341.386	110.75
341.614	133.75
341.842	131.75
342.07	120.75
342.298	125.75
342.526	113.75
342.754	110.75
342.981	120.75
343.209	119.75
343.437	117.75
343.665	120.75
343.893	122.75
344.12	123.75
344.348	115.75
344.576	118.75
344.804	121.75
345.031	118.75
345.259	103.75
345.487	131.75
345.714	112.75
345.942	123.75
346.17	126.75
346.397	106.75
346.625	108.75
346.853	117.75
347.08	98.75
347.308	117.75
347.535	103.75
347.763	103.75
347.99	112.75
348.218	115.75
348.445	115.75
348.673	100.75
348.9	118.75
349.128	131.75
349.355	126.75
349.583	134.75
349.81	118.75
350.037	125.75
350.265	128.75
350.492	118.75
350.72	121.75
350.947	119.75
351.174	121.75
351.402	115.75
351.629	108.75
351.856	121.75
352.083	121.75
352.311	129.75
352.538	107.75
352.765	114.75
352.992	112.75
353.22	96.75
353.447	109.75
353.674	99.75
353.901	119.75
354.128	111.75
354.355	99.75
354.583	100.75
354.81	115.75
355.037	115.75
355.264	105.75
355.491	93.75
355.718	102.75
355.945	100.75
356.172	110.75
356.399	111.75
356.626	117.75
356.853	114.75
357.08	104.75
357.307	117.75
357.534	119.75
357.761	112.75
357.988	114.75
358.215	116.75
358.441	117.75
358.668	115.75
358.895	126.75
359.122	127.75
359.349	131.75
359.576	126.75
359.802	114.75
360.029	132.75
360.256	100.75
360.483	127.75
360.709	119.75
360.936	120.75
361.163	106.75
361.39	119.75
361.616	114.75
361.843	122.75
362.07	124.75
362.296	113.75
362.523	118.75
362.749	126.75
362.976	104.75
363.203	120.75
363.429	99.75
363.656	113.75
363.882	109.75
364.109	138.75
364.335	135.75
364.562	110.75
364.788	118.75
365.015	117.75
365.241	149.75
365.468	221.75
365.694	304.75
365.92	241.75
366.147	119.75
366.373	104.75
366.599	94.75
366.826	103.75
367.052	95.75
367.278	90.75
367.505	98.75
367.731	114.75
367.957	102.75
368.184	121.75
368.41	137.75
368.636	145.75
368.862	119.75
369.089	87.75
369.315	118.75
369.541	110.75
369.767	118.75
369.993	103.75
370.219	110.75
370.445	115.75
370.672	110.75
370.898	119.75
371.124	113.75
371.35	117.75
371.576	107.75
371.802	104.75
372.028	119.75
372.254	137.75
372.48	115.75
372.706	118.75
372.932	121.75
373.158	113.75
373.384	119.75
373.61	136.75
373.835	122.75
374.061	127.75
374.287	112.75
374.513	104.75
374.739	98.75
374.965	112.75
375.191	122.75
375.416	113.75
375.642	119.75
375.868	134.75
376.094	103.75
376.319	111.75
376.545	106.75
376.771	111.75
376.997	103.75
377.222	113.75
377.448	113.75
377.674	130.75
377.899	114.75
378.125	118.75
378.35	120.75
378.576	104.75
378.802	116.75
379.027	134.75
379.253	151.75
379.478	184.75
379.704	325.75
379.929	855.75
380.155	1725.75
380.38	1803.75
380.606	584.75
380.831	208.75
381.057	140.75
381.282	111.75
381.507	125.75
381.733	116.75
381.958	113.75
382.184	126.75
382.409	111.75
382.634	117.75
382.86	115.75
383.085	103.75
383.31	96.75
383.535	115.75
383.761	115.75
383.986	112.75
384.211	114.75
384.436	104.75
384.662	91.75
384.887	105.75
385.112	99.75
385.337	120.75
385.562	119.75
385.787	120.75
386.013	121.75
386.238	111.75
386.463	127.75
386.688	102.75
386.913	102.75
387.138	101.75
387.363	101.75
387.588	111.75
387.813	103.75
388.038	115.75
388.263	100.75
388.488	101.75
388.713	110.75
388.938	104.75
389.163	105.75
389.387	110.75
389.612	105.75
389.837	96.75
390.062	105.75
390.287	90.75
390.512	100.75
390.736	95.75
390.961	115.75
391.186	117.75
391.411	98.75
391.636	107.75
391.86	115.75
392.085	110.75
392.31	113.75
392.534	109.75
392.759	112.75
392.984	109.75
393.208	125.75
393.433	174.75
393.658	158.75
393.882	117.75
394.107	108.75
394.331	105.75
394.556	112.75
394.78	102.75
395.005	112.75
395.229	89.75
395.454	101.75
395.678	115.75
395.903	115.75
396.127	100.75
396.352	111.75
396.576	109.75
396.801	127.75
397.025	152.75
397.249	127.75
397.474	112.75
397.698	103.75
397.922	103.75
398.147	124.75
398.371	111.75
398.595	101.75
398.82	96.75
399.044	95.75
399.268	92.75
399.492	100.75
399.717	96.75
399.941	102.75
400.165	100.75
400.389	106.75
400.613	90.75
400.837	101.75
401.062	97.75
401.286	94.75
401.51	96.75
401.734	93.75
401.958	93.75
402.182	95.75
402.406	96.75
402.63	100.75
402.854	103.75
403.078	107.75
403.302	100.75
403.526	94.75
403.75	120.75
403.974	102.75
404.198	91.75
404.422	96.75
404.645	90.75
404.869	115.75
405.093	101.75
405.317	102.75
405.541	111.75
405.765	153.75
405.988	176.75
406.212	132.75
406.436	104.75
406.66	102.75
406.883	85.75
407.107	114.75
407.331	113.75
407.555	103.75
407.778	88.75
408.002	119.75
408.226	96.75
408.449	115.75
408.673	103.75
408.896	94.75
409.12	95.75
409.344	107.75
409.567	94.75
409.791	105.75
410.014	105.75
410.238	114.75
410.461	94.75
410.685	102.75
410.908	106.75
411.132	111.75
411.355	104.75
411.578	102.75
411.802	87.75
412.025	93.75
412.249	100.75
412.472	93.75
412.695	115.75
412.919	99.75
413.142	107.75
413.365	109.75
413.589	97.75
413.812	101.75
414.035	101.75
414.258	95.75
414.482	118.75
414.705	104.75
414.928	119.75
415.151	94.75
415.374	103.75
415.597	109.75
415.821	101.75
416.044	99.75
416.267	110.75
416.49	102.75
416.713	98.75
416.936	106.75
417.159	88.75
417.382	87.75
417.605	98.75
417.828	88.75
418.051	85.75
418.274	100.75
418.497	104.75
418.72	115.75
418.943	95.75
419.166	115.75
419.389	113.75
419.611	110.75
419.834	102.75
420.057	102.75
420.28	101.75
420.503	110.75
420.726	99.75
420.948	94.75
421.171	102.75
421.394	102.75
421.617	100.75
421.839	95.75
422.062	117.75
422.285	94.75
422.507	117.75
422.73	137.75
422.953	149.75
423.175	119.75
423.398	103.75
423.621	99.75
423.843	95.75
424.066	97.75
424.288	99.75
424.511	111.75
424.733	102.75
424.956	104.75
425.178	96.75
425.401	96.75
425.623	93.75
425.846	110.75
426.068	101.75
426.291	90.75
426.513	95.75
426.735	108.75
426.958	86.75
427.18	101.75
427.402	111.75
427.625	92.75
427.847	107.75
428.069	104.75
428.292	103.75
428.514	114.75
428.736	98.75
428.958	104.75
429.181	113.75
429.403	103.75
429.625	94.75
429.847	109.75
430.069	117.75
430.292	93.75
430.514	102.75
430.736	110.75
430.958	106.75
431.18	102.75
431.402	91.75
431.624	95.75
431.846	82.75
432.068	86.75
432.29	103.75
432.512	81.75
432.734	101.75
432.956	107.75
433.178	95.75
433.4	103.75
433.622	96.75
433.844	84.75
434.066	95.75
434.287	89.75
434.509	93.75
434.731	116.75
434.953	105.75
435.175	95.75
435.397	109.75
435.618	81.75
435.84	106.75
436.062	100.75
436.284	79.75
436.505	95.75
436.727	102.75
436.949	88.75
437.17	93.75
437.392	99.75
437.614	82.75
437.835	103.75
438.057	98.75
438.278	97.75
438.5	96.75
438.721	102.75
438.943	94.75
439.165	118.75
439.386	109.75
439.608	104.75
439.829	112.75
440.05	127.75
440.272	137.75
440.493	106.75
440.715	83.75
440.936	91.75
441.158	90.75
441.379	96.75
441.6	106.75
441.822	110.75
442.043	117.75
442.264	122.75
442.486	107.75
442.707	104.75
442.928	115.75
443.149	102.75
443.371	131.75
443.592	105.75
443.813	111.75
444.034	90.75
444.255	102.75
444.476	101.75
444.698	112.75
444.919	92.75
445.14	155.75
445.361	132.75
445.582	110.75
445.803	103.75
446.024	90.75
446.245	101.75
446.466	112.75
446.687	115.75
446.908	109.75
447.129	98.75
447.35	98.75
447.571	99.75
447.792	94.75
448.013	88.75
448.234	84.75
448.455	115.75
448.675	104.75
448.896	119.75
449.117	121.75
449.338	132.75
449.559	157.75
449.779	116.75
450	125.75
450.221	111.75
450.442	121.75
450.662	118.75
450.883	112.75
451.104	119.75
451.324	127.75
451.545	128.75
451.766	105.75
451.986	140.75
452.207	237.75
452.428	636.75
452.648	1501.75
452.869	847.75
453.089	219.75
453.31	146.75
453.53	134.75
453.751	147.75
453.971	181.75
454.192	149.75
454.412	127.75
454.633	89.75
454.853	101.75
455.073	101.75
455.294	88.75
455.514	90.75
455.734	96.75
455.955	96.75
456.175	93.75
456.395	95.75
456.616	96.75
456.836	100.75
457.056	101.75
457.276	101.75
457.497	115.75
457.717	119.75
457.937	103.75
458.157	80.75
458.377	101.75
458.598	81.75
458.818	92.75
459.038	89.75
459.258	99.75
459.478	106.75
459.698	83.75
459.918	89.75
460.138	98.75
460.358	96.75
460.578	91.75
460.798	83.75
461.018	103.75
461.238	101.75
461.458	98.75
461.678	91.75
461.898	106.75
462.118	97.75
462.338	101.75
462.558	104.75
462.777	104.75
462.997	103.75
463.217	107.75
463.437	151.75
463.657	193.75
463.876	193.75
464.096	125.75
464.316	105.75
464.536	100.75
464.755	94.75
464.975	93.75
465.195	99.75
465.414	90.75
465.634	85.75
465.854	87.75
466.073	98.75
466.293	105.75
466.512	97.75
466.732	105.75
466.951	131.75
467.171	140.75
467.391	145.75
467.61	113.75
467.829	88.75
468.049	90.75
468.268	106.75
468.488	99.75
468.707	107.75
468.927	94.75
469.146	95.75
469.365	91.75
469.585	100.75
469.804	87.75
470.023	97.75
470.243	100.75
470.462	108.75
470.681	117.75
470.901	139.75
471.12	187.75
471.339	216.75
471.558	141.75
471.777	96.75
471.997	101.75
472.216	95.75
472.435	94.75
472.654	87.75
472.873	120.75
473.092	93.75
473.311	89.75
473.53	91.75
473.749	96.75
473.968	106.75
474.187	102.75
474.406	89.75
474.625	101.75
474.844	89.75
475.063	98.75
475.282	106.75
475.501	90.75
475.72	96.75
475.939	105.75
476.158	101.75
476.377	106.75
476.596	111.75
476.814	101.75
477.033	104.75
477.252	109.75
477.471	107.75
477.69	88.75
477.908	104.75
478.127	109.75
478.346	83.75
478.564	97.75
478.783	93.75
479.002	89.75
479.22	88.75
479.439	102.75
479.658	102.75
479.876	103.75
480.095	98.75
480.313	88.75
480.532	105.75
480.751	95.75
480.969	84.75
481.188	93.75
481.406	105.75
481.624	102.75
481.843	118.75
482.061	117.75
482.28	96.75
482.498	99.75
482.717	100.75
482.935	95.75
483.153	97.75
483.372	100.75
483.59	94.75
483.808	120.75
484.027	104.75
484.245	139.75
484.463	180.75
484.681	243.75
484.9	152.75
485.118	97.75
485.336	113.75
485.554	117.75
485.772	138.75
485.99	202.75
486.209	253.75
486.427	158.75
486.645	121.75
486.863	105.75
487.081	105.75
487.299	95.75
487.517	105.75
487.735	105.75
487.953	94.75
488.171	98.75
488.389	95.75
488.607	90.75
488.825	100.75
489.043	107.75
489.261	90.75
489.479	93.75
489.696	91.75
489.914	104.75
490.132	95.75
490.35	109.75
490.568	107.75
490.786	100.75
491.003	101.75
491.221	129.75
491.439	118.75
491.657	101.75
491.874	106.75
492.092	114.75
492.31	113.75
492.527	102.75
492.745	102.75
492.963	123.75
493.18	104.75
493.398	118.75
493.615	110.75
493.833	105.75
494.05	106.75
494.268	94.75
494.485	114.75
494.703	107.75
494.92	106.75
495.138	102.75
495.355	114.75
495.573	112.75
495.79	97.75
496.008	104.75
496.225	99.75
496.442	109.75
496.66	123.75
496.877	152.75
497.094	155.75
497.312	111.75
497.529	109.75
497.746	119.75
497.963	97.75
498.181	114.75
498.398	107.75
498.615	112.75
498.832	97.75
499.049	114.75
499.267	140.75
499.484	165.75
499.701	119.75
499.918	105.75
500.135	106.75
500.352	111.75
500.569	117.75
500.786	97.75
501.003	105.75
501.22	110.75
501.437	89.75
501.654	106.75
501.871	93.75
502.088	90.75
502.305	105.75
502.522	102.75
502.739	96.75
502.956	81.75
503.172	94.75
503.389	110.75
503.606	96.75
503.823	97.75
504.04	102.75
504.256	94.75
504.473	86.75
504.69	105.75
504.907	126.75
505.123	116.75
505.34	107.75
505.557	98.75
505.773	109.75
505.99	106.75
506.207	97.75
506.423	112.75
506.64	105.75
506.856	108.75
507.073	102.75
