Data from SnStandardFlinnAPT0064_LampEnergy5.5_LIBS07252019.E.O._I.C._HRD10591_15-16-23-491.txt Node
Date: Thu Jul 25 15:16:23 EDT 2019
User: cochatt
Spectrometer: HR+D1059
Trigger mode: 1
Integration Time (sec): 1.000000E-1
Scans to average: 1
Electric dark correction enabled: true
Nonlinearity correction enabled: false
Boxcar width: 0
XAxis mode: Wavelengths
Number of Pixels in Spectrum: 2048
>>>>>Begin Spectral Data<<<<<
223.165	-12.69
223.4	-12.69
223.635	-12.69
223.869	-11.69
224.104	-24.69
224.338	4.31
224.573	-13.69
224.808	-17.69
225.042	-3.69
225.277	5.31
225.511	-17.69
225.746	2.31
225.98	5.31
226.215	3.31
226.449	19.31
226.683	14.31
226.918	7.31
227.152	40.31
227.387	22.31
227.621	25.31
227.856	52.31
228.09	34.31
228.324	60.31
228.559	47.31
228.793	89.31
229.027	155.31
229.262	155.31
229.496	153.31
229.73	162.31
229.964	166.31
230.199	148.31
230.433	166.31
230.667	164.31
230.901	155.31
231.136	172.31
231.37	177.31
231.604	192.31
231.838	204.31
232.072	219.31
232.306	242.31
232.541	224.31
232.775	196.31
233.009	186.31
233.243	209.31
233.477	215.31
233.711	252.31
233.945	247.31
234.179	218.31
234.413	221.31
234.647	208.31
234.881	216.31
235.115	249.31
235.349	258.31
235.583	318.31
235.817	392.31
236.051	400.31
236.285	293.31
236.519	258.31
236.753	235.31
236.987	223.31
237.221	242.31
237.455	229.31
237.689	220.31
237.922	227.31
238.156	222.31
238.39	218.31
238.624	226.31
238.858	246.31
239.091	232.31
239.325	243.31
239.559	232.31
239.793	229.31
240.027	254.31
240.26	243.31
240.494	251.31
240.728	280.31
240.961	282.31
241.195	275.31
241.429	291.31
241.662	280.31
241.896	318.31
242.13	405.31
242.363	481.31
242.597	605.31
242.83	586.31
243.064	577.31
243.298	708.31
243.531	583.31
243.765	398.31
243.998	324.31
244.232	298.31
244.465	295.31
244.699	288.31
244.932	278.31
245.166	291.31
245.399	284.31
245.633	295.31
245.866	295.31
246.099	308.31
246.333	284.31
246.566	282.31
246.8	292.31
247.033	279.31
247.266	285.31
247.5	298.31
247.733	308.31
247.966	320.31
248.2	313.31
248.433	358.31
248.666	392.31
248.899	396.31
249.133	359.31
249.366	366.31
249.599	396.31
249.832	437.31
250.066	428.31
250.299	345.31
250.532	339.31
250.765	338.31
250.998	328.31
251.231	322.31
251.465	311.31
251.698	326.31
251.931	326.31
252.164	333.31
252.397	328.31
252.63	350.31
252.863	328.31
253.096	334.31
253.329	333.31
253.562	337.31
253.795	352.31
254.028	356.31
254.261	374.31
254.494	392.31
254.727	420.31
254.96	509.31
255.193	488.31
255.426	423.31
255.659	383.31
255.892	369.31
256.124	372.31
256.357	382.31
256.59	389.31
256.823	394.31
257.056	467.31
257.289	517.31
257.521	555.31
257.754	461.31
257.987	402.31
258.22	387.31
258.452	395.31
258.685	400.31
258.918	420.31
259.151	413.31
259.383	460.31
259.616	491.31
259.849	487.31
260.081	455.31
260.314	425.31
260.547	418.31
260.779	415.31
261.012	405.31
261.244	426.31
261.477	421.31
261.71	430.31
261.942	436.31
262.175	438.31
262.407	454.31
262.64	466.31
262.872	480.31
263.105	499.31
263.337	538.31
263.57	539.31
263.802	543.31
264.035	568.31
264.267	558.31
264.499	607.31
264.732	603.31
264.964	641.31
265.197	638.31
265.429	622.31
265.661	634.31
265.894	630.31
266.126	710.31
266.358	804.31
266.591	780.31
266.823	672.31
267.055	625.31
267.287	591.31
267.52	555.31
267.752	535.31
267.984	574.31
268.216	555.31
268.448	546.31
268.681	528.31
268.913	539.31
269.145	549.31
269.377	536.31
269.609	529.31
269.841	538.31
270.073	583.31
270.306	690.31
270.538	830.31
270.77	1221.31
271.002	1451.31
271.234	1074.31
271.466	747.31
271.698	600.31
271.93	562.31
272.162	551.31
272.394	538.31
272.626	530.31
272.858	532.31
273.09	534.31
273.322	529.31
273.553	500.31
273.785	497.31
274.017	531.31
274.249	532.31
274.481	539.31
274.713	521.31
274.945	499.31
275.176	529.31
275.408	500.31
275.64	543.31
275.872	535.31
276.104	510.31
276.335	522.31
276.567	538.31
276.799	532.31
277.031	521.31
277.262	530.31
277.494	589.31
277.726	660.31
277.957	704.31
278.189	786.31
278.421	734.31
278.652	674.31
278.884	651.31
279.115	596.31
279.347	594.31
279.579	567.31
279.81	594.31
280.042	585.31
280.273	569.31
280.505	588.31
280.736	611.31
280.968	629.31
281.199	691.31
281.431	787.31
281.662	777.31
281.894	683.31
282.125	672.31
282.356	661.31
282.588	676.31
282.819	707.31
283.051	718.31
283.282	794.31
283.513	952.31
283.745	1358.31
283.976	2124.31
284.207	2986.31
284.439	2641.31
284.67	1610.31
284.901	1327.31
285.132	1340.31
285.364	1240.31
285.595	1018.31
285.826	918.31
286.057	1102.31
286.288	1442.31
286.52	1894.31
286.751	1734.31
286.982	1108.31
287.213	884.31
287.444	760.31
287.675	752.31
287.906	728.31
288.138	713.31
288.369	676.31
288.6	703.31
288.831	694.31
289.062	691.31
289.293	688.31
289.524	689.31
289.755	693.31
289.986	703.31
290.217	685.31
290.448	737.31
290.679	692.31
290.91	700.31
291.141	751.31
291.371	774.31
291.602	769.31
291.833	746.31
292.064	702.31
292.295	682.31
292.526	676.31
292.757	660.31
292.987	646.31
293.218	637.31
293.449	641.31
293.68	643.31
293.91	665.31
294.141	672.31
294.372	657.31
294.603	653.31
294.833	646.31
295.064	633.31
295.295	657.31
295.525	651.31
295.756	644.31
295.987	655.31
296.217	644.31
296.448	684.31
296.679	658.31
296.909	652.31
297.14	653.31
297.37	673.31
297.601	680.31
297.831	660.31
298.062	683.31
298.292	673.31
298.523	711.31
298.753	705.31
298.984	697.31
299.214	702.31
299.445	686.31
299.675	721.31
299.905	753.31
300.136	766.31
300.366	840.31
300.597	1072.31
300.827	1408.31
301.057	1912.31
301.288	1874.31
301.518	1248.31
301.748	1006.31
301.979	889.31
302.209	879.31
302.439	907.31
302.669	914.31
302.9	1093.31
303.13	1528.31
303.36	2192.31
303.59	2883.31
303.82	2510.31
304.051	1526.31
304.281	1098.31
304.511	935.31
304.741	882.31
304.971	852.31
305.201	831.31
305.431	806.31
305.661	800.31
305.891	747.31
306.121	737.31
306.352	777.31
306.582	737.31
306.812	760.31
307.042	756.31
307.272	765.31
307.502	742.31
307.731	743.31
307.961	756.31
308.191	739.31
308.421	766.31
308.651	778.31
308.881	726.31
309.111	739.31
309.341	740.31
309.571	770.31
309.8	756.31
310.03	755.31
310.26	768.31
310.49	759.31
310.72	785.31
310.949	778.31
311.179	814.31
311.409	794.31
311.639	783.31
311.868	807.31
312.098	777.31
312.328	789.31
312.557	793.31
312.787	792.31
313.017	794.31
313.246	823.31
313.476	842.31
313.706	839.31
313.935	890.31
314.165	914.31
314.394	927.31
314.624	918.31
314.853	864.31
315.083	886.31
315.312	875.31
315.542	869.31
315.771	891.31
316.001	906.31
316.23	920.31
316.46	962.31
316.689	1034.31
316.919	1252.31
317.148	1751.31
317.377	2620.31
317.607	3910.31
317.836	3944.31
318.065	2346.31
318.295	1552.31
318.524	1252.31
318.753	1099.31
318.983	1040.31
319.212	1017.31
319.441	976.31
319.67	973.31
319.9	972.31
320.129	964.31
320.358	962.31
320.587	937.31
320.816	938.31
321.046	929.31
321.275	956.31
321.504	966.31
321.733	977.31
321.962	986.31
322.191	1011.31
322.42	983.31
322.649	1008.31
322.878	995.31
323.108	1002.31
323.337	1048.31
323.566	1051.31
323.795	1067.31
324.024	1066.31
324.253	1073.31
324.482	1088.31
324.71	1166.31
324.939	1204.31
325.168	1234.31
325.397	1281.31
325.626	1497.31
325.855	2044.31
326.084	3123.31
326.313	4648.31
326.542	4929.31
326.77	3179.31
326.999	2127.31
327.228	1787.31
327.457	1705.31
327.686	1715.31
327.914	1820.31
328.143	2108.31
328.372	2373.31
328.6	2596.31
328.829	2428.31
329.058	2104.31
329.287	1928.31
329.515	1756.31
329.744	1654.31
329.972	1562.31
330.201	1493.31
330.43	1412.31
330.658	1389.31
330.887	1384.31
331.115	1349.31
331.344	1395.31
331.572	1374.31
331.801	1349.31
332.03	1353.31
332.258	1377.31
332.486	1474.31
332.715	1604.31
332.943	1933.31
333.172	2387.31
333.4	2290.31
333.629	1834.31
333.857	1705.31
334.085	1749.31
334.314	1825.31
334.542	1930.31
334.771	2184.31
334.999	2596.31
335.227	3078.31
335.455	3402.31
335.684	3210.31
335.912	2778.31
336.14	2409.31
336.369	2172.31
336.597	1995.31
336.825	1823.31
337.053	1727.31
337.281	1638.31
337.51	1546.31
337.738	1494.31
337.966	1463.31
338.194	1411.31
338.422	1361.31
338.65	1347.31
338.878	1328.31
339.106	1304.31
339.334	1310.31
339.562	1266.31
339.79	1247.31
340.018	1224.31
340.246	1220.31
340.474	1223.31
340.702	1234.31
340.93	1232.31
341.158	1211.31
341.386	1206.31
341.614	1202.31
341.842	1177.31
342.07	1165.31
342.298	1142.31
342.526	1148.31
342.754	1127.31
342.981	1111.31
343.209	1114.31
343.437	1130.31
343.665	1142.31
343.893	1158.31
344.12	1183.31
344.348	1158.31
344.576	1110.31
344.804	1141.31
345.031	1085.31
345.259	1065.31
345.487	1044.31
345.714	1039.31
345.942	1045.31
346.17	1042.31
346.397	1044.31
346.625	1027.31
346.853	1030.31
347.08	1039.31
347.308	1042.31
347.535	1016.31
347.763	1036.31
347.99	1030.31
348.218	1009.31
348.445	1002.31
348.673	1003.31
348.9	1013.31
349.128	1040.31
349.355	1026.31
349.583	1010.31
349.81	995.31
350.037	979.31
350.265	964.31
350.492	1002.31
350.72	970.31
350.947	982.31
351.174	1001.31
351.402	997.31
351.629	993.31
351.856	973.31
352.083	1017.31
352.311	989.31
352.538	987.31
352.765	1012.31
352.992	1002.31
353.22	975.31
353.447	976.31
353.674	986.31
353.901	980.31
354.128	981.31
354.355	958.31
354.583	978.31
354.81	991.31
355.037	1004.31
355.264	977.31
355.491	999.31
355.718	984.31
355.945	1026.31
356.172	1029.31
356.399	1033.31
356.626	1027.31
356.853	1017.31
357.08	1033.31
357.307	1046.31
357.534	1031.31
357.761	1030.31
357.988	1036.31
358.215	1034.31
358.441	1043.31
358.668	1025.31
358.895	1022.31
359.122	1030.31
359.349	1046.31
359.576	1037.31
359.802	1046.31
360.029	1072.31
360.256	1024.31
360.483	1043.31
360.709	1037.31
360.936	1045.31
361.163	1076.31
361.39	1037.31
361.616	1044.31
361.843	1059.31
362.07	1072.31
362.296	1056.31
362.523	1065.31
362.749	1060.31
362.976	1044.31
363.203	1046.31
363.429	1011.31
363.656	1050.31
363.882	1075.31
364.109	1046.31
364.335	1024.31
364.562	1042.31
364.788	1060.31
365.015	1056.31
365.241	1081.31
365.468	1111.31
365.694	1123.31
365.92	1131.31
366.147	1073.31
366.373	1056.31
366.599	1062.31
366.826	1089.31
367.052	1064.31
367.278	1079.31
367.505	1072.31
367.731	1110.31
367.957	1083.31
368.184	1100.31
368.41	1076.31
368.636	1093.31
368.862	1096.31
369.089	1071.31
369.315	1090.31
369.541	1102.31
369.767	1088.31
369.993	1073.31
370.219	1072.31
370.445	1084.31
370.672	1128.31
370.898	1073.31
371.124	1128.31
371.35	1129.31
371.576	1126.31
371.802	1134.31
372.028	1135.31
372.254	1150.31
372.48	1142.31
372.706	1143.31
372.932	1165.31
373.158	1137.31
373.384	1150.31
373.61	1168.31
373.835	1173.31
374.061	1179.31
374.287	1199.31
374.513	1171.31
374.739	1217.31
374.965	1193.31
375.191	1168.31
375.416	1179.31
375.642	1192.31
375.868	1181.31
376.094	1152.31
376.319	1173.31
376.545	1169.31
376.771	1138.31
376.997	1148.31
377.222	1107.31
377.448	1156.31
377.674	1130.31
377.899	1126.31
378.125	1135.31
378.35	1148.31
378.576	1106.31
378.802	1148.31
379.027	1172.31
379.253	1192.31
379.478	1232.31
379.704	1424.31
379.929	1902.31
380.155	2825.31
380.38	2974.31
380.606	1912.31
380.831	1432.31
381.057	1310.31
381.282	1185.31
381.507	1168.31
381.733	1156.31
381.958	1146.31
382.184	1138.31
382.409	1117.31
382.634	1135.31
382.86	1116.31
383.085	1122.31
383.31	1111.31
383.535	1126.31
383.761	1121.31
383.986	1117.31
384.211	1140.31
384.436	1161.31
384.662	1156.31
384.887	1135.31
385.112	1152.31
385.337	1144.31
385.562	1156.31
385.787	1170.31
386.013	1167.31
386.238	1182.31
386.463	1144.31
386.688	1142.31
386.913	1182.31
387.138	1142.31
387.363	1152.31
387.588	1164.31
387.813	1164.31
388.038	1172.31
388.263	1167.31
388.488	1152.31
388.713	1169.31
388.938	1162.31
389.163	1156.31
389.387	1134.31
389.612	1152.31
389.837	1184.31
390.062	1165.31
390.287	1180.31
390.512	1185.31
390.736	1169.31
390.961	1208.31
391.186	1204.31
391.411	1179.31
391.636	1209.31
391.86	1233.31
392.085	1237.31
392.31	1192.31
392.534	1190.31
392.759	1187.31
392.984	1181.31
393.208	1203.31
393.433	1216.31
393.658	1187.31
393.882	1162.31
394.107	1164.31
394.331	1166.31
394.556	1190.31
394.78	1180.31
395.005	1181.31
395.229	1195.31
395.454	1178.31
395.678	1158.31
395.903	1214.31
396.127	1208.31
396.352	1180.31
396.576	1204.31
396.801	1215.31
397.025	1256.31
397.249	1204.31
397.474	1201.31
397.698	1247.31
397.922	1215.31
398.147	1179.31
398.371	1249.31
398.595	1264.31
398.82	1275.31
399.044	1343.31
399.268	1415.31
399.492	1490.31
399.717	1507.31
399.941	1522.31
400.165	1472.31
400.389	1431.31
400.613	1383.31
400.837	1319.31
401.062	1314.31
401.286	1306.31
401.51	1288.31
401.734	1281.31
401.958	1274.31
402.182	1286.31
402.406	1304.31
402.63	1306.31
402.854	1303.31
403.078	1299.31
403.302	1339.31
403.526	1308.31
403.75	1302.31
403.974	1370.31
404.198	1319.31
404.422	1328.31
404.645	1318.31
404.869	1311.31
405.093	1338.31
405.317	1310.31
405.541	1365.31
405.765	1332.31
405.988	1374.31
406.212	1379.31
406.436	1342.31
406.66	1359.31
406.883	1332.31
407.107	1387.31
407.331	1454.31
407.555	1460.31
407.778	1418.31
408.002	1418.31
408.226	1382.31
408.449	1404.31
408.673	1370.31
408.896	1361.31
409.12	1335.31
409.344	1319.31
409.567	1322.31
409.791	1335.31
410.014	1292.31
410.238	1336.31
410.461	1357.31
410.685	1311.31
410.908	1314.31
411.132	1300.31
411.355	1257.31
411.578	1290.31
411.802	1276.31
412.025	1283.31
412.249	1286.31
412.472	1249.31
412.695	1268.31
412.919	1252.31
413.142	1266.31
413.365	1284.31
413.589	1246.31
413.812	1248.31
414.035	1241.31
414.258	1222.31
414.482	1255.31
414.705	1240.31
414.928	1238.31
415.151	1244.31
415.374	1234.31
415.597	1252.31
415.821	1221.31
416.044	1229.31
416.267	1221.31
416.49	1235.31
416.713	1216.31
416.936	1228.31
417.159	1220.31
417.382	1186.31
417.605	1194.31
417.828	1205.31
418.051	1253.31
418.274	1185.31
418.497	1222.31
418.72	1213.31
418.943	1195.31
419.166	1282.31
419.389	1341.31
419.611	1333.31
419.834	1268.31
420.057	1286.31
420.28	1215.31
420.503	1234.31
420.726	1195.31
420.948	1228.31
421.171	1223.31
421.394	1211.31
421.617	1202.31
421.839	1214.31
422.062	1227.31
422.285	1192.31
422.507	1249.31
422.73	1255.31
422.953	1254.31
423.175	1228.31
423.398	1229.31
423.621	1212.31
423.843	1214.31
424.066	1222.31
424.288	1225.31
424.511	1230.31
424.733	1188.31
424.956	1201.31
425.178	1217.31
425.401	1191.31
425.623	1173.31
425.846	1184.31
426.068	1183.31
426.291	1191.31
426.513	1186.31
426.735	1147.31
426.958	1159.31
427.18	1151.31
427.402	1159.31
427.625	1163.31
427.847	1158.31
428.069	1106.31
428.292	1138.31
428.514	1121.31
428.736	1144.31
428.958	1147.31
429.181	1158.31
429.403	1115.31
429.625	1088.31
429.847	1095.31
430.069	1130.31
430.292	1182.31
430.514	1176.31
430.736	1192.31
430.958	1149.31
431.18	1132.31
431.402	1144.31
431.624	1104.31
431.846	1119.31
432.068	1086.31
432.29	1103.31
432.512	1085.31
432.734	1104.31
432.956	1098.31
433.178	1142.31
433.4	1147.31
433.622	1115.31
433.844	1110.31
434.066	1106.31
434.287	1109.31
434.509	1148.31
434.731	1154.31
434.953	1137.31
435.175	1161.31
435.397	1130.31
435.618	1160.31
435.84	1099.31
436.062	1118.31
436.284	1098.31
436.505	1106.31
436.727	1114.31
436.949	1151.31
437.17	1096.31
437.392	1076.31
437.614	1061.31
437.835	1070.31
438.057	1076.31
438.278	1072.31
438.5	1090.31
438.721	1120.31
438.943	1141.31
439.165	1127.31
439.386	1145.31
439.608	1168.31
439.829	1170.31
440.05	1194.31
440.272	1206.31
440.493	1165.31
440.715	1179.31
440.936	1150.31
441.158	1171.31
441.379	1186.31
441.6	1236.31
441.822	1243.31
442.043	1287.31
442.264	1322.31
442.486	1234.31
442.707	1217.31
442.928	1213.31
443.149	1185.31
443.371	1182.31
443.592	1191.31
443.813	1204.31
444.034	1222.31
444.255	1238.31
444.476	1230.31
444.698	1287.31
444.919	1322.31
445.14	1371.31
445.361	1274.31
445.582	1204.31
445.803	1186.31
446.024	1176.31
446.245	1214.31
446.466	1153.31
446.687	1163.31
446.908	1176.31
447.129	1156.31
447.35	1138.31
447.571	1106.31
447.792	1104.31
448.013	1080.31
448.234	1122.31
448.455	1079.31
448.675	1095.31
448.896	1131.31
449.117	1157.31
449.338	1230.31
449.559	1322.31
449.779	1180.31
450	1075.31
450.221	1089.31
450.442	1100.31
450.662	1082.31
450.883	1071.31
451.104	1076.31
451.324	1079.31
451.545	1057.31
451.766	1080.31
451.986	1078.31
452.207	1134.31
452.428	1358.31
452.648	1849.31
452.869	1638.31
453.089	1234.31
453.31	1172.31
453.53	1179.31
453.751	1192.31
453.971	1227.31
454.192	1202.31
454.412	1105.31
454.633	1077.31
454.853	1052.31
455.073	1024.31
455.294	1049.31
455.514	1028.31
455.734	1004.31
455.955	1014.31
456.175	1022.31
456.395	1033.31
456.616	1036.31
456.836	1038.31
457.056	1057.31
457.276	1042.31
457.497	1071.31
457.717	1094.31
457.937	1058.31
458.157	1094.31
458.377	1079.31
458.598	1081.31
458.818	1093.31
459.038	1070.31
459.258	1092.31
459.478	1105.31
459.698	1118.31
459.918	1147.31
460.138	1165.31
460.358	1176.31
460.578	1190.31
460.798	1203.31
461.018	1216.31
461.238	1209.31
461.458	1214.31
461.678	1194.31
461.898	1240.31
462.118	1228.31
462.338	1237.31
462.558	1292.31
462.777	1315.31
462.997	1369.31
463.217	1374.31
463.437	1438.31
463.657	1426.31
463.876	1393.31
464.096	1353.31
464.316	1316.31
464.536	1282.31
464.755	1295.31
464.975	1258.31
465.195	1214.31
465.414	1192.31
465.634	1176.31
465.854	1171.31
466.073	1135.31
466.293	1125.31
466.512	1124.31
466.732	1123.31
466.951	1177.31
467.171	1236.31
467.391	1225.31
467.61	1156.31
467.829	1114.31
468.049	1103.31
468.268	1079.31
468.488	1099.31
468.707	1074.31
468.927	1093.31
469.146	1089.31
469.365	1126.31
469.585	1109.31
469.804	1136.31
470.023	1159.31
470.243	1190.31
470.462	1203.31
470.681	1250.31
470.901	1344.31
471.12	1543.31
471.339	1522.31
471.558	1282.31
471.777	1216.31
471.997	1176.31
472.216	1118.31
472.435	1127.31
472.654	1082.31
472.873	1083.31
473.092	1095.31
473.311	1081.31
473.53	1144.31
473.749	1147.31
473.968	1170.31
474.187	1127.31
474.406	1112.31
474.625	1089.31
474.844	1111.31
475.063	1098.31
475.282	1096.31
475.501	1100.31
475.72	1155.31
475.939	1148.31
476.158	1158.31
476.377	1164.31
476.596	1146.31
476.814	1173.31
477.033	1159.31
477.252	1158.31
477.471	1233.31
477.69	1219.31
477.908	1225.31
478.127	1244.31
478.346	1251.31
478.564	1311.31
478.783	1268.31
479.002	1322.31
479.22	1323.31
479.439	1329.31
479.658	1301.31
479.876	1301.31
480.095	1334.31
480.313	1358.31
480.532	1351.31
480.751	1374.31
480.969	1293.31
481.188	1287.31
481.406	1296.31
481.624	1298.31
481.843	1277.31
482.061	1306.31
482.28	1282.31
482.498	1310.31
482.717	1290.31
482.935	1343.31
483.153	1325.31
483.372	1359.31
483.59	1382.31
483.808	1390.31
484.027	1406.31
484.245	1466.31
484.463	1627.31
484.681	1786.31
484.9	1643.31
485.118	1594.31
485.336	1529.31
485.554	1530.31
485.772	1630.31
485.99	1831.31
486.209	1978.31
486.427	1656.31
486.645	1505.31
486.863	1467.31
487.081	1419.31
487.299	1415.31
487.517	1402.31
487.735	1392.31
487.953	1440.31
488.171	1404.31
488.389	1397.31
488.607	1398.31
488.825	1373.31
489.043	1361.31
489.261	1374.31
489.479	1351.31
489.696	1369.31
489.914	1377.31
490.132	1385.31
490.35	1403.31
490.568	1387.31
490.786	1422.31
491.003	1412.31
491.221	1444.31
