Data from SnStandardFlinnAPT0064_LampEnergy10_LIBS07252019.E.O._I.C._HRD10591_15-21-57-494.txt Node
Date: Thu Jul 25 15:21:57 EDT 2019
User: cochatt
Spectrometer: HR+D1059
Trigger mode: 1
Integration Time (sec): 1.000000E-1
Scans to average: 1
Electric dark correction enabled: true
Nonlinearity correction enabled: false
Boxcar width: 0
XAxis mode: Wavelengths
Number of Pixels in Spectrum: 2048
>>>>>Begin Spectral Data<<<<<
223.165	-13.44
223.4	-13.44
223.635	-13.44
223.869	-16.44
224.104	-25.44
224.338	-17.44
224.573	-5.44
224.808	-15.44
225.042	-19.44
225.277	-10.44
225.511	3.56
225.746	-1.44
225.98	27.56
226.215	16.56
226.449	8.56
226.683	13.56
226.918	29.56
227.152	25.56
227.387	13.56
227.621	33.56
227.856	36.56
228.09	28.56
228.324	62.56
228.559	65.56
228.793	119.56
229.027	275.56
229.262	326.56
229.496	302.56
229.73	276.56
229.964	287.56
230.199	285.56
230.433	290.56
230.667	300.56
230.901	311.56
231.136	306.56
231.37	359.56
231.604	358.56
231.838	437.56
232.072	505.56
232.306	541.56
232.541	455.56
232.775	407.56
233.009	406.56
233.243	422.56
233.477	423.56
233.711	499.56
233.945	598.56
234.179	492.56
234.413	456.56
234.647	444.56
234.881	451.56
235.115	506.56
235.349	614.56
235.583	749.56
235.817	1015.56
236.051	989.56
236.285	642.56
236.519	525.56
236.753	509.56
236.987	488.56
237.221	529.56
237.455	514.56
237.689	448.56
237.922	447.56
238.156	463.56
238.39	451.56
238.624	486.56
238.858	487.56
239.091	453.56
239.325	460.56
239.559	481.56
239.793	506.56
240.027	529.56
240.26	535.56
240.494	549.56
240.728	573.56
240.961	599.56
241.195	649.56
241.429	696.56
241.662	699.56
241.896	783.56
242.13	955.56
242.363	1232.56
242.597	1638.56
242.83	1551.56
243.064	1508.56
243.298	1756.56
243.531	1462.56
243.765	934.56
243.998	772.56
244.232	665.56
244.465	667.56
244.699	625.56
244.932	641.56
245.166	653.56
245.399	655.56
245.633	666.56
245.866	669.56
246.099	638.56
246.333	645.56
246.566	649.56
246.8	623.56
247.033	626.56
247.266	635.56
247.5	629.56
247.733	663.56
247.966	677.56
248.2	760.56
248.433	877.56
248.666	989.56
248.899	936.56
249.133	854.56
249.366	856.56
249.599	942.56
249.832	1052.56
250.066	1047.56
250.299	861.56
250.532	757.56
250.765	737.56
250.998	758.56
251.231	705.56
251.465	731.56
251.698	742.56
251.931	733.56
252.164	728.56
252.397	717.56
252.63	760.56
252.863	775.56
253.096	789.56
253.329	759.56
253.562	769.56
253.795	759.56
254.028	767.56
254.261	797.56
254.494	863.56
254.727	995.56
254.96	1229.56
255.193	1215.56
255.426	964.56
255.659	856.56
255.892	845.56
256.124	838.56
256.357	833.56
256.59	892.56
256.823	964.56
257.056	1092.56
257.289	1307.56
257.521	1465.56
257.754	1171.56
257.987	967.56
258.22	917.56
258.452	908.56
258.685	893.56
258.918	912.56
259.151	963.56
259.383	1079.56
259.616	1191.56
259.849	1270.56
260.081	1095.56
260.314	978.56
260.547	925.56
260.779	913.56
261.012	915.56
261.244	962.56
261.477	968.56
261.71	972.56
261.942	975.56
262.175	999.56
262.407	1011.56
262.64	1041.56
262.872	1078.56
263.105	1138.56
263.337	1201.56
263.57	1259.56
263.802	1301.56
264.035	1341.56
264.267	1328.56
264.499	1352.56
264.732	1402.56
264.964	1421.56
265.197	1434.56
265.429	1443.56
265.661	1469.56
265.894	1555.56
266.126	1738.56
266.358	1953.56
266.591	1876.56
266.823	1579.56
267.055	1463.56
267.287	1376.56
267.52	1303.56
267.752	1302.56
267.984	1267.56
268.216	1242.56
268.448	1258.56
268.681	1238.56
268.913	1230.56
269.145	1206.56
269.377	1242.56
269.609	1205.56
269.841	1256.56
270.073	1334.56
270.306	1566.56
270.538	2129.56
270.77	3218.56
271.002	3943.56
271.234	2771.56
271.466	1847.56
271.698	1480.56
271.93	1371.56
272.162	1299.56
272.394	1235.56
272.626	1189.56
272.858	1208.56
273.09	1225.56
273.322	1186.56
273.553	1203.56
273.785	1164.56
274.017	1155.56
274.249	1145.56
274.481	1193.56
274.713	1187.56
274.945	1204.56
275.176	1231.56
275.408	1209.56
275.64	1186.56
275.872	1210.56
276.104	1242.56
276.335	1217.56
276.567	1242.56
276.799	1237.56
277.031	1310.56
277.262	1293.56
277.494	1389.56
277.726	1549.56
277.957	1830.56
278.189	2054.56
278.421	1960.56
278.652	1747.56
278.884	1682.56
279.115	1467.56
279.347	1376.56
279.579	1371.56
279.81	1369.56
280.042	1377.56
280.273	1434.56
280.505	1419.56
280.736	1480.56
280.968	1570.56
281.199	1738.56
281.431	2050.56
281.662	2057.56
281.894	1736.56
282.125	1591.56
282.356	1627.56
282.588	1622.56
282.819	1680.56
283.051	1796.56
283.282	1964.56
283.513	2437.56
283.745	3593.56
283.976	5712.56
284.207	8022.56
284.439	7254.56
284.67	4403.56
284.901	3593.56
285.132	3712.56
285.364	3576.56
285.595	2672.56
285.826	2364.56
286.057	2837.56
286.288	3899.56
286.52	5144.56
286.751	4799.56
286.982	2987.56
287.213	2243.56
287.444	1966.56
287.675	1825.56
287.906	1735.56
288.138	1713.56
288.369	1678.56
288.6	1666.56
288.831	1639.56
289.062	1663.56
289.293	1689.56
289.524	1639.56
289.755	1681.56
289.986	1692.56
290.217	1715.56
290.448	1687.56
290.679	1721.56
290.91	1765.56
291.141	1846.56
291.371	2039.56
291.602	2079.56
291.833	1916.56
292.064	1712.56
292.295	1631.56
292.526	1627.56
292.757	1588.56
292.987	1555.56
293.218	1575.56
293.449	1571.56
293.68	1549.56
293.91	1573.56
294.141	1562.56
294.372	1515.56
294.603	1571.56
294.833	1528.56
295.064	1539.56
295.295	1543.56
295.525	1493.56
295.756	1541.56
295.987	1495.56
296.217	1545.56
296.448	1520.56
296.679	1566.56
296.909	1590.56
297.14	1594.56
297.37	1600.56
297.601	1608.56
297.831	1593.56
298.062	1612.56
298.292	1647.56
298.523	1647.56
298.753	1652.56
298.984	1672.56
299.214	1716.56
299.445	1731.56
299.675	1731.56
299.905	1806.56
300.136	1885.56
300.366	2135.56
300.597	2693.56
300.827	3847.56
301.057	5269.56
301.288	5196.56
301.518	3315.56
301.748	2507.56
301.979	2321.56
302.209	2212.56
302.439	2266.56
302.669	2375.56
302.9	2909.56
303.13	4173.56
303.36	6191.56
303.59	8329.56
303.82	7051.56
304.051	4191.56
304.281	2952.56
304.511	2495.56
304.741	2227.56
304.971	2117.56
305.201	2024.56
305.431	1954.56
305.661	1956.56
305.891	1872.56
306.121	1878.56
306.352	1801.56
306.582	1771.56
306.812	1784.56
307.042	1791.56
307.272	1839.56
307.502	1803.56
307.731	1799.56
307.961	1780.56
308.191	1793.56
308.421	1807.56
308.651	1771.56
308.881	1747.56
309.111	1765.56
309.341	1812.56
309.571	1819.56
309.8	1801.56
310.03	1793.56
310.26	1856.56
310.49	1813.56
310.72	1875.56
310.949	1870.56
311.179	1876.56
311.409	1884.56
311.639	1925.56
311.868	1904.56
312.098	1895.56
312.328	1911.56
312.557	1937.56
312.787	1934.56
313.017	1935.56
313.246	1968.56
313.476	1983.56
313.706	2067.56
313.935	2163.56
314.165	2334.56
314.394	2449.56
314.624	2312.56
314.853	2136.56
315.083	2083.56
315.312	2144.56
315.542	2155.56
315.771	2175.56
316.001	2216.56
316.23	2266.56
316.46	2385.56
316.689	2649.56
316.919	3200.56
317.148	4583.56
317.377	7078.56
317.607	10454.56
317.836	10821.56
318.065	6407.56
318.295	4157.56
318.524	3368.56
318.753	2897.56
318.983	2692.56
319.212	2517.56
319.441	2453.56
319.67	2390.56
319.9	2347.56
320.129	2338.56
320.358	2303.56
320.587	2262.56
320.816	2323.56
321.046	2330.56
321.275	2320.56
321.504	2339.56
321.733	2411.56
321.962	2427.56
322.191	2494.56
322.42	2475.56
322.649	2488.56
322.878	2431.56
323.108	2451.56
323.337	2499.56
323.566	2558.56
323.795	2567.56
324.024	2600.56
324.253	2653.56
324.482	2789.56
324.71	2956.56
324.939	3174.56
325.168	3243.56
325.397	3317.56
325.626	3995.56
325.855	5572.56
326.084	8785.56
326.313	12763.56
326.542	13449.56
326.77	8944.56
326.999	5798.56
327.228	4925.56
327.457	4647.56
327.686	4738.56
327.914	5067.56
328.143	5975.56
328.372	7095.56
328.6	7733.56
328.829	6896.56
329.058	5734.56
329.287	4933.56
329.515	4511.56
329.744	4173.56
329.972	3996.56
330.201	3840.56
330.43	3705.56
330.658	3578.56
330.887	3493.56
331.115	3484.56
331.344	3436.56
331.572	3393.56
331.801	3433.56
332.03	3472.56
332.258	3525.56
332.486	3759.56
332.715	4252.56
332.943	5361.56
333.172	6614.56
333.4	6453.56
333.629	4941.56
333.857	4443.56
334.085	4414.56
334.314	4641.56
334.542	5107.56
334.771	5964.56
334.999	7358.56
335.227	9245.56
335.455	10429.56
335.684	9310.56
335.912	7564.56
336.14	6357.56
336.369	5595.56
336.597	5167.56
336.825	4716.56
337.053	4405.56
337.281	4199.56
337.51	3994.56
337.738	3798.56
337.966	3670.56
338.194	3542.56
338.422	3400.56
338.65	3371.56
338.878	3303.56
339.106	3177.56
339.334	3211.56
339.562	3118.56
339.79	3071.56
340.018	3076.56
340.246	3035.56
340.474	2959.56
340.702	3024.56
340.93	3006.56
341.158	2999.56
341.386	2991.56
341.614	2945.56
341.842	2936.56
342.07	2815.56
342.298	2763.56
342.526	2783.56
342.754	2767.56
342.981	2682.56
343.209	2678.56
343.437	2768.56
343.665	2760.56
343.893	2783.56
344.12	2778.56
344.348	2708.56
344.576	2726.56
344.804	2685.56
345.031	2584.56
345.259	2619.56
345.487	2576.56
345.714	2564.56
345.942	2509.56
346.17	2543.56
346.397	2510.56
346.625	2538.56
346.853	2471.56
347.08	2523.56
347.308	2514.56
347.535	2493.56
347.763	2484.56
347.99	2469.56
348.218	2466.56
348.445	2417.56
348.673	2439.56
348.9	2433.56
349.128	2446.56
349.355	2416.56
349.583	2431.56
349.81	2398.56
350.037	2415.56
350.265	2395.56
350.492	2360.56
350.72	2369.56
350.947	2393.56
351.174	2395.56
351.402	2384.56
351.629	2395.56
351.856	2384.56
352.083	2373.56
352.311	2412.56
352.538	2352.56
352.765	2365.56
352.992	2330.56
353.22	2311.56
353.447	2336.56
353.674	2368.56
353.901	2343.56
354.128	2354.56
354.355	2370.56
354.583	2351.56
354.81	2368.56
355.037	2389.56
355.264	2415.56
355.491	2400.56
355.718	2404.56
355.945	2425.56
356.172	2408.56
356.399	2462.56
356.626	2519.56
356.853	2480.56
357.08	2469.56
357.307	2504.56
357.534	2536.56
357.761	2532.56
357.988	2538.56
358.215	2582.56
358.441	2585.56
358.668	2501.56
358.895	2505.56
359.122	2465.56
359.349	2520.56
359.576	2532.56
359.802	2507.56
360.029	2511.56
360.256	2479.56
360.483	2501.56
360.709	2530.56
360.936	2517.56
361.163	2539.56
361.39	2498.56
361.616	2492.56
361.843	2593.56
362.07	2605.56
362.296	2526.56
362.523	2536.56
362.749	2536.56
362.976	2518.56
363.203	2502.56
363.429	2491.56
363.656	2525.56
363.882	2553.56
364.109	2522.56
364.335	2496.56
364.562	2514.56
364.788	2528.56
365.015	2595.56
365.241	2587.56
365.468	2766.56
365.694	2889.56
365.92	2821.56
366.147	2619.56
366.373	2607.56
366.599	2555.56
366.826	2589.56
367.052	2580.56
367.278	2611.56
367.505	2629.56
367.731	2583.56
367.957	2594.56
368.184	2630.56
368.41	2600.56
368.636	2619.56
368.862	2637.56
369.089	2600.56
369.315	2589.56
369.541	2608.56
369.767	2629.56
369.993	2589.56
370.219	2618.56
370.445	2621.56
370.672	2605.56
370.898	2647.56
371.124	2699.56
371.35	2687.56
371.576	2695.56
371.802	2663.56
372.028	2707.56
372.254	2714.56
372.48	2728.56
372.706	2814.56
372.932	2785.56
373.158	2760.56
373.384	2749.56
373.61	2752.56
373.835	2800.56
374.061	2766.56
374.287	2821.56
374.513	2789.56
374.739	2892.56
374.965	2853.56
375.191	2889.56
375.416	2926.56
375.642	2836.56
375.868	2823.56
376.094	2833.56
376.319	2754.56
376.545	2751.56
376.771	2761.56
376.997	2726.56
377.222	2722.56
377.448	2683.56
377.674	2709.56
377.899	2691.56
378.125	2718.56
378.35	2702.56
378.576	2735.56
378.802	2744.56
379.027	2778.56
379.253	2854.56
379.478	3013.56
379.704	3612.56
379.929	5168.56
380.155	8101.56
380.38	8621.56
380.606	5180.56
380.831	3657.56
381.057	3193.56
381.282	2966.56
381.507	2813.56
381.733	2785.56
381.958	2729.56
382.184	2696.56
382.409	2735.56
382.634	2677.56
382.86	2635.56
383.085	2679.56
383.31	2643.56
383.535	2714.56
383.761	2702.56
383.986	2625.56
384.211	2730.56
384.436	2707.56
384.662	2712.56
384.887	2786.56
385.112	2725.56
385.337	2721.56
385.562	2749.56
385.787	2767.56
386.013	2789.56
386.238	2774.56
386.463	2688.56
386.688	2777.56
386.913	2736.56
387.138	2743.56
387.363	2835.56
387.588	2721.56
387.813	2745.56
388.038	2779.56
388.263	2709.56
388.488	2723.56
388.713	2740.56
388.938	2725.56
389.163	2722.56
389.387	2799.56
389.612	2733.56
389.837	2708.56
390.062	2751.56
390.287	2808.56
390.512	2739.56
390.736	2853.56
390.961	2861.56
391.186	2876.56
391.411	2849.56
391.636	2933.56
391.86	2905.56
392.085	2918.56
392.31	2898.56
392.534	2836.56
392.759	2807.56
392.984	2838.56
393.208	2843.56
393.433	2883.56
393.658	2796.56
393.882	2749.56
394.107	2757.56
394.331	2763.56
394.556	2823.56
394.78	2811.56
395.005	2832.56
395.229	2759.56
395.454	2864.56
395.678	2844.56
395.903	2845.56
396.127	2854.56
396.352	2831.56
396.576	2827.56
396.801	2848.56
397.025	2882.56
397.249	2894.56
397.474	2880.56
397.698	2883.56
397.922	2906.56
398.147	2889.56
398.371	2919.56
398.595	3016.56
398.82	3084.56
399.044	3192.56
399.268	3336.56
399.492	3457.56
399.717	3615.56
399.941	3599.56
400.165	3512.56
400.389	3346.56
400.613	3203.56
400.837	3137.56
401.062	3047.56
401.286	3047.56
401.51	3017.56
401.734	3047.56
401.958	3046.56
402.182	3034.56
402.406	3024.56
402.63	3053.56
402.854	3080.56
403.078	3089.56
403.302	3097.56
403.526	3138.56
403.75	3091.56
403.974	3103.56
404.198	3092.56
404.422	3205.56
404.645	3157.56
404.869	3191.56
405.093	3160.56
405.317	3179.56
405.541	3228.56
405.765	3212.56
405.988	3298.56
406.212	3210.56
406.436	3181.56
406.66	3313.56
406.883	3259.56
407.107	3310.56
407.331	3411.56
407.555	3473.56
407.778	3423.56
408.002	3381.56
408.226	3344.56
408.449	3390.56
408.673	3319.56
408.896	3229.56
409.12	3181.56
409.344	3213.56
409.567	3091.56
409.791	3160.56
410.014	3232.56
410.238	3139.56
410.461	3113.56
410.685	3166.56
410.908	3131.56
411.132	3075.56
411.355	3046.56
411.578	3063.56
411.802	2996.56
412.025	2995.56
412.249	3047.56
412.472	3024.56
412.695	2963.56
412.919	3011.56
413.142	3007.56
413.365	3019.56
413.589	3015.56
413.812	2961.56
414.035	2935.56
414.258	2968.56
414.482	2958.56
414.705	3027.56
414.928	2981.56
415.151	2983.56
415.374	2904.56
415.597	2921.56
415.821	2872.56
416.044	2842.56
416.267	2904.56
416.49	2833.56
416.713	2848.56
416.936	2849.56
417.159	2805.56
417.382	2831.56
417.605	2817.56
417.828	2812.56
418.051	2830.56
418.274	2877.56
418.497	2851.56
418.72	2937.56
418.943	2889.56
419.166	3010.56
419.389	3198.56
419.611	3111.56
419.834	3041.56
420.057	2954.56
420.28	2906.56
420.503	2825.56
420.726	2883.56
420.948	2902.56
421.171	2886.56
421.394	2873.56
421.617	2782.56
421.839	2885.56
422.062	2900.56
422.285	2824.56
422.507	2843.56
422.73	2965.56
422.953	2924.56
423.175	2940.56
423.398	2943.56
423.621	2843.56
423.843	2879.56
424.066	2919.56
424.288	2777.56
424.511	2872.56
424.733	2829.56
424.956	2782.56
425.178	2817.56
425.401	2794.56
425.623	2781.56
425.846	2740.56
426.068	2787.56
426.291	2775.56
426.513	2705.56
426.735	2714.56
426.958	2693.56
427.18	2697.56
427.402	2704.56
427.625	2740.56
427.847	2675.56
428.069	2631.56
428.292	2681.56
428.514	2626.56
428.736	2643.56
428.958	2612.56
429.181	2613.56
429.403	2555.56
429.625	2627.56
429.847	2599.56
430.069	2731.56
430.292	2772.56
430.514	2865.56
430.736	2837.56
430.958	2658.56
431.18	2611.56
431.402	2616.56
431.624	2563.56
431.846	2555.56
432.068	2557.56
432.29	2602.56
432.512	2607.56
432.734	2646.56
432.956	2529.56
433.178	2637.56
433.4	2606.56
433.622	2617.56
433.844	2671.56
434.066	2611.56
434.287	2567.56
434.509	2697.56
434.731	2685.56
434.953	2678.56
435.175	2752.56
435.397	2695.56
435.618	2652.56
435.84	2627.56
436.062	2647.56
436.284	2661.56
436.505	2561.56
436.727	2613.56
436.949	2610.56
437.17	2588.56
437.392	2589.56
437.614	2548.56
437.835	2537.56
438.057	2514.56
438.278	2561.56
438.5	2513.56
438.721	2524.56
438.943	2615.56
439.165	2683.56
439.386	2735.56
439.608	2668.56
439.829	2755.56
440.05	2801.56
440.272	2832.56
440.493	2713.56
440.715	2687.56
440.936	2721.56
441.158	2709.56
441.379	2706.56
441.6	2801.56
441.822	2850.56
442.043	3032.56
442.264	3133.56
442.486	2985.56
442.707	2849.56
442.928	2798.56
443.149	2809.56
443.371	2800.56
443.592	2843.56
443.813	2752.56
444.034	2822.56
444.255	2915.56
444.476	2943.56
444.698	2949.56
444.919	3017.56
445.14	3103.56
445.361	2942.56
445.582	2797.56
445.803	2790.56
446.024	2776.56
446.245	2732.56
446.466	2757.56
446.687	2752.56
446.908	2761.56
447.129	2687.56
447.35	2638.56
447.571	2575.56
447.792	2612.56
448.013	2591.56
448.234	2582.56
448.455	2552.56
448.675	2582.56
448.896	2659.56
449.117	2737.56
449.338	2977.56
449.559	3089.56
449.779	2789.56
450	2592.56
450.221	2487.56
450.442	2551.56
450.662	2491.56
450.883	2489.56
451.104	2585.56
451.324	2523.56
451.545	2546.56
451.766	2525.56
451.986	2532.56
452.207	2771.56
452.428	3590.56
452.648	5511.56
452.869	4542.56
453.089	3119.56
453.31	2957.56
453.53	2949.56
453.751	2967.56
453.971	3172.56
454.192	3087.56
454.412	2660.56
454.633	2516.56
454.853	2455.56
455.073	2395.56
455.294	2435.56
455.514	2355.56
455.734	2382.56
455.955	2376.56
456.175	2401.56
456.395	2400.56
456.616	2448.56
456.836	2493.56
457.056	2486.56
457.276	2461.56
457.497	2579.56
457.717	2636.56
457.937	2542.56
458.157	2552.56
458.377	2547.56
458.598	2557.56
458.818	2568.56
459.038	2557.56
459.258	2593.56
459.478	2657.56
459.698	2633.56
459.918	2672.56
460.138	2739.56
460.358	2831.56
460.578	2803.56
460.798	2806.56
461.018	2842.56
461.238	2829.56
461.458	2860.56
461.678	2860.56
461.898	3007.56
462.118	2951.56
462.338	3015.56
462.558	3044.56
462.777	3060.56
462.997	3285.56
463.217	3348.56
463.437	3501.56
463.657	3603.56
463.876	3512.56
464.096	3305.56
464.316	3170.56
464.536	3136.56
464.755	3038.56
464.975	3021.56
465.195	2883.56
465.414	2802.56
465.634	2709.56
465.854	2729.56
466.073	2708.56
466.293	2637.56
466.512	2646.56
466.732	2639.56
466.951	2798.56
467.171	3037.56
467.391	2899.56
467.61	2677.56
467.829	2653.56
468.049	2595.56
468.268	2592.56
468.488	2537.56
468.707	2514.56
468.927	2551.56
469.146	2547.56
469.365	2609.56
469.585	2586.56
469.804	2621.56
470.023	2739.56
470.243	2726.56
470.462	2869.56
470.681	2973.56
470.901	3300.56
471.12	3755.56
471.339	3787.56
471.558	3115.56
471.777	2861.56
471.997	2673.56
472.216	2644.56
472.435	2609.56
472.654	2612.56
472.873	2590.56
473.092	2608.56
473.311	2563.56
473.53	2579.56
473.749	2652.56
473.968	2772.56
474.187	2637.56
474.406	2559.56
474.625	2573.56
474.844	2511.56
475.063	2603.56
475.282	2600.56
475.501	2617.56
475.72	2659.56
475.939	2633.56
476.158	2687.56
476.377	2717.56
476.596	2724.56
476.814	2730.56
477.033	2745.56
477.252	2739.56
477.471	2796.56
477.69	2880.56
477.908	2890.56
478.127	2924.56
478.346	2872.56
478.564	2957.56
478.783	2948.56
479.002	3040.56
479.22	3053.56
479.439	3098.56
479.658	3042.56
479.876	3055.56
480.095	3077.56
480.313	3185.56
480.532	3243.56
480.751	3196.56
480.969	3142.56
481.188	3129.56
481.406	3151.56
481.624	3181.56
481.843	3166.56
482.061	3173.56
482.28	3134.56
482.498	3131.56
482.717	3113.56
482.935	3185.56
483.153	3209.56
483.372	3287.56
483.59	3307.56
483.808	3272.56
484.027	3394.56
484.245	3585.56
484.463	4027.56
484.681	4477.56
484.9	4078.56
485.118	3771.56
485.336	3705.56
485.554	3706.56
485.772	4009.56
485.99	4587.56
486.209	4891.56
486.427	4118.56
486.645	3637.56
486.863	3519.56
487.081	3396.56
487.299	3363.56
487.517	3358.56
487.735	3337.56
