Data from SnStandardFlinnAPT0064_LampEnergy10_LIBS07252019.E.O._I.C._HRD10591_15-20-15-494.txt Node
Date: Thu Jul 25 15:20:15 EDT 2019
User: cochatt
Spectrometer: HR+D1059
Trigger mode: 1
Integration Time (sec): 1.000000E-1
Scans to average: 1
Electric dark correction enabled: true
Nonlinearity correction enabled: false
Boxcar width: 0
XAxis mode: Wavelengths
Number of Pixels in Spectrum: 2048
>>>>>Begin Spectral Data<<<<<
223.165	-10
223.4	-10
223.635	-10
223.869	-20
224.104	-23
224.338	-12
224.573	-15
224.808	-1
225.042	-10
225.277	-5
225.511	-3
225.746	-3
225.98	8
226.215	1
226.449	14
226.683	10
226.918	24
227.152	45
227.387	37
227.621	39
227.856	48
228.09	40
228.324	42
228.559	59
228.793	123
229.027	317
229.262	362
229.496	327
229.73	294
229.964	312
230.199	308
230.433	316
230.667	323
230.901	317
231.136	338
231.37	347
231.604	370
231.838	444
232.072	514
232.306	564
232.541	481
232.775	428
233.009	416
233.243	428
233.477	466
233.711	532
233.945	564
234.179	514
234.413	443
234.647	454
234.881	479
235.115	523
235.349	604
235.583	770
235.817	982
236.051	968
236.285	651
236.519	518
236.753	499
236.987	511
237.221	519
237.455	498
237.689	472
237.922	477
238.156	479
238.39	494
238.624	494
238.858	491
239.091	502
239.325	483
239.559	501
239.793	494
240.027	532
240.26	544
240.494	559
240.728	579
240.961	601
241.195	643
241.429	669
241.662	692
241.896	768
242.13	950
242.363	1222
242.597	1556
242.83	1526
243.064	1545
243.298	1786
243.531	1473
243.765	950
243.998	780
244.232	687
244.465	672
244.699	652
244.932	656
245.166	686
245.399	662
245.633	691
245.866	701
246.099	674
246.333	654
246.566	644
246.8	620
247.033	671
247.266	678
247.5	660
247.733	676
247.966	705
248.2	747
248.433	859
248.666	975
248.899	940
249.133	847
249.366	851
249.599	958
249.832	1081
250.066	1072
250.299	877
250.532	785
250.765	762
250.998	706
251.231	708
251.465	726
251.698	757
251.931	747
252.164	742
252.397	757
252.63	766
252.863	796
253.096	784
253.329	799
253.562	774
253.795	795
254.028	782
254.261	837
254.494	858
254.727	1006
254.96	1229
255.193	1198
255.426	974
255.659	860
255.892	855
256.124	847
256.357	890
256.59	914
256.823	950
257.056	1114
257.289	1330
257.521	1495
257.754	1177
257.987	978
258.22	926
258.452	887
258.685	887
258.918	940
259.151	994
259.383	1072
259.616	1210
259.849	1276
260.081	1072
260.314	996
260.547	949
260.779	931
261.012	934
261.244	959
261.477	955
261.71	980
261.942	980
262.175	988
262.407	1027
262.64	1034
262.872	1066
263.105	1091
263.337	1183
263.57	1216
263.802	1238
264.035	1282
264.267	1337
264.499	1337
264.732	1397
264.964	1385
265.197	1372
265.429	1388
265.661	1432
265.894	1528
266.126	1716
266.358	1915
266.591	1830
266.823	1590
267.055	1420
267.287	1359
267.52	1295
267.752	1277
267.984	1274
268.216	1243
268.448	1243
268.681	1224
268.913	1202
269.145	1198
269.377	1220
269.609	1222
269.841	1290
270.073	1357
270.306	1569
270.538	2086
270.77	3098
271.002	3793
271.234	2719
271.466	1873
271.698	1481
271.93	1399
272.162	1314
272.394	1286
272.626	1254
272.858	1224
273.09	1210
273.322	1184
273.553	1162
273.785	1181
274.017	1180
274.249	1189
274.481	1194
274.713	1203
274.945	1178
275.176	1190
275.408	1236
275.64	1213
275.872	1236
276.104	1278
276.335	1266
276.567	1268
276.799	1266
277.031	1303
277.262	1286
277.494	1381
277.726	1523
277.957	1826
278.189	2095
278.421	1967
278.652	1735
278.884	1661
279.115	1498
279.347	1394
279.579	1400
279.81	1419
280.042	1387
280.273	1397
280.505	1456
280.736	1467
280.968	1572
281.199	1746
281.431	2000
281.662	2076
281.894	1773
282.125	1608
282.356	1639
282.588	1662
282.819	1693
283.051	1774
283.282	1964
283.513	2466
283.745	3472
283.976	5397
284.207	7719
284.439	7082
284.67	4516
284.901	3767
285.132	3739
285.364	3482
285.595	2652
285.826	2396
286.057	2780
286.288	3824
286.52	5108
286.751	4805
286.982	3029
287.213	2336
287.444	1997
287.675	1835
287.906	1784
288.138	1685
288.369	1730
288.6	1672
288.831	1644
289.062	1673
289.293	1668
289.524	1646
289.755	1670
289.986	1674
290.217	1704
290.448	1735
290.679	1731
290.91	1748
291.141	1854
291.371	2018
291.602	2093
291.833	1949
292.064	1745
292.295	1668
292.526	1652
292.757	1650
292.987	1587
293.218	1509
293.449	1568
293.68	1591
293.91	1516
294.141	1523
294.372	1552
294.603	1555
294.833	1556
295.064	1526
295.295	1539
295.525	1538
295.756	1534
295.987	1559
296.217	1558
296.448	1555
296.679	1507
296.909	1560
297.14	1571
297.37	1613
297.601	1632
297.831	1607
298.062	1625
298.292	1620
298.523	1651
298.753	1670
298.984	1667
299.214	1714
299.445	1734
299.675	1769
299.905	1826
300.136	1930
300.366	2120
300.597	2682
300.827	3761
301.057	5075
301.288	5172
301.518	3385
301.748	2599
301.979	2332
302.209	2283
302.439	2311
302.669	2415
302.9	2919
303.13	4055
303.36	5962
303.59	8062
303.82	6999
304.051	4237
304.281	3032
304.511	2537
304.741	2337
304.971	2196
305.201	2059
305.431	1996
305.661	1938
305.891	1898
306.121	1910
306.352	1865
306.582	1846
306.812	1828
307.042	1852
307.272	1802
307.502	1809
307.731	1808
307.961	1810
308.191	1808
308.421	1763
308.651	1784
308.881	1799
309.111	1800
309.341	1777
309.571	1822
309.8	1808
310.03	1833
310.26	1804
310.49	1861
310.72	1854
310.949	1839
311.179	1861
311.409	1918
311.639	1899
311.868	1896
312.098	1906
312.328	1908
312.557	1932
312.787	1940
313.017	1925
313.246	1998
313.476	1946
313.706	2034
313.935	2213
314.165	2326
314.394	2436
314.624	2291
314.853	2146
315.083	2127
315.312	2135
315.542	2159
315.771	2166
316.001	2262
316.23	2288
316.46	2431
316.689	2625
316.919	3128
317.148	4566
317.377	6884
317.607	10052
317.836	10464
318.065	6636
318.295	4276
318.524	3398
318.753	2957
318.983	2734
319.212	2599
319.441	2514
319.67	2462
319.9	2374
320.129	2354
320.358	2319
320.587	2377
320.816	2317
321.046	2317
321.275	2347
321.504	2372
321.733	2444
321.962	2496
322.191	2503
322.42	2469
322.649	2441
322.878	2477
323.108	2419
323.337	2480
323.566	2547
323.795	2570
324.024	2663
324.253	2689
324.482	2798
324.71	2919
324.939	3134
325.168	3250
325.397	3340
325.626	3962
325.855	5541
326.084	8465
326.313	12294
326.542	13150
326.77	9040
326.999	5938
327.228	5019
327.457	4718
327.686	4790
327.914	4996
328.143	5765
328.372	6831
328.6	7448
328.829	6741
329.058	5698
329.287	4979
329.515	4516
329.744	4222
329.972	4018
330.201	3838
330.43	3685
330.658	3600
330.887	3559
331.115	3441
331.344	3489
331.572	3461
331.801	3386
332.03	3462
332.258	3476
332.486	3688
332.715	4201
332.943	5188
333.172	6495
333.4	6511
333.629	4943
333.857	4458
334.085	4406
334.314	4554
334.542	5061
334.771	5850
334.999	7118
335.227	8935
335.455	9994
335.684	8917
335.912	7394
336.14	6278
336.369	5532
336.597	5139
336.825	4731
337.053	4439
337.281	4130
337.51	3959
337.738	3808
337.966	3654
338.194	3488
338.422	3435
338.65	3352
338.878	3247
339.106	3247
339.334	3104
339.562	3140
339.79	3018
340.018	3000
340.246	2979
340.474	2958
340.702	2966
340.93	2994
341.158	2957
341.386	2907
341.614	2938
341.842	2882
342.07	2817
342.298	2767
342.526	2698
342.754	2726
342.981	2678
343.209	2667
343.437	2710
343.665	2735
343.893	2764
344.12	2794
344.348	2698
344.576	2685
344.804	2640
345.031	2637
345.259	2561
345.487	2548
345.714	2538
345.942	2516
346.17	2498
346.397	2435
346.625	2486
346.853	2474
347.08	2463
347.308	2446
347.535	2458
347.763	2478
347.99	2395
348.218	2400
348.445	2435
348.673	2426
348.9	2434
349.128	2369
349.355	2339
349.583	2417
349.81	2407
350.037	2373
350.265	2412
350.492	2360
350.72	2387
350.947	2402
351.174	2361
351.402	2406
351.629	2351
351.856	2392
352.083	2349
352.311	2314
352.538	2332
352.765	2310
352.992	2347
353.22	2290
353.447	2331
353.674	2318
353.901	2340
354.128	2390
354.355	2342
354.583	2340
354.81	2374
355.037	2366
355.264	2388
355.491	2365
355.718	2377
355.945	2359
356.172	2394
356.399	2424
356.626	2456
356.853	2447
357.08	2492
357.307	2472
357.534	2497
357.761	2498
357.988	2507
358.215	2507
358.441	2517
358.668	2449
358.895	2475
359.122	2462
359.349	2502
359.576	2491
359.802	2494
360.029	2478
360.256	2544
360.483	2507
360.709	2516
360.936	2466
361.163	2528
361.39	2521
361.616	2486
361.843	2510
362.07	2547
362.296	2540
362.523	2514
362.749	2532
362.976	2508
363.203	2491
363.429	2474
363.656	2527
363.882	2495
364.109	2493
364.335	2488
364.562	2505
364.788	2507
365.015	2562
365.241	2607
365.468	2730
365.694	2853
365.92	2814
366.147	2589
366.373	2559
366.599	2617
366.826	2562
367.052	2562
367.278	2548
367.505	2615
367.731	2556
367.957	2555
368.184	2553
368.41	2620
368.636	2625
368.862	2625
369.089	2628
369.315	2570
369.541	2563
369.767	2599
369.993	2554
370.219	2579
370.445	2575
370.672	2602
370.898	2582
371.124	2678
371.35	2685
371.576	2593
371.802	2654
372.028	2691
372.254	2691
372.48	2707
372.706	2680
372.932	2708
373.158	2678
373.384	2692
373.61	2747
373.835	2772
374.061	2709
374.287	2739
374.513	2788
374.739	2813
374.965	2797
375.191	2814
375.416	2867
375.642	2736
375.868	2774
376.094	2740
376.319	2734
376.545	2731
376.771	2705
376.997	2705
377.222	2654
377.448	2610
377.674	2699
377.899	2618
378.125	2696
378.35	2618
378.576	2709
378.802	2700
379.027	2771
379.253	2816
379.478	2994
379.704	3502
379.929	4954
380.155	7763
380.38	8566
380.606	5253
380.831	3689
381.057	3215
381.282	2917
381.507	2804
381.733	2727
381.958	2730
382.184	2687
382.409	2687
382.634	2651
382.86	2682
383.085	2677
383.31	2659
383.535	2620
383.761	2659
383.986	2653
384.211	2664
384.436	2696
384.662	2745
384.887	2722
385.112	2745
385.337	2774
385.562	2728
385.787	2739
386.013	2751
386.238	2768
386.463	2711
386.688	2751
386.913	2725
387.138	2688
387.363	2695
387.588	2688
387.813	2699
388.038	2708
388.263	2733
388.488	2702
388.713	2716
388.938	2731
389.163	2726
389.387	2718
389.612	2715
389.837	2700
390.062	2724
390.287	2719
390.512	2743
390.736	2836
390.961	2847
391.186	2831
391.411	2828
391.636	2828
391.86	2855
392.085	2846
392.31	2813
392.534	2820
392.759	2825
392.984	2771
393.208	2767
393.433	2804
393.658	2749
393.882	2749
394.107	2767
394.331	2743
394.556	2786
394.78	2805
395.005	2772
395.229	2764
395.454	2828
395.678	2818
395.903	2838
396.127	2824
396.352	2805
396.576	2764
396.801	2858
397.025	2903
397.249	2850
397.474	2872
397.698	2844
397.922	2916
398.147	2907
398.371	2947
398.595	2975
398.82	3072
399.044	3164
399.268	3297
399.492	3550
399.717	3551
399.941	3613
400.165	3395
400.389	3327
400.613	3217
400.837	3038
401.062	3042
401.286	3041
401.51	3013
401.734	3005
401.958	2989
402.182	2995
402.406	3004
402.63	2988
402.854	3043
403.078	3023
403.302	3106
403.526	3122
403.75	3102
403.974	3149
404.198	3071
404.422	3092
404.645	3105
404.869	3127
405.093	3114
405.317	3093
405.541	3187
405.765	3198
405.988	3225
406.212	3224
406.436	3223
406.66	3293
406.883	3250
407.107	3376
407.331	3360
407.555	3437
407.778	3375
408.002	3427
408.226	3357
408.449	3375
408.673	3262
408.896	3220
409.12	3173
409.344	3158
409.567	3119
409.791	3152
410.014	3095
410.238	3109
410.461	3149
410.685	3080
410.908	3069
411.132	3068
411.355	2978
411.578	2997
411.802	3036
412.025	2946
412.249	3003
412.472	3078
412.695	2982
412.919	2934
413.142	2975
413.365	2974
413.589	2958
413.812	2904
414.035	2946
414.258	2952
414.482	2966
414.705	2946
414.928	2941
415.151	2946
415.374	2913
415.597	2936
415.821	2814
416.044	2824
416.267	2838
416.49	2878
416.713	2855
416.936	2826
417.159	2820
417.382	2852
417.605	2776
417.828	2797
418.051	2828
418.274	2836
418.497	2811
418.72	2970
418.943	2831
419.166	3006
419.389	3147
419.611	3131
419.834	3008
420.057	2963
420.28	2883
420.503	2824
420.726	2784
420.948	2833
421.171	2802
421.394	2877
421.617	2855
421.839	2852
422.062	2864
422.285	2772
422.507	2876
422.73	2905
422.953	2893
423.175	2930
423.398	2882
423.621	2844
423.843	2873
424.066	2882
424.288	2852
424.511	2836
424.733	2784
424.956	2867
425.178	2796
425.401	2781
425.623	2772
425.846	2705
426.068	2779
426.291	2700
426.513	2704
426.735	2675
426.958	2734
427.18	2669
427.402	2684
427.625	2694
427.847	2663
428.069	2624
428.292	2672
428.514	2666
428.736	2600
428.958	2677
429.181	2574
429.403	2560
429.625	2556
429.847	2602
430.069	2733
430.292	2714
430.514	2835
430.736	2801
430.958	2657
431.18	2579
431.402	2638
431.624	2592
431.846	2567
432.068	2584
432.29	2541
432.512	2594
432.734	2627
432.956	2575
433.178	2645
433.4	2604
433.622	2630
433.844	2639
434.066	2596
434.287	2607
434.509	2642
434.731	2653
434.953	2693
435.175	2753
435.397	2749
435.618	2645
435.84	2597
436.062	2634
436.284	2564
436.505	2584
436.727	2550
436.949	2569
437.17	2588
437.392	2522
437.614	2549
437.835	2507
438.057	2475
438.278	2475
438.5	2519
438.721	2614
438.943	2652
439.165	2665
439.386	2653
439.608	2658
439.829	2659
440.05	2777
440.272	2871
440.493	2708
440.715	2696
440.936	2676
441.158	2719
441.379	2707
441.6	2792
441.822	2893
442.043	3100
442.264	3136
442.486	2922
442.707	2826
442.928	2800
443.149	2751
443.371	2720
443.592	2779
443.813	2787
444.034	2840
444.255	2859
444.476	2904
444.698	2948
444.919	2955
445.14	3004
445.361	2889
445.582	2809
445.803	2791
446.024	2762
446.245	2764
446.466	2742
446.687	2737
446.908	2714
447.129	2618
447.35	2646
447.571	2611
447.792	2564
448.013	2610
448.234	2544
448.455	2537
448.675	2607
448.896	2712
449.117	2749
449.338	2948
449.559	3017
449.779	2750
450	2562
450.221	2534
450.442	2534
450.662	2494
450.883	2507
451.104	2508
451.324	2456
451.545	2473
451.766	2528
451.986	2537
452.207	2789
452.428	3545
452.648	5526
452.869	4595
453.089	3148
453.31	2873
453.53	2935
453.751	2987
453.971	3082
454.192	2950
454.412	2695
454.633	2502
454.853	2469
455.073	2420
455.294	2398
455.514	2388
455.734	2391
455.955	2342
456.175	2344
456.395	2346
456.616	2413
456.836	2406
457.056	2462
457.276	2444
457.497	2583
457.717	2640
457.937	2535
458.157	2509
458.377	2539
458.598	2559
458.818	2535
459.038	2559
459.258	2588
459.478	2663
459.698	2652
459.918	2697
460.138	2695
460.358	2797
460.578	2794
460.798	2810
461.018	2816
461.238	2850
461.458	2891
461.678	2872
461.898	2955
462.118	2946
462.338	2995
462.558	3018
462.777	3112
462.997	3203
463.217	3388
463.437	3438
463.657	3479
463.876	3454
464.096	3255
464.316	3156
464.536	3109
464.755	3024
464.975	2987
465.195	2874
465.414	2830
465.634	2686
465.854	2685
466.073	2689
466.293	2615
466.512	2612
466.732	2709
466.951	2803
467.171	2976
467.391	2882
467.61	2644
467.829	2603
468.049	2576
468.268	2536
468.488	2552
468.707	2554
468.927	2518
469.146	2551
469.365	2608
469.585	2635
469.804	2638
470.023	2703
470.243	2750
470.462	2829
470.681	2957
470.901	3246
471.12	3651
471.339	3634
471.558	3060
471.777	2827
471.997	2744
472.216	2663
472.435	2623
472.654	2567
472.873	2524
473.092	2571
473.311	2574
473.53	2622
473.749	2690
473.968	2744
474.187	2615
474.406	2548
474.625	2602
474.844	2607
475.063	2600
475.282	2542
475.501	2537
475.72	2585
475.939	2633
476.158	2681
476.377	2744
476.596	2690
476.814	2673
477.033	2694
477.252	2723
477.471	2786
477.69	2800
477.908	2825
478.127	2922
478.346	2926
478.564	2994
478.783	2961
479.002	3063
479.22	3066
479.439	3023
479.658	3116
479.876	3115
480.095	3086
480.313	3190
480.532	3218
480.751	3198
480.969	3173
481.188	3131
481.406	3108
481.624	3076
481.843	3159
482.061	3104
482.28	3138
482.498	3133
482.717	3102
482.935	3178
483.153	3166
483.372	3244
483.59	3278
483.808	3292
484.027	3426
484.245	3564
484.463	3972
484.681	4415
484.9	4103
485.118	3739
485.336	3711
485.554	3703
485.772	4008
485.99	4430
486.209	4701
486.427	4078
486.645	3601
486.863	3492
487.081	3414
487.299	3292
487.517	3288
487.735	3285
487.953	3396
488.171	3320
488.389	3306
488.607	3281
488.825	3166
489.043	3188
489.261	3180
489.479	3243
489.696	3218
489.914	3206
490.132	3217
490.35	3280
490.568	3246
490.786	3265
491.003	3310
491.221	3365
491.439	3374
491.657	3391
491.874	3373
492.092	3338
492.31	3364
492.527	3367
492.745	3342
492.963	3398
493.18	3350
493.398	3341
493.615	3324
493.833	3375
494.05	3352
494.268	3382
494.485	3366
494.703	3398
494.92	3342
495.138	3416
495.355	3442
495.573	3355
495.79	3380
496.008	3427
496.225	3510
496.442	3548
496.66	3641
496.877	3811
497.094	3813
497.312	3658
497.529	3716
497.746	3754
497.963	3711
498.181	3879
498.398	3944
498.615	4002
498.832	4171
499.049	4376
499.267	4727
499.484	4978
499.701	4966
499.918	5090
500.135	5348
500.352	5644
500.569	5644
500.786	5585
501.003	5414
501.22	5250
501.437	4943
501.654	4663
501.871	4451
502.088	4322
502.305	4173
502.522	4032
502.739	3977
502.956	3739
503.172	3676
503.389	3702
503.606	3604
503.823	3582
504.04	3490
504.256	3529
504.473	3506
504.69	3453
504.907	3470
505.123	3460
505.34	3338
505.557	3200
505.773	3201
505.99	3167
506.207	3060
506.423	3055
506.64	3078
506.856	3028
507.073	2987
507.289	3022
507.506	3000
507.722	2964
507.939	2937
508.155	2886
508.372	2863
508.588	2886
508.805	2911
509.021	2855
509.238	2906
509.454	3120
509.67	3280
509.887	3072
510.103	2971
510.319	2920
510.536	2954
510.752	2891
510.968	2827
511.184	2798
511.401	2809
511.617	2761
511.833	2759
512.049	2776
512.265	2786
512.481	2758
512.698	2814
512.914	2773
513.13	2756
513.346	2752
513.562	2783
513.778	2828
513.994	2863
514.21	2959
514.426	3141
514.642	3221
514.858	2967
515.074	2895
515.29	2870
515.506	2852
515.721	2854
515.937	2873
516.153	2930
516.369	2889
516.585	2950
516.801	3022
517.016	2997
517.232	3127
517.448	3114
517.664	3166
517.879	3109
518.095	3176
518.311	3188
518.527	3081
518.742	3094
518.958	3170
519.173	3228
519.389	3109
519.605	2905
519.82	2928
520.036	2880
520.251	2762
520.467	2824
520.682	2856
520.898	2757
521.113	2724
521.329	2747
521.544	2723
521.76	2742
521.975	2730
522.19	2756
522.406	2740
522.621	2690
522.836	2714
523.052	2722
523.267	2637
523.482	2653
523.698	2699
523.913	2676
524.128	2724
524.343	2679
524.559	2687
524.774	2653
524.989	2664
525.204	2675
525.419	2654
525.634	2666
525.849	2703
526.064	2677
526.28	2658
526.495	2653
526.71	2660
526.925	2682
527.14	2676
527.355	2703
527.57	2698
527.785	2739
527.999	2674
528.214	2741
528.429	2772
528.644	2785
528.859	2798
529.074	2826
529.289	2820
529.503	2884
529.718	2857
529.933	2836
530.148	2808
530.363	2829
530.577	2840
530.792	2856
531.007	2869
531.221	2930
531.436	2896
531.651	2941
531.865	2974
532.08	3076
532.295	3159
532.509	3354
532.724	3316
532.938	3367
533.153	3418
533.367	3685
533.582	3858
533.796	3834
534.011	3609
534.225	3559
534.44	3430
534.654	3338
534.868	3237
535.083	3208
535.297	3162
535.511	3069
535.726	3052
535.94	2991
536.154	2944
536.369	2900
536.583	2880
536.797	2892
537.011	2823
537.225	2848
537.44	2758
537.654	2774
537.868	2744
538.082	2681
538.296	2653
538.51	2702
538.724	2673
538.938	2662
539.153	2640
539.367	2647
539.581	2594
539.795	2571
540.009	2579
540.222	2573
540.436	2603
540.65	2603
540.864	2575
541.078	2668
541.292	2797
541.506	3278
541.72	3373
541.934	2991
542.147	2856
542.361	2811
