Data from SnStandardFlinnAPT0064_LampEnergy5.5_LIBS07252019.E.O._I.C._HRD10591_15-15-59-492.txt Node
Date: Thu Jul 25 15:15:59 EDT 2019
User: cochatt
Spectrometer: HR+D1059
Trigger mode: 1
Integration Time (sec): 1.000000E-1
Scans to average: 1
Electric dark correction enabled: true
Nonlinearity correction enabled: false
Boxcar width: 0
XAxis mode: Wavelengths
Number of Pixels in Spectrum: 2048
>>>>>Begin Spectral Data<<<<<
223.165	-19.94
223.4	-19.94
223.635	-19.94
223.869	-2.94
224.104	-25.94
224.338	-10.94
224.573	-24.94
224.808	-3.94
225.042	-7.94
225.277	-7.94
225.511	-13.94
225.746	8.06
225.98	12.06
226.215	8.06
226.449	7.06
226.683	28.06
226.918	23.06
227.152	32.06
227.387	22.06
227.621	34.06
227.856	47.06
228.09	31.06
228.324	44.06
228.559	43.06
228.793	90.06
229.027	133.06
229.262	156.06
229.496	165.06
229.73	144.06
229.964	139.06
230.199	144.06
230.433	159.06
230.667	160.06
230.901	148.06
231.136	162.06
231.37	171.06
231.604	193.06
231.838	204.06
232.072	229.06
232.306	238.06
232.541	220.06
232.775	188.06
233.009	214.06
233.243	195.06
233.477	217.06
233.711	246.06
233.945	239.06
234.179	216.06
234.413	216.06
234.647	206.06
234.881	208.06
235.115	222.06
235.349	263.06
235.583	312.06
235.817	388.06
236.051	405.06
236.285	287.06
236.519	223.06
236.753	240.06
236.987	225.06
237.221	240.06
237.455	214.06
237.689	212.06
237.922	223.06
238.156	229.06
238.39	222.06
238.624	227.06
238.858	230.06
239.091	217.06
239.325	225.06
239.559	231.06
239.793	225.06
240.027	242.06
240.26	239.06
240.494	240.06
240.728	264.06
240.961	245.06
241.195	279.06
241.429	301.06
241.662	295.06
241.896	342.06
242.13	392.06
242.363	495.06
242.597	628.06
242.83	587.06
243.064	589.06
243.298	703.06
243.531	586.06
243.765	362.06
243.998	300.06
244.232	279.06
244.465	287.06
244.699	294.06
244.932	287.06
245.166	288.06
245.399	283.06
245.633	287.06
245.866	291.06
246.099	285.06
246.333	281.06
246.566	284.06
246.8	287.06
247.033	283.06
247.266	258.06
247.5	277.06
247.733	301.06
247.966	316.06
248.2	334.06
248.433	349.06
248.666	392.06
248.899	387.06
249.133	342.06
249.366	373.06
249.599	375.06
249.832	408.06
250.066	399.06
250.299	353.06
250.532	330.06
250.765	322.06
250.998	332.06
251.231	333.06
251.465	325.06
251.698	324.06
251.931	329.06
252.164	305.06
252.397	322.06
252.63	320.06
252.863	341.06
253.096	343.06
253.329	349.06
253.562	358.06
253.795	352.06
254.028	356.06
254.261	353.06
254.494	379.06
254.727	422.06
254.96	462.06
255.193	486.06
255.426	400.06
255.659	383.06
255.892	369.06
256.124	357.06
256.357	389.06
256.59	381.06
256.823	386.06
257.056	424.06
257.289	520.06
257.521	561.06
257.754	465.06
257.987	424.06
258.22	395.06
258.452	393.06
258.685	402.06
258.918	409.06
259.151	424.06
259.383	455.06
259.616	488.06
259.849	497.06
260.081	438.06
260.314	431.06
260.547	399.06
260.779	409.06
261.012	415.06
261.244	415.06
261.477	425.06
261.71	436.06
261.942	425.06
262.175	428.06
262.407	443.06
262.64	460.06
262.872	476.06
263.105	517.06
263.337	520.06
263.57	541.06
263.802	565.06
264.035	556.06
264.267	569.06
264.499	589.06
264.732	595.06
264.964	612.06
265.197	608.06
265.429	622.06
265.661	614.06
265.894	673.06
266.126	729.06
266.358	763.06
266.591	743.06
266.823	655.06
267.055	608.06
267.287	599.06
267.52	571.06
267.752	548.06
267.984	535.06
268.216	541.06
268.448	546.06
268.681	519.06
268.913	529.06
269.145	521.06
269.377	520.06
269.609	547.06
269.841	543.06
270.073	566.06
270.306	636.06
270.538	819.06
270.77	1173.06
271.002	1424.06
271.234	1013.06
271.466	730.06
271.698	628.06
271.93	557.06
272.162	551.06
272.394	537.06
272.626	529.06
272.858	516.06
273.09	513.06
273.322	528.06
273.553	503.06
273.785	520.06
274.017	522.06
274.249	544.06
274.481	533.06
274.713	526.06
274.945	519.06
275.176	512.06
275.408	516.06
275.64	499.06
275.872	513.06
276.104	556.06
276.335	550.06
276.567	549.06
276.799	540.06
277.031	553.06
277.262	553.06
277.494	567.06
277.726	625.06
277.957	692.06
278.189	797.06
278.421	743.06
278.652	680.06
278.884	636.06
279.115	603.06
279.347	576.06
279.579	565.06
279.81	580.06
280.042	565.06
280.273	567.06
280.505	602.06
280.736	603.06
280.968	636.06
281.199	712.06
281.431	753.06
281.662	774.06
281.894	690.06
282.125	657.06
282.356	691.06
282.588	676.06
282.819	683.06
283.051	707.06
283.282	780.06
283.513	967.06
283.745	1329.06
283.976	2076.06
284.207	2937.06
284.439	2617.06
284.67	1631.06
284.901	1316.06
285.132	1265.06
285.364	1231.06
285.595	983.06
285.826	912.06
286.057	1047.06
286.288	1417.06
286.52	1884.06
286.751	1797.06
286.982	1120.06
287.213	871.06
287.444	767.06
287.675	747.06
287.906	719.06
288.138	704.06
288.369	683.06
288.6	696.06
288.831	689.06
289.062	686.06
289.293	675.06
289.524	686.06
289.755	707.06
289.986	708.06
290.217	719.06
290.448	687.06
290.679	725.06
290.91	713.06
291.141	742.06
291.371	768.06
291.602	783.06
291.833	735.06
292.064	696.06
292.295	670.06
292.526	683.06
292.757	674.06
292.987	647.06
293.218	634.06
293.449	653.06
293.68	645.06
293.91	651.06
294.141	663.06
294.372	650.06
294.603	632.06
294.833	643.06
295.064	660.06
295.295	650.06
295.525	662.06
295.756	654.06
295.987	634.06
296.217	632.06
296.448	660.06
296.679	636.06
296.909	649.06
297.14	661.06
297.37	655.06
297.601	663.06
297.831	685.06
298.062	664.06
298.292	660.06
298.523	680.06
298.753	669.06
298.984	713.06
299.214	691.06
299.445	715.06
299.675	700.06
299.905	738.06
300.136	753.06
300.366	837.06
300.597	1039.06
300.827	1416.06
301.057	1865.06
301.288	1844.06
301.518	1246.06
301.748	994.06
301.979	897.06
302.209	870.06
302.439	897.06
302.669	899.06
302.9	1125.06
303.13	1495.06
303.36	2123.06
303.59	2752.06
303.82	2501.06
304.051	1481.06
304.281	1114.06
304.511	955.06
304.741	865.06
304.971	848.06
305.201	793.06
305.431	796.06
305.661	800.06
305.891	777.06
306.121	775.06
306.352	759.06
306.582	747.06
306.812	751.06
307.042	739.06
307.272	760.06
307.502	739.06
307.731	730.06
307.961	751.06
308.191	738.06
308.421	772.06
308.651	752.06
308.881	763.06
309.111	741.06
309.341	735.06
309.571	748.06
309.8	753.06
310.03	760.06
310.26	769.06
310.49	781.06
310.72	777.06
310.949	769.06
311.179	769.06
311.409	757.06
311.639	798.06
311.868	771.06
312.098	801.06
312.328	796.06
312.557	813.06
312.787	781.06
313.017	827.06
313.246	811.06
313.476	832.06
313.706	811.06
313.935	868.06
314.165	905.06
314.394	960.06
314.624	912.06
314.853	871.06
315.083	856.06
315.312	875.06
315.542	861.06
315.771	883.06
316.001	909.06
316.23	928.06
316.46	951.06
316.689	1033.06
316.919	1212.06
317.148	1701.06
317.377	2555.06
317.607	3761.06
317.836	3839.06
318.065	2323.06
318.295	1520.06
318.524	1248.06
318.753	1139.06
318.983	1055.06
319.212	1007.06
319.441	983.06
319.67	964.06
319.9	936.06
320.129	943.06
320.358	951.06
320.587	941.06
320.816	942.06
321.046	950.06
321.275	957.06
321.504	940.06
321.733	949.06
321.962	993.06
322.191	999.06
322.42	1021.06
322.649	982.06
322.878	1000.06
323.108	998.06
323.337	1012.06
323.566	1027.06
323.795	1027.06
324.024	1070.06
324.253	1049.06
324.482	1104.06
324.71	1127.06
324.939	1209.06
325.168	1246.06
325.397	1317.06
325.626	1493.06
325.855	2063.06
326.084	3121.06
326.313	4557.06
326.542	4847.06
326.77	3139.06
326.999	2131.06
327.228	1823.06
327.457	1689.06
327.686	1687.06
327.914	1816.06
328.143	2066.06
328.372	2384.06
328.6	2569.06
328.829	2396.06
329.058	2119.06
329.287	1917.06
329.515	1759.06
329.744	1650.06
329.972	1566.06
330.201	1476.06
330.43	1448.06
330.658	1388.06
330.887	1375.06
331.115	1397.06
331.344	1420.06
331.572	1354.06
331.801	1407.06
332.03	1339.06
332.258	1411.06
332.486	1451.06
332.715	1595.06
332.943	1914.06
333.172	2291.06
333.4	2265.06
333.629	1806.06
333.857	1661.06
334.085	1694.06
334.314	1787.06
334.542	1883.06
334.771	2177.06
334.999	2563.06
335.227	3087.06
335.455	3451.06
335.684	3283.06
335.912	2763.06
336.14	2416.06
336.369	2173.06
336.597	1991.06
336.825	1877.06
337.053	1764.06
337.281	1669.06
337.51	1602.06
337.738	1500.06
337.966	1477.06
338.194	1404.06
338.422	1378.06
338.65	1342.06
338.878	1368.06
339.106	1299.06
339.334	1296.06
339.562	1253.06
339.79	1223.06
340.018	1212.06
340.246	1232.06
340.474	1186.06
340.702	1187.06
340.93	1228.06
341.158	1205.06
341.386	1201.06
341.614	1181.06
341.842	1184.06
342.07	1160.06
342.298	1136.06
342.526	1131.06
342.754	1125.06
342.981	1115.06
343.209	1133.06
343.437	1147.06
343.665	1136.06
343.893	1154.06
344.12	1135.06
344.348	1123.06
344.576	1076.06
344.804	1092.06
345.031	1075.06
345.259	1038.06
345.487	1043.06
345.714	1047.06
345.942	1066.06
346.17	1037.06
346.397	1031.06
346.625	1030.06
346.853	1031.06
347.08	1029.06
347.308	1037.06
347.535	1035.06
347.763	998.06
347.99	1028.06
348.218	1004.06
348.445	1014.06
348.673	1029.06
348.9	996.06
349.128	989.06
349.355	1014.06
349.583	1025.06
349.81	1003.06
350.037	1004.06
350.265	980.06
350.492	993.06
350.72	979.06
350.947	951.06
351.174	988.06
351.402	983.06
351.629	983.06
351.856	953.06
352.083	998.06
352.311	992.06
352.538	957.06
352.765	971.06
352.992	990.06
353.22	988.06
353.447	988.06
353.674	962.06
353.901	964.06
354.128	993.06
354.355	985.06
354.583	999.06
354.81	1000.06
355.037	1000.06
355.264	1010.06
355.491	1015.06
355.718	999.06
355.945	988.06
356.172	1029.06
356.399	996.06
356.626	1046.06
356.853	1036.06
357.08	1044.06
357.307	1023.06
357.534	1028.06
357.761	1062.06
357.988	1056.06
358.215	1039.06
358.441	1063.06
358.668	1021.06
358.895	1058.06
359.122	1031.06
359.349	1041.06
359.576	1057.06
359.802	1045.06
360.029	1030.06
360.256	1045.06
360.483	1017.06
360.709	1070.06
360.936	1078.06
361.163	1064.06
361.39	987.06
361.616	1050.06
361.843	1046.06
362.07	1068.06
362.296	1056.06
362.523	1032.06
362.749	1031.06
362.976	1063.06
363.203	1029.06
363.429	1028.06
363.656	1023.06
363.882	1054.06
364.109	1025.06
364.335	1085.06
364.562	1053.06
364.788	1048.06
365.015	1033.06
365.241	1085.06
365.468	1119.06
365.694	1144.06
365.92	1109.06
366.147	1083.06
366.373	1094.06
366.599	1086.06
366.826	1070.06
367.052	1101.06
367.278	1087.06
367.505	1057.06
367.731	1076.06
367.957	1093.06
368.184	1034.06
368.41	1078.06
368.636	1084.06
368.862	1099.06
369.089	1114.06
369.315	1085.06
369.541	1086.06
369.767	1087.06
369.993	1126.06
370.219	1071.06
370.445	1104.06
370.672	1087.06
370.898	1097.06
371.124	1116.06
371.35	1120.06
371.576	1137.06
371.802	1138.06
372.028	1157.06
372.254	1101.06
372.48	1155.06
372.706	1119.06
372.932	1161.06
373.158	1140.06
373.384	1143.06
373.61	1141.06
373.835	1153.06
374.061	1165.06
374.287	1174.06
374.513	1179.06
374.739	1199.06
374.965	1189.06
375.191	1165.06
375.416	1158.06
375.642	1153.06
375.868	1186.06
376.094	1167.06
376.319	1144.06
376.545	1147.06
376.771	1153.06
376.997	1131.06
377.222	1137.06
377.448	1124.06
377.674	1109.06
377.899	1124.06
378.125	1109.06
378.35	1113.06
378.576	1144.06
378.802	1120.06
379.027	1135.06
379.253	1159.06
379.478	1183.06
379.704	1388.06
379.929	1919.06
380.155	2717.06
380.38	2980.06
380.606	1927.06
380.831	1405.06
381.057	1246.06
381.282	1162.06
381.507	1152.06
381.733	1140.06
381.958	1140.06
382.184	1110.06
382.409	1133.06
382.634	1119.06
382.86	1132.06
383.085	1113.06
383.31	1153.06
383.535	1133.06
383.761	1151.06
383.986	1117.06
384.211	1141.06
384.436	1152.06
384.662	1119.06
384.887	1156.06
385.112	1133.06
385.337	1170.06
385.562	1163.06
385.787	1144.06
386.013	1169.06
386.238	1161.06
386.463	1171.06
386.688	1172.06
386.913	1140.06
387.138	1150.06
387.363	1167.06
387.588	1143.06
387.813	1151.06
388.038	1136.06
388.263	1157.06
388.488	1152.06
388.713	1151.06
388.938	1158.06
389.163	1129.06
389.387	1176.06
389.612	1162.06
389.837	1176.06
390.062	1157.06
390.287	1168.06
390.512	1159.06
390.736	1166.06
390.961	1185.06
391.186	1162.06
391.411	1197.06
391.636	1223.06
391.86	1244.06
392.085	1225.06
392.31	1211.06
392.534	1202.06
392.759	1187.06
392.984	1193.06
393.208	1227.06
393.433	1199.06
393.658	1170.06
393.882	1176.06
394.107	1169.06
394.331	1172.06
394.556	1169.06
394.78	1179.06
395.005	1178.06
395.229	1177.06
395.454	1191.06
395.678	1187.06
395.903	1209.06
396.127	1195.06
396.352	1180.06
396.576	1165.06
396.801	1215.06
397.025	1203.06
397.249	1203.06
397.474	1227.06
397.698	1238.06
397.922	1214.06
398.147	1214.06
398.371	1229.06
398.595	1233.06
398.82	1295.06
399.044	1313.06
399.268	1407.06
399.492	1481.06
399.717	1532.06
399.941	1564.06
400.165	1507.06
400.389	1415.06
400.613	1389.06
400.837	1333.06
401.062	1340.06
401.286	1310.06
401.51	1307.06
401.734	1238.06
401.958	1282.06
402.182	1299.06
402.406	1302.06
402.63	1280.06
402.854	1297.06
403.078	1319.06
403.302	1321.06
403.526	1349.06
403.75	1318.06
403.974	1337.06
404.198	1311.06
404.422	1325.06
404.645	1326.06
404.869	1334.06
405.093	1336.06
405.317	1316.06
405.541	1326.06
405.765	1312.06
405.988	1367.06
406.212	1391.06
406.436	1341.06
406.66	1375.06
406.883	1371.06
407.107	1448.06
407.331	1431.06
407.555	1470.06
407.778	1444.06
408.002	1410.06
408.226	1430.06
408.449	1383.06
408.673	1399.06
408.896	1365.06
409.12	1366.06
409.344	1358.06
409.567	1338.06
409.791	1333.06
410.014	1340.06
410.238	1303.06
410.461	1334.06
410.685	1342.06
410.908	1282.06
411.132	1286.06
411.355	1262.06
411.578	1314.06
411.802	1283.06
412.025	1274.06
412.249	1281.06
412.472	1310.06
412.695	1270.06
412.919	1236.06
413.142	1254.06
413.365	1261.06
413.589	1262.06
413.812	1268.06
414.035	1246.06
414.258	1264.06
414.482	1229.06
414.705	1243.06
414.928	1247.06
415.151	1225.06
415.374	1264.06
415.597	1244.06
415.821	1231.06
416.044	1194.06
416.267	1204.06
416.49	1222.06
416.713	1193.06
416.936	1225.06
417.159	1191.06
417.382	1189.06
417.605	1164.06
417.828	1181.06
418.051	1193.06
418.274	1221.06
418.497	1197.06
418.72	1259.06
418.943	1207.06
419.166	1299.06
419.389	1363.06
419.611	1341.06
419.834	1296.06
420.057	1235.06
420.28	1217.06
420.503	1226.06
420.726	1151.06
420.948	1189.06
421.171	1224.06
421.394	1193.06
421.617	1207.06
421.839	1237.06
422.062	1217.06
422.285	1228.06
422.507	1241.06
422.73	1235.06
422.953	1235.06
423.175	1240.06
423.398	1283.06
423.621	1207.06
423.843	1243.06
424.066	1206.06
424.288	1183.06
424.511	1244.06
424.733	1185.06
424.956	1190.06
425.178	1219.06
425.401	1204.06
425.623	1215.06
425.846	1216.06
426.068	1166.06
426.291	1179.06
426.513	1144.06
426.735	1158.06
426.958	1132.06
427.18	1143.06
427.402	1162.06
427.625	1127.06
427.847	1087.06
428.069	1122.06
428.292	1146.06
428.514	1137.06
428.736	1115.06
428.958	1158.06
429.181	1096.06
429.403	1123.06
429.625	1135.06
429.847	1089.06
430.069	1125.06
430.292	1149.06
430.514	1164.06
430.736	1180.06
430.958	1154.06
431.18	1107.06
431.402	1128.06
431.624	1127.06
431.846	1101.06
432.068	1107.06
432.29	1063.06
432.512	1100.06
432.734	1127.06
432.956	1128.06
433.178	1140.06
433.4	1144.06
433.622	1189.06
433.844	1099.06
434.066	1123.06
434.287	1091.06
434.509	1141.06
434.731	1174.06
434.953	1159.06
435.175	1140.06
435.397	1169.06
435.618	1108.06
435.84	1126.06
436.062	1091.06
436.284	1130.06
436.505	1117.06
436.727	1135.06
436.949	1109.06
437.17	1136.06
437.392	1104.06
437.614	1090.06
437.835	1047.06
438.057	1081.06
438.278	1085.06
438.5	1072.06
438.721	1118.06
438.943	1141.06
439.165	1135.06
439.386	1156.06
439.608	1182.06
439.829	1168.06
440.05	1199.06
440.272	1215.06
440.493	1159.06
440.715	1162.06
440.936	1142.06
441.158	1185.06
441.379	1176.06
441.6	1247.06
441.822	1183.06
442.043	1274.06
442.264	1301.06
442.486	1208.06
442.707	1234.06
442.928	1183.06
443.149	1221.06
443.371	1215.06
443.592	1187.06
443.813	1205.06
444.034	1193.06
444.255	1251.06
444.476	1262.06
444.698	1286.06
444.919	1306.06
445.14	1372.06
445.361	1289.06
445.582	1234.06
445.803	1209.06
446.024	1214.06
446.245	1208.06
446.466	1186.06
446.687	1190.06
446.908	1196.06
447.129	1161.06
447.35	1171.06
447.571	1145.06
447.792	1097.06
448.013	1111.06
448.234	1117.06
448.455	1145.06
448.675	1097.06
448.896	1147.06
449.117	1179.06
449.338	1239.06
449.559	1254.06
449.779	1185.06
450	1080.06
450.221	1090.06
450.442	1063.06
450.662	1063.06
450.883	1038.06
451.104	1075.06
451.324	1073.06
451.545	1064.06
451.766	1062.06
451.986	1074.06
452.207	1142.06
452.428	1342.06
452.648	1807.06
452.869	1561.06
453.089	1193.06
453.31	1141.06
453.53	1138.06
453.751	1206.06
453.971	1255.06
454.192	1238.06
454.412	1093.06
454.633	1065.06
454.853	1026.06
455.073	1047.06
455.294	1037.06
455.514	1016.06
455.734	1033.06
455.955	1019.06
456.175	993.06
456.395	1027.06
456.616	998.06
456.836	1035.06
457.056	1026.06
457.276	1040.06
457.497	1087.06
457.717	1115.06
457.937	1049.06
458.157	1076.06
458.377	1083.06
458.598	1089.06
458.818	1082.06
459.038	1060.06
459.258	1085.06
459.478	1094.06
459.698	1125.06
459.918	1127.06
460.138	1152.06
460.358	1196.06
460.578	1189.06
460.798	1222.06
461.018	1235.06
461.238	1207.06
461.458	1237.06
461.678	1229.06
461.898	1260.06
462.118	1253.06
462.338	1249.06
462.558	1273.06
462.777	1294.06
462.997	1332.06
463.217	1398.06
463.437	1423.06
463.657	1427.06
463.876	1421.06
464.096	1381.06
464.316	1345.06
464.536	1335.06
464.755	1295.06
464.975	1301.06
465.195	1250.06
465.414	1193.06
465.634	1150.06
465.854	1147.06
466.073	1135.06
466.293	1128.06
466.512	1108.06
466.732	1120.06
466.951	1204.06
467.171	1242.06
467.391	1186.06
467.61	1139.06
467.829	1112.06
468.049	1092.06
468.268	1075.06
468.488	1096.06
468.707	1114.06
468.927	1087.06
469.146	1089.06
469.365	1125.06
469.585	1114.06
469.804	1139.06
470.023	1167.06
470.243	1140.06
470.462	1181.06
470.681	1254.06
470.901	1314.06
471.12	1494.06
471.339	1504.06
471.558	1302.06
471.777	1216.06
471.997	1146.06
472.216	1094.06
472.435	1119.06
472.654	1095.06
472.873	1104.06
473.092	1100.06
473.311	1101.06
473.53	1126.06
473.749	1138.06
473.968	1187.06
474.187	1131.06
474.406	1071.06
474.625	1086.06
474.844	1119.06
475.063	1104.06
475.282	1086.06
475.501	1085.06
475.72	1121.06
475.939	1149.06
476.158	1163.06
476.377	1152.06
476.596	1157.06
476.814	1174.06
477.033	1162.06
477.252	1177.06
477.471	1209.06
477.69	1234.06
477.908	1227.06
478.127	1253.06
478.346	1242.06
478.564	1301.06
478.783	1286.06
479.002	1325.06
479.22	1299.06
479.439	1294.06
479.658	1271.06
479.876	1298.06
480.095	1316.06
480.313	1305.06
480.532	1356.06
480.751	1329.06
480.969	1346.06
481.188	1309.06
481.406	1289.06
481.624	1280.06
481.843	1282.06
482.061	1336.06
482.28	1323.06
482.498	1299.06
482.717	1265.06
482.935	1299.06
483.153	1353.06
483.372	1350.06
483.59	1388.06
483.808	1373.06
484.027	1405.06
484.245	1451.06
484.463	1638.06
484.681	1768.06
484.9	1653.06
485.118	1540.06
485.336	1531.06
485.554	1524.06
485.772	1609.06
485.99	1811.06
486.209	1918.06
486.427	1673.06
486.645	1496.06
486.863	1455.06
487.081	1435.06
487.299	1415.06
487.517	1378.06
487.735	1409.06
487.953	1459.06
488.171	1431.06
488.389	1411.06
488.607	1378.06
488.825	1347.06
489.043	1325.06
489.261	1332.06
489.479	1376.06
489.696	1345.06
489.914	1342.06
490.132	1382.06
490.35	1377.06
490.568	1388.06
490.786	1407.06
491.003	1439.06
491.221	1436.06
491.439	1453.06
