Data from SnStandardFlinnAPT0064_QswitchEnergy10_LIBS07252019.E.O._I.C._HRD10591_15-27-32-973.txt Node
Date: Thu Jul 25 15:27:32 EDT 2019
User: cochatt
Spectrometer: HR+D1059
Trigger mode: 1
Integration Time (sec): 1.000000E-1
Scans to average: 1
Electric dark correction enabled: true
Nonlinearity correction enabled: false
Boxcar width: 0
XAxis mode: Wavelengths
Number of Pixels in Spectrum: 2048
>>>>>Begin Spectral Data<<<<<
223.165	-12.12
223.4	-12.12
223.635	-12.12
223.869	-17.12
224.104	-20.12
224.338	-29.12
224.573	-14.12
224.808	-23.12
225.042	-5.12
225.277	-7.12
225.511	-3.12
225.746	0.88
225.98	8.88
226.215	8.88
226.449	19.88
226.683	29.88
226.918	31.88
227.152	30.88
227.387	28.88
227.621	21.88
227.856	49.88
228.09	43.88
228.324	53.88
228.559	49.88
228.793	72.88
229.027	65.88
229.262	73.88
229.496	74.88
229.73	74.88
229.964	82.88
230.199	72.88
230.433	73.88
230.667	72.88
230.901	78.88
231.136	73.88
231.37	89.88
231.604	101.88
231.838	98.88
232.072	118.88
232.306	117.88
232.541	83.88
232.775	84.88
233.009	85.88
233.243	82.88
233.477	91.88
233.711	91.88
233.945	99.88
234.179	100.88
234.413	82.88
234.647	67.88
234.881	98.88
235.115	92.88
235.349	87.88
235.583	96.88
235.817	129.88
236.051	118.88
236.285	89.88
236.519	84.88
236.753	74.88
236.987	80.88
237.221	77.88
237.455	78.88
237.689	96.88
237.922	88.88
238.156	85.88
238.39	87.88
238.624	93.88
238.858	72.88
239.091	85.88
239.325	92.88
239.559	81.88
239.793	85.88
240.027	86.88
240.26	86.88
240.494	90.88
240.728	87.88
240.961	93.88
241.195	80.88
241.429	96.88
241.662	80.88
241.896	97.88
242.13	104.88
242.363	125.88
242.597	164.88
242.83	134.88
243.064	136.88
243.298	176.88
243.531	135.88
243.765	98.88
243.998	84.88
244.232	74.88
244.465	76.88
244.699	63.88
244.932	80.88
245.166	87.88
245.399	75.88
245.633	94.88
245.866	72.88
246.099	67.88
246.333	80.88
246.566	73.88
246.8	88.88
247.033	87.88
247.266	82.88
247.5	83.88
247.733	90.88
247.966	75.88
248.2	79.88
248.433	106.88
248.666	134.88
248.899	112.88
249.133	91.88
249.366	95.88
249.599	106.88
249.832	117.88
250.066	124.88
250.299	92.88
250.532	88.88
250.765	83.88
250.998	86.88
251.231	77.88
251.465	75.88
251.698	81.88
251.931	72.88
252.164	89.88
252.397	96.88
252.63	102.88
252.863	96.88
253.096	86.88
253.329	79.88
253.562	86.88
253.795	97.88
254.028	84.88
254.261	81.88
254.494	91.88
254.727	126.88
254.96	138.88
255.193	128.88
255.426	98.88
255.659	86.88
255.892	98.88
256.124	92.88
256.357	90.88
256.59	91.88
256.823	101.88
257.056	93.88
257.289	142.88
257.521	174.88
257.754	121.88
257.987	91.88
258.22	97.88
258.452	92.88
258.685	82.88
258.918	96.88
259.151	85.88
259.383	99.88
259.616	134.88
259.849	150.88
260.081	121.88
260.314	101.88
260.547	82.88
260.779	90.88
261.012	92.88
261.244	93.88
261.477	99.88
261.71	91.88
261.942	92.88
262.175	80.88
262.407	88.88
262.64	78.88
262.872	95.88
263.105	84.88
263.337	98.88
263.57	92.88
263.802	106.88
264.035	88.88
264.267	94.88
264.499	83.88
264.732	96.88
264.964	83.88
265.197	93.88
265.429	82.88
265.661	85.88
265.894	106.88
266.126	120.88
266.358	137.88
266.591	130.88
266.823	110.88
267.055	91.88
267.287	89.88
267.52	75.88
267.752	88.88
267.984	94.88
268.216	100.88
268.448	86.88
268.681	97.88
268.913	78.88
269.145	93.88
269.377	84.88
269.609	92.88
269.841	76.88
270.073	102.88
270.306	121.88
270.538	194.88
270.77	306.88
271.002	349.88
271.234	180.88
271.466	116.88
271.698	93.88
271.93	78.88
272.162	98.88
272.394	94.88
272.626	89.88
272.858	89.88
273.09	92.88
273.322	93.88
273.553	96.88
273.785	78.88
274.017	99.88
274.249	90.88
274.481	91.88
274.713	82.88
274.945	80.88
275.176	90.88
275.408	82.88
275.64	95.88
275.872	98.88
276.104	90.88
276.335	93.88
276.567	92.88
276.799	91.88
277.031	93.88
277.262	105.88
277.494	104.88
277.726	121.88
277.957	171.88
278.189	221.88
278.421	205.88
278.652	185.88
278.884	177.88
279.115	132.88
279.347	114.88
279.579	98.88
279.81	96.88
280.042	96.88
280.273	99.88
280.505	92.88
280.736	103.88
280.968	113.88
281.199	150.88
281.431	231.88
281.662	246.88
281.894	138.88
282.125	114.88
282.356	108.88
282.588	108.88
282.819	114.88
283.051	118.88
283.282	137.88
283.513	180.88
283.745	292.88
283.976	491.88
284.207	724.88
284.439	561.88
284.67	236.88
284.901	219.88
285.132	310.88
285.364	345.88
285.595	206.88
285.826	141.88
286.057	217.88
286.288	378.88
286.52	555.88
286.751	465.88
286.982	186.88
287.213	121.88
287.444	110.88
287.675	110.88
287.906	90.88
288.138	81.88
288.369	97.88
288.6	99.88
288.831	100.88
289.062	111.88
289.293	85.88
289.524	77.88
289.755	87.88
289.986	78.88
290.217	92.88
290.448	118.88
290.679	96.88
290.91	106.88
291.141	160.88
291.371	207.88
291.602	258.88
291.833	173.88
292.064	120.88
292.295	101.88
292.526	102.88
292.757	92.88
292.987	96.88
293.218	92.88
293.449	97.88
293.68	91.88
293.91	78.88
294.141	100.88
294.372	85.88
294.603	77.88
294.833	89.88
295.064	86.88
295.295	86.88
295.525	107.88
295.756	98.88
295.987	98.88
296.217	95.88
296.448	89.88
296.679	96.88
296.909	106.88
297.14	99.88
297.37	111.88
297.601	111.88
297.831	104.88
298.062	106.88
298.292	106.88
298.523	103.88
298.753	106.88
298.984	105.88
299.214	91.88
299.445	114.88
299.675	101.88
299.905	96.88
300.136	128.88
300.366	142.88
300.597	250.88
300.827	429.88
301.057	621.88
301.288	573.88
301.518	231.88
301.748	150.88
301.979	118.88
302.209	126.88
302.439	142.88
302.669	153.88
302.9	269.88
303.13	442.88
303.36	791.88
303.59	1112.88
303.82	760.88
304.051	268.88
304.281	137.88
304.511	131.88
304.741	105.88
304.971	112.88
305.201	111.88
305.431	97.88
305.661	99.88
305.891	96.88
306.121	106.88
306.352	109.88
306.582	100.88
306.812	104.88
307.042	113.88
307.272	106.88
307.502	104.88
307.731	103.88
307.961	114.88
308.191	99.88
308.421	98.88
308.651	101.88
308.881	95.88
309.111	107.88
309.341	109.88
309.571	113.88
309.8	118.88
310.03	117.88
310.26	117.88
310.49	93.88
310.72	114.88
310.949	99.88
311.179	93.88
311.409	118.88
311.639	107.88
311.868	91.88
312.098	103.88
312.328	113.88
312.557	109.88
312.787	120.88
313.017	109.88
313.246	109.88
313.476	117.88
313.706	126.88
313.935	139.88
314.165	186.88
314.394	221.88
314.624	163.88
314.853	127.88
315.083	116.88
315.312	129.88
315.542	140.88
315.771	129.88
316.001	122.88
316.23	130.88
316.46	153.88
316.689	169.88
316.919	233.88
317.148	441.88
317.377	850.88
317.607	1357.88
317.836	1290.88
318.065	461.88
318.295	210.88
318.524	142.88
318.753	122.88
318.983	129.88
319.212	124.88
319.441	108.88
319.67	117.88
319.9	126.88
320.129	132.88
320.358	120.88
320.587	115.88
320.816	109.88
321.046	121.88
321.275	116.88
321.504	131.88
321.733	136.88
321.962	149.88
322.191	147.88
322.42	141.88
322.649	115.88
322.878	106.88
323.108	132.88
323.337	108.88
323.566	116.88
323.795	130.88
324.024	138.88
324.253	135.88
324.482	174.88
324.71	214.88
324.939	260.88
325.168	220.88
325.397	172.88
325.626	234.88
325.855	446.88
326.084	880.88
326.313	1480.88
326.542	1467.88
326.77	579.88
326.999	235.88
327.228	186.88
327.457	219.88
327.686	221.88
327.914	155.88
328.143	138.88
328.372	123.88
328.6	125.88
328.829	106.88
329.058	114.88
329.287	124.88
329.515	122.88
329.744	125.88
329.972	111.88
330.201	106.88
330.43	118.88
330.658	114.88
330.887	120.88
331.115	96.88
331.344	109.88
331.572	125.88
331.801	105.88
332.03	110.88
332.258	131.88
332.486	154.88
332.715	269.88
332.943	467.88
333.172	702.88
333.4	608.88
333.629	230.88
333.857	140.88
334.085	131.88
334.314	125.88
334.542	122.88
334.771	115.88
334.999	118.88
335.227	117.88
335.455	114.88
335.684	104.88
335.912	132.88
336.14	114.88
336.369	108.88
336.597	114.88
336.825	125.88
337.053	120.88
337.281	110.88
337.51	108.88
337.738	125.88
337.966	112.88
338.194	106.88
338.422	115.88
338.65	124.88
338.878	130.88
339.106	110.88
339.334	118.88
339.562	112.88
339.79	106.88
340.018	107.88
340.246	105.88
340.474	119.88
340.702	113.88
340.93	102.88
341.158	109.88
341.386	121.88
341.614	122.88
341.842	112.88
342.07	121.88
342.298	119.88
342.526	116.88
342.754	124.88
342.981	105.88
343.209	112.88
343.437	98.88
343.665	103.88
343.893	107.88
344.12	113.88
344.348	115.88
344.576	104.88
344.804	117.88
345.031	102.88
345.259	97.88
345.487	106.88
345.714	116.88
345.942	116.88
346.17	116.88
346.397	103.88
346.625	94.88
346.853	97.88
347.08	107.88
347.308	112.88
347.535	103.88
347.763	110.88
347.99	93.88
348.218	107.88
348.445	101.88
348.673	103.88
348.9	114.88
349.128	116.88
349.355	122.88
349.583	115.88
349.81	110.88
350.037	130.88
350.265	109.88
350.492	117.88
350.72	105.88
350.947	117.88
351.174	112.88
351.402	101.88
351.629	115.88
351.856	112.88
352.083	117.88
352.311	121.88
352.538	122.88
352.765	120.88
352.992	111.88
353.22	92.88
353.447	86.88
353.674	93.88
353.901	107.88
354.128	113.88
354.355	112.88
354.583	102.88
354.81	107.88
355.037	102.88
355.264	101.88
355.491	106.88
355.718	96.88
355.945	103.88
356.172	109.88
356.399	115.88
356.626	101.88
356.853	107.88
357.08	107.88
357.307	119.88
357.534	97.88
357.761	117.88
357.988	117.88
358.215	106.88
358.441	104.88
358.668	123.88
358.895	114.88
359.122	121.88
359.349	112.88
359.576	101.88
359.802	113.88
360.029	108.88
360.256	108.88
360.483	107.88
360.709	105.88
360.936	121.88
361.163	118.88
361.39	96.88
361.616	105.88
361.843	109.88
362.07	92.88
362.296	118.88
362.523	113.88
362.749	116.88
362.976	114.88
363.203	97.88
363.429	90.88
363.656	106.88
363.882	113.88
364.109	109.88
364.335	116.88
364.562	118.88
364.788	113.88
365.015	107.88
365.241	119.88
365.468	174.88
365.694	212.88
365.92	204.88
366.147	106.88
366.373	109.88
366.599	100.88
366.826	101.88
367.052	107.88
367.278	98.88
367.505	114.88
367.731	107.88
367.957	100.88
368.184	119.88
368.41	122.88
368.636	118.88
368.862	106.88
369.089	99.88
369.315	107.88
369.541	115.88
369.767	108.88
369.993	109.88
370.219	115.88
370.445	113.88
370.672	107.88
370.898	118.88
371.124	110.88
371.35	108.88
371.576	95.88
371.802	99.88
372.028	125.88
372.254	123.88
372.48	113.88
372.706	118.88
372.932	110.88
373.158	105.88
373.384	108.88
373.61	113.88
373.835	107.88
374.061	112.88
374.287	113.88
374.513	114.88
374.739	121.88
374.965	104.88
375.191	110.88
375.416	114.88
375.642	112.88
375.868	120.88
376.094	103.88
376.319	105.88
376.545	110.88
376.771	110.88
376.997	99.88
377.222	104.88
377.448	105.88
377.674	114.88
377.899	108.88
378.125	112.88
378.35	112.88
378.576	113.88
378.802	124.88
379.027	120.88
379.253	112.88
379.478	168.88
379.704	280.88
379.929	678.88
380.155	1402.88
380.38	1443.88
380.606	476.88
380.831	171.88
381.057	125.88
381.282	118.88
381.507	112.88
381.733	88.88
381.958	108.88
382.184	102.88
382.409	96.88
382.634	103.88
382.86	103.88
383.085	106.88
383.31	114.88
383.535	121.88
383.761	113.88
383.986	99.88
384.211	109.88
384.436	90.88
384.662	100.88
384.887	101.88
385.112	99.88
385.337	115.88
385.562	108.88
385.787	92.88
386.013	102.88
386.238	120.88
386.463	106.88
386.688	93.88
386.913	112.88
387.138	107.88
387.363	104.88
387.588	113.88
387.813	112.88
388.038	98.88
388.263	99.88
388.488	109.88
388.713	104.88
388.938	100.88
389.163	101.88
389.387	97.88
389.612	101.88
389.837	110.88
390.062	97.88
390.287	112.88
390.512	104.88
390.736	107.88
390.961	103.88
391.186	97.88
391.411	87.88
391.636	104.88
391.86	98.88
392.085	96.88
392.31	105.88
392.534	105.88
392.759	110.88
392.984	113.88
393.208	119.88
393.433	137.88
393.658	121.88
393.882	110.88
394.107	100.88
394.331	102.88
394.556	118.88
394.78	107.88
395.005	106.88
395.229	97.88
395.454	92.88
395.678	90.88
395.903	103.88
396.127	103.88
396.352	101.88
396.576	113.88
396.801	99.88
397.025	124.88
397.249	112.88
397.474	118.88
397.698	102.88
397.922	97.88
398.147	102.88
398.371	114.88
398.595	99.88
398.82	79.88
399.044	111.88
399.268	109.88
399.492	100.88
399.717	92.88
399.941	90.88
400.165	92.88
400.389	93.88
400.613	96.88
400.837	83.88
401.062	112.88
401.286	107.88
401.51	92.88
401.734	113.88
401.958	97.88
402.182	93.88
402.406	84.88
402.63	83.88
402.854	96.88
403.078	107.88
403.302	93.88
403.526	108.88
403.75	94.88
403.974	117.88
404.198	121.88
404.422	91.88
404.645	96.88
404.869	96.88
405.093	106.88
405.317	88.88
405.541	103.88
405.765	129.88
405.988	148.88
406.212	116.88
406.436	92.88
406.66	101.88
406.883	85.88
407.107	85.88
407.331	104.88
407.555	100.88
407.778	100.88
408.002	98.88
408.226	105.88
408.449	109.88
408.673	107.88
408.896	103.88
409.12	108.88
409.344	97.88
409.567	112.88
409.791	96.88
410.014	109.88
410.238	95.88
410.461	104.88
410.685	106.88
410.908	97.88
411.132	97.88
411.355	105.88
411.578	96.88
411.802	93.88
412.025	101.88
412.249	95.88
412.472	105.88
412.695	114.88
412.919	116.88
413.142	106.88
413.365	112.88
413.589	112.88
413.812	112.88
414.035	110.88
414.258	91.88
414.482	91.88
414.705	104.88
414.928	92.88
415.151	99.88
415.374	103.88
415.597	102.88
415.821	94.88
416.044	88.88
416.267	92.88
416.49	100.88
416.713	92.88
416.936	77.88
417.159	110.88
417.382	91.88
417.605	93.88
417.828	98.88
418.051	87.88
418.274	90.88
418.497	99.88
418.72	103.88
418.943	120.88
419.166	107.88
419.389	118.88
419.611	120.88
419.834	106.88
420.057	101.88
420.28	93.88
420.503	100.88
420.726	106.88
420.948	100.88
421.171	83.88
421.394	94.88
421.617	103.88
421.839	89.88
422.062	107.88
422.285	102.88
422.507	101.88
422.73	108.88
422.953	130.88
423.175	123.88
423.398	103.88
423.621	99.88
423.843	99.88
424.066	97.88
424.288	102.88
424.511	96.88
424.733	103.88
424.956	103.88
425.178	94.88
425.401	92.88
425.623	96.88
425.846	102.88
426.068	92.88
426.291	107.88
426.513	89.88
426.735	101.88
426.958	85.88
427.18	95.88
427.402	85.88
427.625	104.88
427.847	119.88
428.069	80.88
428.292	98.88
428.514	102.88
428.736	95.88
428.958	101.88
429.181	85.88
429.403	108.88
429.625	94.88
429.847	96.88
430.069	108.88
430.292	109.88
430.514	102.88
430.736	92.88
430.958	86.88
431.18	95.88
431.402	87.88
431.624	108.88
431.846	94.88
432.068	102.88
432.29	102.88
432.512	94.88
432.734	92.88
432.956	102.88
433.178	84.88
433.4	82.88
433.622	88.88
433.844	105.88
434.066	92.88
434.287	95.88
434.509	88.88
434.731	98.88
434.953	93.88
435.175	90.88
435.397	90.88
435.618	99.88
435.84	98.88
436.062	92.88
436.284	103.88
436.505	84.88
436.727	98.88
436.949	102.88
437.17	91.88
437.392	87.88
437.614	83.88
437.835	88.88
438.057	84.88
438.278	89.88
438.5	85.88
438.721	104.88
438.943	105.88
439.165	106.88
439.386	110.88
439.608	121.88
439.829	97.88
440.05	117.88
440.272	134.88
440.493	116.88
440.715	114.88
440.936	110.88
441.158	93.88
441.379	105.88
441.6	109.88
441.822	108.88
442.043	121.88
442.264	144.88
442.486	120.88
442.707	104.88
442.928	106.88
443.149	92.88
443.371	114.88
443.592	114.88
443.813	105.88
444.034	88.88
444.255	91.88
444.476	109.88
444.698	94.88
444.919	95.88
445.14	180.88
445.361	128.88
445.582	116.88
445.803	106.88
446.024	106.88
446.245	95.88
446.466	96.88
446.687	99.88
446.908	99.88
447.129	99.88
447.35	98.88
447.571	113.88
447.792	97.88
448.013	98.88
448.234	100.88
448.455	103.88
448.675	105.88
448.896	93.88
449.117	107.88
449.338	113.88
449.559	156.88
449.779	110.88
450	102.88
450.221	101.88
450.442	116.88
450.662	115.88
450.883	105.88
451.104	108.88
451.324	112.88
451.545	117.88
451.766	126.88
451.986	143.88
452.207	193.88
452.428	492.88
452.648	1194.88
452.869	716.88
453.089	210.88
453.31	128.88
453.53	122.88
453.751	136.88
453.971	163.88
454.192	161.88
454.412	112.88
454.633	100.88
454.853	92.88
455.073	83.88
455.294	85.88
455.514	99.88
455.734	98.88
455.955	101.88
456.175	109.88
456.395	93.88
456.616	74.88
456.836	97.88
457.056	91.88
457.276	108.88
457.497	117.88
457.717	108.88
457.937	105.88
458.157	112.88
458.377	92.88
458.598	81.88
458.818	93.88
459.038	77.88
459.258	97.88
459.478	96.88
459.698	103.88
459.918	104.88
460.138	94.88
460.358	91.88
460.578	91.88
460.798	78.88
461.018	90.88
461.238	88.88
461.458	98.88
461.678	101.88
461.898	91.88
462.118	96.88
462.338	96.88
462.558	92.88
462.777	97.88
462.997	94.88
463.217	108.88
463.437	124.88
463.657	171.88
463.876	182.88
464.096	117.88
464.316	103.88
464.536	89.88
464.755	102.88
464.975	100.88
465.195	95.88
465.414	106.88
465.634	101.88
465.854	97.88
466.073	97.88
466.293	75.88
466.512	94.88
466.732	98.88
466.951	116.88
467.171	155.88
467.391	137.88
467.61	106.88
467.829	118.88
468.049	99.88
468.268	104.88
468.488	93.88
468.707	90.88
468.927	93.88
469.146	104.88
469.365	113.88
469.585	98.88
469.804	96.88
470.023	96.88
470.243	101.88
470.462	93.88
470.681	111.88
470.901	125.88
471.12	179.88
471.339	202.88
471.558	145.88
471.777	117.88
471.997	84.88
472.216	91.88
472.435	97.88
472.654	94.88
472.873	94.88
473.092	99.88
473.311	101.88
473.53	102.88
473.749	115.88
473.968	107.88
474.187	89.88
474.406	91.88
474.625	103.88
474.844	98.88
475.063	106.88
475.282	105.88
475.501	86.88
475.72	98.88
475.939	98.88
476.158	106.88
476.377	119.88
476.596	100.88
476.814	95.88
477.033	92.88
477.252	94.88
477.471	89.88
477.69	87.88
477.908	97.88
478.127	109.88
478.346	105.88
478.564	98.88
478.783	83.88
479.002	107.88
479.22	100.88
479.439	102.88
479.658	95.88
479.876	91.88
480.095	79.88
480.313	108.88
480.532	106.88
480.751	102.88
480.969	101.88
481.188	94.88
481.406	92.88
481.624	92.88
481.843	116.88
482.061	115.88
482.28	107.88
482.498	90.88
482.717	99.88
482.935	95.88
483.153	104.88
483.372	105.88
483.59	99.88
483.808	96.88
484.027	116.88
484.245	131.88
484.463	169.88
484.681	237.88
484.9	142.88
485.118	107.88
485.336	118.88
485.554	93.88
485.772	120.88
485.99	173.88
486.209	244.88
486.427	152.88
486.645	106.88
486.863	112.88
487.081	107.88
487.299	89.88
487.517	103.88
487.735	98.88
487.953	117.88
488.171	116.88
488.389	98.88
488.607	88.88
488.825	95.88
489.043	98.88
489.261	99.88
489.479	109.88
489.696	109.88
489.914	90.88
490.132	99.88
490.35	97.88
490.568	100.88
490.786	112.88
491.003	117.88
491.221	99.88
491.439	114.88
491.657	96.88
491.874	103.88
492.092	109.88
492.31	106.88
492.527	98.88
492.745	103.88
492.963	119.88
493.18	113.88
493.398	91.88
493.615	102.88
493.833	111.88
494.05	117.88
494.268	97.88
494.485	109.88
494.703	111.88
494.92	100.88
495.138	108.88
495.355	100.88
495.573	112.88
495.79	106.88
496.008	91.88
496.225	99.88
496.442	95.88
496.66	113.88
496.877	152.88
497.094	147.88
497.312	113.88
497.529	88.88
497.746	97.88
497.963	95.88
498.181	112.88
498.398	112.88
498.615	102.88
498.832	92.88
499.049	108.88
499.267	132.88
499.484	158.88
499.701	128.88
499.918	113.88
500.135	106.88
500.352	101.88
500.569	100.88
500.786	99.88
501.003	92.88
501.22	83.88
501.437	93.88
501.654	96.88
501.871	117.88
502.088	94.88
502.305	90.88
502.522	93.88
502.739	75.88
502.956	93.88
503.172	97.88
503.389	97.88
503.606	98.88
503.823	94.88
504.04	98.88
504.256	97.88
504.473	101.88
504.69	84.88
504.907	107.88
505.123	111.88
505.34	108.88
505.557	107.88
505.773	95.88
505.99	83.88
506.207	87.88
506.423	99.88
506.64	95.88
506.856	109.88
507.073	118.88
507.289	97.88
507.506	104.88
507.722	90.88
507.939	96.88
508.155	90.88
508.372	98.88
