Data from SnStandardFlinnAPT0064_LampEnergy10_LIBS07252019.E.O._I.C._HRD10591_15-21-30-494.txt Node
Date: Thu Jul 25 15:21:30 EDT 2019
User: cochatt
Spectrometer: HR+D1059
Trigger mode: 1
Integration Time (sec): 1.000000E-1
Scans to average: 1
Electric dark correction enabled: true
Nonlinearity correction enabled: false
Boxcar width: 0
XAxis mode: Wavelengths
Number of Pixels in Spectrum: 2048
>>>>>Begin Spectral Data<<<<<
223.165	-17.81
223.4	-17.81
223.635	-17.81
223.869	-10.81
224.104	-21.81
224.338	-12.81
224.573	-15.81
224.808	3.19
225.042	-5.81
225.277	-12.81
225.511	4.19
225.746	1.19
225.98	14.19
226.215	25.19
226.449	11.19
226.683	8.19
226.918	16.19
227.152	14.19
227.387	43.19
227.621	29.19
227.856	51.19
228.09	37.19
228.324	36.19
228.559	66.19
228.793	125.19
229.027	317.19
229.262	362.19
229.496	321.19
229.73	308.19
229.964	308.19
230.199	297.19
230.433	323.19
230.667	343.19
230.901	312.19
231.136	331.19
231.37	365.19
231.604	387.19
231.838	444.19
232.072	535.19
232.306	578.19
232.541	484.19
232.775	438.19
233.009	401.19
233.243	421.19
233.477	449.19
233.711	523.19
233.945	588.19
234.179	507.19
234.413	443.19
234.647	463.19
234.881	459.19
235.115	521.19
235.349	590.19
235.583	794.19
235.817	979.19
236.051	980.19
236.285	634.19
236.519	535.19
236.753	520.19
236.987	516.19
237.221	539.19
237.455	502.19
237.689	479.19
237.922	484.19
238.156	480.19
238.39	488.19
238.624	510.19
238.858	500.19
239.091	514.19
239.325	505.19
239.559	492.19
239.793	492.19
240.027	526.19
240.26	548.19
240.494	556.19
240.728	597.19
240.961	630.19
241.195	659.19
241.429	668.19
241.662	701.19
241.896	772.19
242.13	948.19
242.363	1272.19
242.597	1620.19
242.83	1533.19
243.064	1541.19
243.298	1799.19
243.531	1507.19
243.765	941.19
243.998	755.19
244.232	708.19
244.465	683.19
244.699	656.19
244.932	647.19
245.166	667.19
245.399	685.19
245.633	668.19
245.866	677.19
246.099	655.19
246.333	647.19
246.566	665.19
246.8	630.19
247.033	626.19
247.266	667.19
247.5	656.19
247.733	656.19
247.966	702.19
248.2	752.19
248.433	894.19
248.666	976.19
248.899	946.19
249.133	857.19
249.366	853.19
249.599	931.19
249.832	1091.19
250.066	1104.19
250.299	844.19
250.532	790.19
250.765	767.19
250.998	737.19
251.231	761.19
251.465	741.19
251.698	745.19
251.931	704.19
252.164	769.19
252.397	738.19
252.63	779.19
252.863	806.19
253.096	814.19
253.329	794.19
253.562	776.19
253.795	774.19
254.028	802.19
254.261	823.19
254.494	919.19
254.727	1028.19
254.96	1230.19
255.193	1224.19
255.426	949.19
255.659	885.19
255.892	902.19
256.124	880.19
256.357	868.19
256.59	876.19
256.823	978.19
257.056	1115.19
257.289	1328.19
257.521	1497.19
257.754	1181.19
257.987	965.19
258.22	902.19
258.452	893.19
258.685	905.19
258.918	957.19
259.151	998.19
259.383	1076.19
259.616	1218.19
259.849	1268.19
260.081	1100.19
260.314	1012.19
260.547	965.19
260.779	949.19
261.012	948.19
261.244	970.19
261.477	993.19
261.71	1016.19
261.942	1012.19
262.175	991.19
262.407	1031.19
262.64	1039.19
262.872	1101.19
263.105	1130.19
263.337	1234.19
263.57	1298.19
263.802	1324.19
264.035	1314.19
264.267	1348.19
264.499	1396.19
264.732	1424.19
264.964	1477.19
265.197	1462.19
265.429	1443.19
265.661	1504.19
265.894	1597.19
266.126	1769.19
266.358	1958.19
266.591	1882.19
266.823	1642.19
267.055	1441.19
267.287	1390.19
267.52	1349.19
267.752	1345.19
267.984	1275.19
268.216	1288.19
268.448	1260.19
268.681	1237.19
268.913	1221.19
269.145	1230.19
269.377	1262.19
269.609	1265.19
269.841	1319.19
270.073	1408.19
270.306	1620.19
270.538	2140.19
270.77	3128.19
271.002	3886.19
271.234	2715.19
271.466	1848.19
271.698	1513.19
271.93	1388.19
272.162	1328.19
272.394	1291.19
272.626	1273.19
272.858	1236.19
273.09	1222.19
273.322	1224.19
273.553	1203.19
273.785	1165.19
274.017	1208.19
274.249	1202.19
274.481	1223.19
274.713	1210.19
274.945	1220.19
275.176	1216.19
275.408	1233.19
275.64	1245.19
275.872	1234.19
276.104	1288.19
276.335	1264.19
276.567	1277.19
276.799	1300.19
277.031	1314.19
277.262	1338.19
277.494	1411.19
277.726	1564.19
277.957	1835.19
278.189	2073.19
278.421	1963.19
278.652	1742.19
278.884	1683.19
279.115	1521.19
279.347	1448.19
279.579	1460.19
279.81	1405.19
280.042	1382.19
280.273	1458.19
280.505	1460.19
280.736	1472.19
280.968	1617.19
281.199	1748.19
281.431	2048.19
281.662	2096.19
281.894	1768.19
282.125	1651.19
282.356	1661.19
282.588	1663.19
282.819	1722.19
283.051	1814.19
283.282	2016.19
283.513	2423.19
283.745	3520.19
283.976	5645.19
284.207	8008.19
284.439	7261.19
284.67	4525.19
284.901	3734.19
285.132	3683.19
285.364	3553.19
285.595	2699.19
285.826	2434.19
286.057	2809.19
286.288	3843.19
286.52	5122.19
286.751	4835.19
286.982	3022.19
287.213	2244.19
287.444	2011.19
287.675	1872.19
287.906	1815.19
288.138	1692.19
288.369	1707.19
288.6	1647.19
288.831	1684.19
289.062	1666.19
289.293	1679.19
289.524	1673.19
289.755	1701.19
289.986	1722.19
290.217	1739.19
290.448	1729.19
290.679	1764.19
290.91	1830.19
291.141	1905.19
291.371	2044.19
291.602	2126.19
291.833	1926.19
292.064	1751.19
292.295	1704.19
292.526	1659.19
292.757	1653.19
292.987	1604.19
293.218	1592.19
293.449	1625.19
293.68	1612.19
293.91	1587.19
294.141	1549.19
294.372	1585.19
294.603	1586.19
294.833	1580.19
295.064	1587.19
295.295	1544.19
295.525	1573.19
295.756	1550.19
295.987	1548.19
296.217	1578.19
296.448	1606.19
296.679	1598.19
296.909	1579.19
297.14	1617.19
297.37	1634.19
297.601	1642.19
297.831	1635.19
298.062	1624.19
298.292	1641.19
298.523	1691.19
298.753	1724.19
298.984	1708.19
299.214	1709.19
299.445	1772.19
299.675	1769.19
299.905	1852.19
300.136	1913.19
300.366	2126.19
300.597	2711.19
300.827	3836.19
301.057	5170.19
301.288	5172.19
301.518	3373.19
301.748	2556.19
301.979	2369.19
302.209	2300.19
302.439	2275.19
302.669	2404.19
302.9	2892.19
303.13	4151.19
303.36	6064.19
303.59	8075.19
303.82	6966.19
304.051	4155.19
304.281	3069.19
304.511	2554.19
304.741	2353.19
304.971	2188.19
305.201	2085.19
305.431	2011.19
305.661	1952.19
305.891	1905.19
306.121	1864.19
306.352	1877.19
306.582	1858.19
306.812	1814.19
307.042	1862.19
307.272	1856.19
307.502	1792.19
307.731	1854.19
307.961	1810.19
308.191	1796.19
308.421	1792.19
308.651	1803.19
308.881	1791.19
309.111	1840.19
309.341	1829.19
309.571	1843.19
309.8	1867.19
310.03	1833.19
310.26	1847.19
310.49	1881.19
310.72	1917.19
310.949	1914.19
311.179	1912.19
311.409	1885.19
311.639	1909.19
311.868	1963.19
312.098	1966.19
312.328	1992.19
312.557	1987.19
312.787	1978.19
313.017	1957.19
313.246	2002.19
313.476	2062.19
313.706	2100.19
313.935	2211.19
314.165	2362.19
314.394	2485.19
314.624	2352.19
314.853	2157.19
315.083	2165.19
315.312	2162.19
315.542	2199.19
315.771	2230.19
316.001	2267.19
316.23	2312.19
316.46	2428.19
316.689	2700.19
316.919	3250.19
317.148	4524.19
317.377	6932.19
317.607	10349.19
317.836	10625.19
318.065	6529.19
318.295	4298.19
318.524	3364.19
318.753	2948.19
318.983	2728.19
319.212	2548.19
319.441	2468.19
319.67	2424.19
319.9	2414.19
320.129	2396.19
320.358	2351.19
320.587	2369.19
320.816	2349.19
321.046	2375.19
321.275	2352.19
321.504	2360.19
321.733	2423.19
321.962	2510.19
322.191	2527.19
322.42	2538.19
322.649	2519.19
322.878	2490.19
323.108	2452.19
323.337	2565.19
323.566	2528.19
323.795	2684.19
324.024	2685.19
324.253	2748.19
324.482	2882.19
324.71	2984.19
324.939	3232.19
325.168	3292.19
325.397	3347.19
325.626	4044.19
325.855	5586.19
326.084	8643.19
326.313	12544.19
326.542	13252.19
326.77	8910.19
326.999	5908.19
327.228	4991.19
327.457	4720.19
327.686	4826.19
327.914	5117.19
328.143	5926.19
328.372	7016.19
328.6	7843.19
328.829	6858.19
329.058	5839.19
329.287	5118.19
329.515	4652.19
329.744	4338.19
329.972	4106.19
330.201	3877.19
330.43	3740.19
330.658	3594.19
330.887	3565.19
331.115	3484.19
331.344	3499.19
331.572	3450.19
331.801	3466.19
332.03	3513.19
332.258	3559.19
332.486	3704.19
332.715	4293.19
332.943	5272.19
333.172	6499.19
333.4	6512.19
333.629	4987.19
333.857	4584.19
334.085	4544.19
334.314	4722.19
334.542	5163.19
334.771	6009.19
334.999	7415.19
335.227	9209.19
335.455	10357.19
335.684	9289.19
335.912	7668.19
336.14	6546.19
336.369	5720.19
336.597	5279.19
336.825	4808.19
337.053	4584.19
337.281	4290.19
337.51	4082.19
337.738	3939.19
337.966	3768.19
338.194	3615.19
338.422	3489.19
338.65	3384.19
338.878	3309.19
339.106	3259.19
339.334	3235.19
339.562	3179.19
339.79	3109.19
340.018	3088.19
340.246	3093.19
340.474	3046.19
340.702	3052.19
340.93	3068.19
341.158	3094.19
341.386	2994.19
341.614	2962.19
341.842	2972.19
342.07	2847.19
342.298	2822.19
342.526	2767.19
342.754	2776.19
342.981	2773.19
343.209	2772.19
343.437	2786.19
343.665	2788.19
343.893	2865.19
344.12	2845.19
344.348	2765.19
344.576	2782.19
344.804	2707.19
345.031	2637.19
345.259	2650.19
345.487	2609.19
345.714	2571.19
345.942	2568.19
346.17	2560.19
346.397	2579.19
346.625	2583.19
346.853	2536.19
347.08	2522.19
347.308	2502.19
347.535	2536.19
347.763	2548.19
347.99	2494.19
348.218	2486.19
348.445	2507.19
348.673	2466.19
348.9	2457.19
349.128	2494.19
349.355	2488.19
349.583	2493.19
349.81	2400.19
350.037	2402.19
350.265	2409.19
350.492	2362.19
350.72	2398.19
350.947	2427.19
351.174	2474.19
351.402	2388.19
351.629	2381.19
351.856	2427.19
352.083	2412.19
352.311	2373.19
352.538	2364.19
352.765	2373.19
352.992	2354.19
353.22	2399.19
353.447	2400.19
353.674	2419.19
353.901	2412.19
354.128	2398.19
354.355	2430.19
354.583	2402.19
354.81	2446.19
355.037	2466.19
355.264	2435.19
355.491	2451.19
355.718	2430.19
355.945	2453.19
356.172	2494.19
356.399	2481.19
356.626	2506.19
356.853	2548.19
357.08	2531.19
357.307	2560.19
357.534	2608.19
357.761	2573.19
357.988	2595.19
358.215	2621.19
358.441	2568.19
358.668	2558.19
358.895	2520.19
359.122	2528.19
359.349	2538.19
359.576	2567.19
359.802	2554.19
360.029	2544.19
360.256	2532.19
360.483	2646.19
360.709	2565.19
360.936	2552.19
361.163	2533.19
361.39	2562.19
361.616	2568.19
361.843	2588.19
362.07	2574.19
362.296	2554.19
362.523	2605.19
362.749	2574.19
362.976	2582.19
363.203	2558.19
363.429	2565.19
363.656	2554.19
363.882	2562.19
364.109	2574.19
364.335	2538.19
364.562	2545.19
364.788	2582.19
365.015	2584.19
365.241	2665.19
365.468	2820.19
365.694	2951.19
365.92	2876.19
366.147	2645.19
366.373	2669.19
366.599	2615.19
366.826	2624.19
367.052	2593.19
367.278	2621.19
367.505	2624.19
367.731	2664.19
367.957	2625.19
368.184	2635.19
368.41	2670.19
368.636	2708.19
368.862	2682.19
369.089	2669.19
369.315	2660.19
369.541	2652.19
369.767	2669.19
369.993	2630.19
370.219	2659.19
370.445	2659.19
370.672	2698.19
370.898	2663.19
371.124	2744.19
371.35	2700.19
371.576	2718.19
371.802	2769.19
372.028	2775.19
372.254	2808.19
372.48	2792.19
372.706	2816.19
372.932	2816.19
373.158	2825.19
373.384	2843.19
373.61	2795.19
373.835	2846.19
374.061	2828.19
374.287	2868.19
374.513	2915.19
374.739	2920.19
374.965	2951.19
375.191	2923.19
375.416	2925.19
375.642	2907.19
375.868	2894.19
376.094	2826.19
376.319	2814.19
376.545	2822.19
376.771	2745.19
376.997	2725.19
377.222	2721.19
377.448	2742.19
377.674	2720.19
377.899	2724.19
378.125	2741.19
378.35	2760.19
378.576	2741.19
378.802	2760.19
379.027	2836.19
379.253	2960.19
379.478	3068.19
379.704	3547.19
379.929	5094.19
380.155	7828.19
380.38	8506.19
380.606	5243.19
380.831	3712.19
381.057	3237.19
381.282	3003.19
381.507	2892.19
381.733	2832.19
381.958	2720.19
382.184	2739.19
382.409	2764.19
382.634	2701.19
382.86	2696.19
383.085	2690.19
383.31	2696.19
383.535	2710.19
383.761	2661.19
383.986	2766.19
384.211	2785.19
384.436	2727.19
384.662	2794.19
384.887	2761.19
385.112	2771.19
385.337	2809.19
385.562	2777.19
385.787	2774.19
386.013	2808.19
386.238	2784.19
386.463	2802.19
386.688	2794.19
386.913	2780.19
387.138	2771.19
387.363	2775.19
387.588	2764.19
387.813	2770.19
388.038	2737.19
388.263	2756.19
388.488	2785.19
388.713	2768.19
388.938	2795.19
389.163	2819.19
389.387	2838.19
389.612	2802.19
389.837	2780.19
390.062	2814.19
390.287	2812.19
390.512	2823.19
390.736	2894.19
390.961	2902.19
391.186	2894.19
391.411	2891.19
391.636	2917.19
391.86	2997.19
392.085	2941.19
392.31	2921.19
392.534	2864.19
392.759	2886.19
392.984	2817.19
393.208	2869.19
393.433	2872.19
393.658	2871.19
393.882	2805.19
394.107	2804.19
394.331	2817.19
394.556	2884.19
394.78	2816.19
395.005	2874.19
395.229	2850.19
395.454	2912.19
395.678	2915.19
395.903	2921.19
396.127	2893.19
396.352	2902.19
396.576	2869.19
396.801	2866.19
397.025	2884.19
397.249	2916.19
397.474	2907.19
397.698	2897.19
397.922	2959.19
398.147	2944.19
398.371	3013.19
398.595	3043.19
398.82	3066.19
399.044	3226.19
399.268	3314.19
399.492	3558.19
399.717	3730.19
399.941	3694.19
400.165	3584.19
400.389	3418.19
400.613	3302.19
400.837	3145.19
401.062	3110.19
401.286	3073.19
401.51	3088.19
401.734	3009.19
401.958	3107.19
402.182	3092.19
402.406	3069.19
402.63	3093.19
402.854	3164.19
403.078	3160.19
403.302	3140.19
403.526	3212.19
403.75	3206.19
403.974	3180.19
404.198	3137.19
404.422	3215.19
404.645	3198.19
404.869	3194.19
405.093	3196.19
405.317	3152.19
405.541	3240.19
405.765	3227.19
405.988	3281.19
406.212	3307.19
406.436	3256.19
406.66	3335.19
406.883	3273.19
407.107	3417.19
407.331	3385.19
407.555	3494.19
407.778	3474.19
408.002	3430.19
408.226	3388.19
408.449	3413.19
408.673	3332.19
408.896	3282.19
409.12	3240.19
409.344	3201.19
409.567	3220.19
409.791	3242.19
410.014	3177.19
410.238	3170.19
410.461	3170.19
410.685	3082.19
410.908	3136.19
411.132	3120.19
411.355	3073.19
411.578	3061.19
411.802	3097.19
412.025	3044.19
412.249	3115.19
412.472	3060.19
412.695	3026.19
412.919	3056.19
413.142	2987.19
413.365	3000.19
413.589	2994.19
413.812	2983.19
414.035	2989.19
414.258	3014.19
414.482	3031.19
414.705	3045.19
414.928	3029.19
415.151	3002.19
415.374	2998.19
415.597	2983.19
415.821	2890.19
416.044	2884.19
416.267	2877.19
416.49	2905.19
416.713	2846.19
416.936	2921.19
417.159	2862.19
417.382	2872.19
417.605	2852.19
417.828	2820.19
418.051	2896.19
418.274	2961.19
418.497	2962.19
418.72	2966.19
418.943	2891.19
419.166	3082.19
419.389	3248.19
419.611	3208.19
419.834	3081.19
420.057	2995.19
420.28	2987.19
420.503	2898.19
420.726	2873.19
420.948	2880.19
421.171	2882.19
421.394	2892.19
421.617	2908.19
421.839	2910.19
422.062	2910.19
422.285	2872.19
422.507	2924.19
422.73	2916.19
422.953	2977.19
423.175	2949.19
423.398	2915.19
423.621	2875.19
423.843	2889.19
424.066	2932.19
424.288	2875.19
424.511	2874.19
424.733	2943.19
424.956	2872.19
425.178	2842.19
425.401	2849.19
425.623	2869.19
425.846	2781.19
426.068	2812.19
426.291	2870.19
426.513	2771.19
426.735	2785.19
426.958	2766.19
427.18	2729.19
427.402	2765.19
427.625	2740.19
427.847	2738.19
428.069	2713.19
428.292	2726.19
428.514	2659.19
428.736	2692.19
428.958	2722.19
429.181	2645.19
429.403	2598.19
429.625	2669.19
429.847	2679.19
430.069	2769.19
430.292	2828.19
430.514	2885.19
430.736	2820.19
430.958	2726.19
431.18	2656.19
431.402	2654.19
431.624	2657.19
431.846	2607.19
432.068	2588.19
432.29	2676.19
432.512	2590.19
432.734	2706.19
432.956	2614.19
433.178	2666.19
433.4	2667.19
433.622	2672.19
433.844	2692.19
434.066	2691.19
434.287	2649.19
434.509	2698.19
434.731	2765.19
434.953	2725.19
435.175	2791.19
435.397	2807.19
435.618	2725.19
435.84	2688.19
436.062	2603.19
436.284	2646.19
436.505	2666.19
436.727	2628.19
436.949	2633.19
437.17	2637.19
437.392	2587.19
437.614	2570.19
437.835	2525.19
438.057	2565.19
438.278	2544.19
438.5	2557.19
438.721	2612.19
438.943	2677.19
439.165	2730.19
439.386	2829.19
439.608	2743.19
439.829	2748.19
440.05	2800.19
440.272	2906.19
440.493	2783.19
440.715	2738.19
440.936	2726.19
441.158	2764.19
441.379	2786.19
441.6	2899.19
441.822	2991.19
442.043	3056.19
442.264	3179.19
442.486	3028.19
442.707	2839.19
442.928	2848.19
443.149	2807.19
443.371	2824.19
443.592	2822.19
443.813	2819.19
444.034	2823.19
444.255	2909.19
444.476	2956.19
444.698	3064.19
444.919	3018.19
445.14	3122.19
445.361	3004.19
445.582	2935.19
445.803	2889.19
446.024	2762.19
446.245	2867.19
446.466	2793.19
446.687	2777.19
446.908	2747.19
447.129	2751.19
447.35	2660.19
447.571	2722.19
447.792	2657.19
448.013	2611.19
448.234	2613.19
448.455	2591.19
448.675	2620.19
448.896	2692.19
449.117	2774.19
449.338	3061.19
449.559	3132.19
449.779	2764.19
450	2638.19
450.221	2602.19
450.442	2595.19
450.662	2556.19
450.883	2561.19
451.104	2510.19
451.324	2529.19
451.545	2562.19
451.766	2578.19
451.986	2581.19
452.207	2817.19
452.428	3566.19
452.648	5351.19
452.869	4556.19
453.089	3208.19
453.31	2939.19
453.53	2914.19
453.751	3018.19
453.971	3192.19
454.192	3100.19
454.412	2701.19
454.633	2592.19
454.853	2493.19
455.073	2438.19
455.294	2485.19
455.514	2409.19
455.734	2458.19
455.955	2397.19
456.175	2427.19
456.395	2413.19
456.616	2424.19
456.836	2499.19
457.056	2488.19
457.276	2517.19
457.497	2682.19
457.717	2722.19
457.937	2576.19
458.157	2607.19
458.377	2564.19
458.598	2629.19
458.818	2621.19
459.038	2633.19
459.258	2594.19
459.478	2656.19
459.698	2701.19
459.918	2722.19
460.138	2795.19
460.358	2828.19
460.578	2839.19
460.798	2844.19
461.018	2881.19
461.238	2904.19
461.458	2927.19
461.678	2919.19
461.898	2973.19
462.118	3045.19
462.338	3066.19
462.558	3139.19
462.777	3165.19
462.997	3260.19
463.217	3422.19
463.437	3474.19
463.657	3604.19
463.876	3572.19
464.096	3384.19
464.316	3222.19
464.536	3149.19
464.755	3074.19
464.975	3068.19
465.195	2901.19
465.414	2864.19
465.634	2750.19
465.854	2712.19
466.073	2694.19
466.293	2670.19
466.512	2664.19
466.732	2647.19
466.951	2832.19
467.171	3008.19
467.391	2959.19
467.61	2724.19
467.829	2668.19
468.049	2641.19
468.268	2598.19
468.488	2577.19
468.707	2598.19
468.927	2611.19
469.146	2572.19
469.365	2642.19
469.585	2620.19
469.804	2694.19
470.023	2740.19
470.243	2850.19
470.462	2876.19
470.681	3021.19
470.901	3314.19
471.12	3778.19
471.339	3747.19
471.558	3145.19
471.777	2889.19
471.997	2780.19
472.216	2705.19
472.435	2643.19
472.654	2629.19
472.873	2632.19
473.092	2642.19
473.311	2636.19
473.53	2665.19
473.749	2686.19
473.968	2796.19
474.187	2679.19
474.406	2572.19
474.625	2618.19
474.844	2621.19
475.063	2642.19
475.282	2619.19
475.501	2698.19
475.72	2696.19
475.939	2713.19
476.158	2742.19
476.377	2808.19
476.596	2685.19
476.814	2734.19
477.033	2779.19
477.252	2785.19
477.471	2848.19
477.69	2894.19
477.908	2953.19
478.127	2983.19
478.346	2946.19
478.564	2977.19
478.783	3089.19
479.002	3087.19
479.22	3129.19
479.439	3148.19
479.658	3090.19
479.876	3143.19
480.095	3143.19
480.313	3215.19
480.532	3250.19
480.751	3260.19
480.969	3217.19
481.188	3225.19
481.406	3162.19
481.624	3175.19
481.843	3152.19
482.061	3224.19
482.28	3148.19
482.498	3103.19
482.717	3104.19
482.935	3227.19
483.153	3312.19
483.372	3252.19
483.59	3305.19
483.808	3395.19
484.027	3478.19
484.245	3650.19
484.463	4059.19
484.681	4517.19
484.9	4122.19
485.118	3788.19
485.336	3788.19
485.554	3806.19
485.772	4029.19
485.99	4603.19
486.209	4882.19
486.427	4136.19
486.645	3652.19
486.863	3547.19
487.081	3476.19
487.299	3419.19
487.517	3355.19
487.735	3341.19
