Data from SnStandardFlinnAPT0064_LampEnergy10_LIBS07252019.E.O._I.C._HRD10591_15-22-26-494.txt Node
Date: Thu Jul 25 15:22:26 EDT 2019
User: cochatt
Spectrometer: HR+D1059
Trigger mode: 1
Integration Time (sec): 1.000000E-1
Scans to average: 1
Electric dark correction enabled: true
Nonlinearity correction enabled: false
Boxcar width: 0
XAxis mode: Wavelengths
Number of Pixels in Spectrum: 2048
>>>>>Begin Spectral Data<<<<<
223.165	-27.31
223.4	-27.31
223.635	-27.31
223.869	-16.31
224.104	-24.31
224.338	-5.31
224.573	-3.31
224.808	-7.31
225.042	-2.31
225.277	-14.31
225.511	2.69
225.746	-9.31
225.98	10.69
226.215	6.69
226.449	6.69
226.683	37.69
226.918	21.69
227.152	23.69
227.387	26.69
227.621	25.69
227.856	38.69
228.09	58.69
228.324	57.69
228.559	69.69
228.793	113.69
229.027	316.69
229.262	337.69
229.496	298.69
229.73	299.69
229.964	292.69
230.199	297.69
230.433	302.69
230.667	324.69
230.901	333.69
231.136	347.69
231.37	352.69
231.604	373.69
231.838	420.69
232.072	516.69
232.306	542.69
232.541	454.69
232.775	404.69
233.009	409.69
233.243	402.69
233.477	441.69
233.711	492.69
233.945	562.69
234.179	493.69
234.413	441.69
234.647	430.69
234.881	455.69
235.115	482.69
235.349	606.69
235.583	755.69
235.817	970.69
236.051	962.69
236.285	643.69
236.519	524.69
236.753	484.69
236.987	488.69
237.221	522.69
237.455	517.69
237.689	472.69
237.922	457.69
238.156	468.69
238.39	481.69
238.624	486.69
238.858	481.69
239.091	479.69
239.325	498.69
239.559	494.69
239.793	502.69
240.027	528.69
240.26	519.69
240.494	545.69
240.728	565.69
240.961	606.69
241.195	632.69
241.429	644.69
241.662	707.69
241.896	776.69
242.13	912.69
242.363	1204.69
242.597	1626.69
242.83	1530.69
243.064	1512.69
243.298	1781.69
243.531	1452.69
243.765	932.69
243.998	773.69
244.232	691.69
244.465	665.69
244.699	642.69
244.932	615.69
245.166	638.69
245.399	671.69
245.633	675.69
245.866	682.69
246.099	679.69
246.333	647.69
246.566	623.69
246.8	634.69
247.033	630.69
247.266	639.69
247.5	645.69
247.733	684.69
247.966	701.69
248.2	742.69
248.433	860.69
248.666	977.69
248.899	931.69
249.133	823.69
249.366	868.69
249.599	930.69
249.832	1072.69
250.066	1078.69
250.299	862.69
250.532	776.69
250.765	747.69
250.998	717.69
251.231	728.69
251.465	721.69
251.698	752.69
251.931	731.69
252.164	726.69
252.397	730.69
252.63	785.69
252.863	772.69
253.096	765.69
253.329	800.69
253.562	792.69
253.795	784.69
254.028	778.69
254.261	814.69
254.494	852.69
254.727	998.69
254.96	1233.69
255.193	1247.69
255.426	952.69
255.659	876.69
255.892	836.69
256.124	858.69
256.357	878.69
256.59	900.69
256.823	948.69
257.056	1080.69
257.289	1315.69
257.521	1428.69
257.754	1178.69
257.987	972.69
258.22	921.69
258.452	912.69
258.685	946.69
258.918	930.69
259.151	991.69
259.383	1075.69
259.616	1196.69
259.849	1247.69
260.081	1066.69
260.314	994.69
260.547	948.69
260.779	949.69
261.012	961.69
261.244	969.69
261.477	975.69
261.71	1002.69
261.942	982.69
262.175	1002.69
262.407	1027.69
262.64	1062.69
262.872	1096.69
263.105	1123.69
263.337	1212.69
263.57	1259.69
263.802	1318.69
264.035	1317.69
264.267	1319.69
264.499	1364.69
264.732	1416.69
264.964	1441.69
265.197	1441.69
265.429	1434.69
265.661	1484.69
265.894	1586.69
266.126	1766.69
266.358	1932.69
266.591	1907.69
266.823	1591.69
267.055	1449.69
267.287	1402.69
267.52	1314.69
267.752	1287.69
267.984	1307.69
268.216	1258.69
268.448	1257.69
268.681	1220.69
268.913	1214.69
269.145	1247.69
269.377	1216.69
269.609	1244.69
269.841	1319.69
270.073	1363.69
270.306	1572.69
270.538	2165.69
270.77	3130.69
271.002	3949.69
271.234	2727.69
271.466	1834.69
271.698	1508.69
271.93	1394.69
272.162	1303.69
272.394	1276.69
272.626	1261.69
272.858	1208.69
273.09	1202.69
273.322	1213.69
273.553	1207.69
273.785	1200.69
274.017	1185.69
274.249	1216.69
274.481	1207.69
274.713	1208.69
274.945	1235.69
275.176	1208.69
275.408	1219.69
275.64	1242.69
275.872	1256.69
276.104	1268.69
276.335	1247.69
276.567	1267.69
276.799	1257.69
277.031	1300.69
277.262	1312.69
277.494	1396.69
277.726	1547.69
277.957	1819.69
278.189	2092.69
278.421	1974.69
278.652	1784.69
278.884	1671.69
279.115	1458.69
279.347	1412.69
279.579	1366.69
279.81	1378.69
280.042	1395.69
280.273	1406.69
280.505	1416.69
280.736	1495.69
280.968	1554.69
281.199	1772.69
281.431	2008.69
281.662	2075.69
281.894	1701.69
282.125	1591.69
282.356	1573.69
282.588	1630.69
282.819	1660.69
283.051	1797.69
283.282	2000.69
283.513	2436.69
283.745	3529.69
283.976	5576.69
284.207	7965.69
284.439	7193.69
284.67	4440.69
284.901	3618.69
285.132	3636.69
285.364	3514.69
285.595	2685.69
285.826	2406.69
286.057	2795.69
286.288	3798.69
286.52	5215.69
286.751	4847.69
286.982	2956.69
287.213	2228.69
287.444	1941.69
287.675	1869.69
287.906	1761.69
288.138	1700.69
288.369	1729.69
288.6	1658.69
288.831	1660.69
289.062	1623.69
289.293	1690.69
289.524	1703.69
289.755	1681.69
289.986	1701.69
290.217	1683.69
290.448	1676.69
290.679	1751.69
290.91	1762.69
291.141	1833.69
291.371	2036.69
291.602	2103.69
291.833	1881.69
292.064	1704.69
292.295	1661.69
292.526	1619.69
292.757	1578.69
292.987	1576.69
293.218	1563.69
293.449	1548.69
293.68	1605.69
293.91	1562.69
294.141	1570.69
294.372	1573.69
294.603	1561.69
294.833	1543.69
295.064	1541.69
295.295	1552.69
295.525	1570.69
295.756	1506.69
295.987	1512.69
296.217	1588.69
296.448	1580.69
296.679	1559.69
296.909	1595.69
297.14	1589.69
297.37	1613.69
297.601	1659.69
297.831	1582.69
298.062	1650.69
298.292	1627.69
298.523	1684.69
298.753	1672.69
298.984	1677.69
299.214	1740.69
299.445	1718.69
299.675	1745.69
299.905	1797.69
300.136	1879.69
300.366	2093.69
300.597	2718.69
300.827	3848.69
301.057	5166.69
301.288	5072.69
301.518	3282.69
301.748	2546.69
301.979	2309.69
302.209	2238.69
302.439	2276.69
302.669	2398.69
302.9	2938.69
303.13	4153.69
303.36	6074.69
303.59	8160.69
303.82	7132.69
304.051	4110.69
304.281	2966.69
304.511	2498.69
304.741	2304.69
304.971	2175.69
305.201	2080.69
305.431	1978.69
305.661	1972.69
305.891	1868.69
306.121	1888.69
306.352	1912.69
306.582	1849.69
306.812	1825.69
307.042	1832.69
307.272	1795.69
307.502	1828.69
307.731	1802.69
307.961	1819.69
308.191	1802.69
308.421	1757.69
308.651	1792.69
308.881	1802.69
309.111	1842.69
309.341	1828.69
309.571	1854.69
309.8	1865.69
310.03	1842.69
310.26	1860.69
310.49	1824.69
310.72	1872.69
310.949	1835.69
311.179	1939.69
311.409	1938.69
311.639	1908.69
311.868	1930.69
312.098	1942.69
312.328	1920.69
312.557	1954.69
312.787	1956.69
313.017	1975.69
313.246	1998.69
313.476	2036.69
313.706	2106.69
313.935	2179.69
314.165	2367.69
314.394	2457.69
314.624	2332.69
314.853	2155.69
315.083	2138.69
315.312	2159.69
315.542	2168.69
315.771	2188.69
316.001	2231.69
316.23	2293.69
316.46	2431.69
316.689	2616.69
316.919	3162.69
317.148	4555.69
317.377	7033.69
317.607	10492.69
317.836	10711.69
318.065	6357.69
318.295	4116.69
318.524	3320.69
318.753	2897.69
318.983	2707.69
319.212	2541.69
319.441	2504.69
319.67	2440.69
319.9	2371.69
320.129	2319.69
320.358	2358.69
320.587	2276.69
320.816	2305.69
321.046	2336.69
321.275	2330.69
321.504	2437.69
321.733	2446.69
321.962	2543.69
322.191	2515.69
322.42	2488.69
322.649	2461.69
322.878	2447.69
323.108	2476.69
323.337	2473.69
323.566	2517.69
323.795	2645.69
324.024	2640.69
324.253	2746.69
324.482	2802.69
324.71	2939.69
324.939	3235.69
325.168	3256.69
325.397	3350.69
325.626	3934.69
325.855	5520.69
326.084	8653.69
326.313	12637.69
326.542	13334.69
326.77	8842.69
326.999	5722.69
327.228	4792.69
327.457	4596.69
327.686	4690.69
327.914	5026.69
328.143	5806.69
328.372	6926.69
328.6	7526.69
328.829	6779.69
329.058	5695.69
329.287	4974.69
329.515	4610.69
329.744	4236.69
329.972	4002.69
330.201	3794.69
330.43	3702.69
330.658	3602.69
330.887	3518.69
331.115	3490.69
331.344	3530.69
331.572	3450.69
331.801	3513.69
332.03	3472.69
332.258	3527.69
332.486	3672.69
332.715	4316.69
332.943	5235.69
333.172	6526.69
333.4	6567.69
333.629	4892.69
333.857	4436.69
334.085	4467.69
334.314	4630.69
334.542	5043.69
334.771	5919.69
334.999	7249.69
335.227	9051.69
335.455	10216.69
335.684	9062.69
335.912	7552.69
336.14	6342.69
336.369	5670.69
336.597	5141.69
336.825	4760.69
337.053	4515.69
337.281	4255.69
337.51	4056.69
337.738	3860.69
337.966	3707.69
338.194	3561.69
338.422	3495.69
338.65	3394.69
338.878	3336.69
339.106	3264.69
339.334	3200.69
339.562	3106.69
339.79	3067.69
340.018	3137.69
340.246	3038.69
340.474	3074.69
340.702	3014.69
340.93	2987.69
341.158	3037.69
341.386	3011.69
341.614	2997.69
341.842	2948.69
342.07	2821.69
342.298	2816.69
342.526	2765.69
342.754	2756.69
342.981	2664.69
343.209	2765.69
343.437	2765.69
343.665	2782.69
343.893	2788.69
344.12	2841.69
344.348	2799.69
344.576	2736.69
344.804	2742.69
345.031	2670.69
345.259	2650.69
345.487	2562.69
345.714	2587.69
345.942	2538.69
346.17	2573.69
346.397	2472.69
346.625	2579.69
346.853	2549.69
347.08	2543.69
347.308	2539.69
347.535	2526.69
347.763	2564.69
347.99	2519.69
348.218	2499.69
348.445	2475.69
348.673	2469.69
348.9	2472.69
349.128	2449.69
349.355	2483.69
349.583	2455.69
349.81	2465.69
350.037	2404.69
350.265	2358.69
350.492	2442.69
350.72	2417.69
350.947	2443.69
351.174	2432.69
351.402	2428.69
351.629	2411.69
351.856	2384.69
352.083	2377.69
352.311	2379.69
352.538	2410.69
352.765	2392.69
352.992	2317.69
353.22	2371.69
353.447	2377.69
353.674	2422.69
353.901	2432.69
354.128	2395.69
354.355	2400.69
354.583	2406.69
354.81	2410.69
355.037	2422.69
355.264	2416.69
355.491	2408.69
355.718	2415.69
355.945	2512.69
356.172	2439.69
356.399	2425.69
356.626	2478.69
356.853	2518.69
357.08	2489.69
357.307	2593.69
357.534	2586.69
357.761	2565.69
357.988	2576.69
358.215	2596.69
358.441	2567.69
358.668	2590.69
358.895	2560.69
359.122	2580.69
359.349	2555.69
359.576	2556.69
359.802	2511.69
360.029	2531.69
360.256	2522.69
360.483	2571.69
360.709	2581.69
360.936	2576.69
361.163	2542.69
361.39	2552.69
361.616	2594.69
361.843	2546.69
362.07	2597.69
362.296	2549.69
362.523	2552.69
362.749	2578.69
362.976	2560.69
363.203	2559.69
363.429	2563.69
363.656	2543.69
363.882	2520.69
364.109	2510.69
364.335	2478.69
364.562	2564.69
364.788	2501.69
365.015	2614.69
365.241	2633.69
365.468	2793.69
365.694	2937.69
365.92	2794.69
366.147	2619.69
366.373	2634.69
366.599	2636.69
366.826	2644.69
367.052	2608.69
367.278	2678.69
367.505	2630.69
367.731	2611.69
367.957	2652.69
368.184	2638.69
368.41	2649.69
368.636	2711.69
368.862	2659.69
369.089	2662.69
369.315	2676.69
369.541	2629.69
369.767	2661.69
369.993	2626.69
370.219	2655.69
370.445	2654.69
370.672	2686.69
370.898	2668.69
371.124	2713.69
371.35	2774.69
371.576	2743.69
371.802	2764.69
372.028	2726.69
372.254	2746.69
372.48	2749.69
372.706	2807.69
372.932	2788.69
373.158	2812.69
373.384	2782.69
373.61	2751.69
373.835	2780.69
374.061	2787.69
374.287	2798.69
374.513	2794.69
374.739	2889.69
374.965	2873.69
375.191	2951.69
375.416	2868.69
375.642	2836.69
375.868	2904.69
376.094	2784.69
376.319	2791.69
376.545	2806.69
376.771	2798.69
376.997	2758.69
377.222	2783.69
377.448	2727.69
377.674	2769.69
377.899	2688.69
378.125	2706.69
378.35	2778.69
378.576	2713.69
378.802	2761.69
379.027	2823.69
379.253	2869.69
379.478	3089.69
379.704	3580.69
379.929	5186.69
380.155	7877.69
380.38	8544.69
380.606	5218.69
380.831	3642.69
381.057	3133.69
381.282	2982.69
381.507	2870.69
381.733	2835.69
381.958	2778.69
382.184	2721.69
382.409	2707.69
382.634	2694.69
382.86	2736.69
383.085	2732.69
383.31	2718.69
383.535	2661.69
383.761	2730.69
383.986	2684.69
384.211	2756.69
384.436	2748.69
384.662	2763.69
384.887	2800.69
385.112	2766.69
385.337	2799.69
385.562	2832.69
385.787	2796.69
386.013	2801.69
386.238	2768.69
386.463	2769.69
386.688	2763.69
386.913	2786.69
387.138	2742.69
387.363	2741.69
387.588	2787.69
387.813	2763.69
388.038	2734.69
388.263	2741.69
388.488	2730.69
388.713	2784.69
388.938	2762.69
389.163	2736.69
389.387	2812.69
389.612	2791.69
389.837	2778.69
390.062	2810.69
390.287	2791.69
390.512	2853.69
390.736	2860.69
390.961	2931.69
391.186	2878.69
391.411	2881.69
391.636	2963.69
391.86	2940.69
392.085	2946.69
392.31	2879.69
392.534	2857.69
392.759	2872.69
392.984	2836.69
393.208	2892.69
393.433	2907.69
393.658	2862.69
393.882	2779.69
394.107	2828.69
394.331	2788.69
394.556	2834.69
394.78	2862.69
395.005	2823.69
395.229	2841.69
395.454	2906.69
395.678	2922.69
395.903	2910.69
396.127	2935.69
396.352	2891.69
396.576	2864.69
396.801	2864.69
397.025	2963.69
397.249	2962.69
397.474	2946.69
397.698	2907.69
397.922	2972.69
398.147	2930.69
398.371	3009.69
398.595	3072.69
398.82	3112.69
399.044	3213.69
399.268	3350.69
399.492	3569.69
399.717	3704.69
399.941	3686.69
400.165	3528.69
400.389	3393.69
400.613	3292.69
400.837	3195.69
401.062	3135.69
401.286	3092.69
401.51	3013.69
401.734	3049.69
401.958	3106.69
402.182	3099.69
402.406	3063.69
402.63	3139.69
402.854	3110.69
403.078	3106.69
403.302	3196.69
403.526	3161.69
403.75	3168.69
403.974	3208.69
404.198	3182.69
404.422	3237.69
404.645	3200.69
404.869	3177.69
405.093	3142.69
405.317	3154.69
405.541	3205.69
405.765	3277.69
405.988	3275.69
406.212	3317.69
406.436	3299.69
406.66	3319.69
406.883	3301.69
407.107	3404.69
407.331	3457.69
407.555	3520.69
407.778	3462.69
408.002	3419.69
408.226	3432.69
408.449	3372.69
408.673	3299.69
408.896	3222.69
409.12	3231.69
409.344	3278.69
409.567	3156.69
409.791	3195.69
410.014	3200.69
410.238	3160.69
410.461	3180.69
410.685	3141.69
410.908	3132.69
411.132	3100.69
411.355	3051.69
411.578	3048.69
411.802	3080.69
412.025	3023.69
412.249	3076.69
412.472	3045.69
412.695	3014.69
412.919	2992.69
413.142	3009.69
413.365	3009.69
413.589	3027.69
413.812	2936.69
414.035	2964.69
414.258	2981.69
414.482	3033.69
414.705	3023.69
414.928	2985.69
415.151	3014.69
415.374	2987.69
415.597	2974.69
415.821	2954.69
416.044	2914.69
416.267	2903.69
416.49	2876.69
416.713	2890.69
416.936	2867.69
417.159	2874.69
417.382	2819.69
417.605	2850.69
417.828	2851.69
418.051	2932.69
418.274	2918.69
418.497	2895.69
418.72	2958.69
418.943	2934.69
419.166	3054.69
419.389	3279.69
419.611	3132.69
419.834	3040.69
420.057	2979.69
420.28	2908.69
420.503	2828.69
420.726	2854.69
420.948	2844.69
421.171	2857.69
421.394	2931.69
421.617	2888.69
421.839	2913.69
422.062	2906.69
422.285	2810.69
422.507	2914.69
422.73	2959.69
422.953	2990.69
423.175	3016.69
423.398	2930.69
423.621	2896.69
423.843	2890.69
424.066	2916.69
424.288	2859.69
424.511	2888.69
424.733	2912.69
424.956	2892.69
425.178	2838.69
425.401	2873.69
425.623	2826.69
425.846	2798.69
426.068	2746.69
426.291	2775.69
426.513	2771.69
426.735	2738.69
426.958	2747.69
427.18	2707.69
427.402	2755.69
427.625	2732.69
427.847	2691.69
428.069	2650.69
428.292	2756.69
428.514	2677.69
428.736	2723.69
428.958	2697.69
429.181	2665.69
429.403	2653.69
429.625	2649.69
429.847	2681.69
430.069	2706.69
430.292	2768.69
430.514	2878.69
430.736	2871.69
430.958	2728.69
431.18	2700.69
431.402	2692.69
431.624	2643.69
431.846	2647.69
432.068	2667.69
432.29	2668.69
432.512	2567.69
432.734	2631.69
432.956	2617.69
433.178	2666.69
433.4	2647.69
433.622	2689.69
433.844	2648.69
434.066	2672.69
434.287	2681.69
434.509	2708.69
434.731	2767.69
434.953	2720.69
435.175	2747.69
435.397	2744.69
435.618	2711.69
435.84	2692.69
436.062	2657.69
436.284	2662.69
436.505	2582.69
436.727	2646.69
436.949	2598.69
437.17	2646.69
437.392	2581.69
437.614	2542.69
437.835	2535.69
438.057	2551.69
438.278	2552.69
438.5	2548.69
438.721	2623.69
438.943	2694.69
439.165	2708.69
439.386	2741.69
439.608	2746.69
439.829	2711.69
440.05	2831.69
440.272	2870.69
440.493	2722.69
440.715	2694.69
440.936	2737.69
441.158	2758.69
441.379	2783.69
441.6	2869.69
441.822	2956.69
442.043	3058.69
442.264	3189.69
442.486	2974.69
442.707	2938.69
442.928	2815.69
443.149	2843.69
443.371	2795.69
443.592	2851.69
443.813	2849.69
444.034	2835.69
444.255	2881.69
444.476	2954.69
444.698	3019.69
444.919	3046.69
445.14	3132.69
445.361	2990.69
445.582	2875.69
445.803	2860.69
446.024	2774.69
446.245	2836.69
446.466	2818.69
446.687	2781.69
446.908	2802.69
447.129	2653.69
447.35	2687.69
447.571	2663.69
447.792	2567.69
448.013	2642.69
448.234	2619.69
448.455	2601.69
448.675	2634.69
448.896	2701.69
449.117	2810.69
449.338	2950.69
449.559	3153.69
449.779	2798.69
450	2584.69
450.221	2532.69
450.442	2587.69
450.662	2514.69
450.883	2546.69
451.104	2533.69
451.324	2545.69
451.545	2573.69
451.766	2563.69
451.986	2612.69
452.207	2830.69
452.428	3582.69
452.648	5451.69
452.869	4479.69
453.089	3113.69
453.31	2860.69
453.53	2920.69
453.751	3003.69
453.971	3210.69
454.192	3128.69
454.412	2667.69
454.633	2585.69
454.853	2508.69
455.073	2416.69
455.294	2458.69
455.514	2426.69
455.734	2422.69
455.955	2431.69
456.175	2444.69
456.395	2454.69
456.616	2453.69
456.836	2451.69
457.056	2454.69
457.276	2489.69
457.497	2615.69
457.717	2624.69
457.937	2539.69
458.157	2527.69
458.377	2572.69
458.598	2604.69
458.818	2624.69
459.038	2536.69
459.258	2622.69
459.478	2656.69
459.698	2658.69
459.918	2708.69
460.138	2740.69
460.358	2783.69
460.578	2819.69
460.798	2878.69
461.018	2892.69
461.238	2838.69
461.458	2937.69
461.678	2956.69
461.898	3001.69
462.118	2973.69
462.338	3040.69
462.558	3054.69
462.777	3128.69
462.997	3279.69
463.217	3404.69
463.437	3586.69
463.657	3638.69
463.876	3575.69
464.096	3376.69
464.316	3214.69
464.536	3166.69
464.755	3047.69
464.975	2972.69
465.195	2953.69
465.414	2836.69
465.634	2771.69
465.854	2761.69
466.073	2720.69
466.293	2684.69
466.512	2625.69
466.732	2716.69
466.951	2763.69
467.171	2983.69
467.391	2972.69
467.61	2714.69
467.829	2614.69
468.049	2635.69
468.268	2583.69
468.488	2544.69
468.707	2578.69
468.927	2544.69
469.146	2564.69
469.365	2619.69
469.585	2622.69
469.804	2666.69
470.023	2743.69
470.243	2790.69
470.462	2850.69
470.681	2986.69
470.901	3239.69
471.12	3770.69
471.339	3774.69
471.558	3158.69
471.777	2855.69
471.997	2748.69
472.216	2684.69
472.435	2611.69
472.654	2618.69
472.873	2548.69
473.092	2601.69
473.311	2601.69
473.53	2603.69
473.749	2684.69
473.968	2776.69
474.187	2639.69
474.406	2618.69
474.625	2601.69
474.844	2604.69
475.063	2592.69
475.282	2576.69
475.501	2633.69
475.72	2676.69
475.939	2691.69
476.158	2732.69
476.377	2773.69
476.596	2738.69
476.814	2790.69
477.033	2770.69
477.252	2782.69
477.471	2805.69
477.69	2845.69
477.908	2906.69
478.127	2970.69
478.346	2957.69
478.564	3026.69
478.783	3026.69
479.002	3133.69
479.22	3096.69
479.439	3111.69
479.658	3131.69
479.876	3179.69
480.095	3165.69
480.313	3225.69
480.532	3260.69
480.751	3233.69
480.969	3169.69
481.188	3166.69
481.406	3161.69
481.624	3168.69
481.843	3146.69
482.061	3178.69
482.28	3143.69
482.498	3155.69
482.717	3100.69
482.935	3190.69
483.153	3254.69
483.372	3314.69
483.59	3270.69
483.808	3268.69
484.027	3405.69
484.245	3649.69
484.463	4048.69
484.681	4564.69
484.9	4051.69
485.118	3823.69
485.336	3726.69
485.554	3770.69
485.772	4039.69
485.99	4534.69
486.209	4878.69
486.427	4155.69
486.645	3683.69
486.863	3521.69
487.081	3464.69
487.299	3343.69
487.517	3350.69
487.735	3390.69
