Data from SnStandardFlinnAPT0064_LampEnergy10_LIBS07252019.E.O._I.C._HRD10591_15-22-04-494.txt Node
Date: Thu Jul 25 15:22:04 EDT 2019
User: cochatt
Spectrometer: HR+D1059
Trigger mode: 1
Integration Time (sec): 1.000000E-1
Scans to average: 1
Electric dark correction enabled: true
Nonlinearity correction enabled: false
Boxcar width: 0
XAxis mode: Wavelengths
Number of Pixels in Spectrum: 2048
>>>>>Begin Spectral Data<<<<<
223.165	-24.38
223.4	-24.38
223.635	-24.38
223.869	-24.38
224.104	-27.38
224.338	-13.38
224.573	-17.38
224.808	-12.38
225.042	-11.38
225.277	-7.38
225.511	8.62
225.746	9.62
225.98	7.62
226.215	13.62
226.449	-1.38
226.683	23.62
226.918	37.62
227.152	38.62
227.387	39.62
227.621	34.62
227.856	35.62
228.09	41.62
228.324	63.62
228.559	62.62
228.793	105.62
229.027	332.62
229.262	329.62
229.496	307.62
229.73	300.62
229.964	319.62
230.199	310.62
230.433	302.62
230.667	296.62
230.901	322.62
231.136	329.62
231.37	341.62
231.604	387.62
231.838	439.62
232.072	532.62
232.306	582.62
232.541	470.62
232.775	422.62
233.009	414.62
233.243	435.62
233.477	454.62
233.711	514.62
233.945	597.62
234.179	515.62
234.413	466.62
234.647	471.62
234.881	441.62
235.115	506.62
235.349	607.62
235.583	795.62
235.817	980.62
236.051	971.62
236.285	635.62
236.519	520.62
236.753	486.62
236.987	507.62
237.221	546.62
237.455	506.62
237.689	466.62
237.922	481.62
238.156	459.62
238.39	537.62
238.624	488.62
238.858	486.62
239.091	481.62
239.325	491.62
239.559	501.62
239.793	502.62
240.027	536.62
240.26	558.62
240.494	563.62
240.728	575.62
240.961	625.62
241.195	670.62
241.429	663.62
241.662	692.62
241.896	768.62
242.13	934.62
242.363	1258.62
242.597	1612.62
242.83	1550.62
243.064	1534.62
243.298	1794.62
243.531	1487.62
243.765	952.62
243.998	766.62
244.232	715.62
244.465	676.62
244.699	660.62
244.932	651.62
245.166	652.62
245.399	680.62
245.633	665.62
245.866	701.62
246.099	673.62
246.333	661.62
246.566	642.62
246.8	639.62
247.033	618.62
247.266	653.62
247.5	664.62
247.733	667.62
247.966	710.62
248.2	768.62
248.433	858.62
248.666	1019.62
248.899	973.62
249.133	861.62
249.366	875.62
249.599	967.62
249.832	1094.62
250.066	1067.62
250.299	857.62
250.532	809.62
250.765	754.62
250.998	725.62
251.231	764.62
251.465	731.62
251.698	739.62
251.931	773.62
252.164	767.62
252.397	769.62
252.63	806.62
252.863	832.62
253.096	809.62
253.329	754.62
253.562	778.62
253.795	786.62
254.028	821.62
254.261	801.62
254.494	864.62
254.727	1046.62
254.96	1236.62
255.193	1250.62
255.426	968.62
255.659	852.62
255.892	842.62
256.124	875.62
256.357	866.62
256.59	901.62
256.823	980.62
257.056	1120.62
257.289	1338.62
257.521	1505.62
257.754	1214.62
257.987	978.62
258.22	936.62
258.452	941.62
258.685	943.62
258.918	975.62
259.151	1017.62
259.383	1097.62
259.616	1211.62
259.849	1295.62
260.081	1076.62
260.314	1019.62
260.547	984.62
260.779	931.62
261.012	944.62
261.244	958.62
261.477	992.62
261.71	981.62
261.942	994.62
262.175	1012.62
262.407	1070.62
262.64	1086.62
262.872	1091.62
263.105	1147.62
263.337	1239.62
263.57	1279.62
263.802	1323.62
264.035	1368.62
264.267	1354.62
264.499	1411.62
264.732	1444.62
264.964	1504.62
265.197	1439.62
265.429	1480.62
265.661	1469.62
265.894	1595.62
266.126	1744.62
266.358	2000.62
266.591	1937.62
266.823	1614.62
267.055	1445.62
267.287	1400.62
267.52	1342.62
267.752	1318.62
267.984	1293.62
268.216	1295.62
268.448	1274.62
268.681	1244.62
268.913	1222.62
269.145	1279.62
269.377	1255.62
269.609	1284.62
269.841	1330.62
270.073	1375.62
270.306	1588.62
270.538	2160.62
270.77	3199.62
271.002	3968.62
271.234	2792.62
271.466	1837.62
271.698	1536.62
271.93	1417.62
272.162	1289.62
272.394	1330.62
272.626	1279.62
272.858	1239.62
273.09	1233.62
273.322	1222.62
273.553	1235.62
273.785	1204.62
274.017	1219.62
274.249	1219.62
274.481	1211.62
274.713	1194.62
274.945	1233.62
275.176	1252.62
275.408	1264.62
275.64	1250.62
275.872	1213.62
276.104	1273.62
276.335	1266.62
276.567	1290.62
276.799	1287.62
277.031	1318.62
277.262	1330.62
277.494	1419.62
277.726	1568.62
277.957	1826.62
278.189	2119.62
278.421	2015.62
278.652	1801.62
278.884	1688.62
279.115	1508.62
279.347	1433.62
279.579	1415.62
279.81	1413.62
280.042	1421.62
280.273	1408.62
280.505	1420.62
280.736	1502.62
280.968	1607.62
281.199	1807.62
281.431	2078.62
281.662	2158.62
281.894	1782.62
282.125	1642.62
282.356	1659.62
282.588	1664.62
282.819	1738.62
283.051	1811.62
283.282	2010.62
283.513	2498.62
283.745	3593.62
283.976	5635.62
284.207	8003.62
284.439	7275.62
284.67	4500.62
284.901	3702.62
285.132	3787.62
285.364	3563.62
285.595	2736.62
285.826	2386.62
286.057	2909.62
286.288	3923.62
286.52	5232.62
286.751	4890.62
286.982	3057.62
287.213	2272.62
287.444	2006.62
287.675	1877.62
287.906	1804.62
288.138	1744.62
288.369	1704.62
288.6	1722.62
288.831	1664.62
289.062	1695.62
289.293	1684.62
289.524	1685.62
289.755	1712.62
289.986	1769.62
290.217	1734.62
290.448	1737.62
290.679	1750.62
290.91	1799.62
291.141	1885.62
291.371	2063.62
291.602	2176.62
291.833	1939.62
292.064	1777.62
292.295	1704.62
292.526	1680.62
292.757	1630.62
292.987	1621.62
293.218	1594.62
293.449	1623.62
293.68	1645.62
293.91	1601.62
294.141	1598.62
294.372	1577.62
294.603	1558.62
294.833	1601.62
295.064	1569.62
295.295	1593.62
295.525	1582.62
295.756	1568.62
295.987	1563.62
296.217	1585.62
296.448	1552.62
296.679	1603.62
296.909	1628.62
297.14	1642.62
297.37	1628.62
297.601	1642.62
297.831	1609.62
298.062	1635.62
298.292	1665.62
298.523	1690.62
298.753	1690.62
298.984	1727.62
299.214	1725.62
299.445	1731.62
299.675	1763.62
299.905	1889.62
300.136	1950.62
300.366	2155.62
300.597	2757.62
300.827	3860.62
301.057	5270.62
301.288	5237.62
301.518	3411.62
301.748	2538.62
301.979	2347.62
302.209	2294.62
302.439	2314.62
302.669	2491.62
302.9	3024.62
303.13	4164.62
303.36	6212.62
303.59	8304.62
303.82	7144.62
304.051	4227.62
304.281	3039.62
304.511	2571.62
304.741	2312.62
304.971	2203.62
305.201	2084.62
305.431	1996.62
305.661	1975.62
305.891	1946.62
306.121	1918.62
306.352	1879.62
306.582	1892.62
306.812	1882.62
307.042	1844.62
307.272	1851.62
307.502	1876.62
307.731	1825.62
307.961	1789.62
308.191	1868.62
308.421	1797.62
308.651	1819.62
308.881	1826.62
309.111	1827.62
309.341	1864.62
309.571	1863.62
309.8	1875.62
310.03	1857.62
310.26	1850.62
310.49	1868.62
310.72	1906.62
310.949	1879.62
311.179	1905.62
311.409	1936.62
311.639	1889.62
311.868	1960.62
312.098	1955.62
312.328	2005.62
312.557	1995.62
312.787	1948.62
313.017	1990.62
313.246	1990.62
313.476	2053.62
313.706	2116.62
313.935	2191.62
314.165	2416.62
314.394	2522.62
314.624	2338.62
314.853	2187.62
315.083	2158.62
315.312	2200.62
315.542	2189.62
315.771	2216.62
316.001	2263.62
316.23	2346.62
316.46	2442.62
316.689	2676.62
316.919	3229.62
317.148	4738.62
317.377	7166.62
317.607	10461.62
317.836	10848.62
318.065	6615.62
318.295	4287.62
318.524	3373.62
318.753	2942.62
318.983	2756.62
319.212	2567.62
319.441	2519.62
319.67	2489.62
319.9	2380.62
320.129	2412.62
320.358	2363.62
320.587	2372.62
320.816	2354.62
321.046	2390.62
321.275	2354.62
321.504	2409.62
321.733	2450.62
321.962	2488.62
322.191	2528.62
322.42	2511.62
322.649	2502.62
322.878	2529.62
323.108	2502.62
323.337	2558.62
323.566	2559.62
323.795	2624.62
324.024	2662.62
324.253	2755.62
324.482	2840.62
324.71	3033.62
324.939	3196.62
325.168	3315.62
325.397	3406.62
325.626	4065.62
325.855	5662.62
326.084	8807.62
326.313	12732.62
326.542	13482.62
326.77	9022.62
326.999	5916.62
327.228	4982.62
327.457	4758.62
327.686	4740.62
327.914	5060.62
328.143	5935.62
328.372	7127.62
328.6	7723.62
328.829	6951.62
329.058	5844.62
329.287	5055.62
329.515	4606.62
329.744	4348.62
329.972	4059.62
330.201	3947.62
330.43	3742.62
330.658	3623.62
330.887	3564.62
331.115	3482.62
331.344	3478.62
331.572	3481.62
331.801	3492.62
332.03	3518.62
332.258	3622.62
332.486	3778.62
332.715	4344.62
332.943	5399.62
333.172	6664.62
333.4	6659.62
333.629	4908.62
333.857	4510.62
334.085	4550.62
334.314	4708.62
334.542	5146.62
334.771	6005.62
334.999	7399.62
335.227	9310.62
335.455	10274.62
335.684	9415.62
335.912	7668.62
336.14	6526.62
336.369	5737.62
336.597	5244.62
336.825	4775.62
337.053	4579.62
337.281	4282.62
337.51	4050.62
337.738	3889.62
337.966	3739.62
338.194	3674.62
338.422	3516.62
338.65	3423.62
338.878	3384.62
339.106	3321.62
339.334	3276.62
339.562	3187.62
339.79	3118.62
340.018	3121.62
340.246	3048.62
340.474	3033.62
340.702	3067.62
340.93	3022.62
341.158	3064.62
341.386	3019.62
341.614	2968.62
341.842	2891.62
342.07	2870.62
342.298	2881.62
342.526	2856.62
342.754	2756.62
342.981	2756.62
343.209	2718.62
343.437	2763.62
343.665	2849.62
343.893	2865.62
344.12	2839.62
344.348	2800.62
344.576	2775.62
344.804	2723.62
345.031	2668.62
345.259	2682.62
345.487	2603.62
345.714	2586.62
345.942	2574.62
346.17	2549.62
346.397	2527.62
346.625	2569.62
346.853	2571.62
347.08	2543.62
347.308	2554.62
347.535	2507.62
347.763	2549.62
347.99	2522.62
348.218	2492.62
348.445	2459.62
348.673	2460.62
348.9	2498.62
349.128	2465.62
349.355	2467.62
349.583	2455.62
349.81	2443.62
350.037	2446.62
350.265	2452.62
350.492	2447.62
350.72	2419.62
350.947	2391.62
351.174	2410.62
351.402	2495.62
351.629	2434.62
351.856	2415.62
352.083	2428.62
352.311	2392.62
352.538	2402.62
352.765	2339.62
352.992	2352.62
353.22	2388.62
353.447	2391.62
353.674	2412.62
353.901	2422.62
354.128	2455.62
354.355	2417.62
354.583	2425.62
354.81	2409.62
355.037	2484.62
355.264	2454.62
355.491	2466.62
355.718	2480.62
355.945	2465.62
356.172	2467.62
356.399	2497.62
356.626	2539.62
356.853	2535.62
357.08	2509.62
357.307	2580.62
357.534	2642.62
357.761	2627.62
357.988	2649.62
358.215	2608.62
358.441	2578.62
358.668	2563.62
358.895	2584.62
359.122	2507.62
359.349	2568.62
359.576	2575.62
359.802	2524.62
360.029	2574.62
360.256	2624.62
360.483	2597.62
360.709	2632.62
360.936	2562.62
361.163	2614.62
361.39	2588.62
361.616	2564.62
361.843	2569.62
362.07	2617.62
362.296	2623.62
362.523	2595.62
362.749	2604.62
362.976	2614.62
363.203	2585.62
363.429	2524.62
363.656	2570.62
363.882	2566.62
364.109	2541.62
364.335	2539.62
364.562	2576.62
364.788	2575.62
365.015	2632.62
365.241	2710.62
365.468	2816.62
365.694	2984.62
365.92	2898.62
366.147	2670.62
366.373	2651.62
366.599	2663.62
366.826	2639.62
367.052	2594.62
367.278	2647.62
367.505	2618.62
367.731	2630.62
367.957	2640.62
368.184	2663.62
368.41	2727.62
368.636	2706.62
368.862	2696.62
369.089	2673.62
369.315	2738.62
369.541	2663.62
369.767	2700.62
369.993	2658.62
370.219	2686.62
370.445	2686.62
370.672	2687.62
370.898	2707.62
371.124	2740.62
371.35	2732.62
371.576	2747.62
371.802	2779.62
372.028	2736.62
372.254	2836.62
372.48	2838.62
372.706	2828.62
372.932	2803.62
373.158	2828.62
373.384	2850.62
373.61	2812.62
373.835	2879.62
374.061	2870.62
374.287	2886.62
374.513	2851.62
374.739	2926.62
374.965	2946.62
375.191	2944.62
375.416	2938.62
375.642	2910.62
375.868	2896.62
376.094	2900.62
376.319	2827.62
376.545	2802.62
376.771	2800.62
376.997	2767.62
377.222	2758.62
377.448	2771.62
377.674	2773.62
377.899	2761.62
378.125	2735.62
378.35	2785.62
378.576	2831.62
378.802	2829.62
379.027	2852.62
379.253	2887.62
379.478	3107.62
379.704	3643.62
379.929	5195.62
380.155	8042.62
380.38	8759.62
380.606	5255.62
380.831	3636.62
381.057	3194.62
381.282	2981.62
381.507	2929.62
381.733	2802.62
381.958	2771.62
382.184	2778.62
382.409	2762.62
382.634	2718.62
382.86	2742.62
383.085	2724.62
383.31	2745.62
383.535	2694.62
383.761	2722.62
383.986	2758.62
384.211	2787.62
384.436	2794.62
384.662	2740.62
384.887	2801.62
385.112	2744.62
385.337	2782.62
385.562	2827.62
385.787	2794.62
386.013	2828.62
386.238	2823.62
386.463	2804.62
386.688	2850.62
386.913	2803.62
387.138	2802.62
387.363	2783.62
387.588	2783.62
387.813	2805.62
388.038	2788.62
388.263	2779.62
388.488	2795.62
388.713	2800.62
388.938	2787.62
389.163	2810.62
389.387	2758.62
389.612	2766.62
389.837	2803.62
390.062	2828.62
390.287	2844.62
390.512	2854.62
390.736	2893.62
390.961	2929.62
391.186	2904.62
391.411	2966.62
391.636	2941.62
391.86	2930.62
392.085	2940.62
392.31	2944.62
392.534	2943.62
392.759	2899.62
392.984	2872.62
393.208	2902.62
393.433	2907.62
393.658	2889.62
393.882	2837.62
394.107	2793.62
394.331	2855.62
394.556	2902.62
394.78	2901.62
395.005	2851.62
395.229	2833.62
395.454	2928.62
395.678	2954.62
395.903	2896.62
396.127	2906.62
396.352	2838.62
396.576	2874.62
396.801	2900.62
397.025	2948.62
397.249	2913.62
397.474	2863.62
397.698	2920.62
397.922	2948.62
398.147	2926.62
398.371	3017.62
398.595	3038.62
398.82	3110.62
399.044	3229.62
399.268	3404.62
399.492	3549.62
399.717	3682.62
399.941	3702.62
400.165	3619.62
400.389	3479.62
400.613	3315.62
400.837	3209.62
401.062	3175.62
401.286	3146.62
401.51	3068.62
401.734	3036.62
401.958	3097.62
402.182	3089.62
402.406	3045.62
402.63	3143.62
402.854	3160.62
403.078	3102.62
403.302	3125.62
403.526	3147.62
403.75	3191.62
403.974	3198.62
404.198	3179.62
404.422	3191.62
404.645	3207.62
404.869	3203.62
405.093	3199.62
405.317	3202.62
405.541	3243.62
405.765	3338.62
405.988	3352.62
406.212	3330.62
406.436	3340.62
406.66	3351.62
406.883	3280.62
407.107	3396.62
407.331	3492.62
407.555	3488.62
407.778	3532.62
408.002	3401.62
408.226	3444.62
408.449	3424.62
408.673	3354.62
408.896	3267.62
409.12	3237.62
409.344	3285.62
409.567	3211.62
409.791	3213.62
410.014	3202.62
410.238	3183.62
410.461	3247.62
410.685	3183.62
410.908	3109.62
411.132	3123.62
411.355	3040.62
411.578	3081.62
411.802	3076.62
412.025	3083.62
412.249	3100.62
412.472	3124.62
412.695	3060.62
412.919	3002.62
413.142	2994.62
413.365	2982.62
413.589	3010.62
413.812	3055.62
414.035	3022.62
414.258	3045.62
414.482	3031.62
414.705	3047.62
414.928	3019.62
415.151	2988.62
415.374	3030.62
415.597	2944.62
415.821	2862.62
416.044	2850.62
416.267	2926.62
416.49	2881.62
416.713	2882.62
416.936	2923.62
417.159	2869.62
417.382	2842.62
417.605	2868.62
417.828	2913.62
418.051	2917.62
418.274	2935.62
418.497	2943.62
418.72	2990.62
418.943	2952.62
419.166	3082.62
419.389	3279.62
419.611	3194.62
419.834	3086.62
420.057	3033.62
420.28	2971.62
420.503	2900.62
420.726	2904.62
420.948	2850.62
421.171	2886.62
421.394	2895.62
421.617	2889.62
421.839	2932.62
422.062	2962.62
422.285	2871.62
422.507	2968.62
422.73	2944.62
422.953	3002.62
423.175	2983.62
423.398	2982.62
423.621	2881.62
423.843	2918.62
424.066	2918.62
424.288	2865.62
424.511	2935.62
424.733	2888.62
424.956	2896.62
425.178	2858.62
425.401	2868.62
425.623	2893.62
425.846	2778.62
426.068	2820.62
426.291	2784.62
426.513	2772.62
426.735	2766.62
426.958	2807.62
427.18	2744.62
427.402	2739.62
427.625	2741.62
427.847	2715.62
428.069	2691.62
428.292	2760.62
428.514	2718.62
428.736	2704.62
428.958	2738.62
429.181	2633.62
429.403	2684.62
429.625	2669.62
429.847	2720.62
430.069	2784.62
430.292	2824.62
430.514	2919.62
430.736	2890.62
430.958	2683.62
431.18	2633.62
431.402	2678.62
431.624	2634.62
431.846	2624.62
432.068	2666.62
432.29	2616.62
432.512	2603.62
432.734	2626.62
432.956	2634.62
433.178	2664.62
433.4	2672.62
433.622	2708.62
433.844	2696.62
434.066	2646.62
434.287	2718.62
434.509	2709.62
434.731	2722.62
434.953	2754.62
435.175	2769.62
435.397	2816.62
435.618	2690.62
435.84	2677.62
436.062	2651.62
436.284	2667.62
436.505	2629.62
436.727	2676.62
436.949	2628.62
437.17	2633.62
437.392	2563.62
437.614	2601.62
437.835	2581.62
438.057	2579.62
438.278	2570.62
438.5	2582.62
438.721	2632.62
438.943	2720.62
439.165	2784.62
439.386	2765.62
439.608	2760.62
439.829	2778.62
440.05	2828.62
440.272	2906.62
440.493	2776.62
440.715	2768.62
440.936	2725.62
441.158	2747.62
441.379	2805.62
441.6	2879.62
441.822	2957.62
442.043	3087.62
442.264	3196.62
442.486	3032.62
442.707	2932.62
442.928	2854.62
443.149	2831.62
443.371	2809.62
443.592	2865.62
443.813	2899.62
444.034	2860.62
444.255	2879.62
444.476	3009.62
444.698	3027.62
444.919	3088.62
445.14	3134.62
445.361	2974.62
445.582	2906.62
445.803	2890.62
446.024	2828.62
446.245	2825.62
446.466	2835.62
446.687	2751.62
446.908	2780.62
447.129	2660.62
447.35	2687.62
447.571	2622.62
447.792	2637.62
448.013	2608.62
448.234	2607.62
448.455	2633.62
448.675	2651.62
448.896	2723.62
449.117	2785.62
449.338	3050.62
449.559	3139.62
449.779	2880.62
450	2623.62
450.221	2555.62
450.442	2563.62
450.662	2562.62
450.883	2561.62
451.104	2533.62
451.324	2489.62
451.545	2526.62
451.766	2603.62
451.986	2646.62
452.207	2905.62
452.428	3682.62
452.648	5649.62
452.869	4650.62
453.089	3213.62
453.31	2984.62
453.53	2952.62
453.751	3032.62
453.971	3214.62
454.192	3119.62
454.412	2701.62
454.633	2565.62
454.853	2506.62
455.073	2463.62
455.294	2486.62
455.514	2456.62
455.734	2407.62
455.955	2390.62
456.175	2452.62
456.395	2427.62
456.616	2443.62
456.836	2522.62
457.056	2482.62
457.276	2462.62
457.497	2681.62
457.717	2671.62
457.937	2594.62
458.157	2555.62
458.377	2560.62
458.598	2597.62
458.818	2640.62
459.038	2601.62
459.258	2626.62
459.478	2704.62
459.698	2718.62
459.918	2738.62
460.138	2788.62
460.358	2850.62
460.578	2834.62
460.798	2898.62
461.018	2913.62
461.238	2912.62
461.458	2887.62
461.678	2927.62
461.898	3031.62
462.118	3023.62
462.338	3042.62
462.558	3156.62
462.777	3158.62
462.997	3310.62
463.217	3402.62
463.437	3508.62
463.657	3627.62
463.876	3622.62
464.096	3388.62
464.316	3252.62
464.536	3179.62
464.755	3079.62
464.975	3001.62
465.195	2939.62
465.414	2866.62
465.634	2731.62
465.854	2754.62
466.073	2744.62
466.293	2738.62
466.512	2687.62
466.732	2699.62
466.951	2848.62
467.171	3033.62
467.391	3000.62
467.61	2743.62
467.829	2686.62
468.049	2655.62
468.268	2582.62
468.488	2608.62
468.707	2544.62
468.927	2623.62
469.146	2527.62
469.365	2614.62
469.585	2626.62
469.804	2731.62
470.023	2780.62
470.243	2775.62
470.462	2883.62
470.681	3050.62
470.901	3319.62
471.12	3739.62
471.339	3782.62
471.558	3215.62
471.777	2891.62
471.997	2774.62
472.216	2695.62
472.435	2678.62
472.654	2631.62
472.873	2630.62
473.092	2641.62
473.311	2625.62
473.53	2636.62
473.749	2726.62
473.968	2804.62
474.187	2705.62
474.406	2622.62
474.625	2596.62
474.844	2649.62
475.063	2629.62
475.282	2665.62
475.501	2629.62
475.72	2716.62
475.939	2666.62
476.158	2752.62
476.377	2811.62
476.596	2798.62
476.814	2780.62
477.033	2731.62
477.252	2826.62
477.471	2826.62
477.69	2966.62
477.908	2969.62
478.127	3006.62
478.346	3014.62
478.564	3006.62
478.783	3030.62
479.002	3154.62
479.22	3149.62
479.439	3199.62
479.658	3130.62
479.876	3139.62
480.095	3183.62
480.313	3234.62
480.532	3236.62
480.751	3225.62
480.969	3220.62
481.188	3252.62
481.406	3170.62
481.624	3108.62
481.843	3169.62
482.061	3187.62
482.28	3191.62
482.498	3212.62
482.717	3211.62
482.935	3230.62
483.153	3266.62
483.372	3273.62
483.59	3338.62
483.808	3396.62
484.027	3422.62
484.245	3616.62
484.463	4106.62
484.681	4555.62
484.9	4147.62
485.118	3842.62
485.336	3790.62
485.554	3889.62
485.772	4051.62
485.99	4587.62
486.209	4870.62
486.427	4144.62
486.645	3708.62
486.863	3583.62
487.081	3502.62
487.299	3458.62
487.517	3447.62
487.735	3403.62
