Data from SnStandardFlinnAPT0064_LampEnergy10_LIBS07252019.E.O._I.C._HRD10591_15-21-53-494.txt Node
Date: Thu Jul 25 15:21:53 EDT 2019
User: cochatt
Spectrometer: HR+D1059
Trigger mode: 1
Integration Time (sec): 1.000000E-1
Scans to average: 1
Electric dark correction enabled: true
Nonlinearity correction enabled: false
Boxcar width: 0
XAxis mode: Wavelengths
Number of Pixels in Spectrum: 2048
>>>>>Begin Spectral Data<<<<<
223.165	-16.12
223.4	-16.12
223.635	-16.12
223.869	-1.12
224.104	-12.12
224.338	-22.12
224.573	-20.12
224.808	-20.12
225.042	-3.12
225.277	-9.12
225.511	-10.12
225.746	6.88
225.98	7.88
226.215	10.88
226.449	25.88
226.683	19.88
226.918	19.88
227.152	22.88
227.387	28.88
227.621	47.88
227.856	39.88
228.09	50.88
228.324	53.88
228.559	56.88
228.793	119.88
229.027	324.88
229.262	331.88
229.496	290.88
229.73	287.88
229.964	293.88
230.199	316.88
230.433	286.88
230.667	310.88
230.901	318.88
231.136	332.88
231.37	343.88
231.604	390.88
231.838	437.88
232.072	495.88
232.306	534.88
232.541	482.88
232.775	417.88
233.009	420.88
233.243	410.88
233.477	460.88
233.711	514.88
233.945	562.88
234.179	488.88
234.413	455.88
234.647	442.88
234.881	477.88
235.115	528.88
235.349	623.88
235.583	751.88
235.817	951.88
236.051	914.88
236.285	635.88
236.519	534.88
236.753	471.88
236.987	494.88
237.221	528.88
237.455	510.88
237.689	454.88
237.922	461.88
238.156	458.88
238.39	478.88
238.624	480.88
238.858	473.88
239.091	479.88
239.325	474.88
239.559	496.88
239.793	506.88
240.027	514.88
240.26	532.88
240.494	546.88
240.728	584.88
240.961	602.88
241.195	636.88
241.429	663.88
241.662	693.88
241.896	760.88
242.13	936.88
242.363	1232.88
242.597	1541.88
242.83	1497.88
243.064	1475.88
243.298	1740.88
243.531	1434.88
243.765	942.88
243.998	766.88
244.232	683.88
244.465	667.88
244.699	656.88
244.932	636.88
245.166	644.88
245.399	660.88
245.633	683.88
245.866	677.88
246.099	640.88
246.333	643.88
246.566	651.88
246.8	633.88
247.033	603.88
247.266	624.88
247.5	639.88
247.733	676.88
247.966	724.88
248.2	739.88
248.433	858.88
248.666	981.88
248.899	898.88
249.133	849.88
249.366	872.88
249.599	938.88
249.832	1072.88
250.066	1034.88
250.299	833.88
250.532	789.88
250.765	753.88
250.998	734.88
251.231	750.88
251.465	724.88
251.698	744.88
251.931	737.88
252.164	744.88
252.397	774.88
252.63	770.88
252.863	790.88
253.096	767.88
253.329	779.88
253.562	798.88
253.795	785.88
254.028	793.88
254.261	808.88
254.494	873.88
254.727	1012.88
254.96	1202.88
255.193	1209.88
255.426	960.88
255.659	850.88
255.892	858.88
256.124	856.88
256.357	847.88
256.59	930.88
256.823	974.88
257.056	1102.88
257.289	1331.88
257.521	1458.88
257.754	1164.88
257.987	970.88
258.22	899.88
258.452	899.88
258.685	891.88
258.918	944.88
259.151	1007.88
259.383	1024.88
259.616	1213.88
259.849	1241.88
260.081	1102.88
260.314	993.88
260.547	937.88
260.779	951.88
261.012	955.88
261.244	928.88
261.477	959.88
261.71	970.88
261.942	997.88
262.175	1008.88
262.407	1030.88
262.64	1059.88
262.872	1092.88
263.105	1142.88
263.337	1198.88
263.57	1280.88
263.802	1306.88
264.035	1302.88
264.267	1329.88
264.499	1390.88
264.732	1434.88
264.964	1424.88
265.197	1416.88
265.429	1420.88
265.661	1458.88
265.894	1556.88
266.126	1729.88
266.358	1932.88
266.591	1903.88
266.823	1584.88
267.055	1458.88
267.287	1370.88
267.52	1283.88
267.752	1304.88
267.984	1275.88
268.216	1254.88
268.448	1228.88
268.681	1246.88
268.913	1216.88
269.145	1222.88
269.377	1222.88
269.609	1263.88
269.841	1245.88
270.073	1367.88
270.306	1584.88
270.538	2086.88
270.77	3118.88
271.002	3807.88
271.234	2646.88
271.466	1857.88
271.698	1561.88
271.93	1384.88
272.162	1301.88
272.394	1270.88
272.626	1219.88
272.858	1247.88
273.09	1207.88
273.322	1196.88
273.553	1203.88
273.785	1232.88
274.017	1177.88
274.249	1223.88
274.481	1180.88
274.713	1191.88
274.945	1198.88
275.176	1228.88
275.408	1211.88
275.64	1240.88
275.872	1243.88
276.104	1259.88
276.335	1254.88
276.567	1292.88
276.799	1278.88
277.031	1282.88
277.262	1320.88
277.494	1414.88
277.726	1530.88
277.957	1827.88
278.189	2057.88
278.421	1950.88
278.652	1719.88
278.884	1630.88
279.115	1496.88
279.347	1432.88
279.579	1351.88
279.81	1394.88
280.042	1380.88
280.273	1452.88
280.505	1456.88
280.736	1480.88
280.968	1588.88
281.199	1795.88
281.431	2068.88
281.662	2046.88
281.894	1733.88
282.125	1605.88
282.356	1638.88
282.588	1627.88
282.819	1652.88
283.051	1784.88
283.282	1944.88
283.513	2410.88
283.745	3497.88
283.976	5423.88
284.207	7624.88
284.439	7021.88
284.67	4359.88
284.901	3626.88
285.132	3649.88
285.364	3470.88
285.595	2683.88
285.826	2368.88
286.057	2844.88
286.288	3724.88
286.52	5015.88
286.751	4691.88
286.982	2964.88
287.213	2232.88
287.444	1974.88
287.675	1828.88
287.906	1736.88
288.138	1736.88
288.369	1663.88
288.6	1684.88
288.831	1672.88
289.062	1650.88
289.293	1648.88
289.524	1681.88
289.755	1714.88
289.986	1717.88
290.217	1699.88
290.448	1699.88
290.679	1720.88
290.91	1782.88
291.141	1820.88
291.371	2005.88
291.602	2092.88
291.833	1923.88
292.064	1738.88
292.295	1671.88
292.526	1646.88
292.757	1579.88
292.987	1566.88
293.218	1567.88
293.449	1574.88
293.68	1573.88
293.91	1597.88
294.141	1560.88
294.372	1603.88
294.603	1583.88
294.833	1523.88
295.064	1551.88
295.295	1571.88
295.525	1535.88
295.756	1546.88
295.987	1548.88
296.217	1540.88
296.448	1549.88
296.679	1582.88
296.909	1584.88
297.14	1576.88
297.37	1619.88
297.601	1600.88
297.831	1604.88
298.062	1609.88
298.292	1610.88
298.523	1633.88
298.753	1672.88
298.984	1701.88
299.214	1702.88
299.445	1765.88
299.675	1781.88
299.905	1819.88
300.136	1904.88
300.366	2110.88
300.597	2749.88
300.827	3758.88
301.057	5049.88
301.288	5050.88
301.518	3247.88
301.748	2506.88
301.979	2326.88
302.209	2276.88
302.439	2325.88
302.669	2444.88
302.9	2910.88
303.13	4116.88
303.36	5900.88
303.59	7895.88
303.82	6923.88
304.051	4126.88
304.281	2964.88
304.511	2519.88
304.741	2263.88
304.971	2163.88
305.201	2020.88
305.431	1977.88
305.661	1953.88
305.891	1917.88
306.121	1866.88
306.352	1897.88
306.582	1838.88
306.812	1869.88
307.042	1858.88
307.272	1805.88
307.502	1796.88
307.731	1823.88
307.961	1792.88
308.191	1795.88
308.421	1760.88
308.651	1803.88
308.881	1758.88
309.111	1814.88
309.341	1814.88
309.571	1805.88
309.8	1864.88
310.03	1867.88
310.26	1838.88
310.49	1848.88
310.72	1854.88
310.949	1842.88
311.179	1894.88
311.409	1893.88
311.639	1936.88
311.868	1918.88
312.098	1927.88
312.328	2008.88
312.557	1954.88
312.787	1957.88
313.017	1954.88
313.246	1995.88
313.476	2006.88
313.706	2091.88
313.935	2156.88
314.165	2343.88
314.394	2443.88
314.624	2335.88
314.853	2178.88
315.083	2113.88
315.312	2128.88
315.542	2181.88
315.771	2249.88
316.001	2255.88
316.23	2303.88
316.46	2395.88
316.689	2634.88
316.919	3191.88
317.148	4530.88
317.377	6922.88
317.607	10056.88
317.836	10410.88
318.065	6359.88
318.295	4175.88
318.524	3365.88
318.753	2901.88
318.983	2671.88
319.212	2555.88
319.441	2514.88
319.67	2429.88
319.9	2375.88
320.129	2328.88
320.358	2342.88
320.587	2316.88
320.816	2338.88
321.046	2350.88
321.275	2286.88
321.504	2388.88
321.733	2443.88
321.962	2508.88
322.191	2547.88
322.42	2492.88
322.649	2491.88
322.878	2465.88
323.108	2450.88
323.337	2529.88
323.566	2526.88
323.795	2591.88
324.024	2641.88
324.253	2771.88
324.482	2841.88
324.71	2920.88
324.939	3131.88
325.168	3257.88
325.397	3318.88
325.626	3942.88
325.855	5490.88
326.084	8404.88
326.313	12294.88
326.542	12996.88
326.77	8762.88
326.999	5818.88
327.228	4840.88
327.457	4648.88
327.686	4728.88
327.914	5095.88
328.143	5906.88
328.372	6923.88
328.6	7487.88
328.829	6721.88
329.058	5629.88
329.287	4955.88
329.515	4575.88
329.744	4217.88
329.972	4036.88
330.201	3883.88
330.43	3688.88
330.658	3589.88
330.887	3500.88
331.115	3460.88
331.344	3447.88
331.572	3432.88
331.801	3477.88
332.03	3488.88
332.258	3526.88
332.486	3758.88
332.715	4304.88
332.943	5225.88
333.172	6425.88
333.4	6514.88
333.629	4843.88
333.857	4445.88
334.085	4446.88
334.314	4659.88
334.542	5000.88
334.771	6002.88
334.999	7255.88
335.227	9053.88
335.455	10008.88
335.684	9067.88
335.912	7502.88
336.14	6373.88
336.369	5616.88
336.597	5122.88
336.825	4774.88
337.053	4424.88
337.281	4216.88
337.51	4014.88
337.738	3851.88
337.966	3738.88
338.194	3559.88
338.422	3412.88
338.65	3355.88
338.878	3290.88
339.106	3202.88
339.334	3189.88
339.562	3171.88
339.79	3050.88
340.018	3088.88
340.246	3029.88
340.474	2996.88
340.702	3017.88
340.93	3060.88
341.158	2992.88
341.386	2990.88
341.614	2969.88
341.842	2881.88
342.07	2834.88
342.298	2756.88
342.526	2788.88
342.754	2771.88
342.981	2698.88
343.209	2712.88
343.437	2764.88
343.665	2783.88
343.893	2830.88
344.12	2791.88
344.348	2757.88
344.576	2749.88
344.804	2688.88
345.031	2649.88
345.259	2650.88
345.487	2592.88
345.714	2597.88
345.942	2532.88
346.17	2499.88
346.397	2514.88
346.625	2527.88
346.853	2544.88
347.08	2543.88
347.308	2515.88
347.535	2533.88
347.763	2551.88
347.99	2479.88
348.218	2486.88
348.445	2450.88
348.673	2430.88
348.9	2442.88
349.128	2430.88
349.355	2457.88
349.583	2431.88
349.81	2453.88
350.037	2411.88
350.265	2382.88
350.492	2378.88
350.72	2396.88
350.947	2376.88
351.174	2402.88
351.402	2424.88
351.629	2371.88
351.856	2366.88
352.083	2385.88
352.311	2415.88
352.538	2395.88
352.765	2370.88
352.992	2356.88
353.22	2393.88
353.447	2356.88
353.674	2363.88
353.901	2403.88
354.128	2403.88
354.355	2403.88
354.583	2456.88
354.81	2439.88
355.037	2418.88
355.264	2426.88
355.491	2466.88
355.718	2430.88
355.945	2465.88
356.172	2420.88
356.399	2457.88
356.626	2498.88
356.853	2533.88
357.08	2485.88
357.307	2567.88
357.534	2531.88
357.761	2614.88
357.988	2604.88
358.215	2614.88
358.441	2565.88
358.668	2525.88
358.895	2603.88
359.122	2558.88
359.349	2558.88
359.576	2556.88
359.802	2507.88
360.029	2542.88
360.256	2549.88
360.483	2556.88
360.709	2520.88
360.936	2526.88
361.163	2533.88
361.39	2512.88
361.616	2558.88
361.843	2590.88
362.07	2544.88
362.296	2554.88
362.523	2526.88
362.749	2546.88
362.976	2602.88
363.203	2543.88
363.429	2486.88
363.656	2494.88
363.882	2547.88
364.109	2531.88
364.335	2564.88
364.562	2585.88
364.788	2537.88
365.015	2569.88
365.241	2608.88
365.468	2763.88
365.694	2894.88
365.92	2843.88
366.147	2658.88
366.373	2616.88
366.599	2602.88
366.826	2623.88
367.052	2603.88
367.278	2648.88
367.505	2572.88
367.731	2629.88
367.957	2593.88
368.184	2588.88
368.41	2654.88
368.636	2682.88
368.862	2662.88
369.089	2622.88
369.315	2607.88
369.541	2658.88
369.767	2663.88
369.993	2678.88
370.219	2646.88
370.445	2642.88
370.672	2689.88
370.898	2660.88
371.124	2724.88
371.35	2770.88
371.576	2767.88
371.802	2763.88
372.028	2752.88
372.254	2734.88
372.48	2792.88
372.706	2793.88
372.932	2780.88
373.158	2836.88
373.384	2763.88
373.61	2795.88
373.835	2828.88
374.061	2831.88
374.287	2825.88
374.513	2816.88
374.739	2883.88
374.965	2982.88
375.191	2931.88
375.416	2847.88
375.642	2853.88
375.868	2865.88
376.094	2818.88
376.319	2800.88
376.545	2816.88
376.771	2744.88
376.997	2743.88
377.222	2760.88
377.448	2737.88
377.674	2750.88
377.899	2719.88
378.125	2747.88
378.35	2738.88
378.576	2707.88
378.802	2761.88
379.027	2849.88
379.253	2879.88
379.478	3089.88
379.704	3596.88
379.929	5090.88
380.155	7703.88
380.38	8299.88
380.606	5172.88
380.831	3679.88
381.057	3207.88
381.282	2942.88
381.507	2886.88
381.733	2798.88
381.958	2784.88
382.184	2737.88
382.409	2720.88
382.634	2706.88
382.86	2647.88
383.085	2680.88
383.31	2648.88
383.535	2694.88
383.761	2681.88
383.986	2691.88
384.211	2738.88
384.436	2742.88
384.662	2769.88
384.887	2786.88
385.112	2774.88
385.337	2800.88
385.562	2764.88
385.787	2806.88
386.013	2805.88
386.238	2791.88
386.463	2833.88
386.688	2751.88
386.913	2736.88
387.138	2783.88
387.363	2715.88
387.588	2721.88
387.813	2758.88
388.038	2763.88
388.263	2764.88
388.488	2735.88
388.713	2780.88
388.938	2759.88
389.163	2745.88
389.387	2765.88
389.612	2770.88
389.837	2781.88
390.062	2739.88
390.287	2775.88
390.512	2791.88
390.736	2863.88
390.961	2849.88
391.186	2905.88
391.411	2900.88
391.636	2911.88
391.86	2986.88
392.085	2949.88
392.31	2938.88
392.534	2896.88
392.759	2793.88
392.984	2830.88
393.208	2823.88
393.433	2830.88
393.658	2844.88
393.882	2825.88
394.107	2838.88
394.331	2839.88
394.556	2814.88
394.78	2911.88
395.005	2816.88
395.229	2829.88
395.454	2906.88
395.678	2873.88
395.903	2915.88
396.127	2906.88
396.352	2896.88
396.576	2858.88
396.801	2899.88
397.025	2908.88
397.249	2943.88
397.474	2928.88
397.698	2938.88
397.922	2926.88
398.147	2897.88
398.371	3000.88
398.595	3016.88
398.82	3122.88
399.044	3197.88
399.268	3306.88
399.492	3561.88
399.717	3648.88
399.941	3650.88
400.165	3526.88
400.389	3416.88
400.613	3276.88
400.837	3184.88
401.062	3142.88
401.286	3092.88
401.51	3078.88
401.734	3095.88
401.958	3076.88
402.182	3073.88
402.406	3066.88
402.63	3075.88
402.854	3123.88
403.078	3097.88
403.302	3133.88
403.526	3161.88
403.75	3134.88
403.974	3234.88
404.198	3172.88
404.422	3217.88
404.645	3132.88
404.869	3175.88
405.093	3179.88
405.317	3202.88
405.541	3237.88
405.765	3292.88
405.988	3302.88
406.212	3269.88
406.436	3340.88
406.66	3326.88
406.883	3300.88
407.107	3360.88
407.331	3413.88
407.555	3478.88
407.778	3412.88
408.002	3427.88
408.226	3408.88
408.449	3399.88
408.673	3316.88
408.896	3254.88
409.12	3206.88
409.344	3220.88
409.567	3173.88
409.791	3200.88
410.014	3194.88
410.238	3162.88
410.461	3176.88
410.685	3145.88
410.908	3112.88
411.132	3106.88
411.355	3087.88
411.578	3014.88
411.802	3018.88
412.025	3044.88
412.249	3102.88
412.472	3048.88
412.695	3064.88
412.919	2974.88
413.142	2962.88
413.365	3034.88
413.589	3068.88
413.812	3001.88
414.035	2956.88
414.258	3035.88
414.482	3012.88
414.705	3013.88
414.928	2984.88
415.151	2973.88
415.374	2947.88
415.597	2938.88
415.821	2894.88
416.044	2843.88
416.267	2859.88
416.49	2883.88
416.713	2898.88
416.936	2918.88
417.159	2852.88
417.382	2836.88
417.605	2816.88
417.828	2805.88
418.051	2885.88
418.274	2886.88
418.497	2911.88
418.72	2954.88
418.943	2893.88
419.166	3045.88
419.389	3186.88
419.611	3138.88
419.834	3072.88
420.057	3032.88
420.28	2879.88
420.503	2828.88
420.726	2878.88
420.948	2843.88
421.171	2852.88
421.394	2926.88
421.617	2886.88
421.839	2854.88
422.062	2929.88
422.285	2822.88
422.507	2942.88
422.73	2946.88
422.953	2948.88
423.175	2982.88
423.398	2979.88
423.621	2871.88
423.843	2902.88
424.066	2910.88
424.288	2826.88
424.511	2855.88
424.733	2830.88
424.956	2877.88
425.178	2875.88
425.401	2849.88
425.623	2854.88
425.846	2763.88
426.068	2820.88
426.291	2802.88
426.513	2735.88
426.735	2734.88
426.958	2804.88
427.18	2697.88
427.402	2732.88
427.625	2724.88
427.847	2666.88
428.069	2670.88
428.292	2674.88
428.514	2704.88
428.736	2651.88
428.958	2688.88
429.181	2616.88
429.403	2655.88
429.625	2617.88
429.847	2606.88
430.069	2724.88
430.292	2823.88
430.514	2812.88
430.736	2843.88
430.958	2696.88
431.18	2659.88
431.402	2622.88
431.624	2654.88
431.846	2613.88
432.068	2602.88
432.29	2630.88
432.512	2610.88
432.734	2636.88
432.956	2653.88
433.178	2674.88
433.4	2624.88
433.622	2655.88
433.844	2617.88
434.066	2669.88
434.287	2651.88
434.509	2671.88
434.731	2694.88
434.953	2700.88
435.175	2797.88
435.397	2772.88
435.618	2684.88
435.84	2643.88
436.062	2637.88
436.284	2651.88
436.505	2643.88
436.727	2660.88
436.949	2594.88
437.17	2558.88
437.392	2609.88
437.614	2600.88
437.835	2514.88
438.057	2544.88
438.278	2515.88
438.5	2525.88
438.721	2615.88
438.943	2668.88
439.165	2736.88
439.386	2757.88
439.608	2694.88
439.829	2740.88
440.05	2773.88
440.272	2839.88
440.493	2779.88
440.715	2731.88
440.936	2751.88
441.158	2736.88
441.379	2755.88
441.6	2872.88
441.822	2942.88
442.043	3075.88
442.264	3131.88
442.486	2969.88
442.707	2844.88
442.928	2833.88
443.149	2835.88
443.371	2805.88
443.592	2799.88
443.813	2849.88
444.034	2839.88
444.255	2844.88
444.476	2936.88
444.698	3054.88
444.919	3027.88
445.14	3127.88
445.361	2954.88
445.582	2853.88
445.803	2834.88
446.024	2784.88
446.245	2823.88
446.466	2801.88
446.687	2736.88
446.908	2726.88
447.129	2652.88
447.35	2644.88
447.571	2633.88
447.792	2592.88
448.013	2601.88
448.234	2563.88
448.455	2573.88
448.675	2599.88
448.896	2687.88
449.117	2736.88
449.338	2992.88
449.559	3090.88
449.779	2790.88
450	2614.88
450.221	2537.88
450.442	2534.88
450.662	2521.88
450.883	2505.88
451.104	2526.88
451.324	2478.88
451.545	2499.88
451.766	2583.88
451.986	2625.88
452.207	2740.88
452.428	3603.88
452.648	5376.88
452.869	4491.88
453.089	3151.88
453.31	2931.88
453.53	2889.88
453.751	3030.88
453.971	3106.88
454.192	3009.88
454.412	2715.88
454.633	2537.88
454.853	2496.88
455.073	2428.88
455.294	2434.88
455.514	2441.88
455.734	2408.88
455.955	2402.88
456.175	2423.88
456.395	2428.88
456.616	2463.88
456.836	2486.88
457.056	2487.88
457.276	2491.88
457.497	2635.88
457.717	2628.88
457.937	2544.88
458.157	2524.88
458.377	2585.88
458.598	2558.88
458.818	2551.88
459.038	2608.88
459.258	2634.88
459.478	2652.88
459.698	2665.88
459.918	2740.88
460.138	2690.88
460.358	2810.88
460.578	2807.88
460.798	2860.88
461.018	2837.88
461.238	2853.88
461.458	2915.88
461.678	2885.88
461.898	3037.88
462.118	3024.88
462.338	3081.88
462.558	3119.88
462.777	3127.88
462.997	3226.88
463.217	3358.88
463.437	3493.88
463.657	3542.88
463.876	3509.88
464.096	3392.88
464.316	3208.88
464.536	3213.88
464.755	3099.88
464.975	2998.88
465.195	2906.88
465.414	2877.88
465.634	2767.88
465.854	2781.88
466.073	2714.88
466.293	2647.88
466.512	2681.88
466.732	2706.88
466.951	2798.88
467.171	2991.88
467.391	2962.88
467.61	2752.88
467.829	2606.88
468.049	2587.88
468.268	2594.88
468.488	2582.88
468.707	2599.88
468.927	2559.88
469.146	2582.88
469.365	2599.88
469.585	2651.88
469.804	2683.88
470.023	2676.88
470.243	2754.88
470.462	2789.88
470.681	2997.88
470.901	3267.88
471.12	3715.88
471.339	3670.88
471.558	3119.88
471.777	2893.88
471.997	2757.88
472.216	2710.88
472.435	2666.88
472.654	2636.88
472.873	2590.88
473.092	2644.88
473.311	2625.88
473.53	2638.88
473.749	2665.88
473.968	2816.88
474.187	2620.88
474.406	2578.88
474.625	2601.88
474.844	2630.88
475.063	2631.88
475.282	2656.88
475.501	2634.88
475.72	2639.88
475.939	2638.88
476.158	2680.88
476.377	2786.88
476.596	2792.88
476.814	2752.88
477.033	2734.88
477.252	2791.88
477.471	2858.88
477.69	2898.88
477.908	2944.88
478.127	2955.88
478.346	2910.88
478.564	2998.88
478.783	3029.88
479.002	3088.88
479.22	3080.88
479.439	3093.88
479.658	3140.88
479.876	3164.88
480.095	3191.88
480.313	3230.88
480.532	3279.88
480.751	3256.88
480.969	3215.88
481.188	3160.88
481.406	3143.88
481.624	3141.88
481.843	3143.88
482.061	3146.88
482.28	3183.88
482.498	3188.88
482.717	3173.88
482.935	3156.88
483.153	3207.88
483.372	3294.88
483.59	3289.88
483.808	3395.88
484.027	3418.88
484.245	3596.88
484.463	3996.88
484.681	4438.88
484.9	4087.88
485.118	3769.88
485.336	3707.88
485.554	3780.88
485.772	4015.88
485.99	4496.88
486.209	4748.88
486.427	4107.88
486.645	3690.88
486.863	3547.88
487.081	3452.88
487.299	3389.88
487.517	3362.88
487.735	3385.88
