Data from SnStandardFlinnAPT0064_LampEnergy5.5_LIBS07252019.E.O._I.C._HRD10591_15-14-49-491.txt Node
Date: Thu Jul 25 15:14:49 EDT 2019
User: cochatt
Spectrometer: HR+D1059
Trigger mode: 1
Integration Time (sec): 1.000000E-1
Scans to average: 1
Electric dark correction enabled: true
Nonlinearity correction enabled: false
Boxcar width: 0
XAxis mode: Wavelengths
Number of Pixels in Spectrum: 2048
>>>>>Begin Spectral Data<<<<<
223.165	-19.31
223.4	-19.31
223.635	-19.31
223.869	-27.31
224.104	-22.31
224.338	-21.31
224.573	-14.31
224.808	-1.31
225.042	-20.31
225.277	-1.31
225.511	4.69
225.746	6.69
225.98	-0.31
226.215	20.69
226.449	8.69
226.683	19.69
226.918	34.69
227.152	32.69
227.387	40.69
227.621	43.69
227.856	40.69
228.09	58.69
228.324	43.69
228.559	53.69
228.793	69.69
229.027	138.69
229.262	145.69
229.496	134.69
229.73	167.69
229.964	158.69
230.199	161.69
230.433	142.69
230.667	132.69
230.901	160.69
231.136	150.69
231.37	163.69
231.604	150.69
231.838	182.69
232.072	211.69
232.306	219.69
232.541	195.69
232.775	179.69
233.009	180.69
233.243	206.69
233.477	194.69
233.711	214.69
233.945	235.69
234.179	225.69
234.413	193.69
234.647	207.69
234.881	208.69
235.115	229.69
235.349	245.69
235.583	281.69
235.817	367.69
236.051	374.69
236.285	255.69
236.519	214.69
236.753	217.69
236.987	223.69
237.221	242.69
237.455	224.69
237.689	212.69
237.922	203.69
238.156	209.69
238.39	215.69
238.624	209.69
238.858	209.69
239.091	196.69
239.325	222.69
239.559	224.69
239.793	230.69
240.027	232.69
240.26	224.69
240.494	233.69
240.728	243.69
240.961	258.69
241.195	252.69
241.429	274.69
241.662	269.69
241.896	322.69
242.13	350.69
242.363	438.69
242.597	535.69
242.83	528.69
243.064	549.69
243.298	605.69
243.531	512.69
243.765	352.69
243.998	306.69
244.232	267.69
244.465	296.69
244.699	251.69
244.932	267.69
245.166	288.69
245.399	269.69
245.633	272.69
245.866	283.69
246.099	286.69
246.333	276.69
246.566	254.69
246.8	264.69
247.033	259.69
247.266	260.69
247.5	285.69
247.733	290.69
247.966	300.69
248.2	302.69
248.433	318.69
248.666	343.69
248.899	337.69
249.133	347.69
249.366	330.69
249.599	362.69
249.832	401.69
250.066	396.69
250.299	345.69
250.532	321.69
250.765	305.69
250.998	298.69
251.231	299.69
251.465	298.69
251.698	319.69
251.931	302.69
252.164	285.69
252.397	308.69
252.63	320.69
252.863	332.69
253.096	330.69
253.329	301.69
253.562	312.69
253.795	325.69
254.028	330.69
254.261	320.69
254.494	336.69
254.727	376.69
254.96	450.69
255.193	449.69
255.426	383.69
255.659	348.69
255.892	347.69
256.124	355.69
256.357	347.69
256.59	364.69
256.823	378.69
257.056	416.69
257.289	450.69
257.521	488.69
257.754	443.69
257.987	381.69
258.22	364.69
258.452	386.69
258.685	371.69
258.918	384.69
259.151	383.69
259.383	439.69
259.616	445.69
259.849	452.69
260.081	399.69
260.314	420.69
260.547	393.69
260.779	392.69
261.012	388.69
261.244	400.69
261.477	423.69
261.71	402.69
261.942	416.69
262.175	419.69
262.407	450.69
262.64	440.69
262.872	463.69
263.105	479.69
263.337	482.69
263.57	516.69
263.802	521.69
264.035	530.69
264.267	571.69
264.499	545.69
264.732	611.69
264.964	577.69
265.197	592.69
265.429	586.69
265.661	618.69
265.894	619.69
266.126	678.69
266.358	731.69
266.591	709.69
266.823	633.69
267.055	580.69
267.287	546.69
267.52	560.69
267.752	551.69
267.984	516.69
268.216	508.69
268.448	523.69
268.681	477.69
268.913	482.69
269.145	510.69
269.377	499.69
269.609	510.69
269.841	515.69
270.073	582.69
270.306	614.69
270.538	791.69
270.77	1039.69
271.002	1274.69
271.234	942.69
271.466	674.69
271.698	568.69
271.93	546.69
272.162	531.69
272.394	511.69
272.626	514.69
272.858	500.69
273.09	516.69
273.322	516.69
273.553	491.69
273.785	506.69
274.017	490.69
274.249	494.69
274.481	500.69
274.713	492.69
274.945	518.69
275.176	487.69
275.408	503.69
275.64	496.69
275.872	502.69
276.104	498.69
276.335	510.69
276.567	502.69
276.799	513.69
277.031	502.69
277.262	525.69
277.494	544.69
277.726	544.69
277.957	656.69
278.189	690.69
278.421	659.69
278.652	607.69
278.884	597.69
279.115	571.69
279.347	542.69
279.579	542.69
279.81	529.69
280.042	546.69
280.273	547.69
280.505	552.69
280.736	551.69
280.968	585.69
281.199	617.69
281.431	689.69
281.662	684.69
281.894	672.69
282.125	605.69
282.356	593.69
282.588	619.69
282.819	640.69
283.051	679.69
283.282	724.69
283.513	881.69
283.745	1184.69
283.976	1816.69
284.207	2464.69
284.439	2252.69
284.67	1448.69
284.901	1194.69
285.132	1167.69
285.364	1078.69
285.595	926.69
285.826	850.69
286.057	914.69
286.288	1223.69
286.52	1593.69
286.751	1530.69
286.982	1034.69
287.213	849.69
287.444	740.69
287.675	681.69
287.906	692.69
288.138	698.69
288.369	679.69
288.6	649.69
288.831	663.69
289.062	638.69
289.293	672.69
289.524	644.69
289.755	653.69
289.986	643.69
290.217	656.69
290.448	651.69
290.679	681.69
290.91	687.69
291.141	678.69
291.371	726.69
291.602	715.69
291.833	674.69
292.064	657.69
292.295	646.69
292.526	646.69
292.757	617.69
292.987	619.69
293.218	624.69
293.449	648.69
293.68	604.69
293.91	627.69
294.141	613.69
294.372	618.69
294.603	612.69
294.833	630.69
295.064	602.69
295.295	617.69
295.525	608.69
295.756	610.69
295.987	594.69
296.217	625.69
296.448	586.69
296.679	626.69
296.909	606.69
297.14	644.69
297.37	641.69
297.601	633.69
297.831	639.69
298.062	632.69
298.292	625.69
298.523	644.69
298.753	670.69
298.984	687.69
299.214	690.69
299.445	678.69
299.675	670.69
299.905	687.69
300.136	736.69
300.366	792.69
300.597	954.69
300.827	1236.69
301.057	1648.69
301.288	1593.69
301.518	1098.69
301.748	922.69
301.979	855.69
302.209	798.69
302.439	838.69
302.669	859.69
302.9	1038.69
303.13	1308.69
303.36	1863.69
303.59	2434.69
303.82	2130.69
304.051	1334.69
304.281	1017.69
304.511	872.69
304.741	832.69
304.971	782.69
305.201	753.69
305.431	788.69
305.661	757.69
305.891	746.69
306.121	700.69
306.352	710.69
306.582	708.69
306.812	711.69
307.042	722.69
307.272	724.69
307.502	714.69
307.731	703.69
307.961	679.69
308.191	703.69
308.421	724.69
308.651	704.69
308.881	672.69
309.111	699.69
309.341	710.69
309.571	738.69
309.8	717.69
310.03	749.69
310.26	742.69
310.49	718.69
310.72	734.69
310.949	716.69
311.179	764.69
311.409	740.69
311.639	752.69
311.868	754.69
312.098	738.69
312.328	755.69
312.557	740.69
312.787	748.69
313.017	742.69
313.246	792.69
313.476	784.69
313.706	777.69
313.935	831.69
314.165	858.69
314.394	887.69
314.624	849.69
314.853	806.69
315.083	812.69
315.312	826.69
315.542	831.69
315.771	837.69
316.001	858.69
316.23	853.69
316.46	889.69
316.689	927.69
316.919	1079.69
317.148	1489.69
317.377	2211.69
317.607	3210.69
317.836	3282.69
318.065	2011.69
318.295	1399.69
318.524	1186.69
318.753	1019.69
318.983	972.69
319.212	926.69
319.441	953.69
319.67	912.69
319.9	906.69
320.129	884.69
320.358	877.69
320.587	900.69
320.816	883.69
321.046	869.69
321.275	891.69
321.504	907.69
321.733	901.69
321.962	937.69
322.191	937.69
322.42	947.69
322.649	942.69
322.878	950.69
323.108	944.69
323.337	946.69
323.566	968.69
323.795	971.69
324.024	975.69
324.253	1014.69
324.482	1036.69
324.71	1071.69
324.939	1115.69
325.168	1171.69
325.397	1180.69
325.626	1345.69
325.855	1843.69
326.084	2696.69
326.313	3864.69
326.542	4133.69
326.77	2758.69
326.999	1927.69
327.228	1653.69
327.457	1572.69
327.686	1654.69
327.914	1719.69
328.143	1951.69
328.372	2208.69
328.6	2364.69
328.829	2243.69
329.058	1990.69
329.287	1800.69
329.515	1657.69
329.744	1536.69
329.972	1452.69
330.201	1431.69
330.43	1375.69
330.658	1361.69
330.887	1290.69
331.115	1284.69
331.344	1330.69
331.572	1311.69
331.801	1282.69
332.03	1278.69
332.258	1337.69
332.486	1375.69
332.715	1536.69
332.943	1729.69
333.172	2101.69
333.4	2060.69
333.629	1688.69
333.857	1645.69
334.085	1588.69
334.314	1726.69
334.542	1812.69
334.771	2053.69
334.999	2402.69
335.227	2851.69
335.455	3139.69
335.684	2927.69
335.912	2584.69
336.14	2283.69
336.369	2042.69
336.597	1918.69
336.825	1746.69
337.053	1667.69
337.281	1564.69
337.51	1498.69
337.738	1450.69
337.966	1378.69
338.194	1357.69
338.422	1318.69
338.65	1270.69
338.878	1270.69
339.106	1196.69
339.334	1227.69
339.562	1160.69
339.79	1178.69
340.018	1172.69
340.246	1159.69
340.474	1146.69
340.702	1161.69
340.93	1140.69
341.158	1137.69
341.386	1123.69
341.614	1114.69
341.842	1108.69
342.07	1099.69
342.298	1060.69
342.526	1084.69
342.754	1094.69
342.981	1077.69
343.209	1050.69
343.437	1067.69
343.665	1061.69
343.893	1093.69
344.12	1079.69
344.348	1071.69
344.576	1078.69
344.804	1040.69
345.031	1016.69
345.259	1016.69
345.487	1001.69
345.714	1013.69
345.942	992.69
346.17	994.69
346.397	989.69
346.625	990.69
346.853	990.69
347.08	983.69
347.308	942.69
347.535	976.69
347.763	975.69
347.99	971.69
348.218	972.69
348.445	968.69
348.673	951.69
348.9	944.69
349.128	956.69
349.355	954.69
349.583	944.69
349.81	932.69
350.037	955.69
350.265	946.69
350.492	939.69
350.72	930.69
350.947	918.69
351.174	935.69
351.402	967.69
351.629	918.69
351.856	951.69
352.083	948.69
352.311	909.69
352.538	958.69
352.765	943.69
352.992	931.69
353.22	899.69
353.447	918.69
353.674	915.69
353.901	946.69
354.128	946.69
354.355	930.69
354.583	950.69
354.81	937.69
355.037	938.69
355.264	930.69
355.491	952.69
355.718	942.69
355.945	980.69
356.172	986.69
356.399	954.69
356.626	970.69
356.853	956.69
357.08	967.69
357.307	986.69
357.534	989.69
357.761	979.69
357.988	989.69
358.215	1025.69
358.441	989.69
358.668	948.69
358.895	998.69
359.122	995.69
359.349	968.69
359.576	1014.69
359.802	982.69
360.029	994.69
360.256	972.69
360.483	971.69
360.709	1012.69
360.936	999.69
361.163	971.69
361.39	979.69
361.616	1014.69
361.843	1010.69
362.07	1009.69
362.296	992.69
362.523	982.69
362.749	974.69
362.976	1008.69
363.203	999.69
363.429	975.69
363.656	994.69
363.882	1001.69
364.109	1023.69
364.335	1008.69
364.562	985.69
364.788	1000.69
365.015	1013.69
365.241	1026.69
365.468	1041.69
365.694	1028.69
365.92	1040.69
366.147	1011.69
366.373	1018.69
366.599	1009.69
366.826	1004.69
367.052	990.69
367.278	1015.69
367.505	1032.69
367.731	1034.69
367.957	1033.69
368.184	1024.69
368.41	1025.69
368.636	1039.69
368.862	1045.69
369.089	1034.69
369.315	1012.69
369.541	1068.69
369.767	1049.69
369.993	1025.69
370.219	1043.69
370.445	1071.69
370.672	1070.69
370.898	1028.69
371.124	1063.69
371.35	1058.69
371.576	1051.69
371.802	1056.69
372.028	1051.69
372.254	1070.69
372.48	1125.69
372.706	1086.69
372.932	1072.69
373.158	1074.69
373.384	1072.69
373.61	1068.69
373.835	1098.69
374.061	1112.69
374.287	1106.69
374.513	1105.69
374.739	1122.69
374.965	1102.69
375.191	1138.69
375.416	1122.69
375.642	1107.69
375.868	1110.69
376.094	1092.69
376.319	1084.69
376.545	1102.69
376.771	1081.69
376.997	1073.69
377.222	1085.69
377.448	1078.69
377.674	1068.69
377.899	1090.69
378.125	1082.69
378.35	1067.69
378.576	1069.69
378.802	1080.69
379.027	1100.69
379.253	1113.69
379.478	1186.69
379.704	1314.69
379.929	1664.69
380.155	2375.69
380.38	2536.69
380.606	1696.69
380.831	1312.69
381.057	1192.69
381.282	1106.69
381.507	1077.69
381.733	1093.69
381.958	1076.69
382.184	1072.69
382.409	1078.69
382.634	1070.69
382.86	1046.69
383.085	1039.69
383.31	1071.69
383.535	1070.69
383.761	1059.69
383.986	1068.69
384.211	1085.69
384.436	1091.69
384.662	1124.69
384.887	1095.69
385.112	1099.69
385.337	1074.69
385.562	1082.69
385.787	1086.69
386.013	1095.69
386.238	1096.69
386.463	1101.69
386.688	1105.69
386.913	1066.69
387.138	1082.69
387.363	1107.69
387.588	1079.69
387.813	1093.69
388.038	1086.69
388.263	1094.69
388.488	1100.69
388.713	1131.69
388.938	1100.69
389.163	1104.69
389.387	1084.69
389.612	1098.69
389.837	1093.69
390.062	1118.69
390.287	1124.69
390.512	1137.69
390.736	1150.69
390.961	1118.69
391.186	1125.69
391.411	1162.69
391.636	1152.69
391.86	1173.69
392.085	1170.69
392.31	1159.69
392.534	1162.69
392.759	1134.69
392.984	1129.69
393.208	1104.69
393.433	1118.69
393.658	1105.69
393.882	1110.69
394.107	1098.69
394.331	1126.69
394.556	1116.69
394.78	1143.69
395.005	1140.69
395.229	1122.69
395.454	1125.69
395.678	1163.69
395.903	1144.69
396.127	1131.69
396.352	1136.69
396.576	1166.69
396.801	1153.69
397.025	1164.69
397.249	1186.69
397.474	1140.69
397.698	1152.69
397.922	1175.69
398.147	1185.69
398.371	1196.69
398.595	1235.69
398.82	1216.69
399.044	1274.69
399.268	1285.69
399.492	1407.69
399.717	1475.69
399.941	1445.69
400.165	1448.69
400.389	1367.69
400.613	1284.69
400.837	1279.69
401.062	1257.69
401.286	1249.69
401.51	1244.69
401.734	1225.69
401.958	1203.69
402.182	1221.69
402.406	1219.69
402.63	1234.69
402.854	1218.69
403.078	1229.69
403.302	1249.69
403.526	1281.69
403.75	1266.69
403.974	1267.69
404.198	1210.69
404.422	1275.69
404.645	1298.69
404.869	1247.69
405.093	1286.69
405.317	1255.69
405.541	1280.69
405.765	1266.69
405.988	1310.69
406.212	1303.69
406.436	1260.69
406.66	1345.69
406.883	1297.69
407.107	1310.69
407.331	1346.69
407.555	1387.69
407.778	1391.69
408.002	1354.69
408.226	1343.69
408.449	1339.69
408.673	1310.69
408.896	1257.69
409.12	1292.69
409.344	1292.69
409.567	1264.69
409.791	1271.69
410.014	1294.69
410.238	1278.69
410.461	1267.69
410.685	1247.69
410.908	1234.69
411.132	1240.69
411.355	1224.69
411.578	1246.69
411.802	1216.69
412.025	1235.69
412.249	1200.69
412.472	1256.69
412.695	1174.69
412.919	1187.69
413.142	1200.69
413.365	1186.69
413.589	1190.69
413.812	1164.69
414.035	1197.69
414.258	1204.69
414.482	1203.69
414.705	1184.69
414.928	1243.69
415.151	1179.69
415.374	1163.69
415.597	1174.69
415.821	1146.69
416.044	1177.69
416.267	1173.69
416.49	1142.69
416.713	1122.69
416.936	1150.69
417.159	1129.69
417.382	1155.69
417.605	1164.69
417.828	1163.69
418.051	1145.69
418.274	1181.69
418.497	1172.69
418.72	1168.69
418.943	1130.69
419.166	1230.69
419.389	1298.69
419.611	1255.69
419.834	1238.69
420.057	1215.69
420.28	1204.69
420.503	1177.69
420.726	1160.69
420.948	1186.69
421.171	1164.69
421.394	1160.69
421.617	1176.69
421.839	1162.69
422.062	1178.69
422.285	1150.69
422.507	1170.69
422.73	1170.69
422.953	1185.69
423.175	1172.69
423.398	1175.69
423.621	1163.69
423.843	1190.69
424.066	1189.69
424.288	1177.69
424.511	1147.69
424.733	1156.69
424.956	1135.69
425.178	1171.69
425.401	1147.69
425.623	1164.69
425.846	1117.69
426.068	1129.69
426.291	1117.69
426.513	1138.69
426.735	1115.69
426.958	1100.69
427.18	1073.69
427.402	1104.69
427.625	1103.69
427.847	1073.69
428.069	1080.69
428.292	1104.69
428.514	1087.69
428.736	1082.69
428.958	1082.69
429.181	1090.69
429.403	1038.69
429.625	1070.69
429.847	1075.69
430.069	1094.69
430.292	1110.69
430.514	1128.69
430.736	1111.69
430.958	1079.69
431.18	1066.69
431.402	1037.69
431.624	1075.69
431.846	1058.69
432.068	1012.69
432.29	1057.69
432.512	1059.69
432.734	1067.69
432.956	1055.69
433.178	1063.69
433.4	1079.69
433.622	1104.69
433.844	1052.69
434.066	1086.69
434.287	1064.69
434.509	1057.69
434.731	1102.69
434.953	1100.69
435.175	1097.69
435.397	1128.69
435.618	1081.69
435.84	1068.69
436.062	1063.69
436.284	1065.69
436.505	1074.69
436.727	1074.69
436.949	1072.69
437.17	1083.69
437.392	1058.69
437.614	1045.69
437.835	1011.69
438.057	1020.69
438.278	1025.69
438.5	1041.69
438.721	1048.69
438.943	1079.69
439.165	1081.69
439.386	1092.69
439.608	1110.69
439.829	1127.69
440.05	1113.69
440.272	1140.69
440.493	1117.69
440.715	1096.69
440.936	1082.69
441.158	1134.69
441.379	1140.69
441.6	1137.69
441.822	1174.69
442.043	1230.69
442.264	1238.69
442.486	1179.69
442.707	1154.69
442.928	1140.69
443.149	1150.69
443.371	1148.69
443.592	1126.69
443.813	1166.69
444.034	1148.69
444.255	1171.69
444.476	1236.69
444.698	1233.69
444.919	1256.69
445.14	1280.69
445.361	1230.69
445.582	1192.69
445.803	1170.69
446.024	1150.69
446.245	1153.69
446.466	1156.69
446.687	1119.69
446.908	1142.69
447.129	1074.69
447.35	1063.69
447.571	1080.69
447.792	1044.69
448.013	1043.69
448.234	1028.69
448.455	1046.69
448.675	1054.69
448.896	1099.69
449.117	1094.69
449.338	1157.69
449.559	1187.69
449.779	1126.69
450	1054.69
450.221	1042.69
450.442	1022.69
450.662	1024.69
450.883	1012.69
451.104	1020.69
451.324	988.69
451.545	1008.69
451.766	1031.69
451.986	1058.69
452.207	1062.69
452.428	1252.69
452.648	1654.69
452.869	1466.69
453.089	1134.69
453.31	1130.69
453.53	1091.69
453.751	1105.69
453.971	1177.69
454.192	1148.69
454.412	1025.69
454.633	1002.69
454.853	993.69
455.073	968.69
455.294	985.69
455.514	956.69
455.734	958.69
455.955	970.69
456.175	987.69
456.395	978.69
456.616	963.69
456.836	976.69
457.056	1015.69
457.276	998.69
457.497	1033.69
457.717	1071.69
457.937	1031.69
458.157	1020.69
458.377	1022.69
458.598	1003.69
458.818	1066.69
459.038	1013.69
459.258	1033.69
459.478	1051.69
459.698	1027.69
459.918	1100.69
460.138	1097.69
460.358	1144.69
460.578	1146.69
460.798	1178.69
461.018	1191.69
461.238	1121.69
461.458	1183.69
461.678	1163.69
461.898	1187.69
462.118	1188.69
462.338	1233.69
462.558	1234.69
462.777	1267.69
462.997	1302.69
463.217	1344.69
463.437	1402.69
463.657	1307.69
463.876	1326.69
464.096	1286.69
464.316	1249.69
464.536	1316.69
464.755	1237.69
464.975	1215.69
465.195	1161.69
465.414	1124.69
465.634	1107.69
465.854	1107.69
466.073	1111.69
466.293	1051.69
466.512	1051.69
466.732	1073.69
466.951	1136.69
467.171	1152.69
467.391	1165.69
467.61	1098.69
467.829	1071.69
468.049	1055.69
468.268	1035.69
468.488	1048.69
468.707	1007.69
468.927	1055.69
469.146	1061.69
469.365	1061.69
469.585	1051.69
469.804	1116.69
470.023	1090.69
470.243	1111.69
470.462	1140.69
470.681	1161.69
470.901	1242.69
471.12	1420.69
471.339	1417.69
471.558	1216.69
471.777	1156.69
471.997	1107.69
472.216	1085.69
472.435	1051.69
472.654	1044.69
472.873	1036.69
473.092	1038.69
473.311	1048.69
473.53	1069.69
473.749	1074.69
473.968	1120.69
474.187	1075.69
474.406	1040.69
474.625	1071.69
474.844	1056.69
475.063	1039.69
475.282	1073.69
475.501	1054.69
475.72	1052.69
475.939	1068.69
476.158	1105.69
476.377	1130.69
476.596	1127.69
476.814	1125.69
477.033	1079.69
477.252	1147.69
477.471	1137.69
477.69	1178.69
477.908	1173.69
478.127	1173.69
478.346	1180.69
478.564	1219.69
478.783	1248.69
479.002	1249.69
479.22	1265.69
479.439	1209.69
479.658	1239.69
479.876	1243.69
480.095	1267.69
480.313	1288.69
480.532	1301.69
480.751	1293.69
480.969	1263.69
481.188	1256.69
481.406	1238.69
481.624	1253.69
481.843	1248.69
482.061	1230.69
482.28	1240.69
482.498	1256.69
482.717	1223.69
482.935	1256.69
483.153	1282.69
483.372	1293.69
483.59	1303.69
483.808	1320.69
484.027	1336.69
484.245	1396.69
484.463	1511.69
484.681	1661.69
484.9	1572.69
485.118	1486.69
485.336	1448.69
485.554	1430.69
485.772	1504.69
485.99	1686.69
486.209	1751.69
486.427	1500.69
486.645	1404.69
486.863	1411.69
487.081	1334.69
487.299	1345.69
487.517	1338.69
487.735	1359.69
487.953	1397.69
488.171	1387.69
488.389	1381.69
488.607	1332.69
488.825	1309.69
489.043	1277.69
489.261	1313.69
489.479	1303.69
489.696	1301.69
489.914	1308.69
490.132	1334.69
490.35	1314.69
490.568	1356.69
490.786	1353.69
491.003	1335.69
491.221	1392.69
491.439	1396.69
491.657	1418.69
491.874	1403.69
492.092	1445.69
492.31	1484.69
