Data from SnStandardFlinnAPT0064_LampEnergy10_LIBS07252019.E.O._I.C._HRD10591_15-22-16-495.txt Node
Date: Thu Jul 25 15:22:16 EDT 2019
User: cochatt
Spectrometer: HR+D1059
Trigger mode: 1
Integration Time (sec): 1.000000E-1
Scans to average: 1
Electric dark correction enabled: true
Nonlinearity correction enabled: false
Boxcar width: 0
XAxis mode: Wavelengths
Number of Pixels in Spectrum: 2048
>>>>>Begin Spectral Data<<<<<
223.165	-10.94
223.4	-10.94
223.635	-10.94
223.869	-18.94
224.104	-13.94
224.338	-15.94
224.573	-18.94
224.808	-13.94
225.042	-5.94
225.277	-6.94
225.511	-4.94
225.746	4.06
225.98	2.06
226.215	11.06
226.449	7.06
226.683	20.06
226.918	23.06
227.152	43.06
227.387	34.06
227.621	44.06
227.856	38.06
228.09	53.06
228.324	47.06
228.559	73.06
228.793	119.06
229.027	308.06
229.262	356.06
229.496	284.06
229.73	271.06
229.964	290.06
230.199	295.06
230.433	298.06
230.667	308.06
230.901	315.06
231.136	335.06
231.37	369.06
231.604	394.06
231.838	457.06
232.072	518.06
232.306	582.06
232.541	481.06
232.775	400.06
233.009	404.06
233.243	421.06
233.477	456.06
233.711	506.06
233.945	582.06
234.179	518.06
234.413	463.06
234.647	429.06
234.881	463.06
235.115	529.06
235.349	618.06
235.583	743.06
235.817	985.06
236.051	993.06
236.285	642.06
236.519	516.06
236.753	503.06
236.987	497.06
237.221	538.06
237.455	493.06
237.689	460.06
237.922	441.06
238.156	445.06
238.39	470.06
238.624	475.06
238.858	461.06
239.091	488.06
239.325	485.06
239.559	478.06
239.793	505.06
240.027	504.06
240.26	540.06
240.494	575.06
240.728	558.06
240.961	609.06
241.195	658.06
241.429	675.06
241.662	705.06
241.896	783.06
242.13	917.06
242.363	1268.06
242.597	1642.06
242.83	1568.06
243.064	1492.06
243.298	1778.06
243.531	1525.06
243.765	976.06
243.998	781.06
244.232	681.06
244.465	658.06
244.699	646.06
244.932	656.06
245.166	665.06
245.399	674.06
245.633	690.06
245.866	680.06
246.099	658.06
246.333	647.06
246.566	639.06
246.8	640.06
247.033	629.06
247.266	636.06
247.5	628.06
247.733	665.06
247.966	712.06
248.2	764.06
248.433	877.06
248.666	974.06
248.899	937.06
249.133	853.06
249.366	892.06
249.599	932.06
249.832	1095.06
250.066	1085.06
250.299	850.06
250.532	770.06
250.765	746.06
250.998	750.06
251.231	749.06
251.465	736.06
251.698	734.06
251.931	713.06
252.164	745.06
252.397	751.06
252.63	800.06
252.863	783.06
253.096	762.06
253.329	790.06
253.562	777.06
253.795	797.06
254.028	800.06
254.261	832.06
254.494	861.06
254.727	1012.06
254.96	1254.06
255.193	1220.06
255.426	976.06
255.659	871.06
255.892	860.06
256.124	864.06
256.357	871.06
256.59	908.06
256.823	952.06
257.056	1127.06
257.289	1332.06
257.521	1497.06
257.754	1194.06
257.987	943.06
258.22	875.06
258.452	932.06
258.685	920.06
258.918	932.06
259.151	994.06
259.383	1055.06
259.616	1212.06
259.849	1276.06
260.081	1081.06
260.314	994.06
260.547	948.06
260.779	948.06
261.012	946.06
261.244	978.06
261.477	963.06
261.71	1002.06
261.942	1023.06
262.175	1003.06
262.407	1051.06
262.64	1051.06
262.872	1097.06
263.105	1169.06
263.337	1220.06
263.57	1262.06
263.802	1305.06
264.035	1340.06
264.267	1368.06
264.499	1424.06
264.732	1420.06
264.964	1434.06
265.197	1401.06
265.429	1425.06
265.661	1441.06
265.894	1595.06
266.126	1751.06
266.358	1965.06
266.591	1927.06
266.823	1622.06
267.055	1458.06
267.287	1392.06
267.52	1350.06
267.752	1302.06
267.984	1276.06
268.216	1280.06
268.448	1260.06
268.681	1250.06
268.913	1221.06
269.145	1291.06
269.377	1222.06
269.609	1236.06
269.841	1281.06
270.073	1354.06
270.306	1581.06
270.538	2190.06
270.77	3242.06
271.002	3974.06
271.234	2766.06
271.466	1849.06
271.698	1540.06
271.93	1400.06
272.162	1310.06
272.394	1268.06
272.626	1280.06
272.858	1198.06
273.09	1237.06
273.322	1198.06
273.553	1202.06
273.785	1191.06
274.017	1200.06
274.249	1216.06
274.481	1200.06
274.713	1217.06
274.945	1240.06
275.176	1198.06
275.408	1222.06
275.64	1219.06
275.872	1234.06
276.104	1236.06
276.335	1273.06
276.567	1268.06
276.799	1274.06
277.031	1307.06
277.262	1312.06
277.494	1374.06
277.726	1548.06
277.957	1858.06
278.189	2100.06
278.421	1962.06
278.652	1702.06
278.884	1676.06
279.115	1520.06
279.347	1405.06
279.579	1371.06
279.81	1400.06
280.042	1400.06
280.273	1439.06
280.505	1432.06
280.736	1480.06
280.968	1580.06
281.199	1811.06
281.431	2025.06
281.662	2134.06
281.894	1760.06
282.125	1614.06
282.356	1622.06
282.588	1631.06
282.819	1708.06
283.051	1814.06
283.282	1990.06
283.513	2491.06
283.745	3596.06
283.976	5730.06
284.207	8076.06
284.439	7295.06
284.67	4432.06
284.901	3701.06
285.132	3721.06
285.364	3563.06
285.595	2720.06
285.826	2400.06
286.057	2859.06
286.288	3959.06
286.52	5258.06
286.751	4925.06
286.982	3012.06
287.213	2248.06
287.444	1973.06
287.675	1874.06
287.906	1760.06
288.138	1728.06
288.369	1701.06
288.6	1672.06
288.831	1661.06
289.062	1677.06
289.293	1674.06
289.524	1687.06
289.755	1718.06
289.986	1738.06
290.217	1704.06
290.448	1700.06
290.679	1664.06
290.91	1814.06
291.141	1871.06
291.371	2008.06
291.602	2132.06
291.833	1958.06
292.064	1746.06
292.295	1660.06
292.526	1625.06
292.757	1603.06
292.987	1604.06
293.218	1566.06
293.449	1619.06
293.68	1584.06
293.91	1561.06
294.141	1581.06
294.372	1550.06
294.603	1551.06
294.833	1556.06
295.064	1542.06
295.295	1558.06
295.525	1572.06
295.756	1600.06
295.987	1508.06
296.217	1576.06
296.448	1564.06
296.679	1566.06
296.909	1590.06
297.14	1596.06
297.37	1665.06
297.601	1636.06
297.831	1640.06
298.062	1623.06
298.292	1657.06
298.523	1675.06
298.753	1665.06
298.984	1702.06
299.214	1718.06
299.445	1742.06
299.675	1777.06
299.905	1804.06
300.136	1889.06
300.366	2134.06
300.597	2720.06
300.827	3866.06
301.057	5274.06
301.288	5210.06
301.518	3320.06
301.748	2600.06
301.979	2349.06
302.209	2232.06
302.439	2297.06
302.669	2455.06
302.9	2941.06
303.13	4174.06
303.36	6258.06
303.59	8321.06
303.82	7118.06
304.051	4160.06
304.281	2978.06
304.511	2542.06
304.741	2335.06
304.971	2177.06
305.201	2069.06
305.431	2012.06
305.661	1973.06
305.891	1909.06
306.121	1871.06
306.352	1859.06
306.582	1800.06
306.812	1860.06
307.042	1822.06
307.272	1844.06
307.502	1824.06
307.731	1823.06
307.961	1797.06
308.191	1809.06
308.421	1821.06
308.651	1832.06
308.881	1797.06
309.111	1804.06
309.341	1811.06
309.571	1834.06
309.8	1845.06
310.03	1869.06
310.26	1881.06
310.49	1820.06
310.72	1879.06
310.949	1895.06
311.179	1886.06
311.409	1920.06
311.639	1948.06
311.868	1933.06
312.098	1940.06
312.328	1942.06
312.557	1986.06
312.787	1935.06
313.017	1919.06
313.246	2009.06
313.476	2034.06
313.706	2108.06
313.935	2239.06
314.165	2360.06
314.394	2515.06
314.624	2368.06
314.853	2221.06
315.083	2141.06
315.312	2137.06
315.542	2204.06
315.771	2226.06
316.001	2242.06
316.23	2364.06
316.46	2417.06
316.689	2644.06
316.919	3212.06
317.148	4674.06
317.377	7123.06
317.607	10502.06
317.836	10903.06
318.065	6528.06
318.295	4243.06
318.524	3396.06
318.753	2935.06
318.983	2758.06
319.212	2586.06
319.441	2528.06
319.67	2410.06
319.9	2406.06
320.129	2356.06
320.358	2365.06
320.587	2338.06
320.816	2304.06
321.046	2322.06
321.275	2351.06
321.504	2400.06
321.733	2403.06
321.962	2503.06
322.191	2509.06
322.42	2503.06
322.649	2499.06
322.878	2461.06
323.108	2504.06
323.337	2520.06
323.566	2581.06
323.795	2614.06
324.024	2675.06
324.253	2704.06
324.482	2829.06
324.71	3016.06
324.939	3186.06
325.168	3317.06
325.397	3354.06
325.626	4013.06
325.855	5644.06
326.084	8824.06
326.313	12866.06
326.542	13557.06
326.77	8992.06
326.999	5902.06
327.228	4886.06
327.457	4651.06
327.686	4733.06
327.914	5059.06
328.143	5864.06
328.372	6976.06
328.6	7555.06
328.829	6818.06
329.058	5673.06
329.287	4995.06
329.515	4554.06
329.744	4203.06
329.972	4031.06
330.201	3794.06
330.43	3715.06
330.658	3609.06
330.887	3563.06
331.115	3462.06
331.344	3488.06
331.572	3420.06
331.801	3480.06
332.03	3488.06
332.258	3501.06
332.486	3782.06
332.715	4305.06
332.943	5334.06
333.172	6650.06
333.4	6650.06
333.629	4954.06
333.857	4492.06
334.085	4528.06
334.314	4656.06
334.542	5004.06
334.771	5961.06
334.999	7275.06
335.227	9141.06
335.455	10187.06
335.684	9234.06
335.912	7485.06
336.14	6373.06
336.369	5613.06
336.597	5099.06
336.825	4764.06
337.053	4491.06
337.281	4174.06
337.51	3948.06
337.738	3882.06
337.966	3720.06
338.194	3542.06
338.422	3488.06
338.65	3329.06
338.878	3303.06
339.106	3294.06
339.334	3162.06
339.562	3149.06
339.79	3045.06
340.018	3062.06
340.246	3025.06
340.474	3074.06
340.702	3004.06
340.93	3018.06
341.158	3006.06
341.386	3033.06
341.614	2967.06
341.842	2891.06
342.07	2806.06
342.298	2806.06
342.526	2787.06
342.754	2766.06
342.981	2720.06
343.209	2734.06
343.437	2784.06
343.665	2822.06
343.893	2851.06
344.12	2865.06
344.348	2765.06
344.576	2739.06
344.804	2699.06
345.031	2578.06
345.259	2622.06
345.487	2580.06
345.714	2612.06
345.942	2560.06
346.17	2565.06
346.397	2518.06
346.625	2579.06
346.853	2510.06
347.08	2530.06
347.308	2567.06
347.535	2564.06
347.763	2507.06
347.99	2522.06
348.218	2518.06
348.445	2422.06
348.673	2489.06
348.9	2442.06
349.128	2478.06
349.355	2433.06
349.583	2411.06
349.81	2422.06
350.037	2455.06
350.265	2402.06
350.492	2420.06
350.72	2362.06
350.947	2383.06
351.174	2430.06
351.402	2427.06
351.629	2442.06
351.856	2393.06
352.083	2376.06
352.311	2408.06
352.538	2375.06
352.765	2379.06
352.992	2400.06
353.22	2394.06
353.447	2352.06
353.674	2395.06
353.901	2370.06
354.128	2423.06
354.355	2393.06
354.583	2412.06
354.81	2426.06
355.037	2448.06
355.264	2461.06
355.491	2444.06
355.718	2471.06
355.945	2462.06
356.172	2450.06
356.399	2459.06
356.626	2475.06
356.853	2509.06
357.08	2536.06
357.307	2560.06
357.534	2508.06
357.761	2606.06
357.988	2577.06
358.215	2620.06
358.441	2551.06
358.668	2550.06
358.895	2553.06
359.122	2566.06
359.349	2546.06
359.576	2501.06
359.802	2578.06
360.029	2562.06
360.256	2540.06
360.483	2562.06
360.709	2564.06
360.936	2607.06
361.163	2574.06
361.39	2571.06
361.616	2564.06
361.843	2589.06
362.07	2581.06
362.296	2588.06
362.523	2571.06
362.749	2582.06
362.976	2528.06
363.203	2566.06
363.429	2488.06
363.656	2521.06
363.882	2515.06
364.109	2550.06
364.335	2543.06
364.562	2546.06
364.788	2586.06
365.015	2594.06
365.241	2651.06
365.468	2825.06
365.694	2912.06
365.92	2814.06
366.147	2633.06
366.373	2632.06
366.599	2624.06
366.826	2638.06
367.052	2567.06
367.278	2630.06
367.505	2607.06
367.731	2633.06
367.957	2656.06
368.184	2613.06
368.41	2680.06
368.636	2657.06
368.862	2664.06
369.089	2666.06
369.315	2675.06
369.541	2639.06
369.767	2640.06
369.993	2645.06
370.219	2637.06
370.445	2648.06
370.672	2707.06
370.898	2692.06
371.124	2699.06
371.35	2740.06
371.576	2744.06
371.802	2746.06
372.028	2785.06
372.254	2733.06
372.48	2793.06
372.706	2803.06
372.932	2858.06
373.158	2782.06
373.384	2808.06
373.61	2802.06
373.835	2838.06
374.061	2812.06
374.287	2804.06
374.513	2841.06
374.739	2908.06
374.965	2912.06
375.191	2926.06
375.416	2962.06
375.642	2886.06
375.868	2890.06
376.094	2833.06
376.319	2828.06
376.545	2809.06
376.771	2773.06
376.997	2778.06
377.222	2734.06
377.448	2784.06
377.674	2779.06
377.899	2732.06
378.125	2774.06
378.35	2718.06
378.576	2734.06
378.802	2800.06
379.027	2824.06
379.253	2860.06
379.478	3053.06
379.704	3580.06
379.929	5200.06
380.155	7893.06
380.38	8642.06
380.606	5282.06
380.831	3632.06
381.057	3222.06
381.282	2992.06
381.507	2867.06
381.733	2864.06
381.958	2768.06
382.184	2707.06
382.409	2702.06
382.634	2705.06
382.86	2688.06
383.085	2712.06
383.31	2692.06
383.535	2746.06
383.761	2696.06
383.986	2682.06
384.211	2722.06
384.436	2703.06
384.662	2730.06
384.887	2812.06
385.112	2755.06
385.337	2794.06
385.562	2798.06
385.787	2809.06
386.013	2809.06
386.238	2818.06
386.463	2783.06
386.688	2824.06
386.913	2771.06
387.138	2781.06
387.363	2816.06
387.588	2741.06
387.813	2750.06
388.038	2808.06
388.263	2758.06
388.488	2738.06
388.713	2763.06
388.938	2806.06
389.163	2774.06
389.387	2785.06
389.612	2727.06
389.837	2828.06
390.062	2748.06
390.287	2859.06
390.512	2853.06
390.736	2847.06
390.961	2867.06
391.186	2869.06
391.411	2931.06
391.636	2888.06
391.86	2986.06
392.085	2946.06
392.31	2926.06
392.534	2852.06
392.759	2857.06
392.984	2843.06
393.208	2853.06
393.433	2869.06
393.658	2888.06
393.882	2815.06
394.107	2834.06
394.331	2818.06
394.556	2795.06
394.78	2831.06
395.005	2840.06
395.229	2842.06
395.454	2903.06
395.678	2860.06
395.903	2873.06
396.127	2902.06
396.352	2855.06
396.576	2872.06
396.801	2879.06
397.025	2928.06
397.249	2899.06
397.474	2968.06
397.698	2948.06
397.922	2957.06
398.147	2915.06
398.371	2983.06
398.595	3002.06
398.82	3112.06
399.044	3242.06
399.268	3338.06
399.492	3550.06
399.717	3674.06
399.941	3700.06
400.165	3546.06
400.389	3391.06
400.613	3270.06
400.837	3195.06
401.062	3150.06
401.286	3072.06
401.51	3068.06
401.734	3051.06
401.958	3111.06
402.182	3078.06
402.406	3027.06
402.63	3099.06
402.854	3124.06
403.078	3161.06
403.302	3103.06
403.526	3239.06
403.75	3192.06
403.974	3245.06
404.198	3195.06
404.422	3186.06
404.645	3179.06
404.869	3160.06
405.093	3194.06
405.317	3226.06
405.541	3213.06
405.765	3227.06
405.988	3269.06
406.212	3274.06
406.436	3269.06
406.66	3305.06
406.883	3330.06
407.107	3417.06
407.331	3388.06
407.555	3543.06
407.778	3480.06
408.002	3409.06
408.226	3457.06
408.449	3388.06
408.673	3283.06
408.896	3292.06
409.12	3258.06
409.344	3263.06
409.567	3188.06
409.791	3195.06
410.014	3188.06
410.238	3206.06
410.461	3176.06
410.685	3144.06
410.908	3112.06
411.132	3059.06
411.355	3039.06
411.578	3098.06
411.802	3052.06
412.025	3090.06
412.249	3120.06
412.472	3093.06
412.695	3033.06
412.919	3028.06
413.142	3044.06
413.365	2986.06
413.589	3026.06
413.812	2999.06
414.035	2993.06
414.258	3069.06
414.482	2985.06
414.705	3032.06
414.928	3028.06
415.151	2988.06
415.374	3018.06
415.597	2940.06
415.821	2870.06
416.044	2883.06
416.267	2900.06
416.49	2928.06
416.713	2854.06
416.936	2887.06
417.159	2852.06
417.382	2882.06
417.605	2840.06
417.828	2855.06
418.051	2908.06
418.274	2943.06
418.497	2918.06
418.72	2978.06
418.943	2950.06
419.166	3082.06
419.389	3174.06
419.611	3162.06
419.834	3061.06
420.057	2977.06
420.28	2917.06
420.503	2845.06
420.726	2841.06
420.948	2847.06
421.171	2859.06
421.394	2874.06
421.617	2878.06
421.839	2891.06
422.062	2878.06
422.285	2890.06
422.507	2979.06
422.73	2930.06
422.953	2991.06
423.175	2981.06
423.398	2905.06
423.621	2898.06
423.843	2893.06
424.066	2911.06
424.288	2847.06
424.511	2885.06
424.733	2893.06
424.956	2888.06
425.178	2803.06
425.401	2871.06
425.623	2824.06
425.846	2842.06
426.068	2794.06
426.291	2763.06
426.513	2733.06
426.735	2743.06
426.958	2770.06
427.18	2682.06
427.402	2753.06
427.625	2742.06
427.847	2661.06
428.069	2674.06
428.292	2718.06
428.514	2685.06
428.736	2666.06
428.958	2722.06
429.181	2588.06
429.403	2629.06
429.625	2634.06
429.847	2685.06
430.069	2698.06
430.292	2801.06
430.514	2896.06
430.736	2855.06
430.958	2663.06
431.18	2658.06
431.402	2699.06
431.624	2598.06
431.846	2686.06
432.068	2642.06
432.29	2665.06
432.512	2609.06
432.734	2663.06
432.956	2619.06
433.178	2651.06
433.4	2632.06
433.622	2682.06
433.844	2688.06
434.066	2705.06
434.287	2669.06
434.509	2718.06
434.731	2702.06
434.953	2744.06
435.175	2800.06
435.397	2729.06
435.618	2690.06
435.84	2656.06
436.062	2656.06
436.284	2628.06
436.505	2631.06
436.727	2624.06
436.949	2639.06
437.17	2571.06
437.392	2607.06
437.614	2582.06
437.835	2552.06
438.057	2507.06
438.278	2491.06
438.5	2564.06
438.721	2639.06
438.943	2697.06
439.165	2693.06
439.386	2736.06
439.608	2720.06
439.829	2757.06
440.05	2855.06
440.272	2878.06
440.493	2733.06
440.715	2712.06
440.936	2732.06
441.158	2792.06
441.379	2714.06
441.6	2812.06
441.822	2929.06
442.043	3065.06
442.264	3169.06
442.486	2969.06
442.707	2909.06
442.928	2842.06
443.149	2806.06
443.371	2812.06
443.592	2822.06
443.813	2847.06
444.034	2868.06
444.255	2917.06
444.476	2950.06
444.698	3008.06
444.919	3030.06
445.14	3098.06
445.361	2985.06
445.582	2876.06
445.803	2855.06
446.024	2850.06
446.245	2837.06
446.466	2825.06
446.687	2763.06
446.908	2727.06
447.129	2686.06
447.35	2663.06
447.571	2644.06
447.792	2624.06
448.013	2548.06
448.234	2591.06
448.455	2566.06
448.675	2635.06
448.896	2673.06
449.117	2806.06
449.338	2998.06
449.559	3117.06
449.779	2805.06
450	2649.06
450.221	2574.06
450.442	2581.06
450.662	2530.06
450.883	2533.06
451.104	2510.06
451.324	2556.06
451.545	2563.06
451.766	2586.06
451.986	2580.06
452.207	2782.06
452.428	3626.06
452.648	5473.06
452.869	4565.06
453.089	3157.06
453.31	2924.06
453.53	2923.06
453.751	2994.06
453.971	3136.06
454.192	3067.06
454.412	2717.06
454.633	2534.06
454.853	2518.06
455.073	2446.06
455.294	2478.06
455.514	2446.06
455.734	2423.06
455.955	2397.06
456.175	2387.06
456.395	2453.06
456.616	2410.06
456.836	2450.06
457.056	2476.06
457.276	2472.06
457.497	2646.06
457.717	2667.06
457.937	2589.06
458.157	2589.06
458.377	2569.06
458.598	2591.06
458.818	2611.06
459.038	2598.06
459.258	2625.06
459.478	2660.06
459.698	2667.06
459.918	2690.06
460.138	2747.06
460.358	2844.06
460.578	2869.06
460.798	2903.06
461.018	2876.06
461.238	2894.06
461.458	2924.06
461.678	2887.06
461.898	3000.06
462.118	3017.06
462.338	3088.06
462.558	3090.06
462.777	3143.06
462.997	3277.06
463.217	3370.06
463.437	3492.06
463.657	3572.06
463.876	3559.06
464.096	3372.06
464.316	3216.06
464.536	3129.06
464.755	3090.06
464.975	3049.06
465.195	2930.06
465.414	2856.06
465.634	2770.06
465.854	2744.06
466.073	2703.06
466.293	2683.06
466.512	2675.06
466.732	2722.06
466.951	2851.06
467.171	3017.06
467.391	2964.06
467.61	2772.06
467.829	2589.06
468.049	2590.06
468.268	2577.06
468.488	2587.06
468.707	2567.06
468.927	2583.06
469.146	2561.06
469.365	2587.06
469.585	2629.06
469.804	2688.06
470.023	2717.06
470.243	2762.06
470.462	2843.06
470.681	2980.06
470.901	3282.06
471.12	3802.06
471.339	3809.06
471.558	3145.06
471.777	2872.06
471.997	2760.06
472.216	2682.06
472.435	2690.06
472.654	2610.06
472.873	2592.06
473.092	2609.06
473.311	2628.06
473.53	2632.06
473.749	2702.06
473.968	2774.06
474.187	2660.06
474.406	2624.06
474.625	2665.06
474.844	2612.06
475.063	2621.06
475.282	2638.06
475.501	2629.06
475.72	2622.06
475.939	2674.06
476.158	2720.06
476.377	2754.06
476.596	2736.06
476.814	2778.06
477.033	2726.06
477.252	2823.06
477.471	2834.06
477.69	2879.06
477.908	2910.06
478.127	3005.06
478.346	2970.06
478.564	2982.06
478.783	3022.06
479.002	3088.06
479.22	3090.06
479.439	3115.06
479.658	3109.06
479.876	3129.06
480.095	3148.06
480.313	3206.06
480.532	3299.06
480.751	3228.06
480.969	3204.06
481.188	3208.06
481.406	3145.06
481.624	3152.06
481.843	3176.06
482.061	3202.06
482.28	3128.06
482.498	3118.06
482.717	3160.06
482.935	3232.06
483.153	3261.06
483.372	3252.06
483.59	3295.06
483.808	3356.06
484.027	3427.06
484.245	3617.06
484.463	4080.06
484.681	4550.06
484.9	4150.06
485.118	3793.06
485.336	3772.06
485.554	3765.06
485.772	4070.06
485.99	4618.06
486.209	4932.06
486.427	4166.06
486.645	3679.06
486.863	3540.06
487.081	3434.06
487.299	3365.06
487.517	3388.06
487.735	3393.06
