Data from SnStandardFlinnAPT0064_LampEnergy10_LIBS07252019.E.O._I.C._HRD10591_15-21-59-495.txt Node
Date: Thu Jul 25 15:21:59 EDT 2019
User: cochatt
Spectrometer: HR+D1059
Trigger mode: 1
Integration Time (sec): 1.000000E-1
Scans to average: 1
Electric dark correction enabled: true
Nonlinearity correction enabled: false
Boxcar width: 0
XAxis mode: Wavelengths
Number of Pixels in Spectrum: 2048
>>>>>Begin Spectral Data<<<<<
223.165	-8.69
223.4	-8.69
223.635	-8.69
223.869	-9.69
224.104	-24.69
224.338	-3.69
224.573	-15.69
224.808	-14.69
225.042	-12.69
225.277	-4.69
225.511	-9.69
225.746	6.31
225.98	17.31
226.215	9.31
226.449	15.31
226.683	13.31
226.918	19.31
227.152	23.31
227.387	18.31
227.621	46.31
227.856	49.31
228.09	43.31
228.324	50.31
228.559	55.31
228.793	97.31
229.027	303.31
229.262	337.31
229.496	292.31
229.73	277.31
229.964	292.31
230.199	291.31
230.433	302.31
230.667	307.31
230.901	318.31
231.136	320.31
231.37	340.31
231.604	380.31
231.838	416.31
232.072	515.31
232.306	565.31
232.541	472.31
232.775	404.31
233.009	408.31
233.243	434.31
233.477	440.31
233.711	495.31
233.945	596.31
234.179	501.31
234.413	457.31
234.647	445.31
234.881	452.31
235.115	515.31
235.349	611.31
235.583	762.31
235.817	1015.31
236.051	1001.31
236.285	657.31
236.519	528.31
236.753	483.31
236.987	497.31
237.221	551.31
237.455	501.31
237.689	475.31
237.922	450.31
238.156	467.31
238.39	472.31
238.624	485.31
238.858	454.31
239.091	464.31
239.325	508.31
239.559	476.31
239.793	501.31
240.027	519.31
240.26	533.31
240.494	543.31
240.728	584.31
240.961	591.31
241.195	628.31
241.429	671.31
241.662	695.31
241.896	757.31
242.13	943.31
242.363	1246.31
242.597	1610.31
242.83	1566.31
243.064	1571.31
243.298	1841.31
243.531	1524.31
243.765	926.31
243.998	763.31
244.232	677.31
244.465	679.31
244.699	628.31
244.932	655.31
245.166	659.31
245.399	669.31
245.633	677.31
245.866	689.31
246.099	655.31
246.333	638.31
246.566	639.31
246.8	625.31
247.033	626.31
247.266	660.31
247.5	648.31
247.733	644.31
247.966	712.31
248.2	758.31
248.433	873.31
248.666	1000.31
248.899	943.31
249.133	839.31
249.366	845.31
249.599	941.31
249.832	1098.31
250.066	1094.31
250.299	869.31
250.532	743.31
250.765	753.31
250.998	732.31
251.231	713.31
251.465	728.31
251.698	739.31
251.931	731.31
252.164	739.31
252.397	757.31
252.63	775.31
252.863	791.31
253.096	786.31
253.329	767.31
253.562	773.31
253.795	804.31
254.028	800.31
254.261	799.31
254.494	908.31
254.727	1013.31
254.96	1208.31
255.193	1221.31
255.426	971.31
255.659	842.31
255.892	842.31
256.124	850.31
256.357	874.31
256.59	915.31
256.823	980.31
257.056	1103.31
257.289	1337.31
257.521	1442.31
257.754	1163.31
257.987	954.31
258.22	946.31
258.452	914.31
258.685	891.31
258.918	969.31
259.151	964.31
259.383	1116.31
259.616	1210.31
259.849	1261.31
260.081	1108.31
260.314	994.31
260.547	936.31
260.779	933.31
261.012	969.31
261.244	969.31
261.477	960.31
261.71	995.31
261.942	1011.31
262.175	1031.31
262.407	1006.31
262.64	1013.31
262.872	1059.31
263.105	1151.31
263.337	1204.31
263.57	1275.31
263.802	1327.31
264.035	1294.31
264.267	1343.31
264.499	1368.31
264.732	1449.31
264.964	1444.31
265.197	1448.31
265.429	1427.31
265.661	1453.31
265.894	1567.31
266.126	1752.31
266.358	1988.31
266.591	1894.31
266.823	1613.31
267.055	1458.31
267.287	1409.31
267.52	1312.31
267.752	1298.31
267.984	1293.31
268.216	1272.31
268.448	1231.31
268.681	1252.31
268.913	1230.31
269.145	1212.31
269.377	1222.31
269.609	1242.31
269.841	1238.31
270.073	1365.31
270.306	1607.31
270.538	2191.31
270.77	3285.31
271.002	3981.31
271.234	2812.31
271.466	1818.31
271.698	1505.31
271.93	1383.31
272.162	1297.31
272.394	1304.31
272.626	1238.31
272.858	1227.31
273.09	1213.31
273.322	1215.31
273.553	1186.31
273.785	1168.31
274.017	1182.31
274.249	1202.31
274.481	1214.31
274.713	1187.31
274.945	1223.31
275.176	1202.31
275.408	1224.31
275.64	1206.31
275.872	1249.31
276.104	1231.31
276.335	1264.31
276.567	1237.31
276.799	1249.31
277.031	1335.31
277.262	1336.31
277.494	1356.31
277.726	1525.31
277.957	1811.31
278.189	2085.31
278.421	1965.31
278.652	1734.31
278.884	1651.31
279.115	1497.31
279.347	1393.31
279.579	1372.31
279.81	1359.31
280.042	1381.31
280.273	1386.31
280.505	1445.31
280.736	1495.31
280.968	1560.31
281.199	1763.31
281.431	2057.31
281.662	2063.31
281.894	1742.31
282.125	1567.31
282.356	1658.31
282.588	1668.31
282.819	1701.31
283.051	1793.31
283.282	1994.31
283.513	2453.31
283.745	3632.31
283.976	5793.31
284.207	8167.31
284.439	7357.31
284.67	4451.31
284.901	3687.31
285.132	3703.31
285.364	3558.31
285.595	2715.31
285.826	2392.31
286.057	2850.31
286.288	3815.31
286.52	5284.31
286.751	4919.31
286.982	3038.31
287.213	2269.31
287.444	2005.31
287.675	1837.31
287.906	1779.31
288.138	1712.31
288.369	1667.31
288.6	1672.31
288.831	1663.31
289.062	1672.31
289.293	1692.31
289.524	1663.31
289.755	1674.31
289.986	1704.31
290.217	1707.31
290.448	1695.31
290.679	1740.31
290.91	1798.31
291.141	1894.31
291.371	2029.31
291.602	2088.31
291.833	1910.31
292.064	1724.31
292.295	1627.31
292.526	1621.31
292.757	1622.31
292.987	1582.31
293.218	1519.31
293.449	1581.31
293.68	1575.31
293.91	1580.31
294.141	1557.31
294.372	1536.31
294.603	1540.31
294.833	1545.31
295.064	1550.31
295.295	1565.31
295.525	1537.31
295.756	1509.31
295.987	1540.31
296.217	1528.31
296.448	1543.31
296.679	1601.31
296.909	1568.31
297.14	1554.31
297.37	1615.31
297.601	1607.31
297.831	1579.31
298.062	1629.31
298.292	1633.31
298.523	1653.31
298.753	1667.31
298.984	1673.31
299.214	1720.31
299.445	1746.31
299.675	1773.31
299.905	1795.31
300.136	1888.31
300.366	2134.31
300.597	2737.31
300.827	3858.31
301.057	5255.31
301.288	5194.31
301.518	3365.31
301.748	2569.31
301.979	2316.31
302.209	2229.31
302.439	2285.31
302.669	2412.31
302.9	2919.31
303.13	4175.31
303.36	6231.31
303.59	8320.31
303.82	7227.31
304.051	4193.31
304.281	2984.31
304.511	2492.31
304.741	2303.31
304.971	2136.31
305.201	2071.31
305.431	1972.31
305.661	1975.31
305.891	1907.31
306.121	1827.31
306.352	1876.31
306.582	1841.31
306.812	1828.31
307.042	1861.31
307.272	1823.31
307.502	1793.31
307.731	1760.31
307.961	1803.31
308.191	1801.31
308.421	1805.31
308.651	1803.31
308.881	1781.31
309.111	1772.31
309.341	1808.31
309.571	1820.31
309.8	1839.31
310.03	1820.31
310.26	1826.31
310.49	1843.31
310.72	1851.31
310.949	1867.31
311.179	1901.31
311.409	1876.31
311.639	1926.31
311.868	1925.31
312.098	1942.31
312.328	1942.31
312.557	1973.31
312.787	1928.31
313.017	1990.31
313.246	1985.31
313.476	1970.31
313.706	2029.31
313.935	2169.31
314.165	2311.31
314.394	2455.31
314.624	2285.31
314.853	2163.31
315.083	2157.31
315.312	2175.31
315.542	2179.31
315.771	2173.31
316.001	2226.31
316.23	2335.31
316.46	2417.31
316.689	2644.31
316.919	3159.31
317.148	4672.31
317.377	7249.31
317.607	10608.31
317.836	10966.31
318.065	6581.31
318.295	4163.31
318.524	3376.31
318.753	2883.31
318.983	2715.31
319.212	2514.31
319.441	2473.31
319.67	2423.31
319.9	2340.31
320.129	2355.31
320.358	2340.31
320.587	2294.31
320.816	2319.31
321.046	2358.31
321.275	2356.31
321.504	2402.31
321.733	2393.31
321.962	2481.31
322.191	2509.31
322.42	2466.31
322.649	2493.31
322.878	2473.31
323.108	2498.31
323.337	2497.31
323.566	2559.31
323.795	2573.31
324.024	2672.31
324.253	2667.31
324.482	2785.31
324.71	2969.31
324.939	3158.31
325.168	3175.31
325.397	3341.31
325.626	3998.31
325.855	5657.31
326.084	8871.31
326.313	12935.31
326.542	13540.31
326.77	8991.31
326.999	5871.31
327.228	4849.31
327.457	4585.31
327.686	4684.31
327.914	5104.31
328.143	6024.31
328.372	7111.31
328.6	7788.31
328.829	6912.31
329.058	5790.31
329.287	4971.31
329.515	4557.31
329.744	4220.31
329.972	3951.31
330.201	3795.31
330.43	3665.31
330.658	3609.31
330.887	3539.31
331.115	3515.31
331.344	3445.31
331.572	3420.31
331.801	3486.31
332.03	3494.31
332.258	3542.31
332.486	3771.31
332.715	4295.31
332.943	5315.31
333.172	6574.31
333.4	6502.31
333.629	4889.31
333.857	4440.31
334.085	4467.31
334.314	4673.31
334.542	5091.31
334.771	5974.31
334.999	7483.31
335.227	9360.31
335.455	10483.31
335.684	9242.31
335.912	7543.31
336.14	6387.31
336.369	5603.31
336.597	5116.31
336.825	4787.31
337.053	4470.31
337.281	4164.31
337.51	4013.31
337.738	3870.31
337.966	3686.31
338.194	3612.31
338.422	3481.31
338.65	3342.31
338.878	3299.31
339.106	3227.31
339.334	3189.31
339.562	3097.31
339.79	3097.31
340.018	3074.31
340.246	3030.31
340.474	2995.31
340.702	2975.31
340.93	3008.31
341.158	3044.31
341.386	3012.31
341.614	2949.31
341.842	2877.31
342.07	2817.31
342.298	2836.31
342.526	2798.31
342.754	2748.31
342.981	2726.31
343.209	2660.31
343.437	2704.31
343.665	2806.31
343.893	2780.31
344.12	2797.31
344.348	2761.31
344.576	2728.31
344.804	2695.31
345.031	2626.31
345.259	2615.31
345.487	2543.31
345.714	2580.31
345.942	2543.31
346.17	2498.31
346.397	2534.31
346.625	2539.31
346.853	2518.31
347.08	2517.31
347.308	2541.31
347.535	2559.31
347.763	2479.31
347.99	2449.31
348.218	2493.31
348.445	2461.31
348.673	2456.31
348.9	2452.31
349.128	2426.31
349.355	2427.31
349.583	2400.31
349.81	2437.31
350.037	2431.31
350.265	2394.31
350.492	2399.31
350.72	2385.31
350.947	2396.31
351.174	2420.31
351.402	2398.31
351.629	2416.31
351.856	2381.31
352.083	2429.31
352.311	2369.31
352.538	2343.31
352.765	2357.31
352.992	2408.31
353.22	2357.31
353.447	2332.31
353.674	2390.31
353.901	2361.31
354.128	2434.31
354.355	2359.31
354.583	2411.31
354.81	2387.31
355.037	2425.31
355.264	2417.31
355.491	2424.31
355.718	2409.31
355.945	2445.31
356.172	2427.31
356.399	2466.31
356.626	2475.31
356.853	2481.31
357.08	2458.31
357.307	2569.31
357.534	2572.31
357.761	2591.31
357.988	2557.31
358.215	2507.31
358.441	2528.31
358.668	2533.31
358.895	2528.31
359.122	2510.31
359.349	2515.31
359.576	2594.31
359.802	2508.31
360.029	2494.31
360.256	2531.31
360.483	2546.31
360.709	2582.31
360.936	2524.31
361.163	2527.31
361.39	2557.31
361.616	2559.31
361.843	2569.31
362.07	2543.31
362.296	2568.31
362.523	2611.31
362.749	2578.31
362.976	2562.31
363.203	2560.31
363.429	2553.31
363.656	2541.31
363.882	2545.31
364.109	2521.31
364.335	2522.31
364.562	2526.31
364.788	2510.31
365.015	2612.31
365.241	2651.31
365.468	2754.31
365.694	2907.31
365.92	2840.31
366.147	2657.31
366.373	2603.31
366.599	2576.31
366.826	2611.31
367.052	2580.31
367.278	2626.31
367.505	2646.31
367.731	2593.31
367.957	2606.31
368.184	2572.31
368.41	2671.31
368.636	2681.31
368.862	2606.31
369.089	2661.31
369.315	2632.31
369.541	2611.31
369.767	2614.31
369.993	2593.31
370.219	2590.31
370.445	2616.31
370.672	2611.31
370.898	2690.31
371.124	2695.31
371.35	2732.31
371.576	2693.31
371.802	2746.31
372.028	2713.31
372.254	2784.31
372.48	2793.31
372.706	2754.31
372.932	2763.31
373.158	2811.31
373.384	2808.31
373.61	2757.31
373.835	2798.31
374.061	2804.31
374.287	2829.31
374.513	2868.31
374.739	2861.31
374.965	2931.31
375.191	2882.31
375.416	2907.31
375.642	2761.31
375.868	2845.31
376.094	2801.31
376.319	2790.31
376.545	2808.31
376.771	2736.31
376.997	2773.31
377.222	2761.31
377.448	2725.31
377.674	2727.31
377.899	2688.31
378.125	2697.31
378.35	2717.31
378.576	2709.31
378.802	2749.31
379.027	2863.31
379.253	2902.31
379.478	3023.31
379.704	3531.31
379.929	5251.31
380.155	7849.31
380.38	8482.31
380.606	5196.31
380.831	3665.31
381.057	3201.31
381.282	2941.31
381.507	2894.31
381.733	2824.31
381.958	2766.31
382.184	2715.31
382.409	2731.31
382.634	2684.31
382.86	2698.31
383.085	2691.31
383.31	2663.31
383.535	2677.31
383.761	2727.31
383.986	2750.31
384.211	2745.31
384.436	2709.31
384.662	2785.31
384.887	2812.31
385.112	2772.31
385.337	2753.31
385.562	2780.31
385.787	2777.31
386.013	2788.31
386.238	2740.31
386.463	2795.31
386.688	2756.31
386.913	2715.31
387.138	2738.31
387.363	2783.31
387.588	2724.31
387.813	2731.31
388.038	2745.31
388.263	2790.31
388.488	2735.31
388.713	2766.31
388.938	2739.31
389.163	2704.31
389.387	2773.31
389.612	2760.31
389.837	2733.31
390.062	2790.31
390.287	2779.31
390.512	2799.31
390.736	2846.31
390.961	2831.31
391.186	2840.31
391.411	2872.31
391.636	2897.31
391.86	2947.31
392.085	2949.31
392.31	2914.31
392.534	2849.31
392.759	2870.31
392.984	2789.31
393.208	2872.31
393.433	2807.31
393.658	2840.31
393.882	2788.31
394.107	2825.31
394.331	2795.31
394.556	2799.31
394.78	2808.31
395.005	2821.31
395.229	2839.31
395.454	2843.31
395.678	2878.31
395.903	2893.31
396.127	2880.31
396.352	2837.31
396.576	2865.31
396.801	2916.31
397.025	2939.31
397.249	2932.31
397.474	2911.31
397.698	2892.31
397.922	2988.31
398.147	2889.31
398.371	3008.31
398.595	3005.31
398.82	3081.31
399.044	3199.31
399.268	3361.31
399.492	3504.31
399.717	3581.31
399.941	3679.31
400.165	3513.31
400.389	3428.31
400.613	3227.31
400.837	3133.31
401.062	3116.31
401.286	3060.31
401.51	3017.31
401.734	3035.31
401.958	3074.31
402.182	3106.31
402.406	3031.31
402.63	3022.31
402.854	3149.31
403.078	3124.31
403.302	3135.31
403.526	3171.31
403.75	3093.31
403.974	3203.31
404.198	3115.31
404.422	3199.31
404.645	3141.31
404.869	3180.31
405.093	3204.31
405.317	3159.31
405.541	3200.31
405.765	3213.31
405.988	3269.31
406.212	3292.31
406.436	3230.31
406.66	3273.31
406.883	3300.31
407.107	3408.31
407.331	3423.31
407.555	3476.31
407.778	3385.31
408.002	3363.31
408.226	3400.31
408.449	3429.31
408.673	3264.31
408.896	3235.31
409.12	3179.31
409.344	3176.31
409.567	3148.31
409.791	3179.31
410.014	3184.31
410.238	3153.31
410.461	3109.31
410.685	3102.31
410.908	3101.31
411.132	3091.31
411.355	3029.31
411.578	3035.31
411.802	3059.31
412.025	3088.31
412.249	3016.31
412.472	3059.31
412.695	2982.31
412.919	2973.31
413.142	3009.31
413.365	2967.31
413.589	3011.31
413.812	2992.31
414.035	2971.31
414.258	2957.31
414.482	2992.31
414.705	2973.31
414.928	2948.31
415.151	3002.31
415.374	2997.31
415.597	2885.31
415.821	2899.31
416.044	2917.31
416.267	2869.31
416.49	2838.31
416.713	2827.31
416.936	2880.31
417.159	2787.31
417.382	2854.31
417.605	2817.31
417.828	2846.31
418.051	2923.31
418.274	2909.31
418.497	2844.31
418.72	2899.31
418.943	2916.31
419.166	3091.31
419.389	3213.31
419.611	3158.31
419.834	3091.31
420.057	2999.31
420.28	2946.31
420.503	2871.31
420.726	2862.31
420.948	2831.31
421.171	2864.31
421.394	2860.31
421.617	2872.31
421.839	2849.31
422.062	2917.31
422.285	2827.31
422.507	2917.31
422.73	2918.31
422.953	2973.31
423.175	2973.31
423.398	2939.31
423.621	2879.31
423.843	2953.31
424.066	2886.31
424.288	2883.31
424.511	2881.31
424.733	2866.31
424.956	2859.31
425.178	2837.31
425.401	2855.31
425.623	2800.31
425.846	2756.31
426.068	2762.31
426.291	2734.31
426.513	2727.31
426.735	2736.31
426.958	2697.31
427.18	2661.31
427.402	2745.31
427.625	2696.31
427.847	2687.31
428.069	2606.31
428.292	2638.31
428.514	2632.31
428.736	2668.31
428.958	2655.31
429.181	2587.31
429.403	2575.31
429.625	2629.31
429.847	2611.31
430.069	2720.31
430.292	2819.31
430.514	2880.31
430.736	2843.31
430.958	2691.31
431.18	2644.31
431.402	2645.31
431.624	2607.31
431.846	2606.31
432.068	2561.31
432.29	2611.31
432.512	2589.31
432.734	2662.31
432.956	2536.31
433.178	2662.31
433.4	2646.31
433.622	2595.31
433.844	2682.31
434.066	2623.31
434.287	2642.31
434.509	2660.31
434.731	2668.31
434.953	2671.31
435.175	2697.31
435.397	2690.31
435.618	2684.31
435.84	2683.31
436.062	2576.31
436.284	2603.31
436.505	2613.31
436.727	2589.31
436.949	2616.31
437.17	2560.31
437.392	2553.31
437.614	2527.31
437.835	2521.31
438.057	2531.31
438.278	2558.31
438.5	2553.31
438.721	2612.31
438.943	2673.31
439.165	2725.31
439.386	2716.31
439.608	2720.31
439.829	2716.31
440.05	2792.31
440.272	2841.31
440.493	2726.31
440.715	2702.31
440.936	2742.31
441.158	2728.31
441.379	2789.31
441.6	2851.31
441.822	2889.31
442.043	3094.31
442.264	3172.31
442.486	2921.31
442.707	2871.31
442.928	2777.31
443.149	2795.31
443.371	2767.31
443.592	2804.31
443.813	2825.31
444.034	2821.31
444.255	2835.31
444.476	2919.31
444.698	2943.31
444.919	2990.31
445.14	3069.31
445.361	2933.31
445.582	2843.31
445.803	2805.31
446.024	2826.31
446.245	2802.31
446.466	2813.31
446.687	2762.31
446.908	2721.31
447.129	2648.31
447.35	2627.31
447.571	2628.31
447.792	2587.31
448.013	2571.31
448.234	2575.31
448.455	2609.31
448.675	2650.31
448.896	2656.31
449.117	2744.31
449.338	3014.31
449.559	3139.31
449.779	2823.31
450	2619.31
450.221	2551.31
450.442	2540.31
450.662	2546.31
450.883	2515.31
451.104	2496.31
451.324	2472.31
451.545	2573.31
451.766	2544.31
451.986	2602.31
452.207	2780.31
452.428	3579.31
452.648	5405.31
452.869	4449.31
453.089	3141.31
453.31	2954.31
453.53	2947.31
453.751	3053.31
453.971	3180.31
454.192	3059.31
454.412	2711.31
454.633	2547.31
454.853	2472.31
455.073	2445.31
455.294	2459.31
455.514	2437.31
455.734	2424.31
455.955	2375.31
456.175	2409.31
456.395	2437.31
456.616	2419.31
456.836	2445.31
457.056	2488.31
457.276	2477.31
457.497	2606.31
457.717	2655.31
457.937	2528.31
458.157	2557.31
458.377	2543.31
458.598	2546.31
458.818	2641.31
459.038	2607.31
459.258	2613.31
459.478	2671.31
459.698	2673.31
459.918	2680.31
460.138	2737.31
460.358	2767.31
460.578	2811.31
460.798	2897.31
461.018	2845.31
461.238	2855.31
461.458	2900.31
461.678	2911.31
461.898	3019.31
462.118	3000.31
462.338	3014.31
462.558	3087.31
462.777	3110.31
462.997	3323.31
463.217	3341.31
463.437	3529.31
463.657	3525.31
463.876	3583.31
464.096	3384.31
464.316	3138.31
464.536	3184.31
464.755	3091.31
464.975	2971.31
465.195	2928.31
465.414	2775.31
465.634	2724.31
465.854	2743.31
466.073	2733.31
466.293	2656.31
466.512	2614.31
466.732	2642.31
466.951	2837.31
467.171	2997.31
467.391	2943.31
467.61	2680.31
467.829	2623.31
468.049	2609.31
468.268	2628.31
468.488	2534.31
468.707	2566.31
468.927	2596.31
469.146	2575.31
469.365	2652.31
469.585	2627.31
469.804	2667.31
470.023	2708.31
470.243	2729.31
470.462	2836.31
470.681	3021.31
470.901	3265.31
471.12	3853.31
471.339	3791.31
471.558	3149.31
471.777	2885.31
471.997	2757.31
472.216	2728.31
472.435	2591.31
472.654	2635.31
472.873	2571.31
473.092	2633.31
473.311	2604.31
473.53	2609.31
473.749	2704.31
473.968	2761.31
474.187	2662.31
474.406	2567.31
474.625	2595.31
474.844	2584.31
475.063	2580.31
475.282	2608.31
475.501	2619.31
475.72	2632.31
475.939	2659.31
476.158	2696.31
476.377	2790.31
476.596	2748.31
476.814	2680.31
477.033	2741.31
477.252	2743.31
477.471	2796.31
477.69	2865.31
477.908	2896.31
478.127	2975.31
478.346	2951.31
478.564	2989.31
478.783	3013.31
479.002	3043.31
479.22	3095.31
479.439	3075.31
479.658	3091.31
479.876	3092.31
480.095	3072.31
480.313	3172.31
480.532	3208.31
480.751	3195.31
480.969	3187.31
481.188	3120.31
481.406	3115.31
481.624	3155.31
481.843	3160.31
482.061	3132.31
482.28	3160.31
482.498	3133.31
482.717	3151.31
482.935	3182.31
483.153	3221.31
483.372	3229.31
483.59	3277.31
483.808	3381.31
484.027	3387.31
484.245	3549.31
484.463	4036.31
484.681	4554.31
484.9	4088.31
485.118	3779.31
485.336	3727.31
485.554	3833.31
485.772	4020.31
485.99	4596.31
486.209	4914.31
486.427	4182.31
486.645	3654.31
486.863	3522.31
487.081	3441.31
487.299	3400.31
487.517	3357.31
487.735	3342.31
