Data from SnStandardFlinnAPT0064_LampEnergy5.5_LIBS07252019.E.O._I.C._HRD10591_15-15-16-491.txt Node
Date: Thu Jul 25 15:15:16 EDT 2019
User: cochatt
Spectrometer: HR+D1059
Trigger mode: 1
Integration Time (sec): 1.000000E-1
Scans to average: 1
Electric dark correction enabled: true
Nonlinearity correction enabled: false
Boxcar width: 0
XAxis mode: Wavelengths
Number of Pixels in Spectrum: 2048
>>>>>Begin Spectral Data<<<<<
223.165	-24.81
223.4	-24.81
223.635	-24.81
223.869	-28.81
224.104	-18.81
224.338	-22.81
224.573	-8.81
224.808	-10.81
225.042	-7.81
225.277	5.19
225.511	-0.81
225.746	3.19
225.98	5.19
226.215	11.19
226.449	23.19
226.683	25.19
226.918	29.19
227.152	21.19
227.387	28.19
227.621	25.19
227.856	38.19
228.09	46.19
228.324	49.19
228.559	55.19
228.793	83.19
229.027	145.19
229.262	143.19
229.496	147.19
229.73	136.19
229.964	123.19
230.199	156.19
230.433	144.19
230.667	153.19
230.901	161.19
231.136	168.19
231.37	177.19
231.604	189.19
231.838	201.19
232.072	222.19
232.306	227.19
232.541	197.19
232.775	198.19
233.009	184.19
233.243	186.19
233.477	220.19
233.711	221.19
233.945	222.19
234.179	231.19
234.413	214.19
234.647	192.19
234.881	217.19
235.115	243.19
235.349	260.19
235.583	308.19
235.817	395.19
236.051	381.19
236.285	286.19
236.519	246.19
236.753	245.19
236.987	208.19
237.221	237.19
237.455	252.19
237.689	198.19
237.922	212.19
238.156	200.19
238.39	224.19
238.624	210.19
238.858	225.19
239.091	219.19
239.325	234.19
239.559	215.19
239.793	233.19
240.027	249.19
240.26	232.19
240.494	227.19
240.728	240.19
240.961	274.19
241.195	275.19
241.429	277.19
241.662	294.19
241.896	334.19
242.13	373.19
242.363	447.19
242.597	579.19
242.83	559.19
243.064	575.19
243.298	638.19
243.531	555.19
243.765	392.19
243.998	326.19
244.232	301.19
244.465	289.19
244.699	280.19
244.932	283.19
245.166	282.19
245.399	293.19
245.633	298.19
245.866	313.19
246.099	300.19
246.333	287.19
246.566	287.19
246.8	291.19
247.033	279.19
247.266	278.19
247.5	257.19
247.733	306.19
247.966	299.19
248.2	309.19
248.433	349.19
248.666	391.19
248.899	385.19
249.133	338.19
249.366	347.19
249.599	374.19
249.832	427.19
250.066	415.19
250.299	367.19
250.532	322.19
250.765	317.19
250.998	333.19
251.231	338.19
251.465	326.19
251.698	333.19
251.931	315.19
252.164	327.19
252.397	330.19
252.63	339.19
252.863	336.19
253.096	350.19
253.329	336.19
253.562	325.19
253.795	333.19
254.028	357.19
254.261	367.19
254.494	384.19
254.727	405.19
254.96	501.19
255.193	485.19
255.426	397.19
255.659	375.19
255.892	384.19
256.124	365.19
256.357	366.19
256.59	377.19
256.823	408.19
257.056	441.19
257.289	517.19
257.521	544.19
257.754	466.19
257.987	387.19
258.22	408.19
258.452	396.19
258.685	393.19
258.918	405.19
259.151	415.19
259.383	441.19
259.616	472.19
259.849	505.19
260.081	449.19
260.314	417.19
260.547	417.19
260.779	402.19
261.012	401.19
261.244	413.19
261.477	429.19
261.71	435.19
261.942	446.19
262.175	434.19
262.407	454.19
262.64	469.19
262.872	490.19
263.105	486.19
263.337	506.19
263.57	519.19
263.802	553.19
264.035	551.19
264.267	555.19
264.499	593.19
264.732	621.19
264.964	629.19
265.197	606.19
265.429	598.19
265.661	621.19
265.894	657.19
266.126	735.19
266.358	771.19
266.591	745.19
266.823	669.19
267.055	603.19
267.287	591.19
267.52	567.19
267.752	568.19
267.984	552.19
268.216	543.19
268.448	544.19
268.681	565.19
268.913	533.19
269.145	521.19
269.377	493.19
269.609	525.19
269.841	550.19
270.073	590.19
270.306	633.19
270.538	809.19
270.77	1137.19
271.002	1364.19
271.234	996.19
271.466	711.19
271.698	596.19
271.93	577.19
272.162	548.19
272.394	525.19
272.626	522.19
272.858	520.19
273.09	513.19
273.322	539.19
273.553	512.19
273.785	521.19
274.017	499.19
274.249	516.19
274.481	490.19
274.713	525.19
274.945	525.19
275.176	510.19
275.408	520.19
275.64	541.19
275.872	525.19
276.104	517.19
276.335	547.19
276.567	531.19
276.799	532.19
277.031	557.19
277.262	534.19
277.494	573.19
277.726	599.19
277.957	682.19
278.189	710.19
278.421	715.19
278.652	670.19
278.884	626.19
279.115	572.19
279.347	585.19
279.579	565.19
279.81	581.19
280.042	562.19
280.273	600.19
280.505	603.19
280.736	593.19
280.968	639.19
281.199	663.19
281.431	738.19
281.662	739.19
281.894	687.19
282.125	637.19
282.356	658.19
282.588	666.19
282.819	685.19
283.051	719.19
283.282	785.19
283.513	935.19
283.745	1297.19
283.976	1988.19
284.207	2773.19
284.439	2449.19
284.67	1554.19
284.901	1247.19
285.132	1233.19
285.364	1185.19
285.595	919.19
285.826	903.19
286.057	1015.19
286.288	1386.19
286.52	1794.19
286.751	1659.19
286.982	1092.19
287.213	861.19
287.444	777.19
287.675	762.19
287.906	707.19
288.138	682.19
288.369	676.19
288.6	689.19
288.831	665.19
289.062	663.19
289.293	677.19
289.524	682.19
289.755	689.19
289.986	721.19
290.217	691.19
290.448	690.19
290.679	701.19
290.91	727.19
291.141	740.19
291.371	770.19
291.602	743.19
291.833	744.19
292.064	687.19
292.295	681.19
292.526	676.19
292.757	682.19
292.987	675.19
293.218	656.19
293.449	669.19
293.68	666.19
293.91	666.19
294.141	644.19
294.372	657.19
294.603	631.19
294.833	649.19
295.064	655.19
295.295	659.19
295.525	668.19
295.756	637.19
295.987	638.19
296.217	670.19
296.448	674.19
296.679	643.19
296.909	641.19
297.14	654.19
297.37	657.19
297.601	671.19
297.831	674.19
298.062	681.19
298.292	719.19
298.523	695.19
298.753	687.19
298.984	690.19
299.214	721.19
299.445	705.19
299.675	697.19
299.905	731.19
300.136	745.19
300.366	825.19
300.597	991.19
300.827	1341.19
301.057	1733.19
301.288	1739.19
301.518	1203.19
301.748	943.19
301.979	908.19
302.209	867.19
302.439	866.19
302.669	904.19
302.9	1081.19
303.13	1440.19
303.36	1995.19
303.59	2625.19
303.82	2285.19
304.051	1447.19
304.281	1079.19
304.511	941.19
304.741	872.19
304.971	838.19
305.201	828.19
305.431	803.19
305.661	790.19
305.891	790.19
306.121	769.19
306.352	745.19
306.582	754.19
306.812	740.19
307.042	739.19
307.272	744.19
307.502	749.19
307.731	783.19
307.961	777.19
308.191	766.19
308.421	771.19
308.651	742.19
308.881	763.19
309.111	735.19
309.341	739.19
309.571	759.19
309.8	769.19
310.03	759.19
310.26	745.19
310.49	788.19
310.72	771.19
310.949	765.19
311.179	769.19
311.409	775.19
311.639	773.19
311.868	789.19
312.098	811.19
312.328	804.19
312.557	817.19
312.787	805.19
313.017	825.19
313.246	832.19
313.476	823.19
313.706	855.19
313.935	864.19
314.165	905.19
314.394	912.19
314.624	906.19
314.853	863.19
315.083	874.19
315.312	853.19
315.542	866.19
315.771	864.19
316.001	887.19
316.23	907.19
316.46	933.19
316.689	1019.19
316.919	1201.19
317.148	1642.19
317.377	2422.19
317.607	3450.19
317.836	3571.19
318.065	2186.19
318.295	1480.19
318.524	1226.19
318.753	1105.19
318.983	1059.19
319.212	984.19
319.441	998.19
319.67	974.19
319.9	937.19
320.129	942.19
320.358	938.19
320.587	952.19
320.816	935.19
321.046	919.19
321.275	933.19
321.504	939.19
321.733	949.19
321.962	985.19
322.191	990.19
322.42	994.19
322.649	1020.19
322.878	1001.19
323.108	1009.19
323.337	993.19
323.566	1035.19
323.795	1048.19
324.024	1047.19
324.253	1048.19
324.482	1119.19
324.71	1149.19
324.939	1214.19
325.168	1224.19
325.397	1272.19
325.626	1449.19
325.855	1950.19
326.084	2957.19
326.313	4322.19
326.542	4590.19
326.77	3008.19
326.999	2041.19
327.228	1778.19
327.457	1735.19
327.686	1713.19
327.914	1815.19
328.143	2060.19
328.372	2360.19
328.6	2622.19
328.829	2420.19
329.058	2122.19
329.287	1893.19
329.515	1762.19
329.744	1667.19
329.972	1599.19
330.201	1508.19
330.43	1453.19
330.658	1416.19
330.887	1396.19
331.115	1382.19
331.344	1393.19
331.572	1382.19
331.801	1397.19
332.03	1382.19
332.258	1399.19
332.486	1459.19
332.715	1626.19
332.943	1874.19
333.172	2230.19
333.4	2227.19
333.629	1862.19
333.857	1731.19
334.085	1709.19
334.314	1794.19
334.542	1929.19
334.771	2209.19
334.999	2554.19
335.227	3167.19
335.455	3433.19
335.684	3261.19
335.912	2797.19
336.14	2429.19
336.369	2198.19
336.597	2029.19
336.825	1835.19
337.053	1768.19
337.281	1663.19
337.51	1571.19
337.738	1543.19
337.966	1460.19
338.194	1413.19
338.422	1384.19
338.65	1361.19
338.878	1323.19
339.106	1306.19
339.334	1295.19
339.562	1283.19
339.79	1250.19
340.018	1241.19
340.246	1240.19
340.474	1227.19
340.702	1194.19
340.93	1219.19
341.158	1216.19
341.386	1186.19
341.614	1207.19
341.842	1157.19
342.07	1156.19
342.298	1157.19
342.526	1130.19
342.754	1137.19
342.981	1108.19
343.209	1105.19
343.437	1135.19
343.665	1133.19
343.893	1123.19
344.12	1147.19
344.348	1127.19
344.576	1098.19
344.804	1110.19
345.031	1090.19
345.259	1033.19
345.487	1054.19
345.714	1042.19
345.942	1030.19
346.17	1039.19
346.397	1024.19
346.625	1037.19
346.853	1023.19
347.08	1025.19
347.308	1039.19
347.535	1005.19
347.763	1007.19
347.99	1010.19
348.218	1020.19
348.445	1016.19
348.673	1017.19
348.9	988.19
349.128	1007.19
349.355	998.19
349.583	988.19
349.81	1008.19
350.037	978.19
350.265	1005.19
350.492	985.19
350.72	967.19
350.947	992.19
351.174	1025.19
351.402	985.19
351.629	992.19
351.856	985.19
352.083	979.19
352.311	999.19
352.538	986.19
352.765	961.19
352.992	991.19
353.22	1007.19
353.447	959.19
353.674	984.19
353.901	963.19
354.128	967.19
354.355	977.19
354.583	966.19
354.81	998.19
355.037	999.19
355.264	1011.19
355.491	1009.19
355.718	1020.19
355.945	1009.19
356.172	1022.19
356.399	1014.19
356.626	984.19
356.853	1029.19
357.08	1013.19
357.307	1042.19
357.534	1066.19
357.761	1036.19
357.988	1045.19
358.215	1048.19
358.441	1064.19
358.668	1024.19
358.895	1049.19
359.122	1029.19
359.349	1029.19
359.576	1047.19
359.802	1034.19
360.029	1002.19
360.256	1056.19
360.483	1064.19
360.709	1034.19
360.936	1037.19
361.163	1043.19
361.39	1035.19
361.616	1038.19
361.843	1054.19
362.07	1040.19
362.296	1046.19
362.523	1028.19
362.749	1041.19
362.976	1038.19
363.203	1062.19
363.429	1064.19
363.656	1081.19
363.882	1061.19
364.109	1081.19
364.335	1034.19
364.562	1045.19
364.788	1049.19
365.015	1037.19
365.241	1086.19
365.468	1121.19
365.694	1122.19
365.92	1147.19
366.147	1058.19
366.373	1081.19
366.599	1076.19
366.826	1086.19
367.052	1064.19
367.278	1107.19
367.505	1072.19
367.731	1073.19
367.957	1088.19
368.184	1074.19
368.41	1103.19
368.636	1088.19
368.862	1059.19
369.089	1081.19
369.315	1078.19
369.541	1070.19
369.767	1097.19
369.993	1095.19
370.219	1092.19
370.445	1113.19
370.672	1113.19
370.898	1113.19
371.124	1131.19
371.35	1111.19
371.576	1123.19
371.802	1158.19
372.028	1112.19
372.254	1103.19
372.48	1134.19
372.706	1104.19
372.932	1140.19
373.158	1159.19
373.384	1133.19
373.61	1127.19
373.835	1153.19
374.061	1139.19
374.287	1150.19
374.513	1187.19
374.739	1182.19
374.965	1195.19
375.191	1198.19
375.416	1214.19
375.642	1168.19
375.868	1153.19
376.094	1151.19
376.319	1153.19
376.545	1154.19
376.771	1145.19
376.997	1124.19
377.222	1145.19
377.448	1115.19
377.674	1137.19
377.899	1130.19
378.125	1114.19
378.35	1135.19
378.576	1125.19
378.802	1125.19
379.027	1168.19
379.253	1171.19
379.478	1193.19
379.704	1355.19
379.929	1799.19
380.155	2582.19
380.38	2737.19
380.606	1851.19
380.831	1396.19
381.057	1244.19
381.282	1197.19
381.507	1158.19
381.733	1143.19
381.958	1134.19
382.184	1123.19
382.409	1108.19
382.634	1173.19
382.86	1119.19
383.085	1110.19
383.31	1088.19
383.535	1118.19
383.761	1105.19
383.986	1150.19
384.211	1156.19
384.436	1175.19
384.662	1141.19
384.887	1151.19
385.112	1139.19
385.337	1135.19
385.562	1164.19
385.787	1165.19
386.013	1182.19
386.238	1173.19
386.463	1169.19
386.688	1147.19
386.913	1140.19
387.138	1134.19
387.363	1147.19
387.588	1134.19
387.813	1185.19
388.038	1151.19
388.263	1180.19
388.488	1184.19
388.713	1147.19
388.938	1144.19
389.163	1141.19
389.387	1171.19
389.612	1154.19
389.837	1144.19
390.062	1153.19
390.287	1167.19
390.512	1165.19
390.736	1171.19
390.961	1163.19
391.186	1209.19
391.411	1215.19
391.636	1228.19
391.86	1265.19
392.085	1222.19
392.31	1209.19
392.534	1190.19
392.759	1172.19
392.984	1186.19
393.208	1183.19
393.433	1178.19
393.658	1133.19
393.882	1127.19
394.107	1175.19
394.331	1175.19
394.556	1200.19
394.78	1173.19
395.005	1202.19
395.229	1197.19
395.454	1210.19
395.678	1223.19
395.903	1250.19
396.127	1210.19
396.352	1200.19
396.576	1197.19
396.801	1202.19
397.025	1186.19
397.249	1191.19
397.474	1218.19
397.698	1213.19
397.922	1235.19
398.147	1246.19
398.371	1270.19
398.595	1256.19
398.82	1313.19
399.044	1358.19
399.268	1389.19
399.492	1481.19
399.717	1521.19
399.941	1549.19
400.165	1504.19
400.389	1443.19
400.613	1372.19
400.837	1327.19
401.062	1329.19
401.286	1303.19
401.51	1305.19
401.734	1290.19
401.958	1279.19
402.182	1276.19
402.406	1278.19
402.63	1299.19
402.854	1301.19
403.078	1287.19
403.302	1304.19
403.526	1382.19
403.75	1339.19
403.974	1373.19
404.198	1329.19
404.422	1334.19
404.645	1346.19
404.869	1346.19
405.093	1335.19
405.317	1340.19
405.541	1349.19
405.765	1371.19
405.988	1393.19
406.212	1352.19
406.436	1327.19
406.66	1377.19
406.883	1365.19
407.107	1419.19
407.331	1413.19
407.555	1422.19
407.778	1443.19
408.002	1428.19
408.226	1433.19
408.449	1435.19
408.673	1397.19
408.896	1359.19
409.12	1391.19
409.344	1342.19
409.567	1329.19
409.791	1367.19
410.014	1348.19
410.238	1335.19
410.461	1329.19
410.685	1318.19
410.908	1293.19
411.132	1304.19
411.355	1261.19
411.578	1296.19
411.802	1285.19
412.025	1262.19
412.249	1283.19
412.472	1326.19
412.695	1281.19
412.919	1253.19
413.142	1242.19
413.365	1257.19
413.589	1251.19
413.812	1258.19
414.035	1235.19
414.258	1251.19
414.482	1262.19
414.705	1274.19
414.928	1263.19
415.151	1254.19
415.374	1251.19
415.597	1265.19
415.821	1190.19
416.044	1222.19
416.267	1209.19
416.49	1217.19
416.713	1218.19
416.936	1250.19
417.159	1202.19
417.382	1199.19
417.605	1232.19
417.828	1218.19
418.051	1245.19
418.274	1247.19
418.497	1235.19
418.72	1248.19
418.943	1236.19
419.166	1282.19
419.389	1342.19
419.611	1352.19
419.834	1294.19
420.057	1254.19
420.28	1222.19
420.503	1207.19
420.726	1210.19
420.948	1207.19
421.171	1222.19
421.394	1219.19
421.617	1225.19
421.839	1251.19
422.062	1246.19
422.285	1237.19
422.507	1255.19
422.73	1247.19
422.953	1251.19
423.175	1265.19
423.398	1262.19
423.621	1227.19
423.843	1219.19
424.066	1250.19
424.288	1231.19
424.511	1207.19
424.733	1234.19
424.956	1215.19
425.178	1203.19
425.401	1247.19
425.623	1210.19
425.846	1227.19
426.068	1211.19
426.291	1136.19
426.513	1163.19
426.735	1187.19
426.958	1189.19
427.18	1163.19
427.402	1145.19
427.625	1174.19
427.847	1154.19
428.069	1150.19
428.292	1145.19
428.514	1106.19
428.736	1108.19
428.958	1161.19
429.181	1145.19
429.403	1109.19
429.625	1139.19
429.847	1103.19
430.069	1159.19
430.292	1190.19
430.514	1160.19
430.736	1190.19
430.958	1129.19
431.18	1119.19
431.402	1112.19
431.624	1119.19
431.846	1126.19
432.068	1105.19
432.29	1122.19
432.512	1081.19
432.734	1137.19
432.956	1113.19
433.178	1145.19
433.4	1148.19
433.622	1142.19
433.844	1128.19
434.066	1140.19
434.287	1133.19
434.509	1135.19
434.731	1171.19
434.953	1163.19
435.175	1169.19
435.397	1163.19
435.618	1133.19
435.84	1083.19
436.062	1122.19
436.284	1132.19
436.505	1077.19
436.727	1113.19
436.949	1128.19
437.17	1134.19
437.392	1107.19
437.614	1108.19
437.835	1109.19
438.057	1039.19
438.278	1063.19
438.5	1106.19
438.721	1098.19
438.943	1124.19
439.165	1148.19
439.386	1142.19
439.608	1165.19
439.829	1190.19
440.05	1225.19
440.272	1216.19
440.493	1173.19
440.715	1150.19
440.936	1150.19
441.158	1168.19
441.379	1193.19
441.6	1241.19
441.822	1249.19
442.043	1290.19
442.264	1297.19
442.486	1234.19
442.707	1191.19
442.928	1190.19
443.149	1193.19
443.371	1186.19
443.592	1183.19
443.813	1251.19
444.034	1208.19
444.255	1243.19
444.476	1277.19
444.698	1289.19
444.919	1297.19
445.14	1360.19
445.361	1303.19
445.582	1227.19
445.803	1239.19
446.024	1179.19
446.245	1211.19
446.466	1210.19
446.687	1194.19
446.908	1172.19
447.129	1145.19
447.35	1168.19
447.571	1121.19
447.792	1135.19
448.013	1129.19
448.234	1124.19
448.455	1121.19
448.675	1121.19
448.896	1124.19
449.117	1160.19
449.338	1242.19
449.559	1250.19
449.779	1159.19
450	1112.19
450.221	1056.19
450.442	1104.19
450.662	1087.19
450.883	1050.19
451.104	1085.19
451.324	1083.19
451.545	1090.19
451.766	1066.19
451.986	1094.19
452.207	1146.19
452.428	1311.19
452.648	1733.19
452.869	1556.19
453.089	1247.19
453.31	1167.19
453.53	1190.19
453.751	1191.19
453.971	1227.19
454.192	1246.19
454.412	1098.19
454.633	1071.19
454.853	1078.19
455.073	998.19
455.294	1014.19
455.514	1041.19
455.734	1039.19
455.955	1041.19
456.175	1047.19
456.395	1006.19
456.616	1032.19
456.836	1036.19
457.056	1058.19
457.276	1060.19
457.497	1092.19
457.717	1104.19
457.937	1060.19
458.157	1075.19
458.377	1073.19
458.598	1101.19
458.818	1104.19
459.038	1118.19
459.258	1108.19
459.478	1141.19
459.698	1123.19
459.918	1115.19
460.138	1170.19
460.358	1181.19
460.578	1224.19
460.798	1245.19
461.018	1249.19
461.238	1262.19
461.458	1262.19
461.678	1227.19
461.898	1229.19
462.118	1286.19
462.338	1291.19
462.558	1262.19
462.777	1318.19
462.997	1346.19
463.217	1395.19
463.437	1436.19
463.657	1469.19
463.876	1416.19
464.096	1386.19
464.316	1341.19
464.536	1305.19
464.755	1291.19
464.975	1273.19
465.195	1246.19
465.414	1199.19
465.634	1157.19
465.854	1152.19
466.073	1149.19
466.293	1119.19
466.512	1146.19
466.732	1137.19
466.951	1162.19
467.171	1237.19
467.391	1230.19
467.61	1172.19
467.829	1101.19
468.049	1103.19
468.268	1103.19
468.488	1105.19
468.707	1111.19
468.927	1097.19
469.146	1108.19
469.365	1126.19
469.585	1118.19
469.804	1133.19
470.023	1158.19
470.243	1164.19
470.462	1208.19
470.681	1255.19
470.901	1342.19
471.12	1497.19
471.339	1500.19
471.558	1281.19
471.777	1186.19
471.997	1169.19
472.216	1135.19
472.435	1114.19
472.654	1098.19
472.873	1081.19
473.092	1095.19
473.311	1101.19
473.53	1095.19
473.749	1129.19
473.968	1171.19
474.187	1133.19
474.406	1103.19
474.625	1082.19
474.844	1118.19
475.063	1114.19
475.282	1099.19
475.501	1095.19
475.72	1135.19
475.939	1128.19
476.158	1157.19
476.377	1167.19
476.596	1155.19
476.814	1136.19
477.033	1181.19
477.252	1171.19
477.471	1188.19
477.69	1225.19
477.908	1263.19
478.127	1302.19
478.346	1273.19
478.564	1278.19
478.783	1279.19
479.002	1303.19
479.22	1300.19
479.439	1281.19
479.658	1297.19
479.876	1291.19
480.095	1321.19
480.313	1331.19
480.532	1337.19
480.751	1350.19
480.969	1310.19
481.188	1322.19
481.406	1296.19
481.624	1294.19
481.843	1273.19
482.061	1318.19
482.28	1295.19
482.498	1299.19
482.717	1275.19
482.935	1315.19
483.153	1365.19
483.372	1383.19
483.59	1397.19
483.808	1396.19
484.027	1415.19
484.245	1454.19
484.463	1588.19
484.681	1739.19
484.9	1618.19
485.118	1590.19
485.336	1527.19
485.554	1571.19
485.772	1625.19
485.99	1767.19
486.209	1874.19
486.427	1620.19
486.645	1487.19
486.863	1472.19
487.081	1405.19
487.299	1413.19
487.517	1412.19
487.735	1409.19
487.953	1437.19
488.171	1433.19
488.389	1382.19
488.607	1396.19
488.825	1392.19
489.043	1368.19
489.261	1370.19
489.479	1396.19
489.696	1408.19
489.914	1360.19
490.132	1390.19
490.35	1423.19
490.568	1392.19
490.786	1442.19
491.003	1429.19
491.221	1469.19
491.439	1458.19
