Data from SnStandardFlinnAPT0064_QswitchEnergy10_LIBS07252019.E.O._I.C._HRD10591_15-28-41-974.txt Node
Date: Thu Jul 25 15:28:41 EDT 2019
User: cochatt
Spectrometer: HR+D1059
Trigger mode: 1
Integration Time (sec): 1.000000E-1
Scans to average: 1
Electric dark correction enabled: true
Nonlinearity correction enabled: false
Boxcar width: 0
XAxis mode: Wavelengths
Number of Pixels in Spectrum: 2048
>>>>>Begin Spectral Data<<<<<
223.165	-24.19
223.4	-24.19
223.635	-24.19
223.869	-10.19
224.104	-0.19
224.338	-12.19
224.573	-6.19
224.808	-9.19
225.042	-18.19
225.277	-9.19
225.511	-7.19
225.746	0.81
225.98	1.81
226.215	3.81
226.449	10.81
226.683	22.81
226.918	26.81
227.152	29.81
227.387	46.81
227.621	41.81
227.856	44.81
228.09	52.81
228.324	67.81
228.559	59.81
228.793	58.81
229.027	57.81
229.262	73.81
229.496	76.81
229.73	71.81
229.964	85.81
230.199	81.81
230.433	88.81
230.667	71.81
230.901	73.81
231.136	83.81
231.37	86.81
231.604	90.81
231.838	107.81
232.072	121.81
232.306	134.81
232.541	115.81
232.775	100.81
233.009	82.81
233.243	67.81
233.477	89.81
233.711	105.81
233.945	103.81
234.179	102.81
234.413	91.81
234.647	97.81
234.881	101.81
235.115	79.81
235.349	89.81
235.583	111.81
235.817	131.81
236.051	130.81
236.285	87.81
236.519	108.81
236.753	88.81
236.987	81.81
237.221	76.81
237.455	63.81
237.689	89.81
237.922	80.81
238.156	90.81
238.39	88.81
238.624	88.81
238.858	84.81
239.091	88.81
239.325	74.81
239.559	72.81
239.793	81.81
240.027	70.81
240.26	78.81
240.494	91.81
240.728	90.81
240.961	90.81
241.195	106.81
241.429	94.81
241.662	92.81
241.896	84.81
242.13	103.81
242.363	128.81
242.597	171.81
242.83	140.81
243.064	155.81
243.298	196.81
243.531	164.81
243.765	113.81
243.998	97.81
244.232	79.81
244.465	83.81
244.699	79.81
244.932	82.81
245.166	71.81
245.399	66.81
245.633	86.81
245.866	76.81
246.099	96.81
246.333	100.81
246.566	92.81
246.8	87.81
247.033	86.81
247.266	79.81
247.5	83.81
247.733	94.81
247.966	87.81
248.2	93.81
248.433	105.81
248.666	120.81
248.899	126.81
249.133	89.81
249.366	85.81
249.599	119.81
249.832	120.81
250.066	129.81
250.299	103.81
250.532	98.81
250.765	91.81
250.998	74.81
251.231	76.81
251.465	83.81
251.698	74.81
251.931	78.81
252.164	88.81
252.397	93.81
252.63	102.81
252.863	87.81
253.096	86.81
253.329	93.81
253.562	99.81
253.795	97.81
254.028	97.81
254.261	89.81
254.494	106.81
254.727	121.81
254.96	171.81
255.193	136.81
255.426	97.81
255.659	104.81
255.892	100.81
256.124	103.81
256.357	105.81
256.59	88.81
256.823	90.81
257.056	103.81
257.289	154.81
257.521	185.81
257.754	133.81
257.987	86.81
258.22	94.81
258.452	88.81
258.685	93.81
258.918	100.81
259.151	86.81
259.383	123.81
259.616	142.81
259.849	147.81
260.081	111.81
260.314	79.81
260.547	94.81
260.779	81.81
261.012	81.81
261.244	84.81
261.477	78.81
261.71	90.81
261.942	100.81
262.175	87.81
262.407	90.81
262.64	77.81
262.872	86.81
263.105	83.81
263.337	84.81
263.57	102.81
263.802	80.81
264.035	102.81
264.267	107.81
264.499	84.81
264.732	90.81
264.964	91.81
265.197	95.81
265.429	88.81
265.661	113.81
265.894	96.81
266.126	143.81
266.358	157.81
266.591	135.81
266.823	97.81
267.055	99.81
267.287	87.81
267.52	83.81
267.752	83.81
267.984	85.81
268.216	95.81
268.448	113.81
268.681	89.81
268.913	89.81
269.145	100.81
269.377	106.81
269.609	96.81
269.841	106.81
270.073	109.81
270.306	123.81
270.538	201.81
270.77	303.81
271.002	385.81
271.234	202.81
271.466	121.81
271.698	97.81
271.93	97.81
272.162	94.81
272.394	110.81
272.626	92.81
272.858	104.81
273.09	92.81
273.322	90.81
273.553	89.81
273.785	97.81
274.017	88.81
274.249	84.81
274.481	92.81
274.713	88.81
274.945	98.81
275.176	91.81
275.408	93.81
275.64	94.81
275.872	93.81
276.104	113.81
276.335	94.81
276.567	91.81
276.799	94.81
277.031	94.81
277.262	103.81
277.494	108.81
277.726	147.81
277.957	190.81
278.189	265.81
278.421	270.81
278.652	199.81
278.884	196.81
279.115	145.81
279.347	115.81
279.579	97.81
279.81	89.81
280.042	101.81
280.273	97.81
280.505	110.81
280.736	108.81
280.968	129.81
281.199	187.81
281.431	278.81
281.662	277.81
281.894	176.81
282.125	123.81
282.356	126.81
282.588	111.81
282.819	124.81
283.051	120.81
283.282	154.81
283.513	201.81
283.745	293.81
283.976	548.81
284.207	810.81
284.439	630.81
284.67	285.81
284.901	262.81
285.132	373.81
285.364	405.81
285.595	231.81
285.826	181.81
286.057	259.81
286.288	426.81
286.52	637.81
286.751	528.81
286.982	223.81
287.213	132.81
287.444	109.81
287.675	103.81
287.906	94.81
288.138	111.81
288.369	108.81
288.6	106.81
288.831	101.81
289.062	96.81
289.293	100.81
289.524	95.81
289.755	93.81
289.986	86.81
290.217	100.81
290.448	91.81
290.679	117.81
290.91	134.81
291.141	171.81
291.371	268.81
291.602	313.81
291.833	216.81
292.064	127.81
292.295	101.81
292.526	106.81
292.757	102.81
292.987	91.81
293.218	87.81
293.449	93.81
293.68	95.81
293.91	89.81
294.141	79.81
294.372	87.81
294.603	107.81
294.833	105.81
295.064	84.81
295.295	90.81
295.525	101.81
295.756	103.81
295.987	108.81
296.217	103.81
296.448	91.81
296.679	93.81
296.909	95.81
297.14	101.81
297.37	97.81
297.601	95.81
297.831	95.81
298.062	107.81
298.292	102.81
298.523	119.81
298.753	107.81
298.984	108.81
299.214	101.81
299.445	107.81
299.675	127.81
299.905	129.81
300.136	153.81
300.366	191.81
300.597	290.81
300.827	477.81
301.057	723.81
301.288	656.81
301.518	267.81
301.748	166.81
301.979	123.81
302.209	133.81
302.439	158.81
302.669	185.81
302.9	285.81
303.13	550.81
303.36	977.81
303.59	1242.81
303.82	903.81
304.051	327.81
304.281	180.81
304.511	129.81
304.741	131.81
304.971	116.81
305.201	103.81
305.431	107.81
305.661	102.81
305.891	101.81
306.121	110.81
306.352	98.81
306.582	107.81
306.812	108.81
307.042	111.81
307.272	111.81
307.502	121.81
307.731	115.81
307.961	111.81
308.191	108.81
308.421	116.81
308.651	118.81
308.881	99.81
309.111	110.81
309.341	104.81
309.571	131.81
309.8	119.81
310.03	116.81
310.26	131.81
310.49	122.81
310.72	125.81
310.949	125.81
311.179	110.81
311.409	120.81
311.639	127.81
311.868	121.81
312.098	122.81
312.328	127.81
312.557	128.81
312.787	121.81
313.017	114.81
313.246	121.81
313.476	133.81
313.706	141.81
313.935	177.81
314.165	218.81
314.394	246.81
314.624	202.81
314.853	133.81
315.083	137.81
315.312	153.81
315.542	139.81
315.771	150.81
316.001	131.81
316.23	154.81
316.46	174.81
316.689	193.81
316.919	279.81
317.148	525.81
317.377	977.81
317.607	1555.81
317.836	1445.81
318.065	553.81
318.295	249.81
318.524	170.81
318.753	163.81
318.983	125.81
319.212	142.81
319.441	122.81
319.67	129.81
319.9	133.81
320.129	113.81
320.358	133.81
320.587	129.81
320.816	140.81
321.046	122.81
321.275	126.81
321.504	134.81
321.733	162.81
321.962	174.81
322.191	170.81
322.42	147.81
322.649	141.81
322.878	126.81
323.108	133.81
323.337	143.81
323.566	139.81
323.795	125.81
324.024	140.81
324.253	162.81
324.482	194.81
324.71	246.81
324.939	295.81
325.168	242.81
325.397	202.81
325.626	299.81
325.855	509.81
326.084	989.81
326.313	1692.81
326.542	1614.81
326.77	646.81
326.999	287.81
327.228	227.81
327.457	241.81
327.686	238.81
327.914	161.81
328.143	161.81
328.372	150.81
328.6	133.81
328.829	141.81
329.058	147.81
329.287	127.81
329.515	139.81
329.744	124.81
329.972	130.81
330.201	134.81
330.43	127.81
330.658	118.81
330.887	124.81
331.115	118.81
331.344	125.81
331.572	133.81
331.801	114.81
332.03	137.81
332.258	155.81
332.486	199.81
332.715	312.81
332.943	522.81
333.172	830.81
333.4	714.81
333.629	270.81
333.857	177.81
334.085	133.81
334.314	133.81
334.542	127.81
334.771	119.81
334.999	128.81
335.227	143.81
335.455	133.81
335.684	119.81
335.912	111.81
336.14	128.81
336.369	121.81
336.597	134.81
336.825	108.81
337.053	124.81
337.281	120.81
337.51	123.81
337.738	122.81
337.966	111.81
338.194	121.81
338.422	121.81
338.65	137.81
338.878	125.81
339.106	135.81
339.334	135.81
339.562	123.81
339.79	129.81
340.018	122.81
340.246	131.81
340.474	123.81
340.702	112.81
340.93	122.81
341.158	114.81
341.386	130.81
341.614	130.81
341.842	143.81
342.07	135.81
342.298	121.81
342.526	109.81
342.754	119.81
342.981	129.81
343.209	120.81
343.437	125.81
343.665	130.81
343.893	124.81
344.12	122.81
344.348	118.81
344.576	117.81
344.804	115.81
345.031	122.81
345.259	123.81
345.487	106.81
345.714	121.81
345.942	123.81
346.17	116.81
346.397	125.81
346.625	117.81
346.853	124.81
347.08	115.81
347.308	112.81
347.535	115.81
347.763	100.81
347.99	108.81
348.218	108.81
348.445	118.81
348.673	109.81
348.9	132.81
349.128	135.81
349.355	132.81
349.583	115.81
349.81	115.81
350.037	130.81
350.265	133.81
350.492	120.81
350.72	121.81
350.947	131.81
351.174	126.81
351.402	116.81
351.629	119.81
351.856	96.81
352.083	110.81
352.311	120.81
352.538	126.81
352.765	133.81
352.992	125.81
353.22	101.81
353.447	100.81
353.674	110.81
353.901	106.81
354.128	83.81
354.355	115.81
354.583	117.81
354.81	105.81
355.037	124.81
355.264	130.81
355.491	102.81
355.718	106.81
355.945	105.81
356.172	111.81
356.399	114.81
356.626	127.81
356.853	122.81
357.08	132.81
357.307	118.81
357.534	115.81
357.761	118.81
357.988	100.81
358.215	117.81
358.441	121.81
358.668	124.81
358.895	121.81
359.122	138.81
359.349	129.81
359.576	139.81
359.802	129.81
360.029	121.81
360.256	126.81
360.483	138.81
360.709	121.81
360.936	124.81
361.163	118.81
361.39	115.81
361.616	130.81
361.843	112.81
362.07	122.81
362.296	108.81
362.523	117.81
362.749	113.81
362.976	126.81
363.203	114.81
363.429	97.81
363.656	113.81
363.882	121.81
364.109	130.81
364.335	126.81
364.562	126.81
364.788	114.81
365.015	124.81
365.241	142.81
365.468	208.81
365.694	284.81
365.92	216.81
366.147	137.81
366.373	108.81
366.599	109.81
366.826	101.81
367.052	115.81
367.278	112.81
367.505	123.81
367.731	107.81
367.957	120.81
368.184	123.81
368.41	137.81
368.636	117.81
368.862	113.81
369.089	109.81
369.315	106.81
369.541	123.81
369.767	121.81
369.993	112.81
370.219	114.81
370.445	121.81
370.672	127.81
370.898	134.81
371.124	107.81
371.35	124.81
371.576	113.81
371.802	101.81
372.028	123.81
372.254	110.81
372.48	123.81
372.706	122.81
372.932	106.81
373.158	126.81
373.384	123.81
373.61	129.81
373.835	138.81
374.061	131.81
374.287	122.81
374.513	123.81
374.739	108.81
374.965	122.81
375.191	126.81
375.416	117.81
375.642	126.81
375.868	105.81
376.094	90.81
376.319	106.81
376.545	113.81
376.771	113.81
376.997	111.81
377.222	106.81
377.448	98.81
377.674	121.81
377.899	115.81
378.125	122.81
378.35	129.81
378.576	108.81
378.802	131.81
379.027	131.81
379.253	146.81
379.478	199.81
379.704	330.81
379.929	818.81
380.155	1669.81
380.38	1719.81
380.606	571.81
380.831	211.81
381.057	139.81
381.282	106.81
381.507	102.81
381.733	118.81
381.958	127.81
382.184	121.81
382.409	116.81
382.634	119.81
382.86	104.81
383.085	106.81
383.31	98.81
383.535	107.81
383.761	118.81
383.986	102.81
384.211	108.81
384.436	127.81
384.662	115.81
384.887	102.81
385.112	117.81
385.337	99.81
385.562	104.81
385.787	123.81
386.013	128.81
386.238	114.81
386.463	122.81
386.688	120.81
386.913	109.81
387.138	122.81
387.363	131.81
387.588	115.81
387.813	117.81
388.038	113.81
388.263	108.81
388.488	102.81
388.713	121.81
388.938	106.81
389.163	119.81
389.387	109.81
389.612	99.81
389.837	103.81
390.062	109.81
390.287	122.81
390.512	103.81
390.736	115.81
390.961	117.81
391.186	109.81
391.411	111.81
391.636	116.81
391.86	110.81
392.085	137.81
392.31	117.81
392.534	108.81
392.759	110.81
392.984	118.81
393.208	151.81
393.433	191.81
393.658	190.81
393.882	116.81
394.107	109.81
394.331	102.81
394.556	104.81
394.78	106.81
395.005	93.81
395.229	98.81
395.454	103.81
395.678	107.81
395.903	125.81
396.127	99.81
396.352	120.81
396.576	121.81
396.801	149.81
397.025	155.81
397.249	124.81
397.474	109.81
397.698	107.81
397.922	96.81
398.147	112.81
398.371	104.81
398.595	121.81
398.82	97.81
399.044	107.81
399.268	98.81
399.492	107.81
399.717	100.81
399.941	103.81
400.165	102.81
400.389	97.81
400.613	95.81
400.837	100.81
401.062	99.81
401.286	104.81
401.51	101.81
401.734	100.81
401.958	107.81
402.182	107.81
402.406	101.81
402.63	92.81
402.854	98.81
403.078	106.81
403.302	102.81
403.526	113.81
403.75	102.81
403.974	107.81
404.198	102.81
404.422	108.81
404.645	109.81
404.869	100.81
405.093	108.81
405.317	128.81
405.541	123.81
405.765	147.81
405.988	157.81
406.212	132.81
406.436	107.81
406.66	91.81
406.883	106.81
407.107	100.81
407.331	97.81
407.555	93.81
407.778	90.81
408.002	95.81
408.226	104.81
408.449	107.81
408.673	109.81
408.896	99.81
409.12	106.81
409.344	105.81
409.567	110.81
409.791	95.81
410.014	121.81
410.238	122.81
410.461	109.81
410.685	103.81
410.908	94.81
411.132	109.81
411.355	101.81
411.578	111.81
411.802	109.81
412.025	108.81
412.249	110.81
412.472	107.81
412.695	108.81
412.919	118.81
413.142	118.81
413.365	99.81
413.589	111.81
413.812	112.81
414.035	120.81
414.258	115.81
414.482	110.81
414.705	113.81
414.928	129.81
415.151	124.81
415.374	117.81
415.597	106.81
415.821	108.81
416.044	86.81
416.267	104.81
416.49	109.81
416.713	102.81
416.936	122.81
417.159	97.81
417.382	111.81
417.605	100.81
417.828	116.81
418.051	83.81
418.274	103.81
418.497	95.81
418.72	98.81
418.943	106.81
419.166	102.81
419.389	119.81
419.611	131.81
419.834	102.81
420.057	104.81
420.28	92.81
420.503	110.81
420.726	109.81
420.948	108.81
421.171	106.81
421.394	100.81
421.617	95.81
421.839	100.81
422.062	92.81
422.285	110.81
422.507	104.81
422.73	139.81
422.953	166.81
423.175	126.81
423.398	109.81
423.621	106.81
423.843	102.81
424.066	114.81
424.288	119.81
424.511	120.81
424.733	97.81
424.956	85.81
425.178	115.81
425.401	106.81
425.623	102.81
425.846	107.81
426.068	99.81
426.291	115.81
426.513	119.81
426.735	95.81
426.958	105.81
427.18	114.81
427.402	105.81
427.625	115.81
427.847	103.81
428.069	102.81
428.292	103.81
428.514	100.81
428.736	100.81
428.958	100.81
429.181	107.81
429.403	102.81
429.625	96.81
429.847	95.81
430.069	118.81
430.292	111.81
430.514	117.81
430.736	111.81
430.958	107.81
431.18	98.81
431.402	104.81
431.624	99.81
431.846	110.81
432.068	93.81
432.29	90.81
432.512	107.81
432.734	100.81
432.956	104.81
433.178	106.81
433.4	108.81
433.622	105.81
433.844	92.81
434.066	108.81
434.287	102.81
434.509	85.81
434.731	108.81
434.953	103.81
435.175	104.81
435.397	107.81
435.618	107.81
435.84	90.81
436.062	98.81
436.284	107.81
436.505	102.81
436.727	87.81
436.949	90.81
437.17	96.81
437.392	100.81
437.614	97.81
437.835	101.81
438.057	93.81
438.278	104.81
438.5	97.81
438.721	104.81
438.943	117.81
439.165	125.81
439.386	90.81
439.608	98.81
439.829	103.81
440.05	113.81
440.272	119.81
440.493	106.81
440.715	77.81
440.936	106.81
441.158	93.81
441.379	106.81
441.6	99.81
441.822	100.81
442.043	118.81
442.264	126.81
442.486	110.81
442.707	110.81
442.928	99.81
443.149	100.81
443.371	109.81
443.592	91.81
443.813	102.81
444.034	98.81
444.255	97.81
444.476	110.81
444.698	102.81
444.919	97.81
445.14	174.81
445.361	139.81
445.582	106.81
445.803	106.81
446.024	101.81
446.245	106.81
446.466	101.81
446.687	123.81
446.908	108.81
447.129	97.81
447.35	105.81
447.571	86.81
447.792	94.81
448.013	110.81
448.234	109.81
448.455	103.81
448.675	106.81
448.896	100.81
449.117	112.81
449.338	149.81
449.559	153.81
449.779	119.81
450	119.81
450.221	123.81
450.442	126.81
450.662	127.81
450.883	106.81
451.104	125.81
451.324	121.81
451.545	128.81
451.766	121.81
451.986	155.81
452.207	231.81
452.428	627.81
452.648	1507.81
452.869	849.81
453.089	222.81
453.31	141.81
453.53	119.81
453.751	143.81
453.971	169.81
454.192	165.81
454.412	111.81
454.633	101.81
454.853	83.81
455.073	93.81
455.294	95.81
455.514	94.81
455.734	103.81
455.955	85.81
456.175	99.81
456.395	100.81
456.616	104.81
456.836	98.81
457.056	94.81
457.276	103.81
457.497	106.81
457.717	141.81
457.937	92.81
458.157	99.81
458.377	95.81
458.598	97.81
458.818	100.81
459.038	80.81
459.258	95.81
459.478	91.81
459.698	83.81
459.918	87.81
460.138	103.81
460.358	104.81
460.578	103.81
460.798	82.81
461.018	91.81
461.238	108.81
461.458	90.81
461.678	91.81
461.898	88.81
462.118	103.81
462.338	94.81
462.558	93.81
462.777	104.81
462.997	99.81
463.217	127.81
463.437	129.81
463.657	198.81
463.876	197.81
464.096	137.81
464.316	101.81
464.536	108.81
464.755	99.81
464.975	94.81
465.195	94.81
465.414	110.81
465.634	100.81
465.854	102.81
466.073	103.81
466.293	98.81
466.512	109.81
466.732	110.81
466.951	119.81
467.171	159.81
467.391	154.81
467.61	115.81
467.829	110.81
468.049	98.81
468.268	105.81
468.488	103.81
468.707	104.81
468.927	106.81
469.146	98.81
469.365	105.81
469.585	100.81
469.804	102.81
470.023	111.81
470.243	102.81
470.462	105.81
470.681	128.81
470.901	131.81
471.12	198.81
471.339	211.81
471.558	152.81
471.777	131.81
471.997	109.81
472.216	109.81
472.435	106.81
472.654	105.81
472.873	97.81
473.092	101.81
473.311	89.81
473.53	92.81
473.749	108.81
473.968	108.81
474.187	102.81
474.406	94.81
474.625	108.81
474.844	98.81
475.063	102.81
475.282	103.81
475.501	109.81
475.72	107.81
475.939	100.81
476.158	100.81
476.377	107.81
476.596	119.81
476.814	101.81
477.033	90.81
477.252	93.81
477.471	103.81
477.69	105.81
477.908	107.81
478.127	104.81
478.346	115.81
478.564	74.81
478.783	103.81
479.002	105.81
479.22	108.81
479.439	119.81
479.658	104.81
479.876	113.81
480.095	102.81
480.313	93.81
480.532	89.81
480.751	87.81
480.969	105.81
481.188	92.81
481.406	108.81
481.624	97.81
481.843	129.81
482.061	122.81
482.28	104.81
482.498	89.81
482.717	99.81
482.935	106.81
483.153	102.81
483.372	99.81
483.59	119.81
483.808	114.81
484.027	114.81
484.245	130.81
484.463	189.81
484.681	220.81
484.9	144.81
485.118	116.81
485.336	113.81
485.554	114.81
485.772	149.81
485.99	201.81
486.209	255.81
486.427	175.81
486.645	124.81
486.863	115.81
487.081	119.81
487.299	106.81
487.517	99.81
487.735	98.81
487.953	114.81
488.171	98.81
488.389	105.81
488.607	105.81
488.825	87.81
489.043	104.81
489.261	93.81
489.479	101.81
489.696	105.81
489.914	95.81
490.132	98.81
490.35	92.81
490.568	103.81
490.786	115.81
491.003	103.81
491.221	116.81
491.439	105.81
491.657	103.81
491.874	115.81
492.092	115.81
492.31	106.81
492.527	100.81
492.745	104.81
492.963	97.81
493.18	111.81
493.398	116.81
493.615	113.81
493.833	107.81
494.05	104.81
494.268	106.81
494.485	105.81
494.703	108.81
494.92	116.81
495.138	106.81
495.355	118.81
495.573	104.81
495.79	116.81
496.008	112.81
496.225	109.81
496.442	117.81
496.66	135.81
496.877	155.81
497.094	166.81
497.312	112.81
497.529	98.81
497.746	97.81
497.963	113.81
498.181	102.81
498.398	121.81
498.615	129.81
498.832	119.81
499.049	106.81
499.267	121.81
499.484	157.81
499.701	115.81
499.918	104.81
500.135	115.81
500.352	108.81
500.569	119.81
500.786	113.81
501.003	117.81
501.22	98.81
501.437	109.81
501.654	108.81
501.871	106.81
502.088	102.81
502.305	101.81
502.522	101.81
502.739	103.81
502.956	104.81
503.172	97.81
503.389	105.81
503.606	101.81
503.823	103.81
504.04	102.81
504.256	103.81
504.473	99.81
504.69	107.81
504.907	120.81
505.123	123.81
505.34	123.81
505.557	103.81
505.773	79.81
