Data from SnStandardFlinnAPT0064_LampEnergy10_LIBS07252019.E.O._I.C._HRD10591_15-19-30-493.txt Node
Date: Thu Jul 25 15:19:30 EDT 2019
User: cochatt
Spectrometer: HR+D1059
Trigger mode: 1
Integration Time (sec): 1.000000E-1
Scans to average: 1
Electric dark correction enabled: true
Nonlinearity correction enabled: false
Boxcar width: 0
XAxis mode: Wavelengths
Number of Pixels in Spectrum: 2048
>>>>>Begin Spectral Data<<<<<
223.165	-20.5
223.4	-20.5
223.635	-20.5
223.869	-31.5
224.104	-10.5
224.338	-6.5
224.573	-8.5
224.808	-15.5
225.042	-11.5
225.277	3.5
225.511	-1.5
225.746	-1.5
225.98	-19.5
226.215	20.5
226.449	10.5
226.683	30.5
226.918	42.5
227.152	19.5
227.387	43.5
227.621	47.5
227.856	45.5
228.09	61.5
228.324	65.5
228.559	55.5
228.793	92.5
229.027	304.5
229.262	349.5
229.496	317.5
229.73	304.5
229.964	308.5
230.199	294.5
230.433	309.5
230.667	333.5
230.901	325.5
231.136	343.5
231.37	368.5
231.604	401.5
231.838	455.5
232.072	545.5
232.306	602.5
232.541	513.5
232.775	455.5
233.009	428.5
233.243	430.5
233.477	479.5
233.711	559.5
233.945	628.5
234.179	525.5
234.413	472.5
234.647	453.5
234.881	489.5
235.115	533.5
235.349	628.5
235.583	816.5
235.817	1075.5
236.051	1045.5
236.285	709.5
236.519	559.5
236.753	517.5
236.987	508.5
237.221	540.5
237.455	523.5
237.689	473.5
237.922	456.5
238.156	464.5
238.39	473.5
238.624	499.5
238.858	480.5
239.091	495.5
239.325	501.5
239.559	510.5
239.793	502.5
240.027	528.5
240.26	560.5
240.494	558.5
240.728	603.5
240.961	636.5
241.195	680.5
241.429	687.5
241.662	726.5
241.896	818.5
242.13	1013.5
242.363	1333.5
242.597	1728.5
242.83	1644.5
243.064	1641.5
243.298	1900.5
243.531	1592.5
243.765	1028.5
243.998	826.5
244.232	708.5
244.465	676.5
244.699	649.5
244.932	667.5
245.166	677.5
245.399	678.5
245.633	649.5
245.866	676.5
246.099	670.5
246.333	638.5
246.566	644.5
246.8	657.5
247.033	641.5
247.266	636.5
247.5	645.5
247.733	678.5
247.966	713.5
248.2	783.5
248.433	901.5
248.666	1021.5
248.899	960.5
249.133	854.5
249.366	877.5
249.599	951.5
249.832	1143.5
250.066	1145.5
250.299	884.5
250.532	771.5
250.765	767.5
250.998	735.5
251.231	732.5
251.465	714.5
251.698	712.5
251.931	749.5
252.164	740.5
252.397	763.5
252.63	767.5
252.863	789.5
253.096	785.5
253.329	804.5
253.562	772.5
253.795	760.5
254.028	769.5
254.261	820.5
254.494	879.5
254.727	1044.5
254.96	1299.5
255.193	1271.5
255.426	996.5
255.659	881.5
255.892	895.5
256.124	883.5
256.357	890.5
256.59	906.5
256.823	1007.5
257.056	1128.5
257.289	1404.5
257.521	1524.5
257.754	1229.5
257.987	982.5
258.22	932.5
258.452	896.5
258.685	920.5
258.918	940.5
259.151	991.5
259.383	1101.5
259.616	1235.5
259.849	1325.5
260.081	1133.5
260.314	993.5
260.547	952.5
260.779	915.5
261.012	924.5
261.244	920.5
261.477	954.5
261.71	998.5
261.942	961.5
262.175	981.5
262.407	1041.5
262.64	996.5
262.872	1073.5
263.105	1116.5
263.337	1153.5
263.57	1193.5
263.802	1238.5
264.035	1253.5
264.267	1285.5
264.499	1311.5
264.732	1356.5
264.964	1377.5
265.197	1367.5
265.429	1381.5
265.661	1411.5
265.894	1503.5
266.126	1716.5
266.358	1919.5
266.591	1866.5
266.823	1577.5
267.055	1411.5
267.287	1354.5
267.52	1274.5
267.752	1285.5
267.984	1236.5
268.216	1226.5
268.448	1218.5
268.681	1203.5
268.913	1211.5
269.145	1195.5
269.377	1209.5
269.609	1241.5
269.841	1281.5
270.073	1375.5
270.306	1654.5
270.538	2205.5
270.77	3368.5
271.002	4144.5
271.234	2964.5
271.466	1971.5
271.698	1552.5
271.93	1414.5
272.162	1352.5
272.394	1301.5
272.626	1244.5
272.858	1235.5
273.09	1191.5
273.322	1188.5
273.553	1192.5
273.785	1199.5
274.017	1183.5
274.249	1211.5
274.481	1177.5
274.713	1199.5
274.945	1230.5
275.176	1225.5
275.408	1194.5
275.64	1205.5
275.872	1190.5
276.104	1236.5
276.335	1249.5
276.567	1275.5
276.799	1248.5
277.031	1309.5
277.262	1327.5
277.494	1409.5
277.726	1624.5
277.957	1890.5
278.189	2192.5
278.421	2046.5
278.652	1800.5
278.884	1690.5
279.115	1468.5
279.347	1422.5
279.579	1351.5
279.81	1388.5
280.042	1394.5
280.273	1404.5
280.505	1419.5
280.736	1457.5
280.968	1622.5
281.199	1822.5
281.431	2081.5
281.662	2164.5
281.894	1803.5
282.125	1654.5
282.356	1625.5
282.588	1669.5
282.819	1741.5
283.051	1871.5
283.282	2076.5
283.513	2573.5
283.745	3729.5
283.976	5945.5
284.207	8427.5
284.439	7706.5
284.67	4825.5
284.901	4015.5
285.132	3959.5
285.364	3798.5
285.595	2909.5
285.826	2586.5
286.057	2983.5
286.288	4081.5
286.52	5504.5
286.751	5224.5
286.982	3202.5
287.213	2410.5
287.444	2045.5
287.675	1884.5
287.906	1780.5
288.138	1745.5
288.369	1653.5
288.6	1650.5
288.831	1625.5
289.062	1663.5
289.293	1669.5
289.524	1673.5
289.755	1680.5
289.986	1675.5
290.217	1683.5
290.448	1675.5
290.679	1712.5
290.91	1729.5
291.141	1864.5
291.371	2022.5
291.602	2123.5
291.833	1989.5
292.064	1714.5
292.295	1679.5
292.526	1623.5
292.757	1594.5
292.987	1548.5
293.218	1552.5
293.449	1583.5
293.68	1575.5
293.91	1573.5
294.141	1558.5
294.372	1585.5
294.603	1513.5
294.833	1507.5
295.064	1545.5
295.295	1513.5
295.525	1533.5
295.756	1521.5
295.987	1535.5
296.217	1569.5
296.448	1549.5
296.679	1562.5
296.909	1539.5
297.14	1562.5
297.37	1561.5
297.601	1611.5
297.831	1613.5
298.062	1604.5
298.292	1592.5
298.523	1612.5
298.753	1664.5
298.984	1659.5
299.214	1702.5
299.445	1754.5
299.675	1800.5
299.905	1829.5
300.136	1874.5
300.366	2198.5
300.597	2835.5
300.827	4010.5
301.057	5488.5
301.288	5563.5
301.518	3591.5
301.748	2679.5
301.979	2448.5
302.209	2315.5
302.439	2314.5
302.669	2516.5
302.9	3076.5
303.13	4341.5
303.36	6519.5
303.59	8812.5
303.82	7656.5
304.051	4531.5
304.281	3189.5
304.511	2636.5
304.741	2357.5
304.971	2195.5
305.201	2075.5
305.431	1980.5
305.661	1973.5
305.891	1865.5
306.121	1901.5
306.352	1859.5
306.582	1841.5
306.812	1819.5
307.042	1778.5
307.272	1809.5
307.502	1807.5
307.731	1808.5
307.961	1764.5
308.191	1746.5
308.421	1778.5
308.651	1754.5
308.881	1747.5
309.111	1785.5
309.341	1770.5
309.571	1785.5
309.8	1773.5
310.03	1797.5
310.26	1801.5
310.49	1791.5
310.72	1828.5
310.949	1833.5
311.179	1839.5
311.409	1832.5
311.639	1858.5
311.868	1855.5
312.098	1889.5
312.328	1884.5
312.557	1950.5
312.787	1896.5
313.017	1994.5
313.246	1932.5
313.476	1981.5
313.706	2056.5
313.935	2228.5
314.165	2330.5
314.394	2469.5
314.624	2351.5
314.853	2113.5
315.083	2156.5
315.312	2142.5
315.542	2203.5
315.771	2183.5
316.001	2227.5
316.23	2318.5
316.46	2468.5
316.689	2699.5
316.919	3320.5
317.148	4814.5
317.377	7469.5
317.607	11057.5
317.836	11416.5
318.065	7115.5
318.295	4545.5
318.524	3553.5
318.753	3144.5
318.983	2816.5
319.212	2656.5
319.441	2548.5
319.67	2427.5
319.9	2423.5
320.129	2365.5
320.358	2317.5
320.587	2321.5
320.816	2290.5
321.046	2344.5
321.275	2327.5
321.504	2326.5
321.733	2381.5
321.962	2474.5
322.191	2479.5
322.42	2488.5
322.649	2449.5
322.878	2451.5
323.108	2440.5
323.337	2520.5
323.566	2502.5
323.795	2559.5
324.024	2675.5
324.253	2717.5
324.482	2864.5
324.71	3023.5
324.939	3219.5
325.168	3285.5
325.397	3434.5
325.626	4138.5
325.855	5755.5
326.084	9153.5
326.313	13145.5
326.542	13931.5
326.77	9699.5
326.999	6358.5
327.228	5220.5
327.457	4824.5
327.686	4886.5
327.914	5148.5
328.143	6013.5
328.372	7138.5
328.6	7786.5
328.829	6907.5
329.058	5739.5
329.287	5021.5
329.515	4607.5
329.744	4261.5
329.972	4007.5
330.201	3788.5
330.43	3670.5
330.658	3548.5
330.887	3494.5
331.115	3462.5
331.344	3402.5
331.572	3415.5
331.801	3421.5
332.03	3436.5
332.258	3476.5
332.486	3688.5
332.715	4336.5
332.943	5430.5
333.172	6732.5
333.4	6795.5
333.629	5015.5
333.857	4520.5
334.085	4446.5
334.314	4677.5
334.542	5039.5
334.771	5844.5
334.999	7382.5
335.227	9138.5
335.455	10442.5
335.684	9260.5
335.912	7546.5
336.14	6397.5
336.369	5635.5
336.597	5119.5
336.825	4713.5
337.053	4455.5
337.281	4102.5
337.51	3964.5
337.738	3732.5
337.966	3589.5
338.194	3459.5
338.422	3344.5
338.65	3305.5
338.878	3277.5
339.106	3180.5
339.334	3134.5
339.562	3024.5
339.79	2961.5
340.018	2944.5
340.246	2903.5
340.474	2892.5
340.702	2927.5
340.93	2922.5
341.158	2929.5
341.386	2951.5
341.614	2845.5
341.842	2796.5
342.07	2751.5
342.298	2701.5
342.526	2680.5
342.754	2712.5
342.981	2635.5
343.209	2605.5
343.437	2685.5
343.665	2669.5
343.893	2711.5
344.12	2738.5
344.348	2665.5
344.576	2646.5
344.804	2595.5
345.031	2566.5
345.259	2524.5
345.487	2510.5
345.714	2444.5
345.942	2434.5
346.17	2472.5
346.397	2452.5
346.625	2426.5
346.853	2469.5
347.08	2495.5
347.308	2428.5
347.535	2454.5
347.763	2463.5
347.99	2422.5
348.218	2433.5
348.445	2411.5
348.673	2438.5
348.9	2404.5
349.128	2362.5
349.355	2336.5
349.583	2345.5
349.81	2355.5
350.037	2316.5
350.265	2338.5
350.492	2321.5
350.72	2342.5
350.947	2378.5
351.174	2313.5
351.402	2331.5
351.629	2312.5
351.856	2330.5
352.083	2323.5
352.311	2345.5
352.538	2284.5
352.765	2298.5
352.992	2322.5
353.22	2278.5
353.447	2310.5
353.674	2327.5
353.901	2326.5
354.128	2292.5
354.355	2266.5
354.583	2317.5
354.81	2378.5
355.037	2388.5
355.264	2368.5
355.491	2387.5
355.718	2375.5
355.945	2340.5
356.172	2376.5
356.399	2414.5
356.626	2392.5
356.853	2403.5
357.08	2445.5
357.307	2439.5
357.534	2467.5
357.761	2538.5
357.988	2492.5
358.215	2500.5
358.441	2469.5
358.668	2465.5
358.895	2432.5
359.122	2440.5
359.349	2461.5
359.576	2435.5
359.802	2439.5
360.029	2453.5
360.256	2487.5
360.483	2439.5
360.709	2444.5
360.936	2466.5
361.163	2483.5
361.39	2501.5
361.616	2471.5
361.843	2491.5
362.07	2477.5
362.296	2481.5
362.523	2453.5
362.749	2490.5
362.976	2467.5
363.203	2464.5
363.429	2472.5
363.656	2495.5
363.882	2461.5
364.109	2434.5
364.335	2406.5
364.562	2451.5
364.788	2471.5
365.015	2486.5
365.241	2568.5
365.468	2769.5
365.694	2894.5
365.92	2771.5
366.147	2539.5
366.373	2509.5
366.599	2503.5
366.826	2519.5
367.052	2440.5
367.278	2545.5
367.505	2538.5
367.731	2502.5
367.957	2496.5
368.184	2537.5
368.41	2529.5
368.636	2566.5
368.862	2568.5
369.089	2522.5
369.315	2536.5
369.541	2542.5
369.767	2538.5
369.993	2508.5
370.219	2491.5
370.445	2583.5
370.672	2551.5
370.898	2566.5
371.124	2574.5
371.35	2576.5
371.576	2645.5
371.802	2595.5
372.028	2659.5
372.254	2628.5
372.48	2676.5
372.706	2686.5
372.932	2676.5
373.158	2693.5
373.384	2701.5
373.61	2628.5
373.835	2707.5
374.061	2687.5
374.287	2703.5
374.513	2714.5
374.739	2735.5
374.965	2764.5
375.191	2831.5
375.416	2753.5
375.642	2718.5
375.868	2754.5
376.094	2662.5
376.319	2647.5
376.545	2640.5
376.771	2640.5
376.997	2657.5
377.222	2587.5
377.448	2635.5
377.674	2629.5
377.899	2621.5
378.125	2633.5
378.35	2636.5
378.576	2679.5
378.802	2651.5
379.027	2769.5
379.253	2827.5
379.478	3020.5
379.704	3557.5
379.929	5252.5
380.155	8165.5
380.38	9068.5
380.606	5481.5
380.831	3763.5
381.057	3245.5
381.282	2919.5
381.507	2819.5
381.733	2728.5
381.958	2662.5
382.184	2650.5
382.409	2626.5
382.634	2587.5
382.86	2630.5
383.085	2541.5
383.31	2635.5
383.535	2594.5
383.761	2580.5
383.986	2593.5
384.211	2632.5
384.436	2689.5
384.662	2653.5
384.887	2660.5
385.112	2668.5
385.337	2689.5
385.562	2634.5
385.787	2653.5
386.013	2671.5
386.238	2691.5
386.463	2709.5
386.688	2709.5
386.913	2684.5
387.138	2653.5
387.363	2705.5
387.588	2636.5
387.813	2648.5
388.038	2635.5
388.263	2643.5
388.488	2654.5
388.713	2615.5
388.938	2579.5
389.163	2612.5
389.387	2707.5
389.612	2623.5
389.837	2679.5
390.062	2683.5
390.287	2645.5
390.512	2703.5
390.736	2710.5
390.961	2760.5
391.186	2732.5
391.411	2761.5
391.636	2729.5
391.86	2763.5
392.085	2857.5
392.31	2787.5
392.534	2814.5
392.759	2716.5
392.984	2741.5
393.208	2722.5
393.433	2783.5
393.658	2786.5
393.882	2626.5
394.107	2679.5
394.331	2694.5
394.556	2670.5
394.78	2711.5
395.005	2744.5
395.229	2700.5
395.454	2744.5
395.678	2745.5
395.903	2727.5
396.127	2765.5
396.352	2743.5
396.576	2772.5
396.801	2805.5
397.025	2846.5
397.249	2786.5
397.474	2788.5
397.698	2790.5
397.922	2836.5
398.147	2776.5
398.371	2825.5
398.595	2904.5
398.82	2955.5
399.044	3071.5
399.268	3133.5
399.492	3373.5
399.717	3408.5
399.941	3452.5
400.165	3341.5
400.389	3179.5
400.613	3040.5
400.837	3014.5
401.062	2959.5
401.286	3001.5
401.51	2927.5
401.734	2905.5
401.958	2915.5
402.182	2909.5
402.406	2941.5
402.63	2912.5
402.854	3010.5
403.078	2951.5
403.302	3020.5
403.526	3021.5
403.75	3010.5
403.974	3061.5
404.198	3044.5
404.422	2998.5
404.645	2980.5
404.869	3008.5
405.093	3012.5
405.317	2991.5
405.541	3050.5
405.765	3096.5
405.988	3121.5
406.212	3103.5
406.436	3075.5
406.66	3122.5
406.883	3097.5
407.107	3169.5
407.331	3217.5
407.555	3307.5
407.778	3289.5
408.002	3288.5
408.226	3219.5
408.449	3239.5
408.673	3176.5
408.896	3109.5
409.12	3098.5
409.344	3120.5
409.567	3030.5
409.791	3103.5
410.014	3056.5
410.238	3014.5
410.461	3041.5
410.685	3032.5
410.908	2936.5
411.132	2960.5
411.355	2891.5
411.578	2855.5
411.802	2874.5
412.025	2899.5
412.249	2947.5
412.472	2904.5
412.695	2805.5
412.919	2790.5
413.142	2909.5
413.365	2875.5
413.589	2872.5
413.812	2852.5
414.035	2821.5
414.258	2867.5
414.482	2879.5
414.705	2903.5
414.928	2829.5
415.151	2856.5
415.374	2852.5
415.597	2775.5
415.821	2735.5
416.044	2731.5
416.267	2731.5
416.49	2810.5
416.713	2753.5
416.936	2778.5
417.159	2753.5
417.382	2689.5
417.605	2645.5
417.828	2762.5
418.051	2778.5
418.274	2806.5
418.497	2790.5
418.72	2819.5
418.943	2821.5
419.166	2920.5
419.389	3057.5
419.611	3016.5
419.834	2922.5
420.057	2897.5
420.28	2799.5
420.503	2743.5
420.726	2775.5
420.948	2703.5
421.171	2756.5
421.394	2745.5
421.617	2770.5
421.839	2779.5
422.062	2760.5
422.285	2766.5
422.507	2773.5
422.73	2860.5
422.953	2807.5
423.175	2829.5
423.398	2805.5
423.621	2725.5
423.843	2760.5
424.066	2765.5
424.288	2745.5
424.511	2792.5
424.733	2760.5
424.956	2698.5
425.178	2719.5
425.401	2712.5
425.623	2697.5
425.846	2634.5
426.068	2635.5
426.291	2634.5
426.513	2665.5
426.735	2613.5
426.958	2628.5
427.18	2612.5
427.402	2659.5
427.625	2645.5
427.847	2565.5
428.069	2578.5
428.292	2601.5
428.514	2532.5
428.736	2567.5
428.958	2606.5
429.181	2560.5
429.403	2561.5
429.625	2500.5
429.847	2565.5
430.069	2642.5
430.292	2682.5
430.514	2792.5
430.736	2796.5
430.958	2583.5
431.18	2546.5
431.402	2548.5
431.624	2456.5
431.846	2482.5
432.068	2475.5
432.29	2499.5
432.512	2425.5
432.734	2530.5
432.956	2555.5
433.178	2526.5
433.4	2516.5
433.622	2591.5
433.844	2552.5
434.066	2524.5
434.287	2525.5
434.509	2616.5
434.731	2602.5
434.953	2589.5
435.175	2701.5
435.397	2617.5
435.618	2621.5
435.84	2640.5
436.062	2519.5
436.284	2509.5
436.505	2479.5
436.727	2527.5
436.949	2548.5
437.17	2526.5
437.392	2477.5
437.614	2529.5
437.835	2392.5
438.057	2465.5
438.278	2389.5
438.5	2451.5
438.721	2507.5
438.943	2635.5
439.165	2636.5
439.386	2679.5
439.608	2611.5
439.829	2654.5
440.05	2756.5
440.272	2763.5
440.493	2673.5
440.715	2644.5
440.936	2661.5
441.158	2678.5
441.379	2682.5
441.6	2776.5
441.822	2856.5
442.043	3048.5
442.264	3092.5
442.486	2924.5
442.707	2755.5
442.928	2714.5
443.149	2696.5
443.371	2682.5
443.592	2681.5
443.813	2669.5
444.034	2731.5
444.255	2785.5
444.476	2810.5
444.698	2884.5
444.919	2910.5
445.14	2960.5
445.361	2810.5
445.582	2731.5
445.803	2741.5
446.024	2713.5
446.245	2715.5
446.466	2669.5
446.687	2643.5
446.908	2692.5
447.129	2598.5
447.35	2637.5
447.571	2540.5
447.792	2520.5
448.013	2536.5
448.234	2509.5
448.455	2504.5
448.675	2602.5
448.896	2647.5
449.117	2736.5
449.338	2997.5
449.559	3151.5
449.779	2748.5
450	2561.5
450.221	2525.5
450.442	2524.5
450.662	2500.5
450.883	2472.5
451.104	2435.5
451.324	2446.5
451.545	2441.5
451.766	2476.5
451.986	2535.5
452.207	2761.5
452.428	3667.5
452.648	5674.5
452.869	4757.5
453.089	3186.5
453.31	2961.5
453.53	2912.5
453.751	2991.5
453.971	3213.5
454.192	3071.5
454.412	2703.5
454.633	2505.5
454.853	2453.5
455.073	2421.5
455.294	2383.5
455.514	2368.5
455.734	2388.5
455.955	2323.5
456.175	2356.5
456.395	2307.5
456.616	2354.5
456.836	2390.5
457.056	2355.5
457.276	2397.5
457.497	2550.5
457.717	2578.5
457.937	2506.5
458.157	2501.5
458.377	2501.5
458.598	2544.5
458.818	2487.5
459.038	2501.5
459.258	2484.5
459.478	2560.5
459.698	2591.5
459.918	2640.5
460.138	2657.5
460.358	2693.5
460.578	2716.5
460.798	2746.5
461.018	2722.5
461.238	2764.5
461.458	2747.5
461.678	2790.5
461.898	2872.5
462.118	2921.5
462.338	2936.5
462.558	2955.5
462.777	3015.5
462.997	3122.5
463.217	3272.5
463.437	3379.5
463.657	3481.5
463.876	3447.5
464.096	3264.5
464.316	3069.5
464.536	3081.5
464.755	2984.5
464.975	2936.5
465.195	2860.5
465.414	2713.5
465.634	2671.5
465.854	2624.5
466.073	2665.5
466.293	2584.5
466.512	2599.5
466.732	2609.5
466.951	2783.5
467.171	3016.5
467.391	2885.5
467.61	2660.5
467.829	2570.5
468.049	2561.5
468.268	2543.5
468.488	2495.5
468.707	2433.5
468.927	2528.5
469.146	2507.5
469.365	2530.5
469.585	2608.5
469.804	2618.5
470.023	2687.5
470.243	2730.5
470.462	2801.5
470.681	2995.5
470.901	3272.5
471.12	3778.5
471.339	3771.5
471.558	3135.5
471.777	2818.5
471.997	2711.5
472.216	2669.5
472.435	2612.5
472.654	2533.5
472.873	2499.5
473.092	2490.5
473.311	2525.5
473.53	2587.5
473.749	2639.5
473.968	2714.5
474.187	2586.5
474.406	2502.5
474.625	2535.5
474.844	2568.5
475.063	2534.5
475.282	2575.5
475.501	2553.5
475.72	2641.5
475.939	2620.5
476.158	2643.5
476.377	2696.5
476.596	2695.5
476.814	2744.5
477.033	2673.5
477.252	2720.5
477.471	2800.5
477.69	2765.5
477.908	2821.5
478.127	2891.5
478.346	2865.5
478.564	2913.5
478.783	2917.5
479.002	2953.5
479.22	2992.5
479.439	3064.5
479.658	3000.5
479.876	3072.5
480.095	3055.5
480.313	3161.5
480.532	3111.5
480.751	3149.5
480.969	3072.5
481.188	3067.5
481.406	3102.5
481.624	3073.5
481.843	3132.5
482.061	3067.5
482.28	3083.5
482.498	3097.5
482.717	3112.5
482.935	3115.5
483.153	3112.5
483.372	3161.5
483.59	3227.5
483.808	3298.5
484.027	3395.5
484.245	3589.5
484.463	4026.5
484.681	4455.5
484.9	4114.5
485.118	3847.5
485.336	3676.5
485.554	3773.5
485.772	3971.5
485.99	4531.5
486.209	4839.5
486.427	4083.5
486.645	3628.5
486.863	3499.5
487.081	3324.5
487.299	3291.5
487.517	3300.5
487.735	3268.5
487.953	3295.5
488.171	3307.5
488.389	3219.5
488.607	3199.5
488.825	3192.5
489.043	3142.5
489.261	3187.5
489.479	3126.5
489.696	3163.5
489.914	3205.5
490.132	3183.5
490.35	3235.5
490.568	3207.5
490.786	3230.5
491.003	3233.5
491.221	3335.5
491.439	3276.5
491.657	3333.5
491.874	3303.5
492.092	3306.5
492.31	3367.5
492.527	3341.5
492.745	3291.5
492.963	3318.5
493.18	3255.5
493.398	3313.5
493.615	3364.5
493.833	3340.5
494.05	3327.5
494.268	3299.5
494.485	3374.5
494.703	3347.5
494.92	3331.5
495.138	3325.5
495.355	3350.5
495.573	3358.5
495.79	3368.5
496.008	3385.5
496.225	3415.5
496.442	3481.5
496.66	3634.5
496.877	3844.5
497.094	3713.5
497.312	3628.5
497.529	3648.5
497.746	3628.5
497.963	3680.5
498.181	3775.5
498.398	3849.5
498.615	3953.5
498.832	4138.5
499.049	4360.5
499.267	4591.5
499.484	4850.5
499.701	4900.5
499.918	4968.5
500.135	5157.5
500.352	5363.5
500.569	5491.5
500.786	5407.5
501.003	5283.5
501.22	5084.5
501.437	4788.5
501.654	4515.5
501.871	4329.5
502.088	4215.5
502.305	4073.5
502.522	3924.5
502.739	3859.5
502.956	3754.5
503.172	3645.5
503.389	3564.5
503.606	3483.5
503.823	3455.5
