Data from SnStandardFlinnAPT0064_LampEnergy10_LIBS07252019.E.O._I.C._HRD10591_15-19-42-493.txt Node
Date: Thu Jul 25 15:19:42 EDT 2019
User: cochatt
Spectrometer: HR+D1059
Trigger mode: 1
Integration Time (sec): 1.000000E-1
Scans to average: 1
Electric dark correction enabled: true
Nonlinearity correction enabled: false
Boxcar width: 0
XAxis mode: Wavelengths
Number of Pixels in Spectrum: 2048
>>>>>Begin Spectral Data<<<<<
223.165	-14.69
223.4	-14.69
223.635	-14.69
223.869	-21.69
224.104	-8.69
224.338	-18.69
224.573	-17.69
224.808	-17.69
225.042	-24.69
225.277	-0.69
225.511	-12.69
225.746	-5.69
225.98	9.31
226.215	12.31
226.449	20.31
226.683	24.31
226.918	33.31
227.152	43.31
227.387	21.31
227.621	41.31
227.856	52.31
228.09	45.31
228.324	56.31
228.559	62.31
228.793	125.31
229.027	327.31
229.262	352.31
229.496	334.31
229.73	302.31
229.964	325.31
230.199	322.31
230.433	304.31
230.667	289.31
230.901	331.31
231.136	329.31
231.37	358.31
231.604	396.31
231.838	462.31
232.072	548.31
232.306	599.31
232.541	476.31
232.775	426.31
233.009	421.31
233.243	441.31
233.477	464.31
233.711	533.31
233.945	631.31
234.179	560.31
234.413	496.31
234.647	493.31
234.881	512.31
235.115	564.31
235.349	662.31
235.583	851.31
235.817	1074.31
236.051	1042.31
236.285	689.31
236.519	571.31
236.753	514.31
236.987	517.31
237.221	560.31
237.455	534.31
237.689	488.31
237.922	474.31
238.156	490.31
238.39	495.31
238.624	518.31
238.858	486.31
239.091	498.31
239.325	508.31
239.559	480.31
239.793	523.31
240.027	558.31
240.26	572.31
240.494	581.31
240.728	601.31
240.961	649.31
241.195	717.31
241.429	697.31
241.662	740.31
241.896	841.31
242.13	1001.31
242.363	1368.31
242.597	1812.31
242.83	1685.31
243.064	1628.31
243.298	1988.31
243.531	1601.31
243.765	1032.31
243.998	815.31
244.232	728.31
244.465	704.31
244.699	680.31
244.932	667.31
245.166	680.31
245.399	694.31
245.633	715.31
245.866	738.31
246.099	677.31
246.333	673.31
246.566	673.31
246.8	652.31
247.033	636.31
247.266	666.31
247.5	669.31
247.733	692.31
247.966	710.31
248.2	786.31
248.433	898.31
248.666	1036.31
248.899	979.31
249.133	917.31
249.366	893.31
249.599	1022.31
249.832	1168.31
250.066	1122.31
250.299	912.31
250.532	801.31
250.765	795.31
250.998	784.31
251.231	756.31
251.465	741.31
251.698	771.31
251.931	764.31
252.164	793.31
252.397	773.31
252.63	805.31
252.863	816.31
253.096	788.31
253.329	807.31
253.562	792.31
253.795	803.31
254.028	843.31
254.261	841.31
254.494	909.31
254.727	1070.31
254.96	1298.31
255.193	1258.31
255.426	1035.31
255.659	922.31
255.892	890.31
256.124	900.31
256.357	916.31
256.59	952.31
256.823	1016.31
257.056	1173.31
257.289	1381.31
257.521	1561.31
257.754	1260.31
257.987	996.31
258.22	955.31
258.452	945.31
258.685	957.31
258.918	992.31
259.151	1036.31
259.383	1128.31
259.616	1242.31
259.849	1319.31
260.081	1107.31
260.314	1029.31
260.547	1004.31
260.779	967.31
261.012	946.31
261.244	973.31
261.477	971.31
261.71	1019.31
261.942	1022.31
262.175	1032.31
262.407	1042.31
262.64	1068.31
262.872	1099.31
263.105	1157.31
263.337	1205.31
263.57	1294.31
263.802	1322.31
264.035	1321.31
264.267	1350.31
264.499	1376.31
264.732	1425.31
264.964	1440.31
265.197	1404.31
265.429	1455.31
265.661	1461.31
265.894	1562.31
266.126	1758.31
266.358	2034.31
266.591	1974.31
266.823	1625.31
267.055	1421.31
267.287	1373.31
267.52	1333.31
267.752	1300.31
267.984	1265.31
268.216	1286.31
268.448	1275.31
268.681	1248.31
268.913	1246.31
269.145	1228.31
269.377	1221.31
269.609	1303.31
269.841	1328.31
270.073	1426.31
270.306	1651.31
270.538	2330.31
270.77	3466.31
271.002	4296.31
271.234	3057.31
271.466	1992.31
271.698	1621.31
271.93	1424.31
272.162	1408.31
272.394	1323.31
272.626	1304.31
272.858	1244.31
273.09	1251.31
273.322	1234.31
273.553	1241.31
273.785	1246.31
274.017	1217.31
274.249	1210.31
274.481	1242.31
274.713	1227.31
274.945	1243.31
275.176	1238.31
275.408	1254.31
275.64	1260.31
275.872	1262.31
276.104	1236.31
276.335	1308.31
276.567	1294.31
276.799	1312.31
277.031	1332.31
277.262	1360.31
277.494	1458.31
277.726	1600.31
277.957	1894.31
278.189	2221.31
278.421	2069.31
278.652	1814.31
278.884	1742.31
279.115	1548.31
279.347	1435.31
279.579	1430.31
279.81	1420.31
280.042	1436.31
280.273	1473.31
280.505	1476.31
280.736	1545.31
280.968	1629.31
281.199	1877.31
281.431	2168.31
281.662	2248.31
281.894	1817.31
282.125	1708.31
282.356	1666.31
282.588	1725.31
282.819	1757.31
283.051	1888.31
283.282	2106.31
283.513	2684.31
283.745	3826.31
283.976	6076.31
284.207	8667.31
284.439	7992.31
284.67	4927.31
284.901	4013.31
285.132	4028.31
285.364	3937.31
285.595	2905.31
285.826	2534.31
286.057	2989.31
286.288	4197.31
286.52	5625.31
286.751	5390.31
286.982	3303.31
287.213	2427.31
287.444	2078.31
287.675	1948.31
287.906	1843.31
288.138	1773.31
288.369	1722.31
288.6	1714.31
288.831	1656.31
289.062	1734.31
289.293	1696.31
289.524	1717.31
289.755	1743.31
289.986	1761.31
290.217	1742.31
290.448	1752.31
290.679	1740.31
290.91	1817.31
291.141	1926.31
291.371	2088.31
291.602	2217.31
291.833	1978.31
292.064	1777.31
292.295	1690.31
292.526	1670.31
292.757	1652.31
292.987	1597.31
293.218	1597.31
293.449	1598.31
293.68	1632.31
293.91	1603.31
294.141	1570.31
294.372	1576.31
294.603	1574.31
294.833	1593.31
295.064	1571.31
295.295	1608.31
295.525	1588.31
295.756	1603.31
295.987	1580.31
296.217	1619.31
296.448	1604.31
296.679	1570.31
296.909	1589.31
297.14	1614.31
297.37	1631.31
297.601	1677.31
297.831	1652.31
298.062	1646.31
298.292	1662.31
298.523	1668.31
298.753	1734.31
298.984	1712.31
299.214	1770.31
299.445	1772.31
299.675	1828.31
299.905	1889.31
300.136	1991.31
300.366	2249.31
300.597	2910.31
300.827	4063.31
301.057	5692.31
301.288	5686.31
301.518	3602.31
301.748	2751.31
301.979	2474.31
302.209	2362.31
302.439	2390.31
302.669	2559.31
302.9	3142.31
303.13	4409.31
303.36	6632.31
303.59	8901.31
303.82	7886.31
304.051	4531.31
304.281	3238.31
304.511	2635.31
304.741	2436.31
304.971	2254.31
305.201	2175.31
305.431	2066.31
305.661	2024.31
305.891	1986.31
306.121	1924.31
306.352	1902.31
306.582	1869.31
306.812	1884.31
307.042	1876.31
307.272	1876.31
307.502	1824.31
307.731	1868.31
307.961	1836.31
308.191	1851.31
308.421	1808.31
308.651	1862.31
308.881	1817.31
309.111	1869.31
309.341	1829.31
309.571	1864.31
309.8	1867.31
310.03	1858.31
310.26	1893.31
310.49	1891.31
310.72	1888.31
310.949	1888.31
311.179	1912.31
311.409	1915.31
311.639	1915.31
311.868	1944.31
312.098	1950.31
312.328	1974.31
312.557	1973.31
312.787	1953.31
313.017	1993.31
313.246	2039.31
313.476	2065.31
313.706	2155.31
313.935	2244.31
314.165	2419.31
314.394	2564.31
314.624	2442.31
314.853	2189.31
315.083	2169.31
315.312	2172.31
315.542	2225.31
315.771	2253.31
316.001	2308.31
316.23	2371.31
316.46	2537.31
316.689	2792.31
316.919	3300.31
317.148	4877.31
317.377	7625.31
317.607	11309.31
317.836	11668.31
318.065	7089.31
318.295	4643.31
318.524	3676.31
318.753	3111.31
318.983	2928.31
319.212	2646.31
319.441	2594.31
319.67	2498.31
319.9	2438.31
320.129	2452.31
320.358	2339.31
320.587	2348.31
320.816	2410.31
321.046	2450.31
321.275	2430.31
321.504	2442.31
321.733	2493.31
321.962	2519.31
322.191	2572.31
322.42	2512.31
322.649	2531.31
322.878	2511.31
323.108	2561.31
323.337	2603.31
323.566	2581.31
323.795	2668.31
324.024	2749.31
324.253	2780.31
324.482	2889.31
324.71	3078.31
324.939	3286.31
325.168	3363.31
325.397	3508.31
325.626	4213.31
325.855	5945.31
326.084	9373.31
326.313	13444.31
326.542	14171.31
326.77	9886.31
326.999	6422.31
327.228	5294.31
327.457	5058.31
327.686	4978.31
327.914	5326.31
328.143	6289.31
328.372	7493.31
328.6	8098.31
328.829	7238.31
329.058	6009.31
329.287	5228.31
329.515	4855.31
329.744	4412.31
329.972	4144.31
330.201	3961.31
330.43	3785.31
330.658	3693.31
330.887	3587.31
331.115	3552.31
331.344	3529.31
331.572	3555.31
331.801	3540.31
332.03	3545.31
332.258	3644.31
332.486	3848.31
332.715	4382.31
332.943	5450.31
333.172	6949.31
333.4	6885.31
333.629	5165.31
333.857	4580.31
334.085	4622.31
334.314	4894.31
334.542	5248.31
334.771	6256.31
334.999	7713.31
335.227	9800.31
335.455	10908.31
335.684	9740.31
335.912	8037.31
336.14	6658.31
336.369	5892.31
336.597	5443.31
336.825	4874.31
337.053	4621.31
337.281	4374.31
337.51	4108.31
337.738	3953.31
337.966	3753.31
338.194	3627.31
338.422	3522.31
338.65	3426.31
338.878	3372.31
339.106	3314.31
339.334	3222.31
339.562	3158.31
339.79	3079.31
340.018	3054.31
340.246	3063.31
340.474	3075.31
340.702	3063.31
340.93	3011.31
341.158	3079.31
341.386	3021.31
341.614	3033.31
341.842	2950.31
342.07	2889.31
342.298	2854.31
342.526	2800.31
342.754	2740.31
342.981	2689.31
343.209	2729.31
343.437	2753.31
343.665	2748.31
343.893	2857.31
344.12	2852.31
344.348	2762.31
344.576	2714.31
344.804	2692.31
345.031	2691.31
345.259	2580.31
345.487	2615.31
345.714	2591.31
345.942	2561.31
346.17	2572.31
346.397	2547.31
346.625	2533.31
346.853	2498.31
347.08	2533.31
347.308	2502.31
347.535	2568.31
347.763	2506.31
347.99	2501.31
348.218	2518.31
348.445	2471.31
348.673	2473.31
348.9	2471.31
349.128	2438.31
349.355	2468.31
349.583	2463.31
349.81	2459.31
350.037	2442.31
350.265	2437.31
350.492	2395.31
350.72	2416.31
350.947	2378.31
351.174	2448.31
351.402	2450.31
351.629	2427.31
351.856	2405.31
352.083	2386.31
352.311	2427.31
352.538	2407.31
352.765	2380.31
352.992	2353.31
353.22	2348.31
353.447	2412.31
353.674	2352.31
353.901	2389.31
354.128	2370.31
354.355	2430.31
354.583	2431.31
354.81	2410.31
355.037	2454.31
355.264	2426.31
355.491	2483.31
355.718	2441.31
355.945	2466.31
356.172	2472.31
356.399	2491.31
356.626	2490.31
356.853	2530.31
357.08	2480.31
357.307	2544.31
357.534	2581.31
357.761	2600.31
357.988	2596.31
358.215	2554.31
358.441	2601.31
358.668	2559.31
358.895	2582.31
359.122	2538.31
359.349	2564.31
359.576	2550.31
359.802	2536.31
360.029	2537.31
360.256	2619.31
360.483	2560.31
360.709	2552.31
360.936	2582.31
361.163	2587.31
361.39	2563.31
361.616	2592.31
361.843	2545.31
362.07	2579.31
362.296	2595.31
362.523	2586.31
362.749	2583.31
362.976	2552.31
363.203	2540.31
363.429	2533.31
363.656	2517.31
363.882	2582.31
364.109	2570.31
364.335	2552.31
364.562	2544.31
364.788	2576.31
365.015	2606.31
365.241	2674.31
365.468	2830.31
365.694	2933.31
365.92	2916.31
366.147	2658.31
366.373	2644.31
366.599	2592.31
366.826	2580.31
367.052	2570.31
367.278	2664.31
367.505	2595.31
367.731	2616.31
367.957	2622.31
368.184	2660.31
368.41	2682.31
368.636	2733.31
368.862	2660.31
369.089	2672.31
369.315	2626.31
369.541	2727.31
369.767	2648.31
369.993	2660.31
370.219	2591.31
370.445	2645.31
370.672	2670.31
370.898	2650.31
371.124	2658.31
371.35	2734.31
371.576	2716.31
371.802	2747.31
372.028	2762.31
372.254	2754.31
372.48	2765.31
372.706	2785.31
372.932	2808.31
373.158	2792.31
373.384	2810.31
373.61	2772.31
373.835	2800.31
374.061	2784.31
374.287	2847.31
374.513	2821.31
374.739	2885.31
374.965	2934.31
375.191	2834.31
375.416	2950.31
375.642	2858.31
375.868	2816.31
376.094	2800.31
376.319	2814.31
376.545	2741.31
376.771	2766.31
376.997	2727.31
377.222	2750.31
377.448	2728.31
377.674	2757.31
377.899	2675.31
378.125	2724.31
378.35	2722.31
378.576	2768.31
378.802	2798.31
379.027	2844.31
379.253	2888.31
379.478	3060.31
379.704	3670.31
379.929	5382.31
380.155	8384.31
380.38	9209.31
380.606	5568.31
380.831	3846.31
381.057	3316.31
381.282	3060.31
381.507	2877.31
381.733	2831.31
381.958	2729.31
382.184	2701.31
382.409	2731.31
382.634	2696.31
382.86	2740.31
383.085	2685.31
383.31	2681.31
383.535	2732.31
383.761	2666.31
383.986	2676.31
384.211	2728.31
384.436	2769.31
384.662	2810.31
384.887	2774.31
385.112	2747.31
385.337	2782.31
385.562	2796.31
385.787	2764.31
386.013	2805.31
386.238	2758.31
386.463	2780.31
386.688	2759.31
386.913	2725.31
387.138	2770.31
387.363	2801.31
387.588	2754.31
387.813	2747.31
388.038	2738.31
388.263	2731.31
388.488	2745.31
388.713	2769.31
388.938	2740.31
389.163	2729.31
389.387	2816.31
389.612	2751.31
389.837	2764.31
390.062	2742.31
390.287	2772.31
390.512	2762.31
390.736	2821.31
390.961	2929.31
391.186	2872.31
391.411	2893.31
391.636	2908.31
391.86	2952.31
392.085	2894.31
392.31	2906.31
392.534	2859.31
392.759	2887.31
392.984	2884.31
393.208	2869.31
393.433	2911.31
393.658	2830.31
393.882	2778.31
394.107	2789.31
394.331	2844.31
394.556	2855.31
394.78	2833.31
395.005	2816.31
395.229	2819.31
395.454	2877.31
395.678	2894.31
395.903	2894.31
396.127	2916.31
396.352	2884.31
396.576	2819.31
396.801	2834.31
397.025	2925.31
397.249	2905.31
397.474	2852.31
397.698	2937.31
397.922	2936.31
398.147	2958.31
398.371	2972.31
398.595	2981.31
398.82	3091.31
399.044	3203.31
399.268	3358.31
399.492	3490.31
399.717	3714.31
399.941	3677.31
400.165	3519.31
400.389	3394.31
400.613	3226.31
400.837	3145.31
401.062	3125.31
401.286	3087.31
401.51	3080.31
401.734	3089.31
401.958	3049.31
402.182	3075.31
402.406	3023.31
402.63	3016.31
402.854	3077.31
403.078	3094.31
403.302	3106.31
403.526	3190.31
403.75	3177.31
403.974	3149.31
404.198	3143.31
404.422	3157.31
404.645	3138.31
404.869	3153.31
405.093	3155.31
405.317	3122.31
405.541	3126.31
405.765	3245.31
405.988	3301.31
406.212	3273.31
406.436	3248.31
406.66	3260.31
406.883	3327.31
407.107	3354.31
407.331	3404.31
407.555	3477.31
407.778	3423.31
408.002	3382.31
408.226	3326.31
408.449	3402.31
408.673	3261.31
408.896	3241.31
409.12	3209.31
409.344	3242.31
409.567	3192.31
409.791	3199.31
410.014	3179.31
410.238	3144.31
410.461	3169.31
410.685	3140.31
410.908	3110.31
411.132	3080.31
411.355	3038.31
411.578	3041.31
411.802	3098.31
412.025	3004.31
412.249	3028.31
412.472	3085.31
412.695	3045.31
412.919	2976.31
413.142	2945.31
413.365	3030.31
413.589	3005.31
413.812	2955.31
414.035	2994.31
414.258	3018.31
414.482	2964.31
414.705	3013.31
414.928	2984.31
415.151	2956.31
415.374	2936.31
415.597	2931.31
415.821	2860.31
416.044	2849.31
416.267	2917.31
416.49	2928.31
416.713	2860.31
416.936	2846.31
417.159	2858.31
417.382	2788.31
417.605	2826.31
417.828	2808.31
418.051	2830.31
418.274	2965.31
418.497	2910.31
418.72	2950.31
418.943	2904.31
419.166	3052.31
419.389	3152.31
419.611	3166.31
419.834	3072.31
420.057	3011.31
420.28	2953.31
420.503	2872.31
420.726	2854.31
420.948	2887.31
421.171	2838.31
421.394	2909.31
421.617	2866.31
421.839	2921.31
422.062	2890.31
422.285	2827.31
422.507	2896.31
422.73	2968.31
422.953	2964.31
423.175	3024.31
423.398	2950.31
423.621	2886.31
423.843	2941.31
424.066	2860.31
424.288	2870.31
424.511	2896.31
424.733	2857.31
424.956	2848.31
425.178	2839.31
425.401	2752.31
425.623	2828.31
425.846	2810.31
426.068	2786.31
426.291	2789.31
426.513	2797.31
426.735	2742.31
426.958	2731.31
427.18	2728.31
427.402	2739.31
427.625	2739.31
427.847	2670.31
428.069	2636.31
428.292	2709.31
428.514	2676.31
428.736	2659.31
428.958	2684.31
429.181	2656.31
429.403	2620.31
429.625	2605.31
429.847	2656.31
430.069	2728.31
430.292	2844.31
430.514	2859.31
430.736	2832.31
430.958	2739.31
431.18	2660.31
431.402	2661.31
431.624	2616.31
431.846	2638.31
432.068	2634.31
432.29	2673.31
432.512	2621.31
432.734	2658.31
432.956	2555.31
433.178	2672.31
433.4	2615.31
433.622	2680.31
433.844	2672.31
434.066	2684.31
434.287	2646.31
434.509	2640.31
434.731	2693.31
434.953	2720.31
435.175	2739.31
435.397	2705.31
435.618	2687.31
435.84	2651.31
436.062	2612.31
436.284	2594.31
436.505	2627.31
436.727	2614.31
436.949	2612.31
437.17	2628.31
437.392	2579.31
437.614	2620.31
437.835	2528.31
438.057	2562.31
438.278	2505.31
438.5	2591.31
438.721	2618.31
438.943	2692.31
439.165	2762.31
439.386	2743.31
439.608	2776.31
439.829	2771.31
440.05	2848.31
440.272	2915.31
440.493	2771.31
440.715	2717.31
440.936	2736.31
441.158	2793.31
441.379	2802.31
441.6	2886.31
441.822	2957.31
442.043	3125.31
442.264	3204.31
442.486	3022.31
442.707	2902.31
442.928	2823.31
443.149	2841.31
443.371	2829.31
443.592	2838.31
443.813	2827.31
444.034	2846.31
444.255	2885.31
444.476	2912.31
444.698	2977.31
444.919	3035.31
445.14	3057.31
445.361	2980.31
445.582	2878.31
445.803	2830.31
446.024	2794.31
446.245	2826.31
446.466	2837.31
446.687	2740.31
446.908	2760.31
447.129	2685.31
447.35	2655.31
447.571	2640.31
447.792	2554.31
448.013	2653.31
448.234	2618.31
448.455	2556.31
448.675	2668.31
448.896	2715.31
449.117	2807.31
449.338	3032.31
449.559	3242.31
449.779	2873.31
450	2655.31
450.221	2572.31
450.442	2594.31
450.662	2568.31
450.883	2540.31
451.104	2540.31
451.324	2546.31
451.545	2566.31
451.766	2580.31
451.986	2604.31
452.207	2836.31
452.428	3742.31
452.648	5778.31
452.869	4836.31
453.089	3275.31
453.31	3083.31
453.53	3038.31
453.751	3083.31
453.971	3301.31
454.192	3245.31
454.412	2760.31
454.633	2573.31
454.853	2515.31
455.073	2472.31
455.294	2505.31
455.514	2456.31
455.734	2459.31
455.955	2410.31
456.175	2454.31
456.395	2438.31
456.616	2436.31
456.836	2449.31
457.056	2518.31
457.276	2497.31
457.497	2649.31
457.717	2690.31
457.937	2573.31
458.157	2548.31
458.377	2547.31
458.598	2544.31
458.818	2616.31
459.038	2594.31
459.258	2557.31
459.478	2646.31
459.698	2676.31
459.918	2716.31
460.138	2712.31
460.358	2793.31
460.578	2808.31
460.798	2848.31
461.018	2816.31
461.238	2921.31
461.458	2859.31
461.678	2903.31
461.898	3025.31
462.118	2998.31
462.338	3066.31
462.558	3116.31
462.777	3126.31
462.997	3292.31
463.217	3392.31
463.437	3506.31
463.657	3628.31
463.876	3611.31
464.096	3373.31
464.316	3224.31
464.536	3184.31
464.755	3076.31
464.975	3021.31
465.195	2942.31
465.414	2876.31
465.634	2729.31
465.854	2764.31
466.073	2701.31
466.293	2669.31
466.512	2680.31
466.732	2712.31
466.951	2860.31
467.171	3091.31
467.391	3005.31
467.61	2784.31
467.829	2650.31
468.049	2623.31
468.268	2572.31
468.488	2585.31
468.707	2636.31
468.927	2627.31
469.146	2547.31
469.365	2617.31
469.585	2653.31
469.804	2723.31
470.023	2770.31
470.243	2857.31
470.462	2909.31
470.681	3088.31
470.901	3344.31
471.12	3945.31
471.339	3928.31
471.558	3224.31
471.777	2945.31
471.997	2845.31
472.216	2708.31
472.435	2692.31
472.654	2647.31
472.873	2627.31
473.092	2630.31
473.311	2654.31
473.53	2689.31
473.749	2748.31
473.968	2821.31
474.187	2730.31
474.406	2610.31
474.625	2634.31
474.844	2645.31
475.063	2647.31
475.282	2641.31
475.501	2617.31
475.72	2680.31
475.939	2658.31
476.158	2752.31
476.377	2788.31
476.596	2753.31
476.814	2740.31
477.033	2804.31
477.252	2825.31
477.471	2848.31
477.69	2890.31
477.908	2936.31
478.127	3012.31
478.346	2959.31
478.564	3033.31
478.783	3080.31
479.002	3096.31
479.22	3095.31
479.439	3168.31
479.658	3088.31
479.876	3134.31
480.095	3175.31
480.313	3255.31
480.532	3240.31
480.751	3197.31
480.969	3178.31
481.188	3167.31
481.406	3137.31
481.624	3178.31
481.843	3200.31
482.061	3206.31
482.28	3227.31
482.498	3176.31
482.717	3128.31
482.935	3224.31
483.153	3240.31
483.372	3270.31
483.59	3306.31
483.808	3406.31
484.027	3510.31
484.245	3719.31
484.463	4186.31
484.681	4724.31
484.9	4264.31
485.118	3885.31
485.336	3821.31
485.554	3867.31
485.772	4150.31
485.99	4716.31
486.209	5045.31
486.427	4285.31
486.645	3700.31
486.863	3608.31
487.081	3552.31
487.299	3478.31
487.517	3407.31
