Data from SnStandardFlinnAPT0064_QswitchEnergy10_LIBS07252019.E.O._I.C._HRD10591_15-27-20-973.txt Node
Date: Thu Jul 25 15:27:20 EDT 2019
User: cochatt
Spectrometer: HR+D1059
Trigger mode: 1
Integration Time (sec): 1.000000E-1
Scans to average: 1
Electric dark correction enabled: true
Nonlinearity correction enabled: false
Boxcar width: 0
XAxis mode: Wavelengths
Number of Pixels in Spectrum: 2048
>>>>>Begin Spectral Data<<<<<
223.165	-18.56
223.4	-18.56
223.635	-18.56
223.869	-16.56
224.104	-14.56
224.338	-16.56
224.573	-2.56
224.808	-15.56
225.042	-2.56
225.277	-13.56
225.511	-8.56
225.746	3.44
225.98	1.44
226.215	6.44
226.449	8.44
226.683	27.44
226.918	31.44
227.152	30.44
227.387	50.44
227.621	35.44
227.856	35.44
228.09	48.44
228.324	59.44
228.559	58.44
228.793	72.44
229.027	57.44
229.262	71.44
229.496	69.44
229.73	75.44
229.964	76.44
230.199	77.44
230.433	72.44
230.667	74.44
230.901	74.44
231.136	70.44
231.37	72.44
231.604	86.44
231.838	102.44
232.072	110.44
232.306	104.44
232.541	93.44
232.775	74.44
233.009	73.44
233.243	99.44
233.477	93.44
233.711	102.44
233.945	91.44
234.179	88.44
234.413	83.44
234.647	88.44
234.881	84.44
235.115	87.44
235.349	83.44
235.583	95.44
235.817	118.44
236.051	123.44
236.285	87.44
236.519	79.44
236.753	85.44
236.987	88.44
237.221	100.44
237.455	71.44
237.689	77.44
237.922	97.44
238.156	89.44
238.39	84.44
238.624	75.44
238.858	85.44
239.091	72.44
239.325	77.44
239.559	76.44
239.793	81.44
240.027	69.44
240.26	83.44
240.494	64.44
240.728	83.44
240.961	88.44
241.195	89.44
241.429	92.44
241.662	87.44
241.896	89.44
242.13	89.44
242.363	129.44
242.597	158.44
242.83	126.44
243.064	130.44
243.298	156.44
243.531	157.44
243.765	88.44
243.998	74.44
244.232	88.44
244.465	79.44
244.699	77.44
244.932	96.44
245.166	73.44
245.399	78.44
245.633	84.44
245.866	88.44
246.099	91.44
246.333	74.44
246.566	77.44
246.8	72.44
247.033	80.44
247.266	75.44
247.5	89.44
247.733	76.44
247.966	79.44
248.2	100.44
248.433	105.44
248.666	106.44
248.899	107.44
249.133	92.44
249.366	84.44
249.599	103.44
249.832	112.44
250.066	117.44
250.299	88.44
250.532	94.44
250.765	85.44
250.998	87.44
251.231	87.44
251.465	85.44
251.698	85.44
251.931	87.44
252.164	87.44
252.397	85.44
252.63	90.44
252.863	89.44
253.096	80.44
253.329	92.44
253.562	95.44
253.795	77.44
254.028	82.44
254.261	82.44
254.494	101.44
254.727	113.44
254.96	152.44
255.193	141.44
255.426	87.44
255.659	84.44
255.892	85.44
256.124	85.44
256.357	95.44
256.59	78.44
256.823	92.44
257.056	106.44
257.289	124.44
257.521	163.44
257.754	116.44
257.987	97.44
258.22	80.44
258.452	82.44
258.685	84.44
258.918	86.44
259.151	84.44
259.383	95.44
259.616	129.44
259.849	131.44
260.081	108.44
260.314	84.44
260.547	79.44
260.779	93.44
261.012	101.44
261.244	90.44
261.477	82.44
261.71	88.44
261.942	82.44
262.175	85.44
262.407	87.44
262.64	94.44
262.872	77.44
263.105	86.44
263.337	92.44
263.57	81.44
263.802	91.44
264.035	105.44
264.267	85.44
264.499	78.44
264.732	83.44
264.964	87.44
265.197	94.44
265.429	92.44
265.661	98.44
265.894	84.44
266.126	134.44
266.358	146.44
266.591	136.44
266.823	100.44
267.055	87.44
267.287	85.44
267.52	97.44
267.752	78.44
267.984	92.44
268.216	92.44
268.448	93.44
268.681	93.44
268.913	104.44
269.145	95.44
269.377	97.44
269.609	93.44
269.841	102.44
270.073	87.44
270.306	123.44
270.538	179.44
270.77	299.44
271.002	357.44
271.234	168.44
271.466	106.44
271.698	87.44
271.93	99.44
272.162	98.44
272.394	90.44
272.626	97.44
272.858	83.44
273.09	93.44
273.322	88.44
273.553	75.44
273.785	84.44
274.017	95.44
274.249	80.44
274.481	86.44
274.713	95.44
274.945	89.44
275.176	93.44
275.408	82.44
275.64	74.44
275.872	101.44
276.104	85.44
276.335	103.44
276.567	104.44
276.799	93.44
277.031	95.44
277.262	113.44
277.494	103.44
277.726	135.44
277.957	145.44
278.189	218.44
278.421	212.44
278.652	169.44
278.884	162.44
279.115	124.44
279.347	104.44
279.579	93.44
279.81	104.44
280.042	96.44
280.273	104.44
280.505	101.44
280.736	111.44
280.968	125.44
281.199	143.44
281.431	202.44
281.662	227.44
281.894	147.44
282.125	99.44
282.356	102.44
282.588	108.44
282.819	107.44
283.051	125.44
283.282	147.44
283.513	167.44
283.745	289.44
283.976	506.44
284.207	675.44
284.439	541.44
284.67	230.44
284.901	222.44
285.132	286.44
285.364	327.44
285.595	191.44
285.826	156.44
286.057	210.44
286.288	357.44
286.52	550.44
286.751	442.44
286.982	160.44
287.213	127.44
287.444	105.44
287.675	99.44
287.906	114.44
288.138	107.44
288.369	90.44
288.6	96.44
288.831	97.44
289.062	114.44
289.293	96.44
289.524	80.44
289.755	95.44
289.986	99.44
290.217	96.44
290.448	86.44
290.679	98.44
290.91	118.44
291.141	141.44
291.371	201.44
291.602	223.44
291.833	167.44
292.064	107.44
292.295	105.44
292.526	82.44
292.757	92.44
292.987	99.44
293.218	95.44
293.449	93.44
293.68	93.44
293.91	97.44
294.141	96.44
294.372	96.44
294.603	88.44
294.833	93.44
295.064	99.44
295.295	81.44
295.525	91.44
295.756	91.44
295.987	102.44
296.217	93.44
296.448	82.44
296.679	103.44
296.909	98.44
297.14	92.44
297.37	101.44
297.601	101.44
297.831	93.44
298.062	87.44
298.292	87.44
298.523	102.44
298.753	105.44
298.984	111.44
299.214	99.44
299.445	117.44
299.675	127.44
299.905	113.44
300.136	117.44
300.366	157.44
300.597	236.44
300.827	387.44
301.057	600.44
301.288	563.44
301.518	235.44
301.748	138.44
301.979	124.44
302.209	124.44
302.439	124.44
302.669	157.44
302.9	239.44
303.13	420.44
303.36	727.44
303.59	1043.44
303.82	722.44
304.051	261.44
304.281	152.44
304.511	124.44
304.741	97.44
304.971	95.44
305.201	110.44
305.431	107.44
305.661	105.44
305.891	105.44
306.121	104.44
306.352	106.44
306.582	100.44
306.812	97.44
307.042	113.44
307.272	103.44
307.502	100.44
307.731	105.44
307.961	114.44
308.191	102.44
308.421	98.44
308.651	91.44
308.881	101.44
309.111	112.44
309.341	86.44
309.571	104.44
309.8	94.44
310.03	103.44
310.26	106.44
310.49	95.44
310.72	105.44
310.949	105.44
311.179	108.44
311.409	100.44
311.639	96.44
311.868	117.44
312.098	119.44
312.328	112.44
312.557	111.44
312.787	99.44
313.017	101.44
313.246	104.44
313.476	106.44
313.706	117.44
313.935	148.44
314.165	171.44
314.394	191.44
314.624	167.44
314.853	101.44
315.083	111.44
315.312	119.44
315.542	128.44
315.771	133.44
316.001	128.44
316.23	135.44
316.46	130.44
316.689	173.44
316.919	241.44
317.148	426.44
317.377	783.44
317.607	1263.44
317.836	1206.44
318.065	460.44
318.295	201.44
318.524	149.44
318.753	118.44
318.983	131.44
319.212	117.44
319.441	111.44
319.67	113.44
319.9	107.44
320.129	113.44
320.358	107.44
320.587	105.44
320.816	109.44
321.046	122.44
321.275	111.44
321.504	127.44
321.733	135.44
321.962	141.44
322.191	145.44
322.42	123.44
322.649	127.44
322.878	113.44
323.108	116.44
323.337	109.44
323.566	117.44
323.795	105.44
324.024	107.44
324.253	128.44
324.482	160.44
324.71	208.44
324.939	245.44
325.168	211.44
325.397	182.44
325.626	216.44
325.855	422.44
326.084	812.44
326.313	1370.44
326.542	1350.44
326.77	511.44
326.999	232.44
327.228	189.44
327.457	177.44
327.686	196.44
327.914	162.44
328.143	128.44
328.372	117.44
328.6	114.44
328.829	108.44
329.058	113.44
329.287	123.44
329.515	116.44
329.744	107.44
329.972	119.44
330.201	121.44
330.43	121.44
330.658	103.44
330.887	113.44
331.115	104.44
331.344	113.44
331.572	113.44
331.801	120.44
332.03	128.44
332.258	134.44
332.486	172.44
332.715	281.44
332.943	459.44
333.172	659.44
333.4	593.44
333.629	225.44
333.857	130.44
334.085	122.44
334.314	135.44
334.542	125.44
334.771	118.44
334.999	108.44
335.227	108.44
335.455	123.44
335.684	123.44
335.912	116.44
336.14	112.44
336.369	113.44
336.597	117.44
336.825	98.44
337.053	122.44
337.281	115.44
337.51	106.44
337.738	113.44
337.966	93.44
338.194	100.44
338.422	105.44
338.65	111.44
338.878	115.44
339.106	87.44
339.334	113.44
339.562	105.44
339.79	109.44
340.018	109.44
340.246	118.44
340.474	119.44
340.702	128.44
340.93	108.44
341.158	106.44
341.386	121.44
341.614	123.44
341.842	113.44
342.07	117.44
342.298	107.44
342.526	114.44
342.754	110.44
342.981	107.44
343.209	103.44
343.437	105.44
343.665	99.44
343.893	97.44
344.12	110.44
344.348	113.44
344.576	120.44
344.804	115.44
345.031	105.44
345.259	87.44
345.487	106.44
345.714	112.44
345.942	100.44
346.17	118.44
346.397	108.44
346.625	103.44
346.853	103.44
347.08	105.44
347.308	104.44
347.535	107.44
347.763	93.44
347.99	103.44
348.218	120.44
348.445	101.44
348.673	104.44
348.9	116.44
349.128	115.44
349.355	114.44
349.583	101.44
349.81	105.44
350.037	117.44
350.265	116.44
350.492	106.44
350.72	109.44
350.947	104.44
351.174	112.44
351.402	113.44
351.629	89.44
351.856	103.44
352.083	110.44
352.311	107.44
352.538	93.44
352.765	111.44
352.992	109.44
353.22	100.44
353.447	100.44
353.674	92.44
353.901	92.44
354.128	101.44
354.355	100.44
354.583	98.44
354.81	106.44
355.037	102.44
355.264	104.44
355.491	92.44
355.718	106.44
355.945	100.44
356.172	106.44
356.399	100.44
356.626	92.44
356.853	102.44
357.08	116.44
357.307	113.44
357.534	104.44
357.761	106.44
357.988	111.44
358.215	108.44
358.441	118.44
358.668	119.44
358.895	100.44
359.122	122.44
359.349	113.44
359.576	112.44
359.802	100.44
360.029	96.44
360.256	107.44
360.483	106.44
360.709	105.44
360.936	105.44
361.163	119.44
361.39	115.44
361.616	119.44
361.843	119.44
362.07	119.44
362.296	101.44
362.523	100.44
362.749	109.44
362.976	103.44
363.203	101.44
363.429	104.44
363.656	92.44
363.882	109.44
364.109	108.44
364.335	108.44
364.562	114.44
364.788	103.44
365.015	87.44
365.241	120.44
365.468	161.44
365.694	205.44
365.92	178.44
366.147	113.44
366.373	100.44
366.599	76.44
366.826	113.44
367.052	97.44
367.278	96.44
367.505	99.44
367.731	105.44
367.957	109.44
368.184	107.44
368.41	128.44
368.636	115.44
368.862	96.44
369.089	101.44
369.315	95.44
369.541	106.44
369.767	94.44
369.993	104.44
370.219	102.44
370.445	106.44
370.672	89.44
370.898	105.44
371.124	111.44
371.35	99.44
371.576	89.44
371.802	110.44
372.028	107.44
372.254	121.44
372.48	104.44
372.706	125.44
372.932	114.44
373.158	104.44
373.384	113.44
373.61	111.44
373.835	124.44
374.061	119.44
374.287	109.44
374.513	95.44
374.739	115.44
374.965	123.44
375.191	102.44
375.416	99.44
375.642	105.44
375.868	106.44
376.094	104.44
376.319	117.44
376.545	103.44
376.771	119.44
376.997	108.44
377.222	103.44
377.448	106.44
377.674	108.44
377.899	104.44
378.125	110.44
378.35	109.44
378.576	115.44
378.802	115.44
379.027	122.44
379.253	136.44
379.478	145.44
379.704	275.44
379.929	679.44
380.155	1357.44
380.38	1404.44
380.606	439.44
380.831	187.44
381.057	128.44
381.282	105.44
381.507	116.44
381.733	97.44
381.958	104.44
382.184	103.44
382.409	92.44
382.634	108.44
382.86	103.44
383.085	108.44
383.31	113.44
383.535	89.44
383.761	110.44
383.986	102.44
384.211	105.44
384.436	90.44
384.662	103.44
384.887	93.44
385.112	92.44
385.337	85.44
385.562	85.44
385.787	85.44
386.013	110.44
386.238	105.44
386.463	101.44
386.688	103.44
386.913	117.44
387.138	112.44
387.363	94.44
387.588	97.44
387.813	114.44
388.038	87.44
388.263	100.44
388.488	110.44
388.713	102.44
388.938	82.44
389.163	97.44
389.387	103.44
389.612	90.44
389.837	99.44
390.062	87.44
390.287	96.44
390.512	99.44
390.736	99.44
390.961	85.44
391.186	90.44
391.411	90.44
391.636	91.44
391.86	98.44
392.085	83.44
392.31	100.44
392.534	102.44
392.759	104.44
392.984	110.44
393.208	103.44
393.433	122.44
393.658	119.44
393.882	107.44
394.107	86.44
394.331	98.44
394.556	95.44
394.78	114.44
395.005	92.44
395.229	93.44
395.454	89.44
395.678	91.44
395.903	116.44
396.127	99.44
396.352	91.44
396.576	104.44
396.801	111.44
397.025	108.44
397.249	100.44
397.474	95.44
397.698	87.44
397.922	105.44
398.147	97.44
398.371	92.44
398.595	88.44
398.82	104.44
399.044	104.44
399.268	95.44
399.492	107.44
399.717	95.44
399.941	87.44
400.165	92.44
400.389	91.44
400.613	101.44
400.837	88.44
401.062	92.44
401.286	90.44
401.51	92.44
401.734	98.44
401.958	111.44
402.182	95.44
402.406	81.44
402.63	107.44
402.854	102.44
403.078	107.44
403.302	98.44
403.526	87.44
403.75	98.44
403.974	92.44
404.198	102.44
404.422	98.44
404.645	101.44
404.869	111.44
405.093	113.44
405.317	95.44
405.541	95.44
405.765	105.44
405.988	125.44
406.212	107.44
406.436	95.44
406.66	96.44
406.883	89.44
407.107	93.44
407.331	98.44
407.555	101.44
407.778	87.44
408.002	103.44
408.226	80.44
408.449	102.44
408.673	112.44
408.896	106.44
409.12	86.44
409.344	107.44
409.567	101.44
409.791	93.44
410.014	94.44
410.238	104.44
410.461	106.44
410.685	97.44
410.908	111.44
411.132	102.44
411.355	93.44
411.578	95.44
411.802	92.44
412.025	95.44
412.249	107.44
412.472	102.44
412.695	93.44
412.919	103.44
413.142	95.44
413.365	99.44
413.589	102.44
413.812	90.44
414.035	92.44
414.258	94.44
414.482	100.44
414.705	91.44
414.928	109.44
415.151	104.44
415.374	89.44
415.597	108.44
415.821	89.44
416.044	92.44
416.267	95.44
416.49	85.44
416.713	87.44
416.936	85.44
417.159	99.44
417.382	87.44
417.605	90.44
417.828	92.44
418.051	96.44
418.274	84.44
418.497	93.44
418.72	87.44
418.943	98.44
419.166	93.44
419.389	105.44
419.611	108.44
419.834	99.44
420.057	95.44
420.28	104.44
420.503	106.44
420.726	109.44
420.948	92.44
421.171	85.44
421.394	93.44
421.617	86.44
421.839	88.44
422.062	94.44
422.285	90.44
422.507	99.44
422.73	107.44
422.953	120.44
423.175	108.44
423.398	77.44
423.621	101.44
423.843	97.44
424.066	83.44
424.288	83.44
424.511	105.44
424.733	81.44
424.956	103.44
425.178	95.44
425.401	84.44
425.623	99.44
425.846	93.44
426.068	89.44
426.291	91.44
426.513	91.44
426.735	98.44
426.958	97.44
427.18	100.44
427.402	103.44
427.625	96.44
427.847	98.44
428.069	108.44
428.292	105.44
428.514	97.44
428.736	107.44
428.958	100.44
429.181	79.44
429.403	87.44
429.625	102.44
429.847	95.44
430.069	99.44
430.292	101.44
430.514	101.44
430.736	89.44
430.958	92.44
431.18	87.44
431.402	79.44
431.624	104.44
431.846	101.44
432.068	89.44
432.29	101.44
432.512	76.44
432.734	87.44
432.956	100.44
433.178	103.44
433.4	95.44
433.622	89.44
433.844	84.44
434.066	100.44
434.287	98.44
434.509	103.44
434.731	89.44
434.953	98.44
435.175	96.44
435.397	97.44
435.618	90.44
435.84	95.44
436.062	88.44
436.284	83.44
436.505	100.44
436.727	100.44
436.949	107.44
437.17	98.44
437.392	98.44
437.614	93.44
437.835	93.44
438.057	82.44
438.278	103.44
438.5	93.44
438.721	101.44
438.943	93.44
439.165	92.44
439.386	105.44
439.608	99.44
439.829	95.44
440.05	104.44
440.272	120.44
440.493	99.44
440.715	100.44
440.936	93.44
441.158	101.44
441.379	103.44
441.6	101.44
441.822	106.44
442.043	116.44
442.264	117.44
442.486	108.44
442.707	82.44
442.928	90.44
443.149	99.44
443.371	96.44
443.592	105.44
443.813	109.44
444.034	100.44
444.255	92.44
444.476	94.44
444.698	92.44
444.919	86.44
445.14	182.44
445.361	129.44
445.582	87.44
445.803	84.44
446.024	94.44
446.245	96.44
446.466	100.44
446.687	99.44
446.908	93.44
447.129	77.44
447.35	73.44
447.571	98.44
447.792	87.44
448.013	91.44
448.234	89.44
448.455	88.44
448.675	94.44
448.896	87.44
449.117	111.44
449.338	114.44
449.559	151.44
449.779	125.44
450	100.44
450.221	106.44
450.442	103.44
450.662	109.44
450.883	106.44
451.104	113.44
451.324	120.44
451.545	100.44
451.766	116.44
451.986	115.44
452.207	184.44
452.428	476.44
452.648	1095.44
452.869	619.44
453.089	182.44
453.31	116.44
453.53	118.44
453.751	140.44
453.971	156.44
454.192	147.44
454.412	114.44
454.633	116.44
454.853	90.44
455.073	85.44
455.294	92.44
455.514	77.44
455.734	84.44
455.955	89.44
456.175	84.44
456.395	93.44
456.616	86.44
456.836	94.44
457.056	92.44
457.276	107.44
457.497	117.44
457.717	129.44
457.937	99.44
458.157	99.44
458.377	100.44
458.598	80.44
458.818	74.44
459.038	92.44
459.258	96.44
459.478	88.44
459.698	77.44
459.918	83.44
460.138	82.44
460.358	107.44
460.578	104.44
460.798	107.44
461.018	87.44
461.238	94.44
461.458	78.44
461.678	101.44
461.898	108.44
462.118	105.44
462.338	103.44
462.558	86.44
462.777	98.44
462.997	84.44
463.217	99.44
463.437	132.44
463.657	175.44
463.876	164.44
464.096	94.44
464.316	97.44
464.536	99.44
464.755	86.44
464.975	90.44
465.195	100.44
465.414	104.44
465.634	107.44
465.854	105.44
466.073	83.44
466.293	91.44
466.512	101.44
466.732	96.44
466.951	103.44
467.171	127.44
467.391	129.44
467.61	105.44
467.829	105.44
468.049	99.44
468.268	92.44
468.488	102.44
468.707	86.44
468.927	102.44
469.146	91.44
469.365	90.44
469.585	92.44
469.804	99.44
470.023	95.44
470.243	97.44
470.462	102.44
470.681	93.44
470.901	122.44
471.12	179.44
471.339	215.44
471.558	112.44
471.777	99.44
471.997	92.44
472.216	105.44
472.435	102.44
472.654	105.44
472.873	103.44
473.092	91.44
473.311	91.44
473.53	91.44
473.749	101.44
473.968	96.44
474.187	89.44
474.406	81.44
474.625	92.44
474.844	100.44
475.063	86.44
475.282	93.44
475.501	90.44
475.72	112.44
475.939	83.44
476.158	87.44
476.377	87.44
476.596	85.44
476.814	96.44
477.033	93.44
477.252	91.44
477.471	83.44
477.69	101.44
477.908	102.44
478.127	107.44
478.346	93.44
478.564	92.44
478.783	97.44
479.002	102.44
479.22	92.44
479.439	98.44
479.658	112.44
479.876	96.44
480.095	72.44
480.313	87.44
480.532	92.44
480.751	98.44
480.969	81.44
481.188	91.44
481.406	83.44
481.624	94.44
481.843	109.44
482.061	119.44
482.28	105.44
482.498	92.44
482.717	93.44
482.935	91.44
483.153	105.44
483.372	98.44
483.59	88.44
483.808	102.44
484.027	91.44
484.245	111.44
484.463	160.44
484.681	213.44
484.9	141.44
485.118	114.44
485.336	101.44
485.554	88.44
485.772	106.44
485.99	169.44
486.209	236.44
486.427	151.44
486.645	107.44
486.863	106.44
487.081	100.44
487.299	88.44
487.517	105.44
487.735	93.44
487.953	107.44
488.171	102.44
488.389	100.44
488.607	85.44
488.825	91.44
489.043	96.44
489.261	82.44
489.479	95.44
489.696	114.44
489.914	85.44
490.132	92.44
490.35	112.44
490.568	100.44
490.786	99.44
491.003	101.44
491.221	114.44
491.439	112.44
491.657	107.44
491.874	83.44
492.092	103.44
492.31	117.44
492.527	98.44
492.745	104.44
492.963	109.44
493.18	97.44
493.398	111.44
493.615	108.44
493.833	91.44
494.05	102.44
494.268	112.44
494.485	98.44
494.703	99.44
494.92	116.44
495.138	106.44
495.355	90.44
495.573	109.44
495.79	95.44
496.008	95.44
496.225	98.44
496.442	112.44
496.66	110.44
496.877	145.44
497.094	148.44
497.312	104.44
497.529	104.44
497.746	96.44
497.963	85.44
498.181	104.44
498.398	103.44
498.615	98.44
498.832	98.44
499.049	103.44
499.267	132.44
499.484	150.44
499.701	108.44
499.918	96.44
500.135	99.44
500.352	113.44
500.569	102.44
500.786	106.44
501.003	88.44
501.22	96.44
501.437	85.44
501.654	90.44
501.871	91.44
502.088	92.44
502.305	109.44
502.522	95.44
502.739	99.44
502.956	97.44
503.172	97.44
503.389	85.44
503.606	99.44
503.823	102.44
504.04	111.44
504.256	108.44
504.473	92.44
504.69	108.44
504.907	96.44
505.123	105.44
505.34	103.44
505.557	98.44
505.773	102.44
505.99	100.44
506.207	108.44
506.423	119.44
506.64	107.44
506.856	90.44
507.073	94.44
507.289	98.44
507.506	95.44
507.722	98.44
507.939	99.44
508.155	103.44
508.372	82.44
508.588	96.44
508.805	105.44
509.021	97.44
509.238	98.44
