Data from SnStandardFlinnAPT0064_LampEnergy10_LIBS07252019.E.O._I.C._HRD10591_15-21-13-493.txt Node
Date: Thu Jul 25 15:21:13 EDT 2019
User: cochatt
Spectrometer: HR+D1059
Trigger mode: 1
Integration Time (sec): 1.000000E-1
Scans to average: 1
Electric dark correction enabled: true
Nonlinearity correction enabled: false
Boxcar width: 0
XAxis mode: Wavelengths
Number of Pixels in Spectrum: 2048
>>>>>Begin Spectral Data<<<<<
223.165	-23.94
223.4	-23.94
223.635	-23.94
223.869	-22.94
224.104	-22.94
224.338	2.06
224.573	-0.94
224.808	-7.94
225.042	-1.94
225.277	-4.94
225.511	3.06
225.746	-12.94
225.98	6.06
226.215	8.06
226.449	6.06
226.683	25.06
226.918	16.06
227.152	32.06
227.387	27.06
227.621	37.06
227.856	32.06
228.09	46.06
228.324	68.06
228.559	61.06
228.793	149.06
229.027	292.06
229.262	318.06
229.496	289.06
229.73	306.06
229.964	290.06
230.199	290.06
230.433	324.06
230.667	311.06
230.901	325.06
231.136	329.06
231.37	356.06
231.604	374.06
231.838	432.06
232.072	494.06
232.306	566.06
232.541	509.06
232.775	401.06
233.009	402.06
233.243	422.06
233.477	450.06
233.711	524.06
233.945	574.06
234.179	518.06
234.413	444.06
234.647	463.06
234.881	486.06
235.115	505.06
235.349	594.06
235.583	773.06
235.817	967.06
236.051	960.06
236.285	642.06
236.519	520.06
236.753	502.06
236.987	504.06
237.221	562.06
237.455	507.06
237.689	477.06
237.922	443.06
238.156	460.06
238.39	468.06
238.624	494.06
238.858	468.06
239.091	490.06
239.325	488.06
239.559	507.06
239.793	488.06
240.027	514.06
240.26	542.06
240.494	554.06
240.728	579.06
240.961	597.06
241.195	634.06
241.429	675.06
241.662	686.06
241.896	788.06
242.13	923.06
242.363	1222.06
242.597	1547.06
242.83	1491.06
243.064	1491.06
243.298	1760.06
243.531	1448.06
243.765	945.06
243.998	756.06
244.232	704.06
244.465	668.06
244.699	645.06
244.932	670.06
245.166	662.06
245.399	651.06
245.633	652.06
245.866	699.06
246.099	687.06
246.333	674.06
246.566	639.06
246.8	662.06
247.033	644.06
247.266	674.06
247.5	662.06
247.733	664.06
247.966	723.06
248.2	771.06
248.433	847.06
248.666	970.06
248.899	918.06
249.133	847.06
249.366	886.06
249.599	955.06
249.832	1067.06
250.066	1046.06
250.299	859.06
250.532	768.06
250.765	745.06
250.998	738.06
251.231	733.06
251.465	739.06
251.698	738.06
251.931	746.06
252.164	757.06
252.397	772.06
252.63	766.06
252.863	819.06
253.096	784.06
253.329	762.06
253.562	784.06
253.795	771.06
254.028	828.06
254.261	829.06
254.494	894.06
254.727	1049.06
254.96	1234.06
255.193	1210.06
255.426	955.06
255.659	858.06
255.892	863.06
256.124	864.06
256.357	874.06
256.59	900.06
256.823	965.06
257.056	1117.06
257.289	1340.06
257.521	1428.06
257.754	1216.06
257.987	972.06
258.22	928.06
258.452	926.06
258.685	889.06
258.918	937.06
259.151	989.06
259.383	1067.06
259.616	1241.06
259.849	1270.06
260.081	1119.06
260.314	996.06
260.547	970.06
260.779	941.06
261.012	986.06
261.244	961.06
261.477	960.06
261.71	982.06
261.942	1010.06
262.175	1022.06
262.407	1032.06
262.64	1025.06
262.872	1122.06
263.105	1124.06
263.337	1183.06
263.57	1250.06
263.802	1316.06
264.035	1344.06
264.267	1370.06
264.499	1388.06
264.732	1450.06
264.964	1428.06
265.197	1403.06
265.429	1463.06
265.661	1492.06
265.894	1598.06
266.126	1755.06
266.358	2006.06
266.591	1906.06
266.823	1629.06
267.055	1459.06
267.287	1385.06
267.52	1349.06
267.752	1306.06
267.984	1290.06
268.216	1254.06
268.448	1263.06
268.681	1239.06
268.913	1234.06
269.145	1240.06
269.377	1237.06
269.609	1253.06
269.841	1255.06
270.073	1386.06
270.306	1563.06
270.538	2048.06
270.77	3108.06
271.002	3825.06
271.234	2785.06
271.466	1857.06
271.698	1535.06
271.93	1403.06
272.162	1326.06
272.394	1300.06
272.626	1266.06
272.858	1226.06
273.09	1204.06
273.322	1229.06
273.553	1185.06
273.785	1196.06
274.017	1209.06
274.249	1199.06
274.481	1233.06
274.713	1186.06
274.945	1218.06
275.176	1205.06
275.408	1203.06
275.64	1248.06
275.872	1232.06
276.104	1263.06
276.335	1264.06
276.567	1269.06
276.799	1280.06
277.031	1313.06
277.262	1320.06
277.494	1424.06
277.726	1556.06
277.957	1816.06
278.189	2114.06
278.421	1963.06
278.652	1768.06
278.884	1671.06
279.115	1505.06
279.347	1454.06
279.579	1417.06
279.81	1368.06
280.042	1356.06
280.273	1426.06
280.505	1424.06
280.736	1496.06
280.968	1578.06
281.199	1762.06
281.431	2048.06
281.662	2063.06
281.894	1762.06
282.125	1625.06
282.356	1659.06
282.588	1664.06
282.819	1740.06
283.051	1803.06
283.282	1977.06
283.513	2438.06
283.745	3510.06
283.976	5527.06
284.207	7771.06
284.439	7105.06
284.67	4564.06
284.901	3648.06
285.132	3658.06
285.364	3474.06
285.595	2661.06
285.826	2424.06
286.057	2778.06
286.288	3752.06
286.52	5002.06
286.751	4739.06
286.982	3042.06
287.213	2284.06
287.444	2056.06
287.675	1868.06
287.906	1833.06
288.138	1729.06
288.369	1696.06
288.6	1704.06
288.831	1686.06
289.062	1654.06
289.293	1681.06
289.524	1698.06
289.755	1706.06
289.986	1735.06
290.217	1724.06
290.448	1700.06
290.679	1776.06
290.91	1796.06
291.141	1889.06
291.371	2045.06
291.602	2109.06
291.833	1931.06
292.064	1753.06
292.295	1678.06
292.526	1660.06
292.757	1672.06
292.987	1593.06
293.218	1585.06
293.449	1605.06
293.68	1582.06
293.91	1586.06
294.141	1594.06
294.372	1583.06
294.603	1579.06
294.833	1594.06
295.064	1563.06
295.295	1560.06
295.525	1604.06
295.756	1537.06
295.987	1544.06
296.217	1572.06
296.448	1558.06
296.679	1610.06
296.909	1594.06
297.14	1612.06
297.37	1635.06
297.601	1666.06
297.831	1628.06
298.062	1624.06
298.292	1636.06
298.523	1715.06
298.753	1721.06
298.984	1706.06
299.214	1742.06
299.445	1769.06
299.675	1806.06
299.905	1842.06
300.136	1950.06
300.366	2121.06
300.597	2732.06
300.827	3746.06
301.057	5159.06
301.288	5143.06
301.518	3345.06
301.748	2562.06
301.979	2331.06
302.209	2274.06
302.439	2261.06
302.669	2466.06
302.9	2938.06
303.13	4056.06
303.36	5970.06
303.59	7938.06
303.82	6975.06
304.051	4214.06
304.281	3030.06
304.511	2514.06
304.741	2344.06
304.971	2222.06
305.201	2091.06
305.431	1968.06
305.661	1974.06
305.891	1918.06
306.121	1886.06
306.352	1905.06
306.582	1832.06
306.812	1820.06
307.042	1835.06
307.272	1841.06
307.502	1810.06
307.731	1865.06
307.961	1808.06
308.191	1859.06
308.421	1808.06
308.651	1832.06
308.881	1782.06
309.111	1817.06
309.341	1800.06
309.571	1836.06
309.8	1876.06
310.03	1857.06
310.26	1850.06
310.49	1828.06
310.72	1904.06
310.949	1864.06
311.179	1927.06
311.409	1918.06
311.639	1916.06
311.868	1967.06
312.098	1914.06
312.328	1945.06
312.557	1977.06
312.787	1972.06
313.017	1926.06
313.246	2003.06
313.476	1945.06
313.706	2128.06
313.935	2183.06
314.165	2402.06
314.394	2480.06
314.624	2295.06
314.853	2136.06
315.083	2119.06
315.312	2151.06
315.542	2196.06
315.771	2218.06
316.001	2206.06
316.23	2247.06
316.46	2424.06
316.689	2696.06
316.919	3189.06
317.148	4576.06
317.377	6876.06
317.607	10162.06
317.836	10578.06
318.065	6481.06
318.295	4311.06
318.524	3392.06
318.753	2979.06
318.983	2764.06
319.212	2580.06
319.441	2512.06
319.67	2489.06
319.9	2425.06
320.129	2378.06
320.358	2270.06
320.587	2319.06
320.816	2350.06
321.046	2360.06
321.275	2347.06
321.504	2418.06
321.733	2422.06
321.962	2532.06
322.191	2529.06
322.42	2537.06
322.649	2522.06
322.878	2480.06
323.108	2526.06
323.337	2602.06
323.566	2596.06
323.795	2642.06
324.024	2737.06
324.253	2725.06
324.482	2825.06
324.71	3016.06
324.939	3185.06
325.168	3286.06
325.397	3376.06
325.626	4044.06
325.855	5608.06
326.084	8501.06
326.313	12349.06
326.542	13287.06
326.77	8941.06
326.999	5893.06
327.228	4980.06
327.457	4782.06
327.686	4854.06
327.914	5174.06
328.143	6029.06
328.372	7102.06
328.6	7857.06
328.829	6996.06
329.058	5901.06
329.287	5132.06
329.515	4636.06
329.744	4324.06
329.972	4043.06
330.201	3923.06
330.43	3750.06
330.658	3586.06
330.887	3550.06
331.115	3476.06
331.344	3551.06
331.572	3482.06
331.801	3527.06
332.03	3516.06
332.258	3568.06
332.486	3799.06
332.715	4293.06
332.943	5190.06
333.172	6546.06
333.4	6456.06
333.629	4984.06
333.857	4536.06
334.085	4496.06
334.314	4746.06
334.542	5172.06
334.771	6110.06
334.999	7442.06
335.227	9311.06
335.455	10446.06
335.684	9445.06
335.912	7690.06
336.14	6550.06
336.369	5717.06
336.597	5292.06
336.825	4873.06
337.053	4563.06
337.281	4286.06
337.51	4070.06
337.738	3883.06
337.966	3735.06
338.194	3588.06
338.422	3488.06
338.65	3403.06
338.878	3328.06
339.106	3264.06
339.334	3252.06
339.562	3183.06
339.79	3134.06
340.018	3080.06
340.246	3085.06
340.474	3030.06
340.702	3075.06
340.93	3106.06
341.158	3081.06
341.386	3073.06
341.614	2992.06
341.842	2927.06
342.07	2858.06
342.298	2834.06
342.526	2784.06
342.754	2763.06
342.981	2767.06
343.209	2744.06
343.437	2787.06
343.665	2759.06
343.893	2823.06
344.12	2867.06
344.348	2836.06
344.576	2731.06
344.804	2782.06
345.031	2632.06
345.259	2639.06
345.487	2548.06
345.714	2552.06
345.942	2592.06
346.17	2586.06
346.397	2527.06
346.625	2579.06
346.853	2563.06
347.08	2520.06
347.308	2536.06
347.535	2548.06
347.763	2529.06
347.99	2497.06
348.218	2527.06
348.445	2449.06
348.673	2483.06
348.9	2464.06
349.128	2469.06
349.355	2506.06
349.583	2491.06
349.81	2422.06
350.037	2396.06
350.265	2402.06
350.492	2390.06
350.72	2410.06
350.947	2421.06
351.174	2399.06
351.402	2471.06
351.629	2409.06
351.856	2374.06
352.083	2395.06
352.311	2411.06
352.538	2376.06
352.765	2377.06
352.992	2368.06
353.22	2324.06
353.447	2364.06
353.674	2407.06
353.901	2398.06
354.128	2419.06
354.355	2407.06
354.583	2406.06
354.81	2436.06
355.037	2450.06
355.264	2447.06
355.491	2425.06
355.718	2452.06
355.945	2465.06
356.172	2506.06
356.399	2481.06
356.626	2502.06
356.853	2537.06
357.08	2510.06
357.307	2521.06
357.534	2566.06
357.761	2586.06
357.988	2610.06
358.215	2580.06
358.441	2593.06
358.668	2533.06
358.895	2558.06
359.122	2571.06
359.349	2550.06
359.576	2556.06
359.802	2522.06
360.029	2518.06
360.256	2563.06
360.483	2544.06
360.709	2595.06
360.936	2588.06
361.163	2592.06
361.39	2591.06
361.616	2588.06
361.843	2581.06
362.07	2545.06
362.296	2603.06
362.523	2603.06
362.749	2611.06
362.976	2565.06
363.203	2544.06
363.429	2518.06
363.656	2596.06
363.882	2575.06
364.109	2556.06
364.335	2475.06
364.562	2542.06
364.788	2540.06
365.015	2603.06
365.241	2635.06
365.468	2816.06
365.694	2912.06
365.92	2834.06
366.147	2634.06
366.373	2643.06
366.599	2634.06
366.826	2597.06
367.052	2614.06
367.278	2671.06
367.505	2660.06
367.731	2638.06
367.957	2659.06
368.184	2625.06
368.41	2676.06
368.636	2664.06
368.862	2678.06
369.089	2655.06
369.315	2648.06
369.541	2681.06
369.767	2695.06
369.993	2625.06
370.219	2656.06
370.445	2697.06
370.672	2682.06
370.898	2679.06
371.124	2755.06
371.35	2711.06
371.576	2734.06
371.802	2775.06
372.028	2754.06
372.254	2754.06
372.48	2749.06
372.706	2800.06
372.932	2786.06
373.158	2796.06
373.384	2818.06
373.61	2770.06
373.835	2833.06
374.061	2806.06
374.287	2800.06
374.513	2850.06
374.739	2945.06
374.965	2898.06
375.191	2877.06
375.416	2883.06
375.642	2849.06
375.868	2899.06
376.094	2819.06
376.319	2780.06
376.545	2839.06
376.771	2762.06
376.997	2729.06
377.222	2744.06
377.448	2708.06
377.674	2736.06
377.899	2670.06
378.125	2744.06
378.35	2736.06
378.576	2774.06
378.802	2797.06
379.027	2867.06
379.253	2906.06
379.478	3027.06
379.704	3590.06
379.929	5070.06
380.155	7744.06
380.38	8393.06
380.606	5223.06
380.831	3690.06
381.057	3257.06
381.282	2979.06
381.507	2843.06
381.733	2836.06
381.958	2729.06
382.184	2779.06
382.409	2723.06
382.634	2727.06
382.86	2652.06
383.085	2722.06
383.31	2716.06
383.535	2703.06
383.761	2711.06
383.986	2703.06
384.211	2773.06
384.436	2774.06
384.662	2768.06
384.887	2820.06
385.112	2781.06
385.337	2825.06
385.562	2720.06
385.787	2788.06
386.013	2828.06
386.238	2767.06
386.463	2766.06
386.688	2799.06
386.913	2743.06
387.138	2752.06
387.363	2764.06
387.588	2762.06
387.813	2835.06
388.038	2761.06
388.263	2790.06
388.488	2777.06
388.713	2778.06
388.938	2775.06
389.163	2780.06
389.387	2785.06
389.612	2762.06
389.837	2751.06
390.062	2770.06
390.287	2817.06
390.512	2795.06
390.736	2845.06
390.961	2864.06
391.186	2895.06
391.411	2938.06
391.636	2942.06
391.86	2930.06
392.085	2929.06
392.31	2882.06
392.534	2870.06
392.759	2894.06
392.984	2830.06
393.208	2794.06
393.433	2786.06
393.658	2806.06
393.882	2785.06
394.107	2761.06
394.331	2825.06
394.556	2793.06
394.78	2827.06
395.005	2853.06
395.229	2841.06
395.454	2898.06
395.678	2882.06
395.903	2942.06
396.127	2912.06
396.352	2883.06
396.576	2832.06
396.801	2872.06
397.025	2934.06
397.249	2972.06
397.474	2950.06
397.698	2935.06
397.922	3018.06
398.147	2966.06
398.371	3008.06
398.595	3033.06
398.82	3070.06
399.044	3238.06
399.268	3379.06
399.492	3538.06
399.717	3678.06
399.941	3661.06
400.165	3515.06
400.389	3440.06
400.613	3316.06
400.837	3136.06
401.062	3170.06
401.286	3158.06
401.51	3074.06
401.734	3041.06
401.958	3033.06
402.182	3074.06
402.406	3074.06
402.63	3097.06
402.854	3094.06
403.078	3158.06
403.302	3143.06
403.526	3156.06
403.75	3178.06
403.974	3234.06
404.198	3217.06
404.422	3168.06
404.645	3170.06
404.869	3181.06
405.093	3216.06
405.317	3179.06
405.541	3240.06
405.765	3261.06
405.988	3299.06
406.212	3320.06
406.436	3234.06
406.66	3362.06
406.883	3288.06
407.107	3365.06
407.331	3411.06
407.555	3525.06
407.778	3452.06
408.002	3435.06
408.226	3416.06
408.449	3414.06
408.673	3307.06
408.896	3265.06
409.12	3212.06
409.344	3239.06
409.567	3162.06
409.791	3226.06
410.014	3184.06
410.238	3121.06
410.461	3192.06
410.685	3148.06
410.908	3156.06
411.132	3153.06
411.355	3080.06
411.578	3088.06
411.802	3084.06
412.025	3082.06
412.249	3088.06
412.472	3076.06
412.695	3014.06
412.919	3018.06
413.142	3019.06
413.365	2991.06
413.589	3006.06
413.812	2998.06
414.035	2990.06
414.258	3016.06
414.482	3019.06
414.705	2981.06
414.928	3051.06
415.151	2982.06
415.374	3011.06
415.597	2967.06
415.821	2910.06
416.044	2895.06
416.267	2841.06
416.49	2889.06
416.713	2867.06
416.936	2893.06
417.159	2857.06
417.382	2810.06
417.605	2834.06
417.828	2900.06
418.051	2903.06
418.274	2893.06
418.497	2930.06
418.72	2987.06
418.943	2938.06
419.166	3050.06
419.389	3185.06
419.611	3225.06
419.834	3090.06
420.057	2992.06
420.28	2958.06
420.503	2870.06
420.726	2880.06
420.948	2883.06
421.171	2907.06
421.394	2878.06
421.617	2875.06
421.839	2903.06
422.062	2879.06
422.285	2891.06
422.507	3011.06
422.73	2922.06
422.953	2964.06
423.175	2974.06
423.398	2971.06
423.621	2885.06
423.843	2928.06
424.066	2896.06
424.288	2900.06
424.511	2859.06
424.733	2859.06
424.956	2878.06
425.178	2885.06
425.401	2848.06
425.623	2886.06
425.846	2758.06
426.068	2793.06
426.291	2775.06
426.513	2775.06
426.735	2739.06
426.958	2779.06
427.18	2714.06
427.402	2696.06
427.625	2728.06
427.847	2664.06
428.069	2619.06
428.292	2730.06
428.514	2704.06
428.736	2640.06
428.958	2722.06
429.181	2632.06
429.403	2696.06
429.625	2625.06
429.847	2691.06
430.069	2725.06
430.292	2762.06
430.514	2876.06
430.736	2866.06
430.958	2706.06
431.18	2649.06
431.402	2664.06
431.624	2583.06
431.846	2634.06
432.068	2590.06
432.29	2655.06
432.512	2631.06
432.734	2650.06
432.956	2660.06
433.178	2670.06
433.4	2661.06
433.622	2622.06
433.844	2686.06
434.066	2673.06
434.287	2656.06
434.509	2769.06
434.731	2768.06
434.953	2746.06
435.175	2835.06
435.397	2762.06
435.618	2704.06
435.84	2673.06
436.062	2616.06
436.284	2648.06
436.505	2588.06
436.727	2632.06
436.949	2655.06
437.17	2596.06
437.392	2612.06
437.614	2576.06
437.835	2544.06
438.057	2551.06
438.278	2571.06
438.5	2566.06
438.721	2652.06
438.943	2686.06
439.165	2743.06
439.386	2780.06
439.608	2754.06
439.829	2717.06
440.05	2842.06
440.272	2880.06
440.493	2686.06
440.715	2681.06
440.936	2734.06
441.158	2731.06
441.379	2776.06
441.6	2870.06
441.822	2934.06
442.043	3088.06
442.264	3161.06
442.486	2960.06
442.707	2942.06
442.928	2859.06
443.149	2794.06
443.371	2830.06
443.592	2858.06
443.813	2849.06
444.034	2868.06
444.255	2894.06
444.476	2940.06
444.698	3043.06
444.919	3013.06
445.14	3088.06
445.361	2969.06
445.582	2857.06
445.803	2841.06
446.024	2830.06
446.245	2759.06
446.466	2830.06
446.687	2788.06
446.908	2734.06
447.129	2697.06
447.35	2700.06
447.571	2682.06
447.792	2625.06
448.013	2612.06
448.234	2602.06
448.455	2608.06
448.675	2657.06
448.896	2670.06
449.117	2765.06
449.338	2993.06
449.559	3063.06
449.779	2773.06
450	2624.06
450.221	2548.06
450.442	2561.06
450.662	2514.06
450.883	2535.06
451.104	2530.06
451.324	2531.06
451.545	2538.06
451.766	2609.06
451.986	2642.06
452.207	2767.06
452.428	3538.06
452.648	5378.06
452.869	4462.06
453.089	3120.06
453.31	2971.06
453.53	3014.06
453.751	2956.06
453.971	3134.06
454.192	3071.06
454.412	2715.06
454.633	2601.06
454.853	2547.06
455.073	2505.06
455.294	2457.06
455.514	2412.06
455.734	2469.06
455.955	2414.06
456.175	2394.06
456.395	2400.06
456.616	2437.06
456.836	2484.06
457.056	2478.06
457.276	2483.06
457.497	2640.06
457.717	2639.06
457.937	2566.06
458.157	2609.06
458.377	2593.06
458.598	2602.06
458.818	2620.06
459.038	2636.06
459.258	2650.06
459.478	2656.06
459.698	2744.06
459.918	2729.06
460.138	2784.06
460.358	2850.06
460.578	2822.06
460.798	2846.06
461.018	2884.06
461.238	2908.06
461.458	2915.06
461.678	2855.06
461.898	3019.06
462.118	3014.06
462.338	3075.06
462.558	3110.06
462.777	3110.06
462.997	3274.06
463.217	3395.06
463.437	3537.06
463.657	3562.06
463.876	3582.06
464.096	3345.06
464.316	3218.06
464.536	3211.06
464.755	3076.06
464.975	3009.06
465.195	2909.06
465.414	2834.06
465.634	2746.06
465.854	2736.06
466.073	2703.06
466.293	2711.06
466.512	2642.06
466.732	2694.06
466.951	2823.06
467.171	3018.06
467.391	2948.06
467.61	2733.06
467.829	2624.06
468.049	2615.06
468.268	2542.06
468.488	2568.06
468.707	2562.06
468.927	2578.06
469.146	2606.06
469.365	2668.06
469.585	2619.06
469.804	2682.06
470.023	2767.06
470.243	2816.06
470.462	2926.06
470.681	3022.06
470.901	3331.06
471.12	3776.06
471.339	3744.06
471.558	3156.06
471.777	2888.06
471.997	2810.06
472.216	2684.06
472.435	2659.06
472.654	2606.06
472.873	2546.06
473.092	2652.06
473.311	2639.06
473.53	2610.06
473.749	2699.06
473.968	2837.06
474.187	2713.06
474.406	2561.06
474.625	2644.06
474.844	2629.06
475.063	2624.06
475.282	2638.06
475.501	2655.06
475.72	2679.06
475.939	2708.06
476.158	2726.06
476.377	2771.06
476.596	2766.06
476.814	2735.06
477.033	2770.06
477.252	2785.06
477.471	2879.06
477.69	2901.06
477.908	2917.06
478.127	2970.06
478.346	2978.06
478.564	3074.06
478.783	3086.06
479.002	3082.06
479.22	3155.06
479.439	3126.06
479.658	3160.06
479.876	3137.06
480.095	3157.06
480.313	3232.06
480.532	3265.06
480.751	3215.06
480.969	3203.06
481.188	3198.06
481.406	3219.06
481.624	3163.06
481.843	3202.06
482.061	3278.06
482.28	3142.06
482.498	3198.06
482.717	3156.06
482.935	3248.06
483.153	3246.06
483.372	3232.06
483.59	3288.06
483.808	3404.06
484.027	3400.06
484.245	3588.06
484.463	3995.06
484.681	4492.06
484.9	4116.06
485.118	3830.06
485.336	3763.06
485.554	3825.06
485.772	4018.06
485.99	4610.06
486.209	4865.06
486.427	4088.06
486.645	3658.06
486.863	3592.06
487.081	3453.06
487.299	3407.06
487.517	3426.06
487.735	3414.06
487.953	3441.06
