Data from SnStandardFlinnAPT0064_LampEnergy10_LIBS07252019.E.O._I.C._HRD10591_15-22-10-495.txt Node
Date: Thu Jul 25 15:22:10 EDT 2019
User: cochatt
Spectrometer: HR+D1059
Trigger mode: 1
Integration Time (sec): 1.000000E-1
Scans to average: 1
Electric dark correction enabled: true
Nonlinearity correction enabled: false
Boxcar width: 0
XAxis mode: Wavelengths
Number of Pixels in Spectrum: 2048
>>>>>Begin Spectral Data<<<<<
223.165	-29.75
223.4	-29.75
223.635	-29.75
223.869	-19.75
224.104	-13.75
224.338	-18.75
224.573	-19.75
224.808	-6.75
225.042	-6.75
225.277	-16.75
225.511	-5.75
225.746	-6.75
225.98	9.25
226.215	9.25
226.449	21.25
226.683	26.25
226.918	31.25
227.152	47.25
227.387	27.25
227.621	49.25
227.856	43.25
228.09	49.25
228.324	41.25
228.559	47.25
228.793	109.25
229.027	298.25
229.262	328.25
229.496	302.25
229.73	280.25
229.964	286.25
230.199	288.25
230.433	306.25
230.667	320.25
230.901	318.25
231.136	325.25
231.37	344.25
231.604	386.25
231.838	429.25
232.072	501.25
232.306	539.25
232.541	447.25
232.775	399.25
233.009	405.25
233.243	411.25
233.477	431.25
233.711	501.25
233.945	580.25
234.179	498.25
234.413	443.25
234.647	439.25
234.881	464.25
235.115	501.25
235.349	612.25
235.583	717.25
235.817	977.25
236.051	939.25
236.285	615.25
236.519	512.25
236.753	483.25
236.987	493.25
237.221	515.25
237.455	508.25
237.689	456.25
237.922	451.25
238.156	455.25
238.39	476.25
238.624	478.25
238.858	483.25
239.091	482.25
239.325	471.25
239.559	494.25
239.793	482.25
240.027	509.25
240.26	524.25
240.494	547.25
240.728	557.25
240.961	595.25
241.195	618.25
241.429	649.25
241.662	674.25
241.896	726.25
242.13	925.25
242.363	1218.25
242.597	1552.25
242.83	1459.25
243.064	1475.25
243.298	1719.25
243.531	1468.25
243.765	917.25
243.998	750.25
244.232	697.25
244.465	645.25
244.699	650.25
244.932	640.25
245.166	645.25
245.399	658.25
245.633	666.25
245.866	676.25
246.099	653.25
246.333	629.25
246.566	636.25
246.8	619.25
247.033	643.25
247.266	636.25
247.5	624.25
247.733	665.25
247.966	692.25
248.2	747.25
248.433	844.25
248.666	974.25
248.899	887.25
249.133	823.25
249.366	841.25
249.599	932.25
249.832	1036.25
250.066	1035.25
250.299	851.25
250.532	741.25
250.765	715.25
250.998	744.25
251.231	711.25
251.465	739.25
251.698	727.25
251.931	725.25
252.164	753.25
252.397	757.25
252.63	765.25
252.863	781.25
253.096	760.25
253.329	764.25
253.562	744.25
253.795	773.25
254.028	773.25
254.261	835.25
254.494	840.25
254.727	979.25
254.96	1196.25
255.193	1197.25
255.426	929.25
255.659	847.25
255.892	839.25
256.124	846.25
256.357	872.25
256.59	870.25
256.823	946.25
257.056	1084.25
257.289	1312.25
257.521	1446.25
257.754	1159.25
257.987	960.25
258.22	915.25
258.452	905.25
258.685	883.25
258.918	921.25
259.151	956.25
259.383	1056.25
259.616	1204.25
259.849	1253.25
260.081	1059.25
260.314	987.25
260.547	949.25
260.779	932.25
261.012	947.25
261.244	959.25
261.477	947.25
261.71	1003.25
261.942	986.25
262.175	1012.25
262.407	1020.25
262.64	1044.25
262.872	1079.25
263.105	1124.25
263.337	1195.25
263.57	1219.25
263.802	1274.25
264.035	1293.25
264.267	1336.25
264.499	1373.25
264.732	1390.25
264.964	1455.25
265.197	1393.25
265.429	1402.25
265.661	1449.25
265.894	1548.25
266.126	1750.25
266.358	1912.25
266.591	1903.25
266.823	1552.25
267.055	1441.25
267.287	1336.25
267.52	1289.25
267.752	1276.25
267.984	1275.25
268.216	1248.25
268.448	1260.25
268.681	1208.25
268.913	1216.25
269.145	1229.25
269.377	1188.25
269.609	1229.25
269.841	1261.25
270.073	1363.25
270.306	1572.25
270.538	2109.25
270.77	3075.25
271.002	3793.25
271.234	2689.25
271.466	1819.25
271.698	1487.25
271.93	1359.25
272.162	1271.25
272.394	1252.25
272.626	1233.25
272.858	1211.25
273.09	1249.25
273.322	1207.25
273.553	1190.25
273.785	1189.25
274.017	1201.25
274.249	1181.25
274.481	1169.25
274.713	1213.25
274.945	1170.25
275.176	1170.25
275.408	1222.25
275.64	1196.25
275.872	1213.25
276.104	1229.25
276.335	1244.25
276.567	1235.25
276.799	1247.25
277.031	1307.25
277.262	1294.25
277.494	1383.25
277.726	1501.25
277.957	1766.25
278.189	2073.25
278.421	1934.25
278.652	1703.25
278.884	1647.25
279.115	1455.25
279.347	1392.25
279.579	1359.25
279.81	1343.25
280.042	1374.25
280.273	1410.25
280.505	1423.25
280.736	1465.25
280.968	1534.25
281.199	1761.25
281.431	2039.25
281.662	2071.25
281.894	1752.25
282.125	1622.25
282.356	1606.25
282.588	1627.25
282.819	1659.25
283.051	1775.25
283.282	1919.25
283.513	2371.25
283.745	3456.25
283.976	5431.25
284.207	7729.25
284.439	7053.25
284.67	4341.25
284.901	3611.25
285.132	3652.25
285.364	3494.25
285.595	2636.25
285.826	2371.25
286.057	2760.25
286.288	3730.25
286.52	5043.25
286.751	4715.25
286.982	2935.25
287.213	2228.25
287.444	1957.25
287.675	1811.25
287.906	1768.25
288.138	1677.25
288.369	1637.25
288.6	1666.25
288.831	1659.25
289.062	1620.25
289.293	1660.25
289.524	1655.25
289.755	1697.25
289.986	1694.25
290.217	1715.25
290.448	1659.25
290.679	1702.25
290.91	1726.25
291.141	1830.25
291.371	1956.25
291.602	2079.25
291.833	1863.25
292.064	1721.25
292.295	1654.25
292.526	1620.25
292.757	1600.25
292.987	1595.25
293.218	1554.25
293.449	1545.25
293.68	1583.25
293.91	1589.25
294.141	1555.25
294.372	1537.25
294.603	1552.25
294.833	1523.25
295.064	1558.25
295.295	1561.25
295.525	1515.25
295.756	1577.25
295.987	1537.25
296.217	1523.25
296.448	1515.25
296.679	1560.25
296.909	1547.25
297.14	1561.25
297.37	1524.25
297.601	1590.25
297.831	1598.25
298.062	1609.25
298.292	1615.25
298.523	1651.25
298.753	1709.25
298.984	1671.25
299.214	1696.25
299.445	1687.25
299.675	1725.25
299.905	1805.25
300.136	1921.25
300.366	2068.25
300.597	2675.25
300.827	3705.25
301.057	5086.25
301.288	5041.25
301.518	3234.25
301.748	2533.25
301.979	2323.25
302.209	2242.25
302.439	2256.25
302.669	2382.25
302.9	2856.25
303.13	3998.25
303.36	6026.25
303.59	7965.25
303.82	6892.25
304.051	4047.25
304.281	2919.25
304.511	2460.25
304.741	2245.25
304.971	2155.25
305.201	1971.25
305.431	1959.25
305.661	1925.25
305.891	1866.25
306.121	1858.25
306.352	1865.25
306.582	1822.25
306.812	1787.25
307.042	1823.25
307.272	1793.25
307.502	1826.25
307.731	1813.25
307.961	1817.25
308.191	1797.25
308.421	1748.25
308.651	1791.25
308.881	1784.25
309.111	1776.25
309.341	1757.25
309.571	1828.25
309.8	1788.25
310.03	1818.25
310.26	1787.25
310.49	1861.25
310.72	1894.25
310.949	1858.25
311.179	1875.25
311.409	1876.25
311.639	1896.25
311.868	1863.25
312.098	1894.25
312.328	1918.25
312.557	1923.25
312.787	1918.25
313.017	1959.25
313.246	1958.25
313.476	1989.25
313.706	2091.25
313.935	2165.25
314.165	2295.25
314.394	2428.25
314.624	2325.25
314.853	2140.25
315.083	2099.25
315.312	2131.25
315.542	2180.25
315.771	2171.25
316.001	2192.25
316.23	2292.25
316.46	2389.25
316.689	2632.25
316.919	3140.25
317.148	4527.25
317.377	6928.25
317.607	10080.25
317.836	10458.25
318.065	6336.25
318.295	4091.25
318.524	3315.25
318.753	2856.25
318.983	2663.25
319.212	2576.25
319.441	2464.25
319.67	2398.25
319.9	2373.25
320.129	2364.25
320.358	2319.25
320.587	2273.25
320.816	2291.25
321.046	2289.25
321.275	2316.25
321.504	2372.25
321.733	2413.25
321.962	2426.25
322.191	2491.25
322.42	2462.25
322.649	2437.25
322.878	2525.25
323.108	2428.25
323.337	2489.25
323.566	2537.25
323.795	2572.25
324.024	2607.25
324.253	2701.25
324.482	2792.25
324.71	2920.25
324.939	3135.25
325.168	3139.25
325.397	3310.25
325.626	3962.25
325.855	5449.25
326.084	8449.25
326.313	12312.25
326.542	13022.25
326.77	8686.25
326.999	5685.25
327.228	4808.25
327.457	4570.25
327.686	4675.25
327.914	4977.25
328.143	5730.25
328.372	6783.25
328.6	7407.25
328.829	6640.25
329.058	5580.25
329.287	4943.25
329.515	4490.25
329.744	4139.25
329.972	3978.25
330.201	3716.25
330.43	3639.25
330.658	3549.25
330.887	3529.25
331.115	3465.25
331.344	3423.25
331.572	3403.25
331.801	3387.25
332.03	3485.25
332.258	3491.25
332.486	3648.25
332.715	4184.25
332.943	5164.25
333.172	6403.25
333.4	6362.25
333.629	4859.25
333.857	4418.25
334.085	4366.25
334.314	4574.25
334.542	5020.25
334.771	5738.25
334.999	7108.25
335.227	8854.25
335.455	9791.25
335.684	8964.25
335.912	7392.25
336.14	6197.25
336.369	5524.25
336.597	5098.25
336.825	4695.25
337.053	4465.25
337.281	4130.25
337.51	3962.25
337.738	3805.25
337.966	3742.25
338.194	3528.25
338.422	3454.25
338.65	3360.25
338.878	3273.25
339.106	3213.25
339.334	3173.25
339.562	3075.25
339.79	3053.25
340.018	2976.25
340.246	3040.25
340.474	2980.25
340.702	2962.25
340.93	2992.25
341.158	2957.25
341.386	2976.25
341.614	2952.25
341.842	2924.25
342.07	2816.25
342.298	2799.25
342.526	2727.25
342.754	2716.25
342.981	2668.25
343.209	2694.25
343.437	2705.25
343.665	2759.25
343.893	2802.25
344.12	2843.25
344.348	2753.25
344.576	2739.25
344.804	2678.25
345.031	2609.25
345.259	2584.25
345.487	2580.25
345.714	2508.25
345.942	2539.25
346.17	2532.25
346.397	2525.25
346.625	2505.25
346.853	2486.25
347.08	2489.25
347.308	2531.25
347.535	2532.25
347.763	2462.25
347.99	2502.25
348.218	2457.25
348.445	2423.25
348.673	2384.25
348.9	2437.25
349.128	2439.25
349.355	2425.25
349.583	2403.25
349.81	2429.25
350.037	2333.25
350.265	2347.25
350.492	2357.25
350.72	2326.25
350.947	2353.25
351.174	2373.25
351.402	2411.25
351.629	2345.25
351.856	2376.25
352.083	2380.25
352.311	2359.25
352.538	2327.25
352.765	2334.25
352.992	2356.25
353.22	2370.25
353.447	2356.25
353.674	2376.25
353.901	2383.25
354.128	2399.25
354.355	2369.25
354.583	2398.25
354.81	2366.25
355.037	2425.25
355.264	2429.25
355.491	2403.25
355.718	2415.25
355.945	2440.25
356.172	2450.25
356.399	2384.25
356.626	2433.25
356.853	2505.25
357.08	2419.25
357.307	2479.25
357.534	2468.25
357.761	2517.25
357.988	2538.25
358.215	2552.25
358.441	2571.25
358.668	2520.25
358.895	2506.25
359.122	2534.25
359.349	2540.25
359.576	2541.25
359.802	2504.25
360.029	2516.25
360.256	2544.25
360.483	2510.25
360.709	2525.25
360.936	2537.25
361.163	2465.25
361.39	2507.25
361.616	2526.25
361.843	2547.25
362.07	2519.25
362.296	2522.25
362.523	2534.25
362.749	2521.25
362.976	2512.25
363.203	2468.25
363.429	2460.25
363.656	2532.25
363.882	2515.25
364.109	2555.25
364.335	2523.25
364.562	2484.25
364.788	2519.25
365.015	2579.25
365.241	2630.25
365.468	2733.25
365.694	2864.25
365.92	2727.25
366.147	2614.25
366.373	2551.25
366.599	2578.25
366.826	2585.25
367.052	2564.25
367.278	2594.25
367.505	2579.25
367.731	2554.25
367.957	2574.25
368.184	2620.25
368.41	2652.25
368.636	2631.25
368.862	2623.25
369.089	2663.25
369.315	2612.25
369.541	2663.25
369.767	2620.25
369.993	2603.25
370.219	2607.25
370.445	2657.25
370.672	2658.25
370.898	2597.25
371.124	2618.25
371.35	2687.25
371.576	2671.25
371.802	2704.25
372.028	2741.25
372.254	2691.25
372.48	2760.25
372.706	2776.25
372.932	2742.25
373.158	2777.25
373.384	2758.25
373.61	2778.25
373.835	2723.25
374.061	2796.25
374.287	2825.25
374.513	2812.25
374.739	2847.25
374.965	2901.25
375.191	2898.25
375.416	2836.25
375.642	2872.25
375.868	2814.25
376.094	2774.25
376.319	2720.25
376.545	2799.25
376.771	2722.25
376.997	2729.25
377.222	2701.25
377.448	2705.25
377.674	2751.25
377.899	2672.25
378.125	2703.25
378.35	2755.25
378.576	2700.25
378.802	2747.25
379.027	2780.25
379.253	2838.25
379.478	3053.25
379.704	3540.25
379.929	5025.25
380.155	7790.25
380.38	8435.25
380.606	5128.25
380.831	3571.25
381.057	3208.25
381.282	2911.25
381.507	2849.25
381.733	2745.25
381.958	2709.25
382.184	2680.25
382.409	2689.25
382.634	2691.25
382.86	2617.25
383.085	2647.25
383.31	2644.25
383.535	2689.25
383.761	2611.25
383.986	2707.25
384.211	2667.25
384.436	2753.25
384.662	2761.25
384.887	2772.25
385.112	2748.25
385.337	2763.25
385.562	2704.25
385.787	2686.25
386.013	2776.25
386.238	2768.25
386.463	2739.25
386.688	2769.25
386.913	2719.25
387.138	2762.25
387.363	2765.25
387.588	2704.25
387.813	2779.25
388.038	2716.25
388.263	2747.25
388.488	2729.25
388.713	2769.25
388.938	2735.25
389.163	2731.25
389.387	2779.25
389.612	2732.25
389.837	2795.25
390.062	2752.25
390.287	2746.25
390.512	2755.25
390.736	2844.25
390.961	2882.25
391.186	2841.25
391.411	2901.25
391.636	2872.25
391.86	2927.25
392.085	2927.25
392.31	2875.25
392.534	2828.25
392.759	2838.25
392.984	2759.25
393.208	2857.25
393.433	2827.25
393.658	2813.25
393.882	2811.25
394.107	2759.25
394.331	2829.25
394.556	2783.25
394.78	2802.25
395.005	2813.25
395.229	2800.25
395.454	2846.25
395.678	2827.25
395.903	2894.25
396.127	2851.25
396.352	2852.25
396.576	2847.25
396.801	2837.25
397.025	2919.25
397.249	2887.25
397.474	2975.25
397.698	2935.25
397.922	2931.25
398.147	2891.25
398.371	2993.25
398.595	3032.25
398.82	3011.25
399.044	3191.25
399.268	3361.25
399.492	3505.25
399.717	3623.25
399.941	3577.25
400.165	3478.25
400.389	3336.25
400.613	3245.25
400.837	3134.25
401.062	3087.25
401.286	3076.25
401.51	3047.25
401.734	3020.25
401.958	3038.25
402.182	3054.25
402.406	3042.25
402.63	3046.25
402.854	3092.25
403.078	3093.25
403.302	3075.25
403.526	3106.25
403.75	3159.25
403.974	3179.25
404.198	3126.25
404.422	3175.25
404.645	3181.25
404.869	3117.25
405.093	3142.25
405.317	3163.25
405.541	3165.25
405.765	3198.25
405.988	3277.25
406.212	3247.25
406.436	3207.25
406.66	3293.25
406.883	3244.25
407.107	3323.25
407.331	3353.25
407.555	3484.25
407.778	3413.25
408.002	3341.25
408.226	3366.25
408.449	3362.25
408.673	3328.25
408.896	3238.25
409.12	3195.25
409.344	3216.25
409.567	3142.25
409.791	3128.25
410.014	3150.25
410.238	3092.25
410.461	3149.25
410.685	3123.25
410.908	3139.25
411.132	3031.25
411.355	2992.25
411.578	3069.25
411.802	3059.25
412.025	3038.25
412.249	3020.25
412.472	2989.25
412.695	2984.25
412.919	2954.25
413.142	3029.25
413.365	2975.25
413.589	2951.25
413.812	3011.25
414.035	2990.25
414.258	2966.25
414.482	2949.25
414.705	3007.25
414.928	2970.25
415.151	2947.25
415.374	2950.25
415.597	2886.25
415.821	2879.25
416.044	2875.25
416.267	2847.25
416.49	2904.25
416.713	2872.25
416.936	2865.25
417.159	2830.25
417.382	2823.25
417.605	2851.25
417.828	2815.25
418.051	2839.25
418.274	2884.25
418.497	2891.25
418.72	2962.25
418.943	2899.25
419.166	3008.25
419.389	3175.25
419.611	3134.25
419.834	3054.25
420.057	3004.25
420.28	2894.25
420.503	2775.25
420.726	2822.25
420.948	2856.25
421.171	2818.25
421.394	2873.25
421.617	2855.25
421.839	2894.25
422.062	2864.25
422.285	2837.25
422.507	2920.25
422.73	2892.25
422.953	2920.25
423.175	2990.25
423.398	2877.25
423.621	2845.25
423.843	2907.25
424.066	2892.25
424.288	2832.25
424.511	2843.25
424.733	2867.25
424.956	2783.25
425.178	2801.25
425.401	2821.25
425.623	2833.25
425.846	2744.25
426.068	2773.25
426.291	2715.25
426.513	2735.25
426.735	2725.25
426.958	2687.25
427.18	2672.25
427.402	2707.25
427.625	2741.25
427.847	2629.25
428.069	2643.25
428.292	2712.25
428.514	2632.25
428.736	2638.25
428.958	2652.25
429.181	2574.25
429.403	2565.25
429.625	2595.25
429.847	2620.25
430.069	2673.25
430.292	2765.25
430.514	2843.25
430.736	2813.25
430.958	2674.25
431.18	2615.25
431.402	2618.25
431.624	2605.25
431.846	2601.25
432.068	2509.25
432.29	2626.25
432.512	2585.25
432.734	2592.25
432.956	2612.25
433.178	2597.25
433.4	2605.25
433.622	2648.25
433.844	2616.25
434.066	2588.25
434.287	2605.25
434.509	2722.25
434.731	2711.25
434.953	2721.25
435.175	2691.25
435.397	2713.25
435.618	2686.25
435.84	2631.25
436.062	2664.25
436.284	2568.25
436.505	2588.25
436.727	2642.25
436.949	2569.25
437.17	2600.25
437.392	2594.25
437.614	2532.25
437.835	2513.25
438.057	2512.25
438.278	2527.25
438.5	2568.25
438.721	2584.25
438.943	2675.25
439.165	2717.25
439.386	2717.25
439.608	2661.25
439.829	2689.25
440.05	2813.25
440.272	2802.25
440.493	2707.25
440.715	2665.25
440.936	2662.25
441.158	2720.25
441.379	2724.25
441.6	2846.25
441.822	2879.25
442.043	2984.25
442.264	3128.25
442.486	2918.25
442.707	2892.25
442.928	2776.25
443.149	2768.25
443.371	2821.25
443.592	2791.25
443.813	2756.25
444.034	2811.25
444.255	2861.25
444.476	2950.25
444.698	2977.25
444.919	3043.25
445.14	3143.25
445.361	2917.25
445.582	2930.25
445.803	2823.25
446.024	2793.25
446.245	2773.25
446.466	2753.25
446.687	2717.25
446.908	2724.25
447.129	2655.25
447.35	2635.25
447.571	2635.25
447.792	2518.25
448.013	2579.25
448.234	2623.25
448.455	2600.25
448.675	2605.25
448.896	2692.25
449.117	2726.25
449.338	2987.25
449.559	3061.25
449.779	2746.25
450	2549.25
450.221	2544.25
450.442	2543.25
450.662	2543.25
450.883	2482.25
451.104	2529.25
451.324	2537.25
451.545	2511.25
451.766	2545.25
451.986	2539.25
452.207	2800.25
452.428	3581.25
452.648	5325.25
452.869	4405.25
453.089	3123.25
453.31	2904.25
453.53	2903.25
453.751	2963.25
453.971	3118.25
454.192	3034.25
454.412	2661.25
454.633	2503.25
454.853	2417.25
455.073	2401.25
455.294	2423.25
455.514	2447.25
455.734	2361.25
455.955	2359.25
456.175	2425.25
456.395	2383.25
456.616	2383.25
456.836	2450.25
457.056	2459.25
457.276	2484.25
457.497	2582.25
457.717	2618.25
457.937	2553.25
458.157	2568.25
458.377	2541.25
458.598	2524.25
458.818	2591.25
459.038	2607.25
459.258	2570.25
459.478	2631.25
459.698	2644.25
459.918	2663.25
460.138	2698.25
460.358	2785.25
460.578	2840.25
460.798	2843.25
461.018	2849.25
461.238	2869.25
461.458	2848.25
461.678	2853.25
461.898	2887.25
462.118	2900.25
462.338	3013.25
462.558	3067.25
462.777	3058.25
462.997	3216.25
463.217	3331.25
463.437	3465.25
463.657	3565.25
463.876	3484.25
464.096	3287.25
464.316	3147.25
464.536	3100.25
464.755	3049.25
464.975	2938.25
465.195	2882.25
465.414	2825.25
465.634	2739.25
465.854	2681.25
466.073	2650.25
466.293	2713.25
466.512	2632.25
466.732	2687.25
466.951	2785.25
467.171	2925.25
467.391	2900.25
467.61	2671.25
467.829	2609.25
468.049	2559.25
468.268	2497.25
468.488	2520.25
468.707	2552.25
468.927	2504.25
469.146	2545.25
469.365	2587.25
469.585	2589.25
469.804	2628.25
470.023	2733.25
470.243	2785.25
470.462	2835.25
470.681	2963.25
470.901	3177.25
471.12	3691.25
471.339	3711.25
471.558	3160.25
471.777	2849.25
471.997	2722.25
472.216	2662.25
472.435	2599.25
472.654	2573.25
472.873	2531.25
473.092	2585.25
473.311	2616.25
473.53	2583.25
473.749	2650.25
473.968	2749.25
474.187	2613.25
474.406	2549.25
474.625	2560.25
474.844	2596.25
475.063	2606.25
475.282	2595.25
475.501	2577.25
475.72	2586.25
475.939	2621.25
476.158	2660.25
476.377	2741.25
476.596	2747.25
476.814	2751.25
477.033	2710.25
477.252	2758.25
477.471	2779.25
477.69	2830.25
477.908	2863.25
478.127	2932.25
478.346	2941.25
478.564	2948.25
478.783	2918.25
479.002	3051.25
479.22	3072.25
479.439	3028.25
479.658	3092.25
479.876	3103.25
480.095	3087.25
480.313	3152.25
480.532	3215.25
480.751	3225.25
480.969	3168.25
481.188	3106.25
481.406	3091.25
481.624	3077.25
481.843	3105.25
482.061	3161.25
482.28	3150.25
482.498	3087.25
482.717	3108.25
482.935	3162.25
483.153	3165.25
483.372	3173.25
483.59	3208.25
483.808	3325.25
484.027	3327.25
484.245	3566.25
484.463	4010.25
484.681	4440.25
484.9	4096.25
485.118	3745.25
485.336	3700.25
485.554	3743.25
485.772	3978.25
485.99	4422.25
486.209	4758.25
486.427	4044.25
486.645	3622.25
486.863	3531.25
487.081	3459.25
487.299	3350.25
487.517	3307.25
487.735	3309.25
