Data from SnStandardFlinnAPT0064_LampEnergy5.5_LIBS07252019.E.O._I.C._HRD10591_15-14-25-491.txt Node
Date: Thu Jul 25 15:14:25 EDT 2019
User: cochatt
Spectrometer: HR+D1059
Trigger mode: 1
Integration Time (sec): 1.000000E-1
Scans to average: 1
Electric dark correction enabled: true
Nonlinearity correction enabled: false
Boxcar width: 0
XAxis mode: Wavelengths
Number of Pixels in Spectrum: 2048
>>>>>Begin Spectral Data<<<<<
223.165	-26
223.4	-26
223.635	-26
223.869	-19
224.104	-23
224.338	-25
224.573	-8
224.808	-11
225.042	-15
225.277	4
225.511	-12
225.746	6
225.98	27
226.215	24
226.449	15
226.683	15
226.918	24
227.152	24
227.387	41
227.621	53
227.856	51
228.09	37
228.324	52
228.559	54
228.793	81
229.027	143
229.262	150
229.496	139
229.73	156
229.964	154
230.199	155
230.433	185
230.667	169
230.901	150
231.136	169
231.37	181
231.604	187
231.838	208
232.072	214
232.306	239
232.541	224
232.775	192
233.009	195
233.243	189
233.477	211
233.711	211
233.945	243
234.179	217
234.413	214
234.647	214
234.881	217
235.115	245
235.349	260
235.583	313
235.817	386
236.051	372
236.285	286
236.519	235
236.753	231
236.987	231
237.221	257
237.455	222
237.689	229
237.922	226
238.156	224
238.39	229
238.624	211
238.858	230
239.091	239
239.325	226
239.559	222
239.793	244
240.027	234
240.26	242
240.494	262
240.728	262
240.961	269
241.195	278
241.429	289
241.662	316
241.896	335
242.13	368
242.363	474
242.597	555
242.83	537
243.064	551
243.298	647
243.531	538
243.765	388
243.998	330
244.232	306
244.465	293
244.699	288
244.932	284
245.166	297
245.399	288
245.633	297
245.866	304
246.099	295
246.333	301
246.566	281
246.8	302
247.033	266
247.266	294
247.5	318
247.733	318
247.966	309
248.2	324
248.433	349
248.666	388
248.899	380
249.133	354
249.366	355
249.599	372
249.832	409
250.066	436
250.299	369
250.532	353
250.765	347
250.998	347
251.231	318
251.465	329
251.698	312
251.931	317
252.164	324
252.397	347
252.63	346
252.863	351
253.096	351
253.329	345
253.562	342
253.795	343
254.028	356
254.261	358
254.494	394
254.727	421
254.96	471
255.193	455
255.426	415
255.659	374
255.892	374
256.124	372
256.357	377
256.59	386
256.823	403
257.056	451
257.289	484
257.521	546
257.754	473
257.987	411
258.22	401
258.452	397
258.685	394
258.918	409
259.151	414
259.383	455
259.616	483
259.849	499
260.081	443
260.314	460
260.547	428
260.779	412
261.012	430
261.244	427
261.477	435
261.71	438
261.942	445
262.175	434
262.407	453
262.64	431
262.872	478
263.105	518
263.337	539
263.57	533
263.802	555
264.035	564
264.267	600
264.499	591
264.732	632
264.964	665
265.197	642
265.429	611
265.661	617
265.894	693
266.126	739
266.358	793
266.591	758
266.823	674
267.055	653
267.287	605
267.52	591
267.752	582
267.984	576
268.216	583
268.448	542
268.681	558
268.913	504
269.145	559
269.377	545
269.609	562
269.841	551
270.073	570
270.306	634
270.538	807
270.77	1107
271.002	1350
271.234	995
271.466	738
271.698	626
271.93	592
272.162	563
272.394	568
272.626	533
272.858	546
273.09	526
273.322	538
273.553	512
273.785	501
274.017	534
274.249	540
274.481	537
274.713	501
274.945	524
275.176	523
275.408	518
275.64	520
275.872	536
276.104	531
276.335	547
276.567	553
276.799	532
277.031	558
277.262	556
277.494	574
277.726	619
277.957	694
278.189	759
278.421	724
278.652	662
278.884	629
279.115	610
279.347	599
279.579	575
279.81	577
280.042	585
280.273	564
280.505	603
280.736	645
280.968	644
281.199	690
281.431	743
281.662	756
281.894	691
282.125	656
282.356	658
282.588	673
282.819	667
283.051	723
283.282	753
283.513	914
283.745	1255
283.976	1883
284.207	2706
284.439	2399
284.67	1570
284.901	1304
285.132	1219
285.364	1176
285.595	937
285.826	891
286.057	1056
286.288	1336
286.52	1728
286.751	1623
286.982	1116
287.213	849
287.444	805
287.675	734
287.906	724
288.138	704
288.369	677
288.6	714
288.831	679
289.062	707
289.293	684
289.524	667
289.755	696
289.986	698
290.217	711
290.448	708
290.679	726
290.91	715
291.141	716
291.371	769
291.602	768
291.833	745
292.064	692
292.295	699
292.526	670
292.757	666
292.987	649
293.218	671
293.449	659
293.68	674
293.91	655
294.141	642
294.372	640
294.603	642
294.833	660
295.064	644
295.295	659
295.525	646
295.756	659
295.987	658
296.217	660
296.448	676
296.679	668
296.909	651
297.14	673
297.37	678
297.601	680
297.831	670
298.062	669
298.292	689
298.523	689
298.753	717
298.984	694
299.214	702
299.445	726
299.675	707
299.905	728
300.136	782
300.366	827
300.597	1001
300.827	1282
301.057	1712
301.288	1690
301.518	1172
301.748	973
301.979	898
302.209	874
302.439	881
302.669	932
302.9	1066
303.13	1377
303.36	1974
303.59	2593
303.82	2275
304.051	1418
304.281	1102
304.511	940
304.741	905
304.971	863
305.201	822
305.431	793
305.661	795
305.891	784
306.121	755
306.352	776
306.582	764
306.812	767
307.042	774
307.272	762
307.502	754
307.731	758
307.961	750
308.191	739
308.421	750
308.651	732
308.881	752
309.111	746
309.341	755
309.571	756
309.8	752
310.03	771
310.26	772
310.49	790
310.72	795
310.949	791
311.179	787
311.409	766
311.639	798
311.868	811
312.098	802
312.328	790
312.557	819
312.787	806
313.017	811
313.246	816
313.476	834
313.706	850
313.935	883
314.165	910
314.394	935
314.624	889
314.853	851
315.083	867
315.312	871
315.542	875
315.771	905
316.001	910
316.23	945
316.46	935
316.689	1016
316.919	1183
317.148	1588
317.377	2402
317.607	3365
317.836	3483
318.065	2210
318.295	1508
318.524	1255
318.753	1133
318.983	1077
319.212	1012
319.441	955
319.67	966
319.9	948
320.129	931
320.358	925
320.587	929
320.816	936
321.046	961
321.275	969
321.504	971
321.733	963
321.962	1004
322.191	998
322.42	1006
322.649	998
322.878	1000
323.108	994
323.337	999
323.566	1040
323.795	1028
324.024	1076
324.253	1091
324.482	1133
324.71	1134
324.939	1214
325.168	1242
325.397	1283
325.626	1478
325.855	1918
326.084	2866
326.313	4235
326.542	4434
326.77	2998
326.999	2125
327.228	1804
327.457	1720
327.686	1737
327.914	1924
328.143	2120
328.372	2425
328.6	2619
328.829	2485
329.058	2167
329.287	1994
329.515	1793
329.744	1686
329.972	1606
330.201	1542
330.43	1488
330.658	1444
330.887	1446
331.115	1432
331.344	1394
331.572	1361
331.801	1387
332.03	1416
332.258	1390
332.486	1508
332.715	1588
332.943	1921
333.172	2234
333.4	2220
333.629	1826
333.857	1699
334.085	1719
334.314	1800
334.542	1968
334.771	2193
334.999	2601
335.227	3214
335.455	3497
335.684	3346
335.912	2890
336.14	2508
336.369	2239
336.597	2055
336.825	1846
337.053	1769
337.281	1710
337.51	1640
337.738	1528
337.966	1474
338.194	1463
338.422	1371
338.65	1385
338.878	1381
339.106	1334
339.334	1303
339.562	1299
339.79	1251
340.018	1242
340.246	1246
340.474	1239
340.702	1260
340.93	1231
341.158	1223
341.386	1228
341.614	1214
341.842	1175
342.07	1182
342.298	1148
342.526	1154
342.754	1119
342.981	1111
343.209	1101
343.437	1145
343.665	1158
343.893	1186
344.12	1162
344.348	1149
344.576	1112
344.804	1105
345.031	1074
345.259	1114
345.487	1081
345.714	1054
345.942	1042
346.17	1038
346.397	1022
346.625	1033
346.853	1000
347.08	1040
347.308	1026
347.535	1066
347.763	1030
347.99	1016
348.218	1014
348.445	1024
348.673	1032
348.9	1006
349.128	1037
349.355	1023
349.583	982
349.81	991
350.037	984
350.265	991
350.492	999
350.72	981
350.947	992
351.174	989
351.402	972
351.629	1001
351.856	1011
352.083	987
352.311	998
352.538	999
352.765	1050
352.992	975
353.22	970
353.447	990
353.674	1000
353.901	1034
354.128	1014
354.355	988
354.583	986
354.81	1007
355.037	993
355.264	1023
355.491	1032
355.718	1030
355.945	1016
356.172	1021
356.399	1005
356.626	1021
356.853	1027
357.08	998
357.307	1046
357.534	1066
357.761	1046
357.988	1049
358.215	1077
358.441	1040
358.668	1058
358.895	1049
359.122	1032
359.349	1037
359.576	1015
359.802	1049
360.029	1028
360.256	1045
360.483	1066
360.709	1064
360.936	1092
361.163	1070
361.39	1046
361.616	1061
361.843	1064
362.07	1051
362.296	1057
362.523	1057
362.749	1054
362.976	1035
363.203	1078
363.429	1022
363.656	1045
363.882	1073
364.109	1021
364.335	1033
364.562	1036
364.788	1044
365.015	1082
365.241	1086
365.468	1128
365.694	1147
365.92	1131
366.147	1097
366.373	1099
366.599	1085
366.826	1078
367.052	1073
367.278	1091
367.505	1104
367.731	1086
367.957	1088
368.184	1100
368.41	1122
368.636	1095
368.862	1102
369.089	1086
369.315	1091
369.541	1096
369.767	1101
369.993	1114
370.219	1089
370.445	1073
370.672	1099
370.898	1089
371.124	1104
371.35	1104
371.576	1102
371.802	1155
372.028	1168
372.254	1147
372.48	1126
372.706	1139
372.932	1176
373.158	1163
373.384	1161
373.61	1155
373.835	1169
374.061	1163
374.287	1189
374.513	1193
374.739	1207
374.965	1212
375.191	1209
375.416	1186
375.642	1207
375.868	1206
376.094	1174
376.319	1164
376.545	1182
376.771	1145
376.997	1138
377.222	1146
377.448	1139
377.674	1150
377.899	1117
378.125	1146
378.35	1134
378.576	1151
378.802	1179
379.027	1176
379.253	1152
379.478	1180
379.704	1375
379.929	1806
380.155	2505
380.38	2709
380.606	1815
380.831	1401
381.057	1286
381.282	1210
381.507	1162
381.733	1162
381.958	1143
382.184	1142
382.409	1130
382.634	1137
382.86	1097
383.085	1152
383.31	1111
383.535	1140
383.761	1101
383.986	1125
384.211	1152
384.436	1168
384.662	1161
384.887	1172
385.112	1113
385.337	1148
385.562	1169
385.787	1193
386.013	1145
386.238	1176
386.463	1196
386.688	1172
386.913	1145
387.138	1153
387.363	1199
387.588	1146
387.813	1156
388.038	1168
388.263	1171
388.488	1171
388.713	1168
388.938	1188
389.163	1117
389.387	1171
389.612	1157
389.837	1162
390.062	1176
390.287	1192
390.512	1166
390.736	1186
390.961	1206
391.186	1164
391.411	1182
391.636	1234
391.86	1246
392.085	1236
392.31	1229
392.534	1178
392.759	1186
392.984	1189
393.208	1163
393.433	1180
393.658	1159
393.882	1192
394.107	1179
394.331	1172
394.556	1142
394.78	1169
395.005	1257
395.229	1165
395.454	1184
395.678	1233
395.903	1200
396.127	1190
396.352	1187
396.576	1171
396.801	1215
397.025	1204
397.249	1178
397.474	1217
397.698	1211
397.922	1238
398.147	1230
398.371	1252
398.595	1258
398.82	1316
399.044	1364
399.268	1381
399.492	1530
399.717	1550
399.941	1571
400.165	1505
400.389	1417
400.613	1372
400.837	1326
401.062	1331
401.286	1302
401.51	1285
401.734	1279
401.958	1299
402.182	1292
402.406	1286
402.63	1337
402.854	1296
403.078	1320
403.302	1333
403.526	1362
403.75	1312
403.974	1312
404.198	1320
404.422	1354
404.645	1348
404.869	1351
405.093	1342
405.317	1332
405.541	1372
405.765	1372
405.988	1415
406.212	1394
406.436	1359
406.66	1420
406.883	1368
407.107	1454
407.331	1416
407.555	1439
407.778	1411
408.002	1436
408.226	1408
408.449	1410
408.673	1371
408.896	1361
409.12	1383
409.344	1365
409.567	1304
409.791	1315
410.014	1291
410.238	1341
410.461	1335
410.685	1302
410.908	1331
411.132	1270
411.355	1300
411.578	1290
411.802	1311
412.025	1274
412.249	1307
412.472	1315
412.695	1250
412.919	1241
413.142	1256
413.365	1252
413.589	1298
413.812	1263
414.035	1267
414.258	1254
414.482	1280
414.705	1269
414.928	1268
415.151	1275
415.374	1280
415.597	1247
415.821	1211
416.044	1232
416.267	1206
416.49	1182
416.713	1205
416.936	1210
417.159	1223
417.382	1232
417.605	1230
417.828	1240
418.051	1219
418.274	1244
418.497	1200
418.72	1250
418.943	1219
419.166	1290
419.389	1332
419.611	1310
419.834	1252
420.057	1280
420.28	1238
420.503	1227
420.726	1234
420.948	1202
421.171	1215
421.394	1237
421.617	1226
421.839	1199
422.062	1256
422.285	1206
422.507	1259
422.73	1241
422.953	1240
423.175	1242
423.398	1223
423.621	1224
423.843	1254
424.066	1229
424.288	1242
424.511	1211
424.733	1223
424.956	1242
425.178	1252
425.401	1239
425.623	1226
425.846	1179
426.068	1172
426.291	1176
426.513	1180
426.735	1190
426.958	1183
427.18	1142
427.402	1159
427.625	1163
427.847	1128
428.069	1134
428.292	1170
428.514	1158
428.736	1114
428.958	1136
429.181	1143
429.403	1093
429.625	1119
429.847	1158
430.069	1141
430.292	1194
430.514	1203
430.736	1194
430.958	1147
431.18	1156
431.402	1160
431.624	1132
431.846	1118
432.068	1089
432.29	1130
432.512	1101
432.734	1100
432.956	1139
433.178	1113
433.4	1149
433.622	1135
433.844	1140
434.066	1111
434.287	1123
434.509	1140
434.731	1144
434.953	1163
435.175	1173
435.397	1144
435.618	1148
435.84	1129
436.062	1112
436.284	1097
436.505	1135
436.727	1122
436.949	1111
437.17	1106
437.392	1115
437.614	1094
437.835	1078
438.057	1085
438.278	1087
438.5	1101
438.721	1096
438.943	1136
439.165	1127
439.386	1169
439.608	1181
439.829	1169
440.05	1200
440.272	1206
440.493	1177
440.715	1170
440.936	1175
441.158	1179
441.379	1205
441.6	1234
441.822	1229
442.043	1307
442.264	1322
442.486	1229
442.707	1233
442.928	1234
443.149	1185
443.371	1220
443.592	1202
443.813	1218
444.034	1235
444.255	1268
444.476	1246
444.698	1305
444.919	1313
445.14	1403
445.361	1278
445.582	1211
445.803	1188
446.024	1174
446.245	1196
446.466	1229
446.687	1187
446.908	1176
447.129	1183
447.35	1137
447.571	1170
447.792	1109
448.013	1121
448.234	1134
448.455	1114
448.675	1121
448.896	1179
449.117	1152
449.338	1214
449.559	1241
449.779	1155
450	1080
450.221	1104
450.442	1102
450.662	1095
450.883	1104
451.104	1088
451.324	1099
451.545	1067
451.766	1085
451.986	1074
452.207	1177
452.428	1340
452.648	1764
452.869	1532
453.089	1219
453.31	1180
453.53	1158
453.751	1178
453.971	1214
454.192	1215
454.412	1113
454.633	1074
454.853	1052
455.073	1057
455.294	1057
455.514	1033
455.734	1033
455.955	1053
456.175	1022
456.395	1040
456.616	1053
456.836	1047
457.056	1042
457.276	1033
457.497	1106
457.717	1105
457.937	1071
458.157	1083
458.377	1083
458.598	1090
458.818	1120
459.038	1108
459.258	1119
459.478	1108
459.698	1151
459.918	1128
460.138	1142
460.358	1179
460.578	1195
460.798	1239
461.018	1254
461.238	1237
461.458	1230
461.678	1264
461.898	1283
462.118	1255
462.338	1296
462.558	1280
462.777	1313
462.997	1370
463.217	1428
463.437	1436
463.657	1421
463.876	1465
464.096	1386
464.316	1317
464.536	1342
464.755	1280
464.975	1299
465.195	1254
465.414	1223
465.634	1170
465.854	1168
466.073	1138
466.293	1134
466.512	1131
466.732	1158
466.951	1189
467.171	1214
467.391	1237
467.61	1164
467.829	1134
468.049	1117
468.268	1106
468.488	1111
468.707	1112
468.927	1103
469.146	1140
469.365	1127
469.585	1115
469.804	1136
470.023	1151
470.243	1188
470.462	1223
470.681	1265
470.901	1330
471.12	1479
471.339	1470
471.558	1283
471.777	1231
471.997	1156
472.216	1174
472.435	1102
472.654	1122
472.873	1080
473.092	1099
473.311	1110
473.53	1131
473.749	1134
473.968	1152
474.187	1121
474.406	1115
474.625	1115
474.844	1134
475.063	1138
475.282	1155
475.501	1135
475.72	1158
475.939	1147
476.158	1176
476.377	1181
476.596	1156
476.814	1163
477.033	1177
477.252	1175
477.471	1210
477.69	1235
477.908	1263
478.127	1254
478.346	1246
478.564	1282
478.783	1267
479.002	1326
479.22	1341
479.439	1325
479.658	1313
479.876	1311
480.095	1331
480.313	1350
480.532	1344
480.751	1370
480.969	1370
481.188	1312
481.406	1305
481.624	1283
481.843	1301
482.061	1284
482.28	1332
482.498	1352
482.717	1311
482.935	1348
483.153	1391
483.372	1382
483.59	1376
483.808	1392
484.027	1419
484.245	1479
484.463	1616
484.681	1756
484.9	1635
485.118	1550
485.336	1520
485.554	1512
485.772	1619
485.99	1755
486.209	1884
486.427	1639
486.645	1513
486.863	1484
487.081	1454
487.299	1414
487.517	1411
487.735	1422
487.953	1418
488.171	1458
488.389	1419
488.607	1381
488.825	1380
489.043	1347
489.261	1371
489.479	1357
489.696	1364
489.914	1379
490.132	1368
490.35	1379
490.568	1414
490.786	1434
491.003	1444
491.221	1471
491.439	1447
491.657	1446
491.874	1476
492.092	1522
492.31	1540
492.527	1503
492.745	1502
492.963	1500
493.18	1491
493.398	1489
493.615	1457
493.833	1474
494.05	1487
494.268	1519
494.485	1496
494.703	1454
494.92	1471
495.138	1444
495.355	1487
495.573	1474
495.79	1488
496.008	1494
496.225	1489
496.442	1523
496.66	1576
496.877	1603
497.094	1593
497.312	1564
497.529	1564
497.746	1589
497.963	1566
498.181	1627
498.398	1670
498.615	1703
498.832	1792
499.049	1858
499.267	1961
499.484	2086
499.701	2138
499.918	2235
500.135	2354
500.352	2485
500.569	2530
500.786	2472
501.003	2417
501.22	2271
501.437	2158
501.654	2035
501.871	1934
502.088	1859
502.305	1818
502.522	1744
502.739	1716
502.956	1641
503.172	1610
503.389	1592
503.606	1537
503.823	1538
504.04	1519
504.256	1534
504.473	1479
504.69	1528
504.907	1499
505.123	1456
505.34	1428
505.557	1366
505.773	1378
505.99	1369
506.207	1367
506.423	1326
506.64	1313
506.856	1372
507.073	1312
507.289	1284
507.506	1298
507.722	1296
507.939	1270
508.155	1251
508.372	1268
508.588	1227
508.805	1248
509.021	1250
509.238	1265
509.454	1295
509.67	1350
509.887	1258
510.103	1262
510.319	1272
510.536	1252
510.752	1226
510.968	1254
511.184	1203
511.401	1222
511.617	1200
511.833	1182
512.049	1204
512.265	1180
512.481	1222
512.698	1198
512.914	1204
513.13	1186
513.346	1187
513.562	1171
513.778	1189
513.994	1205
514.21	1257
514.426	1287
514.642	1301
514.858	1241
515.074	1236
515.29	1217
515.506	1236
515.721	1207
515.937	1250
516.153	1212
516.369	1263
516.585	1266
516.801	1270
517.016	1314
517.232	1347
517.448	1336
517.664	1367
517.879	1356
518.095	1354
518.311	1373
518.527	1323
518.742	1330
518.958	1359
519.173	1335
519.389	1274
519.605	1264
519.82	1246
520.036	1237
520.251	1206
520.467	1212
520.682	1198
520.898	1218
521.113	1175
521.329	1182
521.544	1190
521.76	1182
521.975	1162
522.19	1201
522.406	1143
522.621	1165
522.836	1171
523.052	1169
523.267	1167
523.482	1163
523.698	1160
523.913	1167
524.128	1171
524.343	1156
524.559	1172
524.774	1173
524.989	1167
525.204	1193
525.419	1143
525.634	1173
525.849	1161
526.064	1179
526.28	1151
526.495	1131
526.71	1138
526.925	1154
527.14	1155
527.355	1131
527.57	1174
527.785	1182
527.999	1167
528.214	1179
528.429	1206
528.644	1226
528.859	1233
529.074	1234
529.289	1237
529.503	1270
529.718	1226
529.933	1225
530.148	1224
530.363	1242
530.577	1220
530.792	1196
531.007	1266
531.221	1217
531.436	1230
531.651	1251
531.865	1245
532.08	1286
532.295	1298
532.509	1370
532.724	1347
532.938	1358
533.153	1395
533.367	1464
533.582	1527
533.796	1555
534.011	1451
534.225	1430
534.44	1423
534.654	1404
534.868	1352
535.083	1371
535.297	1360
535.511	1320
535.726	1335
535.94	1331
536.154	1269
536.369	1247
536.583	1223
536.797	1208
537.011	1199
537.225	1188
537.44	1198
537.654	1214
537.868	1168
538.082	1198
538.296	1163
538.51	1170
538.724	1170
538.938	1155
539.153	1147
539.367	1159
539.581	1123
539.795	1115
540.009	1106
540.222	1127
540.436	1120
540.65	1122
540.864	1136
541.078	1162
541.292	1237
541.506	1381
541.72	1434
541.934	1305
542.147	1246
542.361	1202
542.575	1172
542.789	1135
543.002	1090
543.216	1092
543.43	1070
543.644	1068
543.857	1106
544.071	1135
544.285	1116
544.498	1115
544.712	1102
544.925	1130
545.139	1150
545.352	1127
545.566	1136
545.779	1138
545.993	1124
546.206	1184
546.42	1131
