Data from SnStandardFlinnAPT0064_LampEnergy5.5_LIBS07252019.E.O._I.C._HRD10591_15-15-48-492.txt Node
Date: Thu Jul 25 15:15:48 EDT 2019
User: cochatt
Spectrometer: HR+D1059
Trigger mode: 1
Integration Time (sec): 1.000000E-1
Scans to average: 1
Electric dark correction enabled: true
Nonlinearity correction enabled: false
Boxcar width: 0
XAxis mode: Wavelengths
Number of Pixels in Spectrum: 2048
>>>>>Begin Spectral Data<<<<<
223.165	-12.88
223.4	-12.88
223.635	-12.88
223.869	-23.88
224.104	-18.88
224.338	-17.88
224.573	-17.88
224.808	-11.88
225.042	-9.88
225.277	4.12
225.511	4.12
225.746	-0.88
225.98	11.12
226.215	7.12
226.449	12.12
226.683	25.12
226.918	12.12
227.152	38.12
227.387	45.12
227.621	44.12
227.856	47.12
228.09	62.12
228.324	54.12
228.559	58.12
228.793	85.12
229.027	150.12
229.262	169.12
229.496	164.12
229.73	155.12
229.964	161.12
230.199	170.12
230.433	164.12
230.667	171.12
230.901	151.12
231.136	181.12
231.37	173.12
231.604	183.12
231.838	209.12
232.072	217.12
232.306	238.12
232.541	214.12
232.775	198.12
233.009	211.12
233.243	206.12
233.477	195.12
233.711	258.12
233.945	263.12
234.179	236.12
234.413	208.12
234.647	212.12
234.881	226.12
235.115	247.12
235.349	286.12
235.583	318.12
235.817	400.12
236.051	392.12
236.285	291.12
236.519	233.12
236.753	231.12
236.987	234.12
237.221	234.12
237.455	248.12
237.689	226.12
237.922	210.12
238.156	234.12
238.39	242.12
238.624	225.12
238.858	235.12
239.091	228.12
239.325	223.12
239.559	230.12
239.793	249.12
240.027	228.12
240.26	228.12
240.494	247.12
240.728	272.12
240.961	278.12
241.195	280.12
241.429	287.12
241.662	298.12
241.896	334.12
242.13	380.12
242.363	489.12
242.597	586.12
242.83	581.12
243.064	599.12
243.298	685.12
243.531	589.12
243.765	404.12
243.998	343.12
244.232	313.12
244.465	298.12
244.699	307.12
244.932	302.12
245.166	276.12
245.399	285.12
245.633	287.12
245.866	303.12
246.099	295.12
246.333	292.12
246.566	289.12
246.8	303.12
247.033	291.12
247.266	299.12
247.5	284.12
247.733	308.12
247.966	320.12
248.2	332.12
248.433	371.12
248.666	396.12
248.899	387.12
249.133	356.12
249.366	350.12
249.599	370.12
249.832	417.12
250.066	434.12
250.299	368.12
250.532	347.12
250.765	315.12
250.998	340.12
251.231	325.12
251.465	332.12
251.698	326.12
251.931	350.12
252.164	341.12
252.397	333.12
252.63	334.12
252.863	345.12
253.096	351.12
253.329	357.12
253.562	342.12
253.795	351.12
254.028	349.12
254.261	365.12
254.494	384.12
254.727	416.12
254.96	465.12
255.193	488.12
255.426	407.12
255.659	362.12
255.892	382.12
256.124	380.12
256.357	392.12
256.59	394.12
256.823	413.12
257.056	468.12
257.289	498.12
257.521	565.12
257.754	476.12
257.987	419.12
258.22	397.12
258.452	412.12
258.685	382.12
258.918	407.12
259.151	410.12
259.383	445.12
259.616	483.12
259.849	478.12
260.081	463.12
260.314	448.12
260.547	418.12
260.779	419.12
261.012	443.12
261.244	438.12
261.477	439.12
261.71	430.12
261.942	438.12
262.175	450.12
262.407	472.12
262.64	491.12
262.872	476.12
263.105	522.12
263.337	518.12
263.57	556.12
263.802	578.12
264.035	563.12
264.267	557.12
264.499	590.12
264.732	642.12
264.964	609.12
265.197	637.12
265.429	598.12
265.661	652.12
265.894	678.12
266.126	743.12
266.358	813.12
266.591	764.12
266.823	692.12
267.055	615.12
267.287	601.12
267.52	579.12
267.752	565.12
267.984	573.12
268.216	544.12
268.448	574.12
268.681	524.12
268.913	526.12
269.145	523.12
269.377	527.12
269.609	523.12
269.841	570.12
270.073	587.12
270.306	685.12
270.538	822.12
270.77	1166.12
271.002	1382.12
271.234	1032.12
271.466	703.12
271.698	619.12
271.93	584.12
272.162	568.12
272.394	553.12
272.626	541.12
272.858	537.12
273.09	510.12
273.322	523.12
273.553	523.12
273.785	500.12
274.017	520.12
274.249	536.12
274.481	525.12
274.713	509.12
274.945	535.12
275.176	519.12
275.408	496.12
275.64	525.12
275.872	512.12
276.104	541.12
276.335	532.12
276.567	534.12
276.799	547.12
277.031	571.12
277.262	562.12
277.494	572.12
277.726	616.12
277.957	668.12
278.189	751.12
278.421	712.12
278.652	682.12
278.884	646.12
279.115	601.12
279.347	586.12
279.579	579.12
279.81	576.12
280.042	590.12
280.273	572.12
280.505	587.12
280.736	614.12
280.968	623.12
281.199	704.12
281.431	730.12
281.662	760.12
281.894	706.12
282.125	662.12
282.356	667.12
282.588	690.12
282.819	673.12
283.051	690.12
283.282	770.12
283.513	952.12
283.745	1317.12
283.976	2062.12
284.207	2924.12
284.439	2566.12
284.67	1607.12
284.901	1308.12
285.132	1255.12
285.364	1195.12
285.595	995.12
285.826	935.12
286.057	1069.12
286.288	1390.12
286.52	1851.12
286.751	1728.12
286.982	1122.12
287.213	874.12
287.444	774.12
287.675	743.12
287.906	712.12
288.138	733.12
288.369	666.12
288.6	719.12
288.831	703.12
289.062	696.12
289.293	710.12
289.524	691.12
289.755	688.12
289.986	687.12
290.217	711.12
290.448	725.12
290.679	696.12
290.91	718.12
291.141	714.12
291.371	758.12
291.602	799.12
291.833	754.12
292.064	712.12
292.295	686.12
292.526	680.12
292.757	653.12
292.987	655.12
293.218	660.12
293.449	682.12
293.68	649.12
293.91	644.12
294.141	655.12
294.372	656.12
294.603	642.12
294.833	682.12
295.064	665.12
295.295	650.12
295.525	656.12
295.756	661.12
295.987	642.12
296.217	645.12
296.448	661.12
296.679	675.12
296.909	694.12
297.14	670.12
297.37	687.12
297.601	663.12
297.831	685.12
298.062	676.12
298.292	726.12
298.523	708.12
298.753	712.12
298.984	705.12
299.214	732.12
299.445	726.12
299.675	716.12
299.905	730.12
300.136	786.12
300.366	852.12
300.597	1038.12
300.827	1389.12
301.057	1837.12
301.288	1781.12
301.518	1187.12
301.748	963.12
301.979	931.12
302.209	896.12
302.439	888.12
302.669	928.12
302.9	1124.12
303.13	1481.12
303.36	2093.12
303.59	2802.12
303.82	2469.12
304.051	1490.12
304.281	1110.12
304.511	946.12
304.741	894.12
304.971	882.12
305.201	842.12
305.431	804.12
305.661	806.12
305.891	754.12
306.121	775.12
306.352	783.12
306.582	762.12
306.812	750.12
307.042	756.12
307.272	750.12
307.502	754.12
307.731	755.12
307.961	763.12
308.191	736.12
308.421	724.12
308.651	747.12
308.881	759.12
309.111	782.12
309.341	744.12
309.571	751.12
309.8	760.12
310.03	766.12
310.26	754.12
310.49	788.12
310.72	796.12
310.949	796.12
311.179	808.12
311.409	807.12
311.639	792.12
311.868	778.12
312.098	779.12
312.328	796.12
312.557	834.12
312.787	804.12
313.017	806.12
313.246	828.12
313.476	828.12
313.706	829.12
313.935	873.12
314.165	918.12
314.394	958.12
314.624	893.12
314.853	871.12
315.083	836.12
315.312	905.12
315.542	878.12
315.771	914.12
316.001	903.12
316.23	924.12
316.46	954.12
316.689	1028.12
316.919	1204.12
317.148	1699.12
317.377	2542.12
317.607	3662.12
317.836	3718.12
318.065	2236.12
318.295	1504.12
318.524	1236.12
318.753	1124.12
318.983	1065.12
319.212	984.12
319.441	998.12
319.67	963.12
319.9	969.12
320.129	955.12
320.358	958.12
320.587	954.12
320.816	916.12
321.046	948.12
321.275	966.12
321.504	967.12
321.733	979.12
321.962	972.12
322.191	1031.12
322.42	1006.12
322.649	1006.12
322.878	1011.12
323.108	986.12
323.337	1010.12
323.566	1036.12
323.795	1050.12
324.024	1059.12
324.253	1074.12
324.482	1096.12
324.71	1171.12
324.939	1190.12
325.168	1218.12
325.397	1260.12
325.626	1468.12
325.855	2030.12
326.084	3054.12
326.313	4484.12
326.542	4879.12
326.77	3079.12
326.999	2104.12
327.228	1824.12
327.457	1690.12
327.686	1730.12
327.914	1872.12
328.143	2114.12
328.372	2384.12
328.6	2600.12
328.829	2397.12
329.058	2128.12
329.287	1893.12
329.515	1739.12
329.744	1663.12
329.972	1594.12
330.201	1499.12
330.43	1470.12
330.658	1406.12
330.887	1450.12
331.115	1422.12
331.344	1387.12
331.572	1400.12
331.801	1377.12
332.03	1395.12
332.258	1381.12
332.486	1462.12
332.715	1628.12
332.943	1925.12
333.172	2306.12
333.4	2270.12
333.629	1835.12
333.857	1701.12
334.085	1694.12
334.314	1783.12
334.542	1915.12
334.771	2175.12
334.999	2565.12
335.227	3107.12
335.455	3469.12
335.684	3244.12
335.912	2792.12
336.14	2421.12
336.369	2171.12
336.597	2035.12
336.825	1875.12
337.053	1806.12
337.281	1683.12
337.51	1563.12
337.738	1498.12
337.966	1474.12
338.194	1458.12
338.422	1379.12
338.65	1385.12
338.878	1325.12
339.106	1294.12
339.334	1300.12
339.562	1286.12
339.79	1247.12
340.018	1220.12
340.246	1228.12
340.474	1222.12
340.702	1239.12
340.93	1236.12
341.158	1214.12
341.386	1216.12
341.614	1204.12
341.842	1171.12
342.07	1171.12
342.298	1148.12
342.526	1172.12
342.754	1119.12
342.981	1135.12
343.209	1131.12
343.437	1144.12
343.665	1150.12
343.893	1169.12
344.12	1187.12
344.348	1171.12
344.576	1133.12
344.804	1109.12
345.031	1084.12
345.259	1091.12
345.487	1076.12
345.714	1080.12
345.942	1055.12
346.17	1077.12
346.397	1029.12
346.625	1036.12
346.853	1017.12
347.08	1041.12
347.308	1039.12
347.535	1043.12
347.763	1028.12
347.99	1039.12
348.218	1040.12
348.445	1067.12
348.673	1013.12
348.9	1002.12
349.128	1044.12
349.355	1018.12
349.583	1007.12
349.81	1058.12
350.037	983.12
350.265	1012.12
350.492	1005.12
350.72	986.12
350.947	990.12
351.174	1014.12
351.402	1035.12
351.629	986.12
351.856	985.12
352.083	998.12
352.311	981.12
352.538	1001.12
352.765	975.12
352.992	999.12
353.22	980.12
353.447	967.12
353.674	991.12
353.901	1015.12
354.128	1010.12
354.355	978.12
354.583	995.12
354.81	1032.12
355.037	1018.12
355.264	984.12
355.491	996.12
355.718	992.12
355.945	998.12
356.172	1014.12
356.399	1033.12
356.626	1031.12
356.853	1028.12
357.08	1003.12
357.307	1019.12
357.534	1068.12
357.761	1062.12
357.988	1042.12
358.215	1082.12
358.441	1064.12
358.668	1043.12
358.895	1067.12
359.122	1083.12
359.349	1036.12
359.576	1055.12
359.802	1037.12
360.029	1062.12
360.256	1066.12
360.483	1058.12
360.709	1035.12
360.936	1065.12
361.163	1058.12
361.39	1058.12
361.616	1030.12
361.843	1093.12
362.07	1055.12
362.296	1078.12
362.523	1040.12
362.749	1082.12
362.976	1061.12
363.203	1060.12
363.429	1052.12
363.656	1021.12
363.882	1044.12
364.109	1031.12
364.335	1042.12
364.562	1052.12
364.788	1072.12
365.015	1074.12
365.241	1071.12
365.468	1145.12
365.694	1141.12
365.92	1142.12
366.147	1071.12
366.373	1080.12
366.599	1061.12
366.826	1050.12
367.052	1074.12
367.278	1086.12
367.505	1090.12
367.731	1087.12
367.957	1095.12
368.184	1123.12
368.41	1107.12
368.636	1102.12
368.862	1076.12
369.089	1083.12
369.315	1099.12
369.541	1129.12
369.767	1092.12
369.993	1088.12
370.219	1093.12
370.445	1105.12
370.672	1088.12
370.898	1124.12
371.124	1104.12
371.35	1116.12
371.576	1140.12
371.802	1158.12
372.028	1152.12
372.254	1151.12
372.48	1124.12
372.706	1147.12
372.932	1143.12
373.158	1181.12
373.384	1154.12
373.61	1153.12
373.835	1146.12
374.061	1143.12
374.287	1173.12
374.513	1196.12
374.739	1194.12
374.965	1177.12
375.191	1184.12
375.416	1205.12
375.642	1196.12
375.868	1206.12
376.094	1174.12
376.319	1163.12
376.545	1168.12
376.771	1156.12
376.997	1131.12
377.222	1124.12
377.448	1126.12
377.674	1154.12
377.899	1156.12
378.125	1138.12
378.35	1115.12
378.576	1194.12
378.802	1178.12
379.027	1161.12
379.253	1207.12
379.478	1240.12
379.704	1404.12
379.929	1871.12
380.155	2703.12
380.38	2864.12
380.606	1913.12
380.831	1389.12
381.057	1264.12
381.282	1217.12
381.507	1182.12
381.733	1153.12
381.958	1126.12
382.184	1135.12
382.409	1111.12
382.634	1158.12
382.86	1148.12
383.085	1105.12
383.31	1147.12
383.535	1151.12
383.761	1122.12
383.986	1146.12
384.211	1132.12
384.436	1180.12
384.662	1172.12
384.887	1192.12
385.112	1158.12
385.337	1210.12
385.562	1161.12
385.787	1175.12
386.013	1154.12
386.238	1158.12
386.463	1172.12
386.688	1156.12
386.913	1162.12
387.138	1174.12
387.363	1168.12
387.588	1171.12
387.813	1177.12
388.038	1172.12
388.263	1172.12
388.488	1169.12
388.713	1162.12
388.938	1146.12
389.163	1160.12
389.387	1167.12
389.612	1180.12
389.837	1173.12
390.062	1160.12
390.287	1172.12
390.512	1180.12
390.736	1206.12
390.961	1208.12
391.186	1191.12
391.411	1244.12
391.636	1218.12
391.86	1243.12
392.085	1245.12
392.31	1204.12
392.534	1188.12
392.759	1204.12
392.984	1212.12
393.208	1173.12
393.433	1170.12
393.658	1198.12
393.882	1166.12
394.107	1168.12
394.331	1167.12
394.556	1193.12
394.78	1205.12
395.005	1190.12
395.229	1185.12
395.454	1214.12
395.678	1214.12
395.903	1218.12
396.127	1235.12
396.352	1198.12
396.576	1185.12
396.801	1209.12
397.025	1231.12
397.249	1208.12
397.474	1223.12
397.698	1232.12
397.922	1238.12
398.147	1208.12
398.371	1262.12
398.595	1311.12
398.82	1305.12
399.044	1374.12
399.268	1441.12
399.492	1520.12
399.717	1588.12
399.941	1571.12
400.165	1506.12
400.389	1421.12
400.613	1374.12
400.837	1353.12
401.062	1315.12
401.286	1316.12
401.51	1316.12
401.734	1293.12
401.958	1306.12
402.182	1326.12
402.406	1327.12
402.63	1302.12
402.854	1299.12
403.078	1306.12
403.302	1316.12
403.526	1364.12
403.75	1340.12
403.974	1354.12
404.198	1342.12
404.422	1367.12
404.645	1330.12
404.869	1359.12
405.093	1367.12
405.317	1351.12
405.541	1361.12
405.765	1357.12
405.988	1393.12
406.212	1378.12
406.436	1374.12
406.66	1394.12
406.883	1389.12
407.107	1436.12
407.331	1477.12
407.555	1485.12
407.778	1459.12
408.002	1413.12
408.226	1384.12
408.449	1412.12
408.673	1396.12
408.896	1374.12
409.12	1358.12
409.344	1363.12
409.567	1324.12
409.791	1354.12
410.014	1335.12
410.238	1322.12
410.461	1321.12
410.685	1326.12
410.908	1346.12
411.132	1321.12
411.355	1282.12
411.578	1300.12
411.802	1281.12
412.025	1298.12
412.249	1316.12
412.472	1263.12
412.695	1294.12
412.919	1257.12
413.142	1261.12
413.365	1269.12
413.589	1297.12
413.812	1300.12
414.035	1282.12
414.258	1306.12
414.482	1303.12
414.705	1258.12
414.928	1278.12
415.151	1282.12
415.374	1276.12
415.597	1263.12
415.821	1239.12
416.044	1238.12
416.267	1221.12
416.49	1236.12
416.713	1231.12
416.936	1263.12
417.159	1233.12
417.382	1204.12
417.605	1230.12
417.828	1182.12
418.051	1238.12
418.274	1245.12
418.497	1180.12
418.72	1247.12
418.943	1238.12
419.166	1327.12
419.389	1358.12
419.611	1331.12
419.834	1299.12
420.057	1286.12
420.28	1263.12
420.503	1228.12
420.726	1239.12
420.948	1228.12
421.171	1236.12
421.394	1238.12
421.617	1239.12
421.839	1260.12
422.062	1238.12
422.285	1230.12
422.507	1230.12
422.73	1235.12
422.953	1259.12
423.175	1257.12
423.398	1292.12
423.621	1245.12
423.843	1255.12
424.066	1257.12
424.288	1223.12
424.511	1233.12
424.733	1234.12
424.956	1244.12
425.178	1195.12
425.401	1210.12
425.623	1244.12
425.846	1215.12
426.068	1219.12
426.291	1177.12
426.513	1178.12
426.735	1178.12
426.958	1180.12
427.18	1164.12
427.402	1165.12
427.625	1175.12
427.847	1155.12
428.069	1164.12
428.292	1166.12
428.514	1156.12
428.736	1133.12
428.958	1156.12
429.181	1128.12
429.403	1139.12
429.625	1127.12
429.847	1146.12
430.069	1134.12
430.292	1188.12
430.514	1212.12
430.736	1212.12
430.958	1160.12
431.18	1127.12
431.402	1169.12
431.624	1116.12
431.846	1122.12
432.068	1113.12
432.29	1101.12
432.512	1109.12
432.734	1149.12
432.956	1144.12
433.178	1128.12
433.4	1133.12
433.622	1107.12
433.844	1158.12
434.066	1146.12
434.287	1129.12
434.509	1114.12
434.731	1140.12
434.953	1191.12
435.175	1209.12
435.397	1192.12
435.618	1162.12
435.84	1135.12
436.062	1102.12
436.284	1142.12
436.505	1144.12
436.727	1117.12
436.949	1109.12
437.17	1134.12
437.392	1101.12
437.614	1107.12
437.835	1079.12
438.057	1082.12
438.278	1061.12
438.5	1105.12
438.721	1125.12
438.943	1131.12
439.165	1174.12
439.386	1172.12
439.608	1168.12
439.829	1194.12
440.05	1216.12
440.272	1238.12
440.493	1204.12
440.715	1159.12
440.936	1169.12
441.158	1177.12
441.379	1214.12
441.6	1261.12
441.822	1293.12
442.043	1318.12
442.264	1330.12
442.486	1250.12
442.707	1237.12
442.928	1210.12
443.149	1203.12
443.371	1207.12
443.592	1256.12
443.813	1235.12
444.034	1256.12
444.255	1253.12
444.476	1268.12
444.698	1299.12
444.919	1325.12
445.14	1381.12
445.361	1292.12
445.582	1270.12
445.803	1216.12
446.024	1187.12
446.245	1173.12
446.466	1224.12
446.687	1214.12
446.908	1192.12
447.129	1147.12
447.35	1147.12
447.571	1147.12
447.792	1150.12
448.013	1141.12
448.234	1121.12
448.455	1114.12
448.675	1162.12
448.896	1143.12
449.117	1171.12
449.338	1236.12
449.559	1301.12
449.779	1196.12
450	1132.12
450.221	1104.12
450.442	1080.12
450.662	1095.12
450.883	1088.12
451.104	1062.12
451.324	1079.12
451.545	1076.12
451.766	1068.12
451.986	1095.12
452.207	1144.12
452.428	1372.12
452.648	1822.12
452.869	1601.12
453.089	1238.12
453.31	1186.12
453.53	1170.12
453.751	1198.12
453.971	1299.12
454.192	1263.12
454.412	1130.12
454.633	1098.12
454.853	1061.12
455.073	1049.12
455.294	1045.12
455.514	1016.12
455.734	1025.12
455.955	1039.12
456.175	1008.12
456.395	1021.12
456.616	1038.12
456.836	1045.12
457.056	1065.12
457.276	1047.12
457.497	1109.12
457.717	1115.12
457.937	1094.12
458.157	1079.12
458.377	1093.12
458.598	1099.12
458.818	1117.12
459.038	1112.12
459.258	1116.12
459.478	1132.12
459.698	1134.12
459.918	1152.12
460.138	1128.12
460.358	1190.12
460.578	1189.12
460.798	1236.12
461.018	1236.12
461.238	1251.12
461.458	1219.12
461.678	1230.12
461.898	1241.12
462.118	1274.12
462.338	1314.12
462.558	1326.12
462.777	1336.12
462.997	1386.12
463.217	1425.12
463.437	1453.12
463.657	1474.12
463.876	1472.12
464.096	1381.12
464.316	1350.12
464.536	1367.12
464.755	1300.12
464.975	1263.12
465.195	1256.12
465.414	1194.12
465.634	1159.12
465.854	1181.12
466.073	1178.12
466.293	1128.12
466.512	1154.12
466.732	1156.12
466.951	1194.12
467.171	1271.12
467.391	1237.12
467.61	1162.12
467.829	1127.12
468.049	1132.12
468.268	1120.12
468.488	1120.12
468.707	1097.12
468.927	1120.12
469.146	1100.12
469.365	1105.12
469.585	1107.12
469.804	1166.12
470.023	1152.12
470.243	1172.12
470.462	1192.12
470.681	1236.12
470.901	1318.12
471.12	1529.12
471.339	1556.12
471.558	1281.12
471.777	1217.12
471.997	1178.12
472.216	1158.12
472.435	1146.12
472.654	1133.12
472.873	1125.12
473.092	1115.12
473.311	1121.12
473.53	1112.12
473.749	1162.12
473.968	1153.12
474.187	1118.12
474.406	1094.12
474.625	1169.12
474.844	1152.12
475.063	1114.12
475.282	1103.12
475.501	1101.12
475.72	1125.12
475.939	1150.12
476.158	1154.12
476.377	1174.12
476.596	1151.12
476.814	1132.12
477.033	1163.12
477.252	1180.12
477.471	1190.12
477.69	1232.12
477.908	1252.12
478.127	1272.12
478.346	1242.12
478.564	1284.12
478.783	1306.12
479.002	1348.12
479.22	1352.12
479.439	1324.12
479.658	1320.12
479.876	1331.12
480.095	1359.12
480.313	1356.12
480.532	1404.12
480.751	1376.12
480.969	1310.12
481.188	1318.12
481.406	1330.12
481.624	1330.12
481.843	1328.12
482.061	1283.12
482.28	1327.12
482.498	1332.12
482.717	1337.12
482.935	1343.12
483.153	1373.12
483.372	1389.12
483.59	1410.12
483.808	1430.12
484.027	1429.12
484.245	1515.12
484.463	1642.12
484.681	1754.12
484.9	1659.12
485.118	1538.12
485.336	1538.12
485.554	1544.12
485.772	1607.12
485.99	1812.12
486.209	1926.12
486.427	1682.12
486.645	1529.12
486.863	1477.12
487.081	1465.12
487.299	1425.12
487.517	1445.12
487.735	1423.12
487.953	1465.12
488.171	1459.12
488.389	1442.12
488.607	1396.12
488.825	1367.12
489.043	1375.12
489.261	1360.12
489.479	1373.12
489.696	1390.12
489.914	1413.12
490.132	1398.12
490.35	1405.12
490.568	1400.12
490.786	1400.12
491.003	1464.12
491.221	1486.12
