Data from SnStandardFlinnAPT0064_LampEnergy5.5_LIBS07252019.E.O._I.C._HRD10591_15-14-42-491.txt Node
Date: Thu Jul 25 15:14:42 EDT 2019
User: cochatt
Spectrometer: HR+D1059
Trigger mode: 1
Integration Time (sec): 1.000000E-1
Scans to average: 1
Electric dark correction enabled: true
Nonlinearity correction enabled: false
Boxcar width: 0
XAxis mode: Wavelengths
Number of Pixels in Spectrum: 2048
>>>>>Begin Spectral Data<<<<<
223.165	-15.88
223.4	-15.88
223.635	-15.88
223.869	-35.88
224.104	0.12
224.338	-14.88
224.573	-12.88
224.808	-1.88
225.042	-14.88
225.277	-18.88
225.511	1.12
225.746	2.12
225.98	10.12
226.215	7.12
226.449	12.12
226.683	36.12
226.918	19.12
227.152	27.12
227.387	39.12
227.621	46.12
227.856	19.12
228.09	47.12
228.324	55.12
228.559	52.12
228.793	67.12
229.027	130.12
229.262	161.12
229.496	134.12
229.73	126.12
229.964	140.12
230.199	135.12
230.433	143.12
230.667	151.12
230.901	162.12
231.136	170.12
231.37	151.12
231.604	178.12
231.838	193.12
232.072	206.12
232.306	228.12
232.541	197.12
232.775	190.12
233.009	183.12
233.243	192.12
233.477	196.12
233.711	217.12
233.945	246.12
234.179	230.12
234.413	192.12
234.647	205.12
234.881	196.12
235.115	216.12
235.349	253.12
235.583	283.12
235.817	375.12
236.051	369.12
236.285	261.12
236.519	229.12
236.753	204.12
236.987	213.12
237.221	222.12
237.455	220.12
237.689	209.12
237.922	202.12
238.156	212.12
238.39	212.12
238.624	221.12
238.858	206.12
239.091	214.12
239.325	202.12
239.559	227.12
239.793	235.12
240.027	242.12
240.26	223.12
240.494	236.12
240.728	244.12
240.961	248.12
241.195	273.12
241.429	263.12
241.662	295.12
241.896	303.12
242.13	341.12
242.363	399.12
242.597	540.12
242.83	539.12
243.064	536.12
243.298	598.12
243.531	521.12
243.765	359.12
243.998	323.12
244.232	304.12
244.465	279.12
244.699	256.12
244.932	280.12
245.166	284.12
245.399	298.12
245.633	278.12
245.866	286.12
246.099	269.12
246.333	270.12
246.566	264.12
246.8	276.12
247.033	283.12
247.266	285.12
247.5	284.12
247.733	292.12
247.966	277.12
248.2	306.12
248.433	351.12
248.666	351.12
248.899	352.12
249.133	329.12
249.366	331.12
249.599	360.12
249.832	383.12
250.066	393.12
250.299	343.12
250.532	328.12
250.765	319.12
250.998	308.12
251.231	323.12
251.465	331.12
251.698	317.12
251.931	313.12
252.164	300.12
252.397	324.12
252.63	323.12
252.863	325.12
253.096	339.12
253.329	340.12
253.562	330.12
253.795	322.12
254.028	328.12
254.261	341.12
254.494	357.12
254.727	379.12
254.96	437.12
255.193	453.12
255.426	380.12
255.659	344.12
255.892	372.12
256.124	372.12
256.357	368.12
256.59	379.12
256.823	379.12
257.056	425.12
257.289	503.12
257.521	507.12
257.754	433.12
257.987	381.12
258.22	395.12
258.452	376.12
258.685	389.12
258.918	363.12
259.151	389.12
259.383	424.12
259.616	450.12
259.849	469.12
260.081	413.12
260.314	409.12
260.547	395.12
260.779	395.12
261.012	400.12
261.244	419.12
261.477	401.12
261.71	397.12
261.942	437.12
262.175	431.12
262.407	423.12
262.64	431.12
262.872	457.12
263.105	474.12
263.337	525.12
263.57	511.12
263.802	541.12
264.035	547.12
264.267	554.12
264.499	574.12
264.732	597.12
264.964	614.12
265.197	587.12
265.429	588.12
265.661	600.12
265.894	654.12
266.126	714.12
266.358	771.12
266.591	734.12
266.823	662.12
267.055	605.12
267.287	585.12
267.52	561.12
267.752	557.12
267.984	534.12
268.216	521.12
268.448	515.12
268.681	525.12
268.913	507.12
269.145	525.12
269.377	512.12
269.609	512.12
269.841	518.12
270.073	562.12
270.306	614.12
270.538	781.12
270.77	1067.12
271.002	1245.12
271.234	964.12
271.466	676.12
271.698	597.12
271.93	557.12
272.162	527.12
272.394	517.12
272.626	521.12
272.858	502.12
273.09	496.12
273.322	494.12
273.553	494.12
273.785	475.12
274.017	487.12
274.249	500.12
274.481	493.12
274.713	503.12
274.945	491.12
275.176	494.12
275.408	504.12
275.64	503.12
275.872	523.12
276.104	514.12
276.335	530.12
276.567	509.12
276.799	535.12
277.031	541.12
277.262	527.12
277.494	543.12
277.726	591.12
277.957	640.12
278.189	688.12
278.421	671.12
278.652	625.12
278.884	609.12
279.115	565.12
279.347	556.12
279.579	578.12
279.81	557.12
280.042	539.12
280.273	564.12
280.505	576.12
280.736	566.12
280.968	573.12
281.199	635.12
281.431	669.12
281.662	724.12
281.894	642.12
282.125	633.12
282.356	615.12
282.588	639.12
282.819	635.12
283.051	700.12
283.282	715.12
283.513	856.12
283.745	1199.12
283.976	1844.12
284.207	2545.12
284.439	2283.12
284.67	1464.12
284.901	1201.12
285.132	1173.12
285.364	1118.12
285.595	931.12
285.826	857.12
286.057	989.12
286.288	1269.12
286.52	1606.12
286.751	1547.12
286.982	1025.12
287.213	821.12
287.444	734.12
287.675	699.12
287.906	698.12
288.138	669.12
288.369	653.12
288.6	654.12
288.831	655.12
289.062	659.12
289.293	669.12
289.524	671.12
289.755	661.12
289.986	680.12
290.217	683.12
290.448	684.12
290.679	690.12
290.91	687.12
291.141	691.12
291.371	721.12
291.602	725.12
291.833	681.12
292.064	681.12
292.295	640.12
292.526	641.12
292.757	658.12
292.987	638.12
293.218	630.12
293.449	635.12
293.68	623.12
293.91	611.12
294.141	629.12
294.372	619.12
294.603	623.12
294.833	630.12
295.064	610.12
295.295	611.12
295.525	593.12
295.756	648.12
295.987	609.12
296.217	629.12
296.448	627.12
296.679	635.12
296.909	616.12
297.14	663.12
297.37	633.12
297.601	673.12
297.831	654.12
298.062	639.12
298.292	654.12
298.523	649.12
298.753	665.12
298.984	675.12
299.214	685.12
299.445	664.12
299.675	667.12
299.905	702.12
300.136	730.12
300.366	801.12
300.597	943.12
300.827	1261.12
301.057	1624.12
301.288	1565.12
301.518	1082.12
301.748	911.12
301.979	860.12
302.209	831.12
302.439	834.12
302.669	899.12
302.9	1015.12
303.13	1321.12
303.36	1840.12
303.59	2445.12
303.82	2190.12
304.051	1391.12
304.281	1029.12
304.511	912.12
304.741	857.12
304.971	825.12
305.201	794.12
305.431	790.12
305.661	771.12
305.891	731.12
306.121	734.12
306.352	742.12
306.582	732.12
306.812	735.12
307.042	737.12
307.272	749.12
307.502	715.12
307.731	719.12
307.961	724.12
308.191	733.12
308.421	714.12
308.651	695.12
308.881	725.12
309.111	723.12
309.341	721.12
309.571	729.12
309.8	736.12
310.03	752.12
310.26	703.12
310.49	728.12
310.72	723.12
310.949	747.12
311.179	771.12
311.409	740.12
311.639	748.12
311.868	771.12
312.098	756.12
312.328	784.12
312.557	762.12
312.787	755.12
313.017	789.12
313.246	787.12
313.476	817.12
313.706	805.12
313.935	843.12
314.165	883.12
314.394	913.12
314.624	856.12
314.853	846.12
315.083	820.12
315.312	811.12
315.542	834.12
315.771	848.12
316.001	844.12
316.23	889.12
316.46	897.12
316.689	977.12
316.919	1126.12
317.148	1532.12
317.377	2251.12
317.607	3166.12
317.836	3292.12
318.065	2057.12
318.295	1421.12
318.524	1195.12
318.753	1076.12
318.983	1016.12
319.212	967.12
319.441	973.12
319.67	904.12
319.9	921.12
320.129	889.12
320.358	904.12
320.587	893.12
320.816	904.12
321.046	923.12
321.275	947.12
321.504	918.12
321.733	929.12
321.962	906.12
322.191	975.12
322.42	955.12
322.649	906.12
322.878	953.12
323.108	932.12
323.337	977.12
323.566	985.12
323.795	968.12
324.024	1017.12
324.253	1053.12
324.482	1049.12
324.71	1086.12
324.939	1153.12
325.168	1192.12
325.397	1232.12
325.626	1350.12
325.855	1879.12
326.084	2715.12
326.313	3929.12
326.542	4223.12
326.77	2875.12
326.999	1971.12
327.228	1676.12
327.457	1667.12
327.686	1692.12
327.914	1808.12
328.143	2020.12
328.372	2299.12
328.6	2521.12
328.829	2364.12
329.058	2099.12
329.287	1859.12
329.515	1696.12
329.744	1598.12
329.972	1525.12
330.201	1451.12
330.43	1436.12
330.658	1369.12
330.887	1313.12
331.115	1309.12
331.344	1318.12
331.572	1299.12
331.801	1339.12
332.03	1320.12
332.258	1341.12
332.486	1403.12
332.715	1535.12
332.943	1789.12
333.172	2079.12
333.4	2075.12
333.629	1708.12
333.857	1632.12
334.085	1673.12
334.314	1700.12
334.542	1843.12
334.771	2139.12
334.999	2493.12
335.227	2975.12
335.455	3282.12
335.684	3110.12
335.912	2733.12
336.14	2371.12
336.369	2144.12
336.597	1935.12
336.825	1806.12
337.053	1712.12
337.281	1598.12
337.51	1518.12
337.738	1467.12
337.966	1414.12
338.194	1381.12
338.422	1319.12
338.65	1282.12
338.878	1293.12
339.106	1266.12
339.334	1221.12
339.562	1243.12
339.79	1217.12
340.018	1206.12
340.246	1178.12
340.474	1167.12
340.702	1169.12
340.93	1175.12
341.158	1165.12
341.386	1168.12
341.614	1158.12
341.842	1155.12
342.07	1117.12
342.298	1129.12
342.526	1103.12
342.754	1075.12
342.981	1056.12
343.209	1079.12
343.437	1087.12
343.665	1071.12
343.893	1102.12
344.12	1117.12
344.348	1107.12
344.576	1079.12
344.804	1030.12
345.031	1004.12
345.259	1023.12
345.487	1022.12
345.714	1007.12
345.942	1008.12
346.17	1007.12
346.397	982.12
346.625	1030.12
346.853	989.12
347.08	990.12
347.308	993.12
347.535	969.12
347.763	1006.12
347.99	990.12
348.218	1015.12
348.445	988.12
348.673	982.12
348.9	981.12
349.128	977.12
349.355	985.12
349.583	960.12
349.81	965.12
350.037	990.12
350.265	961.12
350.492	993.12
350.72	951.12
350.947	979.12
351.174	974.12
351.402	927.12
351.629	937.12
351.856	960.12
352.083	993.12
352.311	950.12
352.538	955.12
352.765	950.12
352.992	958.12
353.22	953.12
353.447	935.12
353.674	956.12
353.901	956.12
354.128	957.12
354.355	951.12
354.583	965.12
354.81	955.12
355.037	968.12
355.264	960.12
355.491	971.12
355.718	948.12
355.945	974.12
356.172	987.12
356.399	934.12
356.626	981.12
356.853	993.12
357.08	1024.12
357.307	1005.12
357.534	997.12
357.761	1000.12
357.988	1023.12
358.215	1007.12
358.441	995.12
358.668	994.12
358.895	996.12
359.122	987.12
359.349	994.12
359.576	1005.12
359.802	1013.12
360.029	1017.12
360.256	1025.12
360.483	1016.12
360.709	1020.12
360.936	1048.12
361.163	1001.12
361.39	990.12
361.616	1029.12
361.843	1040.12
362.07	1012.12
362.296	1009.12
362.523	1004.12
362.749	1020.12
362.976	1018.12
363.203	1026.12
363.429	1005.12
363.656	1024.12
363.882	1023.12
364.109	1000.12
364.335	1011.12
364.562	1009.12
364.788	1038.12
365.015	1036.12
365.241	1056.12
365.468	1058.12
365.694	1068.12
365.92	1042.12
366.147	989.12
366.373	1027.12
366.599	1037.12
366.826	1021.12
367.052	1029.12
367.278	1048.12
367.505	1031.12
367.731	1055.12
367.957	1051.12
368.184	1046.12
368.41	1073.12
368.636	1058.12
368.862	1055.12
369.089	1048.12
369.315	1052.12
369.541	1083.12
369.767	1088.12
369.993	1055.12
370.219	1063.12
370.445	1044.12
370.672	1070.12
370.898	1079.12
371.124	1079.12
371.35	1113.12
371.576	1091.12
371.802	1074.12
372.028	1102.12
372.254	1088.12
372.48	1102.12
372.706	1122.12
372.932	1127.12
373.158	1111.12
373.384	1148.12
373.61	1139.12
373.835	1111.12
374.061	1140.12
374.287	1147.12
374.513	1151.12
374.739	1173.12
374.965	1147.12
375.191	1172.12
375.416	1197.12
375.642	1137.12
375.868	1152.12
376.094	1128.12
376.319	1123.12
376.545	1094.12
376.771	1108.12
376.997	1085.12
377.222	1103.12
377.448	1075.12
377.674	1080.12
377.899	1081.12
378.125	1080.12
378.35	1111.12
378.576	1105.12
378.802	1100.12
379.027	1106.12
379.253	1141.12
379.478	1181.12
379.704	1295.12
379.929	1702.12
380.155	2395.12
380.38	2572.12
380.606	1739.12
380.831	1334.12
381.057	1197.12
381.282	1163.12
381.507	1132.12
381.733	1105.12
381.958	1100.12
382.184	1089.12
382.409	1067.12
382.634	1088.12
382.86	1071.12
383.085	1107.12
383.31	1084.12
383.535	1083.12
383.761	1108.12
383.986	1102.12
384.211	1093.12
384.436	1133.12
384.662	1115.12
384.887	1133.12
385.112	1124.12
385.337	1135.12
385.562	1128.12
385.787	1099.12
386.013	1129.12
386.238	1143.12
386.463	1102.12
386.688	1120.12
386.913	1105.12
387.138	1096.12
387.363	1116.12
387.588	1117.12
387.813	1122.12
388.038	1110.12
388.263	1062.12
388.488	1140.12
388.713	1115.12
388.938	1118.12
389.163	1112.12
389.387	1126.12
389.612	1124.12
389.837	1102.12
390.062	1132.12
390.287	1124.12
390.512	1122.12
390.736	1158.12
390.961	1150.12
391.186	1182.12
391.411	1157.12
391.636	1180.12
391.86	1170.12
392.085	1199.12
392.31	1173.12
392.534	1151.12
392.759	1165.12
392.984	1126.12
393.208	1161.12
393.433	1147.12
393.658	1131.12
393.882	1146.12
394.107	1118.12
394.331	1127.12
394.556	1122.12
394.78	1145.12
395.005	1165.12
395.229	1141.12
395.454	1161.12
395.678	1172.12
395.903	1201.12
396.127	1153.12
396.352	1132.12
396.576	1172.12
396.801	1164.12
397.025	1182.12
397.249	1181.12
397.474	1159.12
397.698	1187.12
397.922	1213.12
398.147	1204.12
398.371	1216.12
398.595	1241.12
398.82	1247.12
399.044	1284.12
399.268	1323.12
399.492	1417.12
399.717	1545.12
399.941	1501.12
400.165	1421.12
400.389	1375.12
400.613	1326.12
400.837	1284.12
401.062	1264.12
401.286	1272.12
401.51	1238.12
401.734	1224.12
401.958	1232.12
402.182	1245.12
402.406	1225.12
402.63	1252.12
402.854	1277.12
403.078	1254.12
403.302	1276.12
403.526	1288.12
403.75	1300.12
403.974	1271.12
404.198	1288.12
404.422	1324.12
404.645	1319.12
404.869	1263.12
405.093	1303.12
405.317	1300.12
405.541	1340.12
405.765	1313.12
405.988	1319.12
406.212	1311.12
406.436	1357.12
406.66	1329.12
406.883	1345.12
407.107	1380.12
407.331	1357.12
407.555	1421.12
407.778	1379.12
408.002	1407.12
408.226	1385.12
408.449	1358.12
408.673	1347.12
408.896	1313.12
409.12	1316.12
409.344	1285.12
409.567	1280.12
409.791	1301.12
410.014	1266.12
410.238	1284.12
410.461	1280.12
410.685	1243.12
410.908	1249.12
411.132	1251.12
411.355	1255.12
411.578	1264.12
411.802	1223.12
412.025	1239.12
412.249	1237.12
412.472	1263.12
412.695	1240.12
412.919	1222.12
413.142	1213.12
413.365	1185.12
413.589	1214.12
413.812	1220.12
414.035	1193.12
414.258	1213.12
414.482	1220.12
414.705	1215.12
414.928	1227.12
415.151	1225.12
415.374	1211.12
415.597	1210.12
415.821	1162.12
416.044	1165.12
416.267	1177.12
416.49	1137.12
416.713	1156.12
416.936	1172.12
417.159	1179.12
417.382	1153.12
417.605	1150.12
417.828	1187.12
418.051	1191.12
418.274	1203.12
418.497	1181.12
418.72	1207.12
418.943	1184.12
419.166	1244.12
419.389	1289.12
419.611	1279.12
419.834	1264.12
420.057	1228.12
420.28	1162.12
420.503	1182.12
420.726	1179.12
420.948	1182.12
421.171	1192.12
421.394	1171.12
421.617	1177.12
421.839	1203.12
422.062	1225.12
422.285	1151.12
422.507	1188.12
422.73	1180.12
422.953	1197.12
423.175	1192.12
423.398	1201.12
423.621	1186.12
423.843	1223.12
424.066	1208.12
424.288	1191.12
424.511	1175.12
424.733	1170.12
424.956	1189.12
425.178	1147.12
425.401	1174.12
425.623	1161.12
425.846	1131.12
426.068	1157.12
426.291	1142.12
426.513	1128.12
426.735	1134.12
426.958	1123.12
427.18	1128.12
427.402	1128.12
427.625	1108.12
427.847	1097.12
428.069	1113.12
428.292	1089.12
428.514	1081.12
428.736	1087.12
428.958	1088.12
429.181	1052.12
429.403	1091.12
429.625	1088.12
429.847	1120.12
430.069	1096.12
430.292	1150.12
430.514	1145.12
430.736	1153.12
430.958	1105.12
431.18	1103.12
431.402	1070.12
431.624	1046.12
431.846	1050.12
432.068	1071.12
432.29	1079.12
432.512	1076.12
432.734	1087.12
432.956	1099.12
433.178	1109.12
433.4	1086.12
433.622	1092.12
433.844	1121.12
434.066	1061.12
434.287	1076.12
434.509	1052.12
434.731	1086.12
434.953	1139.12
435.175	1119.12
435.397	1135.12
435.618	1095.12
435.84	1083.12
436.062	1061.12
436.284	1071.12
436.505	1107.12
436.727	1083.12
436.949	1079.12
437.17	1090.12
437.392	1077.12
437.614	1097.12
437.835	1024.12
438.057	1059.12
438.278	1028.12
438.5	1099.12
438.721	1081.12
438.943	1106.12
439.165	1104.12
439.386	1098.12
439.608	1087.12
439.829	1110.12
440.05	1142.12
440.272	1157.12
440.493	1119.12
440.715	1141.12
440.936	1151.12
441.158	1131.12
441.379	1149.12
441.6	1176.12
441.822	1203.12
442.043	1236.12
442.264	1291.12
442.486	1204.12
442.707	1185.12
442.928	1149.12
443.149	1147.12
443.371	1148.12
443.592	1208.12
443.813	1167.12
444.034	1181.12
444.255	1181.12
444.476	1211.12
444.698	1285.12
444.919	1278.12
445.14	1326.12
445.361	1281.12
445.582	1199.12
445.803	1172.12
446.024	1172.12
446.245	1155.12
446.466	1169.12
446.687	1142.12
446.908	1160.12
447.129	1100.12
447.35	1106.12
447.571	1086.12
447.792	1077.12
448.013	1090.12
448.234	1051.12
448.455	1063.12
448.675	1106.12
448.896	1112.12
449.117	1113.12
449.338	1172.12
449.559	1190.12
449.779	1098.12
450	1041.12
450.221	1025.12
450.442	1062.12
450.662	1065.12
450.883	1029.12
451.104	1037.12
451.324	1031.12
451.545	1039.12
451.766	1041.12
451.986	1031.12
452.207	1112.12
452.428	1251.12
452.648	1655.12
452.869	1478.12
453.089	1183.12
453.31	1121.12
453.53	1140.12
453.751	1098.12
453.971	1166.12
454.192	1143.12
454.412	1047.12
454.633	1023.12
454.853	1016.12
455.073	972.12
455.294	1003.12
455.514	987.12
455.734	988.12
455.955	993.12
456.175	1001.12
456.395	976.12
456.616	972.12
456.836	1025.12
457.056	999.12
457.276	991.12
457.497	1055.12
457.717	1050.12
457.937	1052.12
458.157	1055.12
458.377	1053.12
458.598	1061.12
458.818	1059.12
459.038	1068.12
459.258	1053.12
459.478	1075.12
459.698	1054.12
459.918	1092.12
460.138	1133.12
460.358	1139.12
460.578	1147.12
460.798	1185.12
461.018	1188.12
461.238	1175.12
461.458	1216.12
461.678	1193.12
461.898	1200.12
462.118	1205.12
462.338	1239.12
462.558	1263.12
462.777	1250.12
462.997	1295.12
463.217	1351.12
463.437	1402.12
463.657	1374.12
463.876	1392.12
464.096	1331.12
464.316	1297.12
464.536	1279.12
464.755	1251.12
464.975	1187.12
465.195	1190.12
465.414	1166.12
465.634	1138.12
465.854	1128.12
466.073	1096.12
466.293	1115.12
466.512	1101.12
466.732	1097.12
466.951	1137.12
467.171	1201.12
467.391	1188.12
467.61	1124.12
467.829	1084.12
468.049	1087.12
468.268	1055.12
468.488	1071.12
468.707	1061.12
468.927	1065.12
469.146	1068.12
469.365	1078.12
469.585	1052.12
469.804	1112.12
470.023	1125.12
470.243	1140.12
470.462	1163.12
470.681	1201.12
470.901	1271.12
471.12	1392.12
471.339	1422.12
471.558	1233.12
471.777	1159.12
471.997	1155.12
472.216	1104.12
472.435	1071.12
472.654	1052.12
472.873	1060.12
473.092	1070.12
473.311	1075.12
473.53	1067.12
473.749	1105.12
473.968	1118.12
474.187	1112.12
474.406	1056.12
474.625	1049.12
474.844	1088.12
475.063	1075.12
475.282	1064.12
475.501	1061.12
475.72	1073.12
475.939	1093.12
476.158	1137.12
476.377	1124.12
476.596	1118.12
476.814	1097.12
477.033	1109.12
477.252	1153.12
477.471	1159.12
477.69	1212.12
477.908	1225.12
478.127	1222.12
478.346	1209.12
478.564	1239.12
478.783	1215.12
479.002	1302.12
479.22	1271.12
479.439	1266.12
479.658	1268.12
479.876	1273.12
480.095	1269.12
480.313	1304.12
480.532	1315.12
480.751	1280.12
480.969	1291.12
481.188	1242.12
481.406	1247.12
481.624	1247.12
481.843	1281.12
482.061	1275.12
482.28	1284.12
482.498	1270.12
482.717	1287.12
482.935	1244.12
483.153	1286.12
483.372	1337.12
483.59	1343.12
483.808	1378.12
484.027	1337.12
484.245	1407.12
484.463	1563.12
484.681	1635.12
484.9	1535.12
485.118	1480.12
485.336	1479.12
485.554	1463.12
485.772	1544.12
485.99	1680.12
486.209	1820.12
486.427	1543.12
486.645	1431.12
486.863	1421.12
487.081	1374.12
487.299	1363.12
487.517	1384.12
487.735	1388.12
487.953	1419.12
488.171	1407.12
488.389	1378.12
488.607	1360.12
488.825	1294.12
489.043	1297.12
489.261	1320.12
489.479	1339.12
489.696	1325.12
489.914	1333.12
490.132	1344.12
490.35	1346.12
490.568	1371.12
490.786	1388.12
491.003	1365.12
491.221	1434.12
491.439	1401.12
491.657	1425.12
491.874	1433.12
