Data from SnStandardFlinnAPT0064_LampEnergy10_LIBS07252019.E.O._I.C._HRD10591_15-21-43-494.txt Node
Date: Thu Jul 25 15:21:43 EDT 2019
User: cochatt
Spectrometer: HR+D1059
Trigger mode: 1
Integration Time (sec): 1.000000E-1
Scans to average: 1
Electric dark correction enabled: true
Nonlinearity correction enabled: false
Boxcar width: 0
XAxis mode: Wavelengths
Number of Pixels in Spectrum: 2048
>>>>>Begin Spectral Data<<<<<
223.165	-16.81
223.4	-16.81
223.635	-16.81
223.869	-13.81
224.104	-25.81
224.338	-17.81
224.573	-14.81
224.808	-7.81
225.042	-5.81
225.277	0.19
225.511	-8.81
225.746	4.19
225.98	9.19
226.215	-0.81
226.449	20.19
226.683	16.19
226.918	29.19
227.152	33.19
227.387	38.19
227.621	23.19
227.856	44.19
228.09	43.19
228.324	47.19
228.559	58.19
228.793	107.19
229.027	298.19
229.262	330.19
229.496	300.19
229.73	291.19
229.964	283.19
230.199	316.19
230.433	280.19
230.667	300.19
230.901	311.19
231.136	320.19
231.37	360.19
231.604	394.19
231.838	448.19
232.072	500.19
232.306	550.19
232.541	486.19
232.775	412.19
233.009	407.19
233.243	394.19
233.477	460.19
233.711	526.19
233.945	592.19
234.179	515.19
234.413	463.19
234.647	472.19
234.881	464.19
235.115	517.19
235.349	625.19
235.583	773.19
235.817	978.19
236.051	986.19
236.285	656.19
236.519	528.19
236.753	507.19
236.987	493.19
237.221	518.19
237.455	506.19
237.689	470.19
237.922	460.19
238.156	457.19
238.39	481.19
238.624	489.19
238.858	484.19
239.091	477.19
239.325	476.19
239.559	480.19
239.793	489.19
240.027	506.19
240.26	518.19
240.494	581.19
240.728	587.19
240.961	616.19
241.195	641.19
241.429	673.19
241.662	697.19
241.896	774.19
242.13	910.19
242.363	1243.19
242.597	1579.19
242.83	1502.19
243.064	1484.19
243.298	1731.19
243.531	1472.19
243.765	957.19
243.998	778.19
244.232	686.19
244.465	662.19
244.699	634.19
244.932	649.19
245.166	666.19
245.399	672.19
245.633	666.19
245.866	693.19
246.099	658.19
246.333	644.19
246.566	665.19
246.8	637.19
247.033	650.19
247.266	654.19
247.5	628.19
247.733	651.19
247.966	699.19
248.2	740.19
248.433	871.19
248.666	976.19
248.899	916.19
249.133	851.19
249.366	873.19
249.599	946.19
249.832	1064.19
250.066	1064.19
250.299	831.19
250.532	766.19
250.765	768.19
250.998	747.19
251.231	709.19
251.465	718.19
251.698	735.19
251.931	739.19
252.164	727.19
252.397	754.19
252.63	776.19
252.863	783.19
253.096	767.19
253.329	796.19
253.562	794.19
253.795	777.19
254.028	776.19
254.261	820.19
254.494	871.19
254.727	1028.19
254.96	1242.19
255.193	1227.19
255.426	964.19
255.659	878.19
255.892	831.19
256.124	862.19
256.357	879.19
256.59	930.19
256.823	953.19
257.056	1134.19
257.289	1352.19
257.521	1452.19
257.754	1179.19
257.987	966.19
258.22	908.19
258.452	898.19
258.685	909.19
258.918	935.19
259.151	974.19
259.383	1049.19
259.616	1204.19
259.849	1287.19
260.081	1065.19
260.314	1004.19
260.547	956.19
260.779	968.19
261.012	950.19
261.244	974.19
261.477	952.19
261.71	961.19
261.942	1031.19
262.175	1024.19
262.407	1045.19
262.64	1046.19
262.872	1118.19
263.105	1159.19
263.337	1227.19
263.57	1266.19
263.802	1303.19
264.035	1316.19
264.267	1349.19
264.499	1379.19
264.732	1431.19
264.964	1442.19
265.197	1417.19
265.429	1450.19
265.661	1479.19
265.894	1569.19
266.126	1728.19
266.358	1938.19
266.591	1883.19
266.823	1609.19
267.055	1460.19
267.287	1400.19
267.52	1332.19
267.752	1318.19
267.984	1300.19
268.216	1283.19
268.448	1246.19
268.681	1222.19
268.913	1223.19
269.145	1218.19
269.377	1224.19
269.609	1240.19
269.841	1261.19
270.073	1356.19
270.306	1597.19
270.538	2097.19
270.77	3162.19
271.002	3815.19
271.234	2745.19
271.466	1833.19
271.698	1494.19
271.93	1374.19
272.162	1340.19
272.394	1286.19
272.626	1244.19
272.858	1262.19
273.09	1195.19
273.322	1218.19
273.553	1211.19
273.785	1168.19
274.017	1182.19
274.249	1184.19
274.481	1175.19
274.713	1200.19
274.945	1177.19
275.176	1208.19
275.408	1221.19
275.64	1213.19
275.872	1214.19
276.104	1237.19
276.335	1280.19
276.567	1278.19
276.799	1247.19
277.031	1314.19
277.262	1353.19
277.494	1382.19
277.726	1541.19
277.957	1828.19
278.189	2082.19
278.421	1921.19
278.652	1699.19
278.884	1668.19
279.115	1494.19
279.347	1410.19
279.579	1350.19
279.81	1366.19
280.042	1371.19
280.273	1425.19
280.505	1450.19
280.736	1468.19
280.968	1592.19
281.199	1719.19
281.431	2045.19
281.662	2142.19
281.894	1769.19
282.125	1608.19
282.356	1616.19
282.588	1667.19
282.819	1693.19
283.051	1835.19
283.282	1962.19
283.513	2460.19
283.745	3516.19
283.976	5460.19
284.207	7710.19
284.439	7011.19
284.67	4447.19
284.901	3699.19
285.132	3656.19
285.364	3526.19
285.595	2646.19
285.826	2384.19
286.057	2802.19
286.288	3824.19
286.52	5017.19
286.751	4736.19
286.982	2939.19
287.213	2263.19
287.444	1985.19
287.675	1855.19
287.906	1768.19
288.138	1706.19
288.369	1703.19
288.6	1690.19
288.831	1669.19
289.062	1671.19
289.293	1675.19
289.524	1734.19
289.755	1708.19
289.986	1707.19
290.217	1710.19
290.448	1692.19
290.679	1718.19
290.91	1785.19
291.141	1886.19
291.371	2020.19
291.602	2127.19
291.833	1921.19
292.064	1744.19
292.295	1682.19
292.526	1659.19
292.757	1603.19
292.987	1589.19
293.218	1590.19
293.449	1594.19
293.68	1587.19
293.91	1584.19
294.141	1544.19
294.372	1548.19
294.603	1535.19
294.833	1557.19
295.064	1522.19
295.295	1550.19
295.525	1518.19
295.756	1543.19
295.987	1562.19
296.217	1559.19
296.448	1526.19
296.679	1544.19
296.909	1595.19
297.14	1577.19
297.37	1607.19
297.601	1616.19
297.831	1588.19
298.062	1623.19
298.292	1627.19
298.523	1651.19
298.753	1684.19
298.984	1682.19
299.214	1681.19
299.445	1760.19
299.675	1741.19
299.905	1818.19
300.136	1913.19
300.366	2148.19
300.597	2722.19
300.827	3747.19
301.057	5108.19
301.288	5173.19
301.518	3346.19
301.748	2586.19
301.979	2326.19
302.209	2263.19
302.439	2303.19
302.669	2443.19
302.9	2893.19
303.13	4094.19
303.36	6006.19
303.59	8073.19
303.82	7006.19
304.051	4178.19
304.281	3039.19
304.511	2494.19
304.741	2357.19
304.971	2141.19
305.201	2110.19
305.431	1989.19
305.661	1926.19
305.891	1913.19
306.121	1908.19
306.352	1876.19
306.582	1852.19
306.812	1831.19
307.042	1848.19
307.272	1842.19
307.502	1854.19
307.731	1857.19
307.961	1831.19
308.191	1833.19
308.421	1765.19
308.651	1824.19
308.881	1829.19
309.111	1832.19
309.341	1815.19
309.571	1819.19
309.8	1862.19
310.03	1876.19
310.26	1841.19
310.49	1833.19
310.72	1876.19
310.949	1840.19
311.179	1881.19
311.409	1876.19
311.639	1917.19
311.868	1932.19
312.098	1940.19
312.328	1943.19
312.557	1955.19
312.787	1945.19
313.017	2000.19
313.246	1986.19
313.476	1996.19
313.706	2069.19
313.935	2190.19
314.165	2359.19
314.394	2460.19
314.624	2334.19
314.853	2153.19
315.083	2106.19
315.312	2166.19
315.542	2210.19
315.771	2215.19
316.001	2263.19
316.23	2326.19
316.46	2441.19
316.689	2667.19
316.919	3184.19
317.148	4544.19
317.377	6970.19
317.607	10226.19
317.836	10501.19
318.065	6412.19
318.295	4232.19
318.524	3399.19
318.753	2925.19
318.983	2772.19
319.212	2532.19
319.441	2510.19
319.67	2426.19
319.9	2383.19
320.129	2384.19
320.358	2356.19
320.587	2333.19
320.816	2319.19
321.046	2361.19
321.275	2344.19
321.504	2361.19
321.733	2412.19
321.962	2484.19
322.191	2532.19
322.42	2483.19
322.649	2455.19
322.878	2481.19
323.108	2462.19
323.337	2511.19
323.566	2539.19
323.795	2568.19
324.024	2659.19
324.253	2705.19
324.482	2828.19
324.71	2964.19
324.939	3189.19
325.168	3244.19
325.397	3368.19
325.626	3966.19
325.855	5493.19
326.084	8520.19
326.313	12284.19
326.542	13134.19
326.77	8846.19
326.999	5842.19
327.228	4914.19
327.457	4702.19
327.686	4740.19
327.914	4993.19
328.143	5824.19
328.372	6864.19
328.6	7414.19
328.829	6710.19
329.058	5691.19
329.287	4956.19
329.515	4615.19
329.744	4225.19
329.972	4012.19
330.201	3836.19
330.43	3670.19
330.658	3646.19
330.887	3530.19
331.115	3477.19
331.344	3478.19
331.572	3409.19
331.801	3422.19
332.03	3460.19
332.258	3566.19
332.486	3729.19
332.715	4291.19
332.943	5209.19
333.172	6505.19
333.4	6416.19
333.629	4955.19
333.857	4446.19
334.085	4463.19
334.314	4647.19
334.542	5095.19
334.771	5877.19
334.999	7202.19
335.227	8962.19
335.455	9894.19
335.684	9031.19
335.912	7493.19
336.14	6378.19
336.369	5630.19
336.597	5125.19
336.825	4832.19
337.053	4468.19
337.281	4216.19
337.51	4056.19
337.738	3838.19
337.966	3703.19
338.194	3551.19
338.422	3478.19
338.65	3404.19
338.878	3288.19
339.106	3270.19
339.334	3229.19
339.562	3112.19
339.79	3046.19
340.018	3063.19
340.246	3000.19
340.474	2996.19
340.702	3019.19
340.93	3009.19
341.158	3077.19
341.386	2964.19
341.614	2980.19
341.842	2919.19
342.07	2848.19
342.298	2846.19
342.526	2779.19
342.754	2732.19
342.981	2750.19
343.209	2755.19
343.437	2783.19
343.665	2760.19
343.893	2814.19
344.12	2823.19
344.348	2730.19
344.576	2721.19
344.804	2695.19
345.031	2619.19
345.259	2603.19
345.487	2582.19
345.714	2588.19
345.942	2546.19
346.17	2534.19
346.397	2484.19
346.625	2581.19
346.853	2541.19
347.08	2503.19
347.308	2466.19
347.535	2516.19
347.763	2504.19
347.99	2442.19
348.218	2451.19
348.445	2480.19
348.673	2414.19
348.9	2466.19
349.128	2439.19
349.355	2435.19
349.583	2448.19
349.81	2437.19
350.037	2368.19
350.265	2372.19
350.492	2343.19
350.72	2388.19
350.947	2371.19
351.174	2410.19
351.402	2424.19
351.629	2383.19
351.856	2398.19
352.083	2388.19
352.311	2349.19
352.538	2348.19
352.765	2380.19
352.992	2368.19
353.22	2362.19
353.447	2348.19
353.674	2402.19
353.901	2366.19
354.128	2417.19
354.355	2405.19
354.583	2411.19
354.81	2427.19
355.037	2481.19
355.264	2439.19
355.491	2464.19
355.718	2415.19
355.945	2434.19
356.172	2483.19
356.399	2476.19
356.626	2495.19
356.853	2546.19
357.08	2516.19
357.307	2550.19
357.534	2563.19
357.761	2610.19
357.988	2533.19
358.215	2573.19
358.441	2563.19
358.668	2542.19
358.895	2535.19
359.122	2532.19
359.349	2548.19
359.576	2535.19
359.802	2544.19
360.029	2534.19
360.256	2528.19
360.483	2524.19
360.709	2561.19
360.936	2520.19
361.163	2546.19
361.39	2561.19
361.616	2555.19
361.843	2502.19
362.07	2566.19
362.296	2545.19
362.523	2532.19
362.749	2571.19
362.976	2521.19
363.203	2505.19
363.429	2558.19
363.656	2537.19
363.882	2573.19
364.109	2544.19
364.335	2533.19
364.562	2540.19
364.788	2537.19
365.015	2579.19
365.241	2584.19
365.468	2780.19
365.694	2947.19
365.92	2808.19
366.147	2618.19
366.373	2635.19
366.599	2602.19
366.826	2573.19
367.052	2594.19
367.278	2643.19
367.505	2657.19
367.731	2594.19
367.957	2587.19
368.184	2629.19
368.41	2648.19
368.636	2614.19
368.862	2622.19
369.089	2642.19
369.315	2615.19
369.541	2606.19
369.767	2662.19
369.993	2632.19
370.219	2647.19
370.445	2701.19
370.672	2665.19
370.898	2659.19
371.124	2698.19
371.35	2709.19
371.576	2718.19
371.802	2748.19
372.028	2790.19
372.254	2789.19
372.48	2779.19
372.706	2756.19
372.932	2775.19
373.158	2809.19
373.384	2729.19
373.61	2835.19
373.835	2829.19
374.061	2775.19
374.287	2827.19
374.513	2819.19
374.739	2910.19
374.965	2910.19
375.191	2945.19
375.416	2940.19
375.642	2880.19
375.868	2834.19
376.094	2852.19
376.319	2811.19
376.545	2784.19
376.771	2793.19
376.997	2706.19
377.222	2666.19
377.448	2718.19
377.674	2780.19
377.899	2698.19
378.125	2776.19
378.35	2726.19
378.576	2794.19
378.802	2767.19
379.027	2840.19
379.253	2903.19
379.478	3061.19
379.704	3582.19
379.929	5042.19
380.155	7915.19
380.38	8569.19
380.606	5163.19
380.831	3676.19
381.057	3171.19
381.282	2962.19
381.507	2815.19
381.733	2789.19
381.958	2715.19
382.184	2675.19
382.409	2707.19
382.634	2666.19
382.86	2674.19
383.085	2728.19
383.31	2646.19
383.535	2746.19
383.761	2664.19
383.986	2688.19
384.211	2710.19
384.436	2740.19
384.662	2756.19
384.887	2753.19
385.112	2781.19
385.337	2803.19
385.562	2763.19
385.787	2779.19
386.013	2785.19
386.238	2732.19
386.463	2790.19
386.688	2792.19
386.913	2773.19
387.138	2791.19
387.363	2782.19
387.588	2725.19
387.813	2785.19
388.038	2751.19
388.263	2791.19
388.488	2728.19
388.713	2737.19
388.938	2716.19
389.163	2749.19
389.387	2751.19
389.612	2730.19
389.837	2727.19
390.062	2755.19
390.287	2810.19
390.512	2793.19
390.736	2833.19
390.961	2842.19
391.186	2866.19
391.411	2911.19
391.636	2884.19
391.86	2890.19
392.085	2902.19
392.31	2941.19
392.534	2857.19
392.759	2864.19
392.984	2823.19
393.208	2820.19
393.433	2810.19
393.658	2790.19
393.882	2824.19
394.107	2804.19
394.331	2810.19
394.556	2782.19
394.78	2848.19
395.005	2880.19
395.229	2855.19
395.454	2828.19
395.678	2890.19
395.903	2883.19
396.127	2842.19
396.352	2873.19
396.576	2856.19
396.801	2886.19
397.025	2867.19
397.249	2923.19
397.474	2931.19
397.698	2910.19
397.922	2994.19
398.147	2927.19
398.371	2940.19
398.595	3008.19
398.82	3074.19
399.044	3227.19
399.268	3312.19
399.492	3638.19
399.717	3642.19
399.941	3680.19
400.165	3553.19
400.389	3395.19
400.613	3252.19
400.837	3147.19
401.062	3122.19
401.286	3055.19
401.51	3067.19
401.734	3036.19
401.958	3025.19
402.182	3074.19
402.406	3090.19
402.63	3052.19
402.854	3096.19
403.078	3104.19
403.302	3130.19
403.526	3138.19
403.75	3147.19
403.974	3176.19
404.198	3105.19
404.422	3172.19
404.645	3146.19
404.869	3154.19
405.093	3172.19
405.317	3115.19
405.541	3216.19
405.765	3216.19
405.988	3323.19
406.212	3249.19
406.436	3278.19
406.66	3288.19
406.883	3266.19
407.107	3368.19
407.331	3418.19
407.555	3450.19
407.778	3431.19
408.002	3376.19
408.226	3386.19
408.449	3463.19
408.673	3342.19
408.896	3233.19
409.12	3202.19
409.344	3223.19
409.567	3170.19
409.791	3179.19
410.014	3224.19
410.238	3109.19
410.461	3141.19
410.685	3110.19
410.908	3139.19
411.132	3081.19
411.355	2975.19
411.578	3058.19
411.802	3038.19
412.025	3067.19
412.249	3083.19
412.472	3008.19
412.695	2999.19
412.919	3006.19
413.142	2988.19
413.365	2976.19
413.589	2972.19
413.812	2960.19
414.035	2955.19
414.258	2955.19
414.482	3006.19
414.705	3043.19
414.928	3014.19
415.151	2962.19
415.374	2966.19
415.597	2931.19
415.821	2907.19
416.044	2902.19
416.267	2834.19
416.49	2887.19
416.713	2871.19
416.936	2929.19
417.159	2840.19
417.382	2882.19
417.605	2816.19
417.828	2779.19
418.051	2844.19
418.274	2849.19
418.497	2850.19
418.72	2928.19
418.943	2874.19
419.166	3042.19
419.389	3182.19
419.611	3158.19
419.834	3035.19
420.057	2995.19
420.28	2910.19
420.503	2845.19
420.726	2870.19
420.948	2871.19
421.171	2890.19
421.394	2891.19
421.617	2859.19
421.839	2869.19
422.062	2898.19
422.285	2847.19
422.507	2934.19
422.73	2931.19
422.953	2918.19
423.175	2964.19
423.398	2874.19
423.621	2886.19
423.843	2914.19
424.066	2846.19
424.288	2815.19
424.511	2858.19
424.733	2833.19
424.956	2862.19
425.178	2869.19
425.401	2799.19
425.623	2864.19
425.846	2747.19
426.068	2793.19
426.291	2778.19
426.513	2744.19
426.735	2727.19
426.958	2722.19
427.18	2690.19
427.402	2711.19
427.625	2700.19
427.847	2692.19
428.069	2618.19
428.292	2710.19
428.514	2670.19
428.736	2681.19
428.958	2694.19
429.181	2624.19
429.403	2655.19
429.625	2618.19
429.847	2646.19
430.069	2667.19
430.292	2779.19
430.514	2823.19
430.736	2894.19
430.958	2731.19
431.18	2659.19
431.402	2626.19
431.624	2595.19
431.846	2620.19
432.068	2601.19
432.29	2688.19
432.512	2535.19
432.734	2612.19
432.956	2630.19
433.178	2604.19
433.4	2689.19
433.622	2612.19
433.844	2668.19
434.066	2655.19
434.287	2652.19
434.509	2695.19
434.731	2692.19
434.953	2726.19
435.175	2732.19
435.397	2755.19
435.618	2686.19
435.84	2656.19
436.062	2590.19
436.284	2634.19
436.505	2592.19
436.727	2644.19
436.949	2611.19
437.17	2602.19
437.392	2591.19
437.614	2554.19
437.835	2546.19
438.057	2566.19
438.278	2484.19
438.5	2575.19
438.721	2612.19
438.943	2672.19
439.165	2683.19
439.386	2693.19
439.608	2688.19
439.829	2724.19
440.05	2813.19
440.272	2830.19
440.493	2761.19
440.715	2711.19
440.936	2729.19
441.158	2736.19
441.379	2756.19
441.6	2882.19
441.822	2942.19
442.043	3074.19
442.264	3171.19
442.486	2947.19
442.707	2887.19
442.928	2792.19
443.149	2857.19
443.371	2830.19
443.592	2802.19
443.813	2858.19
444.034	2828.19
444.255	2885.19
444.476	2928.19
444.698	2996.19
444.919	3060.19
445.14	3065.19
445.361	2935.19
445.582	2868.19
445.803	2862.19
446.024	2796.19
446.245	2832.19
446.466	2792.19
446.687	2736.19
446.908	2762.19
447.129	2690.19
447.35	2642.19
447.571	2646.19
447.792	2630.19
448.013	2583.19
448.234	2544.19
448.455	2578.19
448.675	2617.19
448.896	2656.19
449.117	2705.19
449.338	2938.19
449.559	3072.19
449.779	2782.19
450	2620.19
450.221	2560.19
450.442	2593.19
450.662	2497.19
450.883	2565.19
451.104	2560.19
451.324	2530.19
451.545	2498.19
451.766	2584.19
451.986	2649.19
452.207	2824.19
452.428	3654.19
452.648	5471.19
452.869	4560.19
453.089	3140.19
453.31	2906.19
453.53	2924.19
453.751	2990.19
453.971	3147.19
454.192	3070.19
454.412	2674.19
454.633	2537.19
454.853	2513.19
455.073	2466.19
455.294	2423.19
455.514	2423.19
455.734	2408.19
455.955	2360.19
456.175	2375.19
456.395	2443.19
456.616	2399.19
456.836	2508.19
457.056	2491.19
457.276	2504.19
457.497	2619.19
457.717	2664.19
457.937	2568.19
458.157	2578.19
458.377	2576.19
458.598	2580.19
458.818	2614.19
459.038	2606.19
459.258	2572.19
459.478	2659.19
459.698	2707.19
459.918	2659.19
460.138	2737.19
460.358	2776.19
460.578	2850.19
460.798	2848.19
461.018	2886.19
461.238	2877.19
461.458	2864.19
461.678	2947.19
461.898	3004.19
462.118	2984.19
462.338	3094.19
462.558	3087.19
462.777	3141.19
462.997	3234.19
463.217	3384.19
463.437	3483.19
463.657	3584.19
463.876	3539.19
464.096	3347.19
464.316	3217.19
464.536	3090.19
464.755	3059.19
464.975	3034.19
465.195	2903.19
465.414	2826.19
465.634	2702.19
465.854	2731.19
466.073	2694.19
466.293	2651.19
466.512	2582.19
466.732	2658.19
466.951	2770.19
467.171	2986.19
467.391	2979.19
467.61	2673.19
467.829	2627.19
468.049	2585.19
468.268	2558.19
468.488	2526.19
468.707	2527.19
468.927	2552.19
469.146	2604.19
469.365	2662.19
469.585	2638.19
469.804	2650.19
470.023	2742.19
470.243	2736.19
470.462	2862.19
470.681	2999.19
470.901	3312.19
471.12	3696.19
471.339	3719.19
471.558	3095.19
471.777	2887.19
471.997	2764.19
472.216	2686.19
472.435	2628.19
472.654	2562.19
472.873	2598.19
473.092	2593.19
473.311	2632.19
473.53	2638.19
473.749	2654.19
473.968	2720.19
474.187	2603.19
474.406	2627.19
474.625	2607.19
474.844	2609.19
475.063	2641.19
475.282	2629.19
475.501	2594.19
475.72	2618.19
475.939	2688.19
476.158	2711.19
476.377	2783.19
476.596	2758.19
476.814	2757.19
477.033	2718.19
477.252	2789.19
477.471	2819.19
477.69	2903.19
477.908	2927.19
478.127	3016.19
478.346	2982.19
478.564	3002.19
478.783	3059.19
479.002	3092.19
479.22	3035.19
479.439	3088.19
479.658	3110.19
479.876	3145.19
480.095	3182.19
480.313	3243.19
480.532	3226.19
480.751	3231.19
480.969	3186.19
481.188	3109.19
481.406	3109.19
481.624	3132.19
481.843	3168.19
482.061	3201.19
482.28	3160.19
482.498	3131.19
482.717	3117.19
482.935	3198.19
483.153	3200.19
483.372	3192.19
483.59	3234.19
483.808	3312.19
484.027	3411.19
484.245	3604.19
484.463	4046.19
484.681	4434.19
484.9	4117.19
485.118	3809.19
485.336	3779.19
485.554	3778.19
485.772	3977.19
485.99	4475.19
486.209	4806.19
486.427	4142.19
486.645	3632.19
486.863	3523.19
487.081	3410.19
487.299	3316.19
487.517	3382.19
487.735	3403.19
