Data from SnStandardFlinnAPT0064_LampEnergy10_LIBS07252019.E.O._I.C._HRD10591_15-21-39-494.txt Node
Date: Thu Jul 25 15:21:39 EDT 2019
User: cochatt
Spectrometer: HR+D1059
Trigger mode: 1
Integration Time (sec): 1.000000E-1
Scans to average: 1
Electric dark correction enabled: true
Nonlinearity correction enabled: false
Boxcar width: 0
XAxis mode: Wavelengths
Number of Pixels in Spectrum: 2048
>>>>>Begin Spectral Data<<<<<
223.165	-29.5
223.4	-29.5
223.635	-29.5
223.869	-16.5
224.104	-11.5
224.338	-14.5
224.573	-23.5
224.808	-12.5
225.042	1.5
225.277	-4.5
225.511	-6.5
225.746	4.5
225.98	12.5
226.215	7.5
226.449	30.5
226.683	11.5
226.918	25.5
227.152	25.5
227.387	38.5
227.621	54.5
227.856	47.5
228.09	52.5
228.324	56.5
228.559	60.5
228.793	128.5
229.027	313.5
229.262	321.5
229.496	300.5
229.73	283.5
229.964	316.5
230.199	310.5
230.433	306.5
230.667	324.5
230.901	308.5
231.136	345.5
231.37	349.5
231.604	373.5
231.838	429.5
232.072	528.5
232.306	546.5
232.541	459.5
232.775	426.5
233.009	404.5
233.243	405.5
233.477	438.5
233.711	504.5
233.945	575.5
234.179	503.5
234.413	438.5
234.647	456.5
234.881	455.5
235.115	503.5
235.349	599.5
235.583	734.5
235.817	960.5
236.051	945.5
236.285	668.5
236.519	524.5
236.753	516.5
236.987	489.5
237.221	538.5
237.455	504.5
237.689	439.5
237.922	445.5
238.156	473.5
238.39	491.5
238.624	485.5
238.858	491.5
239.091	482.5
239.325	487.5
239.559	495.5
239.793	497.5
240.027	541.5
240.26	566.5
240.494	561.5
240.728	587.5
240.961	627.5
241.195	654.5
241.429	674.5
241.662	684.5
241.896	774.5
242.13	930.5
242.363	1205.5
242.597	1555.5
242.83	1491.5
243.064	1485.5
243.298	1743.5
243.531	1412.5
243.765	917.5
243.998	750.5
244.232	684.5
244.465	656.5
244.699	642.5
244.932	645.5
245.166	643.5
245.399	674.5
245.633	653.5
245.866	701.5
246.099	646.5
246.333	654.5
246.566	638.5
246.8	641.5
247.033	657.5
247.266	631.5
247.5	660.5
247.733	650.5
247.966	701.5
248.2	739.5
248.433	836.5
248.666	985.5
248.899	910.5
249.133	852.5
249.366	837.5
249.599	923.5
249.832	1084.5
250.066	1061.5
250.299	842.5
250.532	775.5
250.765	741.5
250.998	720.5
251.231	707.5
251.465	729.5
251.698	740.5
251.931	719.5
252.164	721.5
252.397	757.5
252.63	792.5
252.863	809.5
253.096	816.5
253.329	757.5
253.562	772.5
253.795	756.5
254.028	795.5
254.261	831.5
254.494	880.5
254.727	978.5
254.96	1181.5
255.193	1176.5
255.426	943.5
255.659	864.5
255.892	848.5
256.124	850.5
256.357	867.5
256.59	908.5
256.823	966.5
257.056	1104.5
257.289	1322.5
257.521	1444.5
257.754	1172.5
257.987	994.5
258.22	868.5
258.452	889.5
258.685	920.5
258.918	944.5
259.151	990.5
259.383	1096.5
259.616	1160.5
259.849	1249.5
260.081	1076.5
260.314	985.5
260.547	948.5
260.779	956.5
261.012	960.5
261.244	959.5
261.477	986.5
261.71	968.5
261.942	988.5
262.175	1008.5
262.407	1001.5
262.64	1040.5
262.872	1124.5
263.105	1147.5
263.337	1225.5
263.57	1270.5
263.802	1268.5
264.035	1281.5
264.267	1322.5
264.499	1344.5
264.732	1415.5
264.964	1408.5
265.197	1430.5
265.429	1425.5
265.661	1457.5
265.894	1552.5
266.126	1740.5
266.358	1898.5
266.591	1894.5
266.823	1590.5
267.055	1434.5
267.287	1385.5
267.52	1304.5
267.752	1259.5
267.984	1236.5
268.216	1292.5
268.448	1241.5
268.681	1228.5
268.913	1217.5
269.145	1219.5
269.377	1236.5
269.609	1238.5
269.841	1275.5
270.073	1357.5
270.306	1590.5
270.538	2074.5
270.77	3107.5
271.002	3786.5
271.234	2674.5
271.466	1828.5
271.698	1482.5
271.93	1365.5
272.162	1299.5
272.394	1296.5
272.626	1255.5
272.858	1212.5
273.09	1210.5
273.322	1206.5
273.553	1178.5
273.785	1162.5
274.017	1176.5
274.249	1175.5
274.481	1195.5
274.713	1205.5
274.945	1201.5
275.176	1201.5
275.408	1216.5
275.64	1213.5
275.872	1225.5
276.104	1239.5
276.335	1232.5
276.567	1275.5
276.799	1258.5
277.031	1288.5
277.262	1305.5
277.494	1361.5
277.726	1531.5
277.957	1804.5
278.189	2088.5
278.421	1974.5
278.652	1720.5
278.884	1645.5
279.115	1478.5
279.347	1418.5
279.579	1386.5
279.81	1336.5
280.042	1422.5
280.273	1409.5
280.505	1408.5
280.736	1451.5
280.968	1552.5
281.199	1730.5
281.431	2005.5
281.662	2059.5
281.894	1738.5
282.125	1595.5
282.356	1582.5
282.588	1640.5
282.819	1696.5
283.051	1755.5
283.282	1941.5
283.513	2422.5
283.745	3485.5
283.976	5501.5
284.207	7729.5
284.439	7015.5
284.67	4375.5
284.901	3644.5
285.132	3639.5
285.364	3423.5
285.595	2622.5
285.826	2391.5
286.057	2810.5
286.288	3749.5
286.52	5020.5
286.751	4724.5
286.982	2969.5
287.213	2264.5
287.444	1960.5
287.675	1853.5
287.906	1793.5
288.138	1698.5
288.369	1661.5
288.6	1674.5
288.831	1632.5
289.062	1636.5
289.293	1661.5
289.524	1665.5
289.755	1660.5
289.986	1680.5
290.217	1695.5
290.448	1693.5
290.679	1686.5
290.91	1769.5
291.141	1864.5
291.371	1974.5
291.602	2135.5
291.833	1918.5
292.064	1733.5
292.295	1656.5
292.526	1659.5
292.757	1618.5
292.987	1586.5
293.218	1571.5
293.449	1591.5
293.68	1589.5
293.91	1535.5
294.141	1564.5
294.372	1528.5
294.603	1560.5
294.833	1570.5
295.064	1548.5
295.295	1552.5
295.525	1570.5
295.756	1515.5
295.987	1501.5
296.217	1548.5
296.448	1558.5
296.679	1554.5
296.909	1529.5
297.14	1581.5
297.37	1611.5
297.601	1607.5
297.831	1593.5
298.062	1588.5
298.292	1638.5
298.523	1673.5
298.753	1675.5
298.984	1679.5
299.214	1686.5
299.445	1684.5
299.675	1773.5
299.905	1842.5
300.136	1885.5
300.366	2126.5
300.597	2676.5
300.827	3753.5
301.057	5098.5
301.288	5053.5
301.518	3325.5
301.748	2527.5
301.979	2282.5
302.209	2270.5
302.439	2260.5
302.669	2415.5
302.9	2893.5
303.13	4006.5
303.36	6030.5
303.59	7997.5
303.82	6910.5
304.051	4135.5
304.281	2905.5
304.511	2490.5
304.741	2281.5
304.971	2150.5
305.201	2057.5
305.431	1986.5
305.661	1934.5
305.891	1859.5
306.121	1854.5
306.352	1831.5
306.582	1836.5
306.812	1809.5
307.042	1815.5
307.272	1788.5
307.502	1816.5
307.731	1805.5
307.961	1805.5
308.191	1751.5
308.421	1754.5
308.651	1806.5
308.881	1788.5
309.111	1799.5
309.341	1802.5
309.571	1833.5
309.8	1784.5
310.03	1839.5
310.26	1873.5
310.49	1842.5
310.72	1841.5
310.949	1859.5
311.179	1870.5
311.409	1885.5
311.639	1914.5
311.868	1926.5
312.098	1921.5
312.328	1936.5
312.557	1918.5
312.787	1918.5
313.017	1955.5
313.246	2017.5
313.476	1998.5
313.706	2089.5
313.935	2181.5
314.165	2357.5
314.394	2439.5
314.624	2320.5
314.853	2114.5
315.083	2133.5
315.312	2138.5
315.542	2176.5
315.771	2206.5
316.001	2202.5
316.23	2236.5
316.46	2408.5
316.689	2610.5
316.919	3104.5
317.148	4497.5
317.377	6848.5
317.607	10082.5
317.836	10448.5
318.065	6345.5
318.295	4186.5
318.524	3316.5
318.753	2936.5
318.983	2715.5
319.212	2534.5
319.441	2434.5
319.67	2364.5
319.9	2372.5
320.129	2311.5
320.358	2328.5
320.587	2318.5
320.816	2317.5
321.046	2302.5
321.275	2286.5
321.504	2343.5
321.733	2376.5
321.962	2458.5
322.191	2486.5
322.42	2405.5
322.649	2426.5
322.878	2429.5
323.108	2465.5
323.337	2506.5
323.566	2511.5
323.795	2587.5
324.024	2645.5
324.253	2665.5
324.482	2769.5
324.71	2934.5
324.939	3130.5
325.168	3160.5
325.397	3326.5
325.626	3972.5
325.855	5460.5
326.084	8622.5
326.313	12313.5
326.542	13024.5
326.77	8710.5
326.999	5766.5
327.228	4839.5
327.457	4609.5
327.686	4652.5
327.914	4941.5
328.143	5756.5
328.372	6844.5
328.6	7437.5
328.829	6686.5
329.058	5552.5
329.287	4850.5
329.515	4468.5
329.744	4186.5
329.972	3951.5
330.201	3720.5
330.43	3686.5
330.658	3546.5
330.887	3504.5
331.115	3455.5
331.344	3383.5
331.572	3382.5
331.801	3431.5
332.03	3414.5
332.258	3437.5
332.486	3677.5
332.715	4193.5
332.943	5161.5
333.172	6489.5
333.4	6414.5
333.629	4808.5
333.857	4406.5
334.085	4365.5
334.314	4548.5
334.542	4972.5
334.771	5826.5
334.999	7088.5
335.227	8884.5
335.455	9983.5
335.684	9004.5
335.912	7377.5
336.14	6198.5
336.369	5454.5
336.597	5110.5
336.825	4735.5
337.053	4408.5
337.281	4159.5
337.51	3950.5
337.738	3852.5
337.966	3696.5
338.194	3500.5
338.422	3401.5
338.65	3343.5
338.878	3290.5
339.106	3177.5
339.334	3172.5
339.562	3105.5
339.79	3048.5
340.018	2975.5
340.246	2960.5
340.474	2986.5
340.702	2945.5
340.93	2942.5
341.158	2938.5
341.386	2938.5
341.614	2924.5
341.842	2876.5
342.07	2796.5
342.298	2724.5
342.526	2765.5
342.754	2701.5
342.981	2688.5
343.209	2677.5
343.437	2703.5
343.665	2702.5
343.893	2751.5
344.12	2810.5
344.348	2713.5
344.576	2637.5
344.804	2617.5
345.031	2558.5
345.259	2617.5
345.487	2552.5
345.714	2508.5
345.942	2522.5
346.17	2465.5
346.397	2514.5
346.625	2519.5
346.853	2489.5
347.08	2455.5
347.308	2485.5
347.535	2504.5
347.763	2486.5
347.99	2450.5
348.218	2448.5
348.445	2434.5
348.673	2406.5
348.9	2427.5
349.128	2430.5
349.355	2368.5
349.583	2400.5
349.81	2384.5
350.037	2353.5
350.265	2430.5
350.492	2386.5
350.72	2362.5
350.947	2367.5
351.174	2354.5
351.402	2349.5
351.629	2361.5
351.856	2348.5
352.083	2361.5
352.311	2326.5
352.538	2310.5
352.765	2318.5
352.992	2329.5
353.22	2320.5
353.447	2332.5
353.674	2346.5
353.901	2389.5
354.128	2381.5
354.355	2336.5
354.583	2366.5
354.81	2380.5
355.037	2381.5
355.264	2357.5
355.491	2423.5
355.718	2397.5
355.945	2436.5
356.172	2427.5
356.399	2415.5
356.626	2415.5
356.853	2477.5
357.08	2420.5
357.307	2511.5
357.534	2496.5
357.761	2500.5
357.988	2579.5
358.215	2552.5
358.441	2543.5
358.668	2479.5
358.895	2474.5
359.122	2486.5
359.349	2512.5
359.576	2487.5
359.802	2502.5
360.029	2495.5
360.256	2519.5
360.483	2543.5
360.709	2582.5
360.936	2539.5
361.163	2529.5
361.39	2489.5
361.616	2518.5
361.843	2541.5
362.07	2543.5
362.296	2495.5
362.523	2543.5
362.749	2518.5
362.976	2482.5
363.203	2508.5
363.429	2491.5
363.656	2496.5
363.882	2454.5
364.109	2498.5
364.335	2477.5
364.562	2503.5
364.788	2492.5
365.015	2543.5
365.241	2635.5
365.468	2754.5
365.694	2884.5
365.92	2797.5
366.147	2616.5
366.373	2579.5
366.599	2586.5
366.826	2525.5
367.052	2579.5
367.278	2559.5
367.505	2593.5
367.731	2561.5
367.957	2567.5
368.184	2565.5
368.41	2644.5
368.636	2610.5
368.862	2620.5
369.089	2628.5
369.315	2571.5
369.541	2600.5
369.767	2592.5
369.993	2568.5
370.219	2584.5
370.445	2631.5
370.672	2611.5
370.898	2634.5
371.124	2663.5
371.35	2645.5
371.576	2646.5
371.802	2697.5
372.028	2722.5
372.254	2745.5
372.48	2710.5
372.706	2726.5
372.932	2772.5
373.158	2754.5
373.384	2765.5
373.61	2712.5
373.835	2766.5
374.061	2760.5
374.287	2792.5
374.513	2824.5
374.739	2819.5
374.965	2848.5
375.191	2874.5
375.416	2832.5
375.642	2788.5
375.868	2806.5
376.094	2800.5
376.319	2742.5
376.545	2693.5
376.771	2701.5
376.997	2694.5
377.222	2685.5
377.448	2680.5
377.674	2709.5
377.899	2681.5
378.125	2653.5
378.35	2685.5
378.576	2727.5
378.802	2761.5
379.027	2809.5
379.253	2824.5
379.478	3018.5
379.704	3535.5
379.929	5056.5
380.155	7702.5
380.38	8413.5
380.606	5118.5
380.831	3640.5
381.057	3196.5
381.282	2939.5
381.507	2779.5
381.733	2834.5
381.958	2720.5
382.184	2689.5
382.409	2727.5
382.634	2613.5
382.86	2662.5
383.085	2620.5
383.31	2685.5
383.535	2680.5
383.761	2657.5
383.986	2712.5
384.211	2674.5
384.436	2714.5
384.662	2737.5
384.887	2770.5
385.112	2729.5
385.337	2760.5
385.562	2733.5
385.787	2759.5
386.013	2772.5
386.238	2765.5
386.463	2742.5
386.688	2732.5
386.913	2716.5
387.138	2665.5
387.363	2738.5
387.588	2733.5
387.813	2773.5
388.038	2740.5
388.263	2773.5
388.488	2728.5
388.713	2766.5
388.938	2740.5
389.163	2699.5
389.387	2765.5
389.612	2734.5
389.837	2713.5
390.062	2681.5
390.287	2744.5
390.512	2729.5
390.736	2780.5
390.961	2801.5
391.186	2829.5
391.411	2840.5
391.636	2896.5
391.86	2857.5
392.085	2896.5
392.31	2846.5
392.534	2831.5
392.759	2842.5
392.984	2828.5
393.208	2784.5
393.433	2751.5
393.658	2777.5
393.882	2769.5
394.107	2796.5
394.331	2791.5
394.556	2748.5
394.78	2796.5
395.005	2846.5
395.229	2763.5
395.454	2864.5
395.678	2835.5
395.903	2828.5
396.127	2829.5
396.352	2821.5
396.576	2835.5
396.801	2842.5
397.025	2854.5
397.249	2876.5
397.474	2880.5
397.698	2875.5
397.922	2913.5
398.147	2899.5
398.371	2930.5
398.595	2973.5
398.82	3047.5
399.044	3171.5
399.268	3300.5
399.492	3460.5
399.717	3644.5
399.941	3669.5
400.165	3536.5
400.389	3361.5
400.613	3226.5
400.837	3159.5
401.062	3077.5
401.286	3018.5
401.51	3012.5
401.734	2984.5
401.958	3012.5
402.182	3002.5
402.406	3030.5
402.63	2977.5
402.854	3087.5
403.078	3083.5
403.302	3098.5
403.526	3132.5
403.75	3154.5
403.974	3208.5
404.198	3138.5
404.422	3165.5
404.645	3085.5
404.869	3127.5
405.093	3095.5
405.317	3127.5
405.541	3178.5
405.765	3173.5
405.988	3234.5
406.212	3268.5
406.436	3210.5
406.66	3329.5
406.883	3248.5
407.107	3300.5
407.331	3358.5
407.555	3473.5
407.778	3456.5
408.002	3369.5
408.226	3340.5
408.449	3327.5
408.673	3302.5
408.896	3218.5
409.12	3169.5
409.344	3180.5
409.567	3159.5
409.791	3168.5
410.014	3109.5
410.238	3133.5
410.461	3144.5
410.685	3095.5
410.908	3080.5
411.132	3054.5
411.355	2968.5
411.578	3004.5
411.802	3023.5
412.025	2978.5
412.249	3054.5
412.472	3052.5
412.695	2977.5
412.919	3000.5
413.142	2945.5
413.365	2973.5
413.589	3022.5
413.812	2963.5
414.035	2956.5
414.258	2963.5
414.482	2964.5
414.705	2993.5
414.928	2959.5
415.151	2925.5
415.374	2907.5
415.597	2920.5
415.821	2868.5
416.044	2822.5
416.267	2853.5
416.49	2836.5
416.713	2803.5
416.936	2882.5
417.159	2813.5
417.382	2815.5
417.605	2784.5
417.828	2795.5
418.051	2865.5
418.274	2837.5
418.497	2842.5
418.72	2916.5
418.943	2837.5
419.166	2990.5
419.389	3173.5
419.611	3120.5
419.834	3014.5
420.057	3015.5
420.28	2900.5
420.503	2797.5
420.726	2864.5
420.948	2859.5
421.171	2841.5
421.394	2814.5
421.617	2856.5
421.839	2887.5
422.062	2858.5
422.285	2827.5
422.507	2877.5
422.73	2875.5
422.953	2924.5
423.175	3000.5
423.398	2893.5
423.621	2859.5
423.843	2857.5
424.066	2872.5
424.288	2853.5
424.511	2887.5
424.733	2794.5
424.956	2822.5
425.178	2760.5
425.401	2766.5
425.623	2828.5
425.846	2737.5
426.068	2766.5
426.291	2742.5
426.513	2751.5
426.735	2700.5
426.958	2732.5
427.18	2610.5
427.402	2681.5
427.625	2678.5
427.847	2661.5
428.069	2617.5
428.292	2691.5
428.514	2650.5
428.736	2662.5
428.958	2663.5
429.181	2591.5
429.403	2579.5
429.625	2625.5
429.847	2598.5
430.069	2693.5
430.292	2737.5
430.514	2769.5
430.736	2830.5
430.958	2663.5
431.18	2584.5
431.402	2606.5
431.624	2552.5
431.846	2596.5
432.068	2564.5
432.29	2619.5
432.512	2566.5
432.734	2586.5
432.956	2577.5
433.178	2625.5
433.4	2611.5
433.622	2638.5
433.844	2632.5
434.066	2607.5
434.287	2580.5
434.509	2630.5
434.731	2698.5
434.953	2700.5
435.175	2671.5
435.397	2750.5
435.618	2656.5
435.84	2624.5
436.062	2590.5
436.284	2557.5
436.505	2577.5
436.727	2638.5
436.949	2539.5
437.17	2558.5
437.392	2591.5
437.614	2543.5
437.835	2449.5
438.057	2536.5
438.278	2497.5
438.5	2514.5
438.721	2541.5
438.943	2606.5
439.165	2684.5
439.386	2730.5
439.608	2695.5
439.829	2702.5
440.05	2779.5
440.272	2831.5
440.493	2728.5
440.715	2670.5
440.936	2689.5
441.158	2706.5
441.379	2753.5
441.6	2838.5
441.822	2940.5
442.043	3020.5
442.264	3141.5
442.486	2858.5
442.707	2853.5
442.928	2786.5
443.149	2810.5
443.371	2737.5
443.592	2782.5
443.813	2820.5
444.034	2817.5
444.255	2840.5
444.476	2940.5
444.698	2958.5
444.919	3005.5
445.14	3101.5
445.361	2939.5
445.582	2836.5
445.803	2798.5
446.024	2786.5
446.245	2760.5
446.466	2761.5
446.687	2724.5
446.908	2732.5
447.129	2651.5
447.35	2661.5
447.571	2586.5
447.792	2527.5
448.013	2526.5
448.234	2500.5
448.455	2556.5
448.675	2592.5
448.896	2674.5
449.117	2740.5
449.338	2929.5
449.559	3044.5
449.779	2782.5
450	2550.5
450.221	2556.5
450.442	2543.5
450.662	2462.5
450.883	2531.5
451.104	2518.5
451.324	2499.5
451.545	2503.5
451.766	2492.5
451.986	2573.5
452.207	2781.5
452.428	3556.5
452.648	5510.5
452.869	4410.5
453.089	3111.5
453.31	2901.5
453.53	2932.5
453.751	2952.5
453.971	3121.5
454.192	3055.5
454.412	2700.5
454.633	2572.5
454.853	2493.5
455.073	2410.5
455.294	2410.5
455.514	2385.5
455.734	2419.5
455.955	2358.5
456.175	2384.5
456.395	2372.5
456.616	2417.5
456.836	2426.5
457.056	2421.5
457.276	2482.5
457.497	2569.5
457.717	2604.5
457.937	2542.5
458.157	2496.5
458.377	2493.5
458.598	2559.5
458.818	2573.5
459.038	2600.5
459.258	2577.5
459.478	2632.5
459.698	2631.5
459.918	2665.5
460.138	2725.5
460.358	2758.5
460.578	2797.5
460.798	2828.5
461.018	2856.5
461.238	2838.5
461.458	2904.5
461.678	2841.5
461.898	2976.5
462.118	2947.5
462.338	3053.5
462.558	3030.5
462.777	3101.5
462.997	3188.5
463.217	3366.5
463.437	3439.5
463.657	3538.5
463.876	3500.5
464.096	3301.5
464.316	3222.5
464.536	3068.5
464.755	3032.5
464.975	2972.5
465.195	2874.5
465.414	2785.5
465.634	2719.5
465.854	2717.5
466.073	2656.5
466.293	2653.5
466.512	2642.5
466.732	2676.5
466.951	2782.5
467.171	2963.5
467.391	2860.5
467.61	2676.5
467.829	2551.5
468.049	2545.5
468.268	2558.5
468.488	2531.5
468.707	2490.5
468.927	2545.5
469.146	2545.5
469.365	2604.5
469.585	2590.5
469.804	2664.5
470.023	2684.5
470.243	2743.5
470.462	2790.5
470.681	2988.5
470.901	3174.5
471.12	3687.5
471.339	3638.5
471.558	3093.5
471.777	2844.5
471.997	2712.5
472.216	2662.5
472.435	2647.5
472.654	2539.5
472.873	2505.5
473.092	2568.5
473.311	2601.5
473.53	2535.5
473.749	2652.5
473.968	2719.5
474.187	2605.5
474.406	2518.5
474.625	2520.5
474.844	2589.5
475.063	2578.5
475.282	2619.5
475.501	2590.5
475.72	2641.5
475.939	2640.5
476.158	2687.5
476.377	2768.5
476.596	2754.5
476.814	2722.5
477.033	2693.5
477.252	2735.5
477.471	2786.5
477.69	2807.5
477.908	2838.5
478.127	2905.5
478.346	2944.5
478.564	2917.5
478.783	2968.5
479.002	3041.5
479.22	3080.5
479.439	3028.5
479.658	3097.5
479.876	3085.5
480.095	3085.5
480.313	3142.5
480.532	3222.5
480.751	3199.5
480.969	3096.5
481.188	3120.5
481.406	3104.5
481.624	3096.5
481.843	3126.5
482.061	3155.5
482.28	3146.5
482.498	3085.5
482.717	3088.5
482.935	3149.5
483.153	3211.5
483.372	3219.5
483.59	3305.5
483.808	3325.5
484.027	3366.5
484.245	3557.5
484.463	3924.5
484.681	4445.5
484.9	3997.5
485.118	3769.5
485.336	3653.5
485.554	3781.5
485.772	3922.5
485.99	4441.5
486.209	4719.5
486.427	3990.5
486.645	3640.5
486.863	3480.5
487.081	3391.5
487.299	3409.5
487.517	3329.5
487.735	3330.5
487.953	3292.5
488.171	3373.5
488.389	3304.5
488.607	3282.5
488.825	3208.5
489.043	3253.5
489.261	3225.5
489.479	3216.5
489.696	3221.5
489.914	3254.5
490.132	3230.5
490.35	3206.5
490.568	3234.5
490.786	3273.5
491.003	3316.5
491.221	3358.5
491.439	3381.5
491.657	3341.5
491.874	3375.5
492.092	3393.5
492.31	3392.5
492.527	3419.5
492.745	3393.5
492.963	3293.5
493.18	3384.5
493.398	3358.5
493.615	3327.5
493.833	3318.5
494.05	3366.5
494.268	3401.5
494.485	3334.5
494.703	3394.5
494.92	3376.5
495.138	3375.5
495.355	3380.5
495.573	3402.5
495.79	3423.5
496.008	3489.5
496.225	3478.5
496.442	3486.5
496.66	3625.5
496.877	3844.5
497.094	3774.5
497.312	3678.5
497.529	3655.5
497.746	3641.5
497.963	3723.5
498.181	3832.5
498.398	3879.5
498.615	4044.5
498.832	4206.5
499.049	4385.5
499.267	4732.5
499.484	5009.5
499.701	5002.5
499.918	5106.5
500.135	5336.5
500.352	5628.5
500.569	5752.5
500.786	5673.5
501.003	5544.5
501.22	5230.5
501.437	4991.5
501.654	4728.5
501.871	4488.5
502.088	4381.5
502.305	4161.5
502.522	4124.5
502.739	3949.5
502.956	3842.5
503.172	3738.5
503.389	3656.5
503.606	3602.5
503.823	3562.5
