Data from SnStandardFlinnAPT0064_LampEnergy10_LIBS07252019.E.O._I.C._HRD10591_15-21-29-494.txt Node
Date: Thu Jul 25 15:21:29 EDT 2019
User: cochatt
Spectrometer: HR+D1059
Trigger mode: 1
Integration Time (sec): 1.000000E-1
Scans to average: 1
Electric dark correction enabled: true
Nonlinearity correction enabled: false
Boxcar width: 0
XAxis mode: Wavelengths
Number of Pixels in Spectrum: 2048
>>>>>Begin Spectral Data<<<<<
223.165	-13.56
223.4	-13.56
223.635	-13.56
223.869	-30.56
224.104	-19.56
224.338	-9.56
224.573	-5.56
224.808	-17.56
225.042	-11.56
225.277	-2.56
225.511	-13.56
225.746	16.44
225.98	-2.56
226.215	20.44
226.449	14.44
226.683	13.44
226.918	25.44
227.152	36.44
227.387	34.44
227.621	38.44
227.856	44.44
228.09	59.44
228.324	47.44
228.559	58.44
228.793	119.44
229.027	307.44
229.262	350.44
229.496	309.44
229.73	292.44
229.964	279.44
230.199	313.44
230.433	304.44
230.667	314.44
230.901	326.44
231.136	329.44
231.37	349.44
231.604	375.44
231.838	456.44
232.072	513.44
232.306	563.44
232.541	456.44
232.775	409.44
233.009	409.44
233.243	423.44
233.477	453.44
233.711	517.44
233.945	559.44
234.179	505.44
234.413	424.44
234.647	455.44
234.881	468.44
235.115	531.44
235.349	594.44
235.583	771.44
235.817	1006.44
236.051	974.44
236.285	654.44
236.519	528.44
236.753	475.44
236.987	500.44
237.221	544.44
237.455	531.44
237.689	467.44
237.922	450.44
238.156	448.44
238.39	484.44
238.624	484.44
238.858	492.44
239.091	488.44
239.325	496.44
239.559	485.44
239.793	501.44
240.027	521.44
240.26	549.44
240.494	585.44
240.728	572.44
240.961	616.44
241.195	654.44
241.429	670.44
241.662	720.44
241.896	777.44
242.13	933.44
242.363	1235.44
242.597	1600.44
242.83	1526.44
243.064	1508.44
243.298	1802.44
243.531	1465.44
243.765	949.44
243.998	743.44
244.232	711.44
244.465	676.44
244.699	668.44
244.932	634.44
245.166	664.44
245.399	697.44
245.633	707.44
245.866	682.44
246.099	688.44
246.333	644.44
246.566	640.44
246.8	662.44
247.033	656.44
247.266	641.44
247.5	664.44
247.733	674.44
247.966	713.44
248.2	745.44
248.433	869.44
248.666	998.44
248.899	966.44
249.133	838.44
249.366	892.44
249.599	958.44
249.832	1085.44
250.066	1077.44
250.299	881.44
250.532	792.44
250.765	750.44
250.998	738.44
251.231	754.44
251.465	742.44
251.698	725.44
251.931	750.44
252.164	732.44
252.397	752.44
252.63	770.44
252.863	826.44
253.096	793.44
253.329	790.44
253.562	778.44
253.795	771.44
254.028	847.44
254.261	831.44
254.494	876.44
254.727	1027.44
254.96	1261.44
255.193	1216.44
255.426	1000.44
255.659	874.44
255.892	859.44
256.124	870.44
256.357	869.44
256.59	897.44
256.823	969.44
257.056	1120.44
257.289	1348.44
257.521	1489.44
257.754	1185.44
257.987	983.44
258.22	912.44
258.452	911.44
258.685	924.44
258.918	957.44
259.151	1008.44
259.383	1109.44
259.616	1230.44
259.849	1282.44
260.081	1098.44
260.314	1015.44
260.547	960.44
260.779	952.44
261.012	936.44
261.244	1009.44
261.477	990.44
261.71	1026.44
261.942	1013.44
262.175	1020.44
262.407	1041.44
262.64	1070.44
262.872	1106.44
263.105	1180.44
263.337	1231.44
263.57	1281.44
263.802	1289.44
264.035	1367.44
264.267	1330.44
264.499	1412.44
264.732	1440.44
264.964	1485.44
265.197	1452.44
265.429	1458.44
265.661	1488.44
265.894	1587.44
266.126	1770.44
266.358	1992.44
266.591	1947.44
266.823	1584.44
267.055	1465.44
267.287	1413.44
267.52	1348.44
267.752	1324.44
267.984	1264.44
268.216	1286.44
268.448	1225.44
268.681	1245.44
268.913	1248.44
269.145	1236.44
269.377	1206.44
269.609	1262.44
269.841	1312.44
270.073	1379.44
270.306	1614.44
270.538	2194.44
270.77	3191.44
271.002	3921.44
271.234	2780.44
271.466	1917.44
271.698	1542.44
271.93	1381.44
272.162	1332.44
272.394	1306.44
272.626	1241.44
272.858	1227.44
273.09	1207.44
273.322	1235.44
273.553	1196.44
273.785	1224.44
274.017	1213.44
274.249	1220.44
274.481	1194.44
274.713	1216.44
274.945	1237.44
275.176	1241.44
275.408	1217.44
275.64	1217.44
275.872	1217.44
276.104	1288.44
276.335	1282.44
276.567	1292.44
276.799	1284.44
277.031	1329.44
277.262	1322.44
277.494	1394.44
277.726	1599.44
277.957	1818.44
278.189	2076.44
278.421	1948.44
278.652	1780.44
278.884	1673.44
279.115	1497.44
279.347	1455.44
279.579	1449.44
279.81	1430.44
280.042	1397.44
280.273	1417.44
280.505	1465.44
280.736	1514.44
280.968	1582.44
281.199	1779.44
281.431	2063.44
281.662	2107.44
281.894	1790.44
282.125	1670.44
282.356	1633.44
282.588	1642.44
282.819	1743.44
283.051	1820.44
283.282	2019.44
283.513	2498.44
283.745	3592.44
283.976	5661.44
284.207	7893.44
284.439	7224.44
284.67	4476.44
284.901	3661.44
285.132	3775.44
285.364	3545.44
285.595	2724.44
285.826	2435.44
286.057	2801.44
286.288	3842.44
286.52	5195.44
286.751	4796.44
286.982	3065.44
287.213	2260.44
287.444	1968.44
287.675	1897.44
287.906	1767.44
288.138	1736.44
288.369	1709.44
288.6	1699.44
288.831	1670.44
289.062	1658.44
289.293	1721.44
289.524	1694.44
289.755	1692.44
289.986	1686.44
290.217	1713.44
290.448	1754.44
290.679	1753.44
290.91	1792.44
291.141	1935.44
291.371	2039.44
291.602	2114.44
291.833	1948.44
292.064	1765.44
292.295	1698.44
292.526	1681.44
292.757	1687.44
292.987	1614.44
293.218	1624.44
293.449	1641.44
293.68	1597.44
293.91	1581.44
294.141	1590.44
294.372	1567.44
294.603	1592.44
294.833	1584.44
295.064	1584.44
295.295	1565.44
295.525	1582.44
295.756	1612.44
295.987	1591.44
296.217	1612.44
296.448	1608.44
296.679	1600.44
296.909	1580.44
297.14	1610.44
297.37	1648.44
297.601	1631.44
297.831	1626.44
298.062	1652.44
298.292	1647.44
298.523	1710.44
298.753	1705.44
298.984	1684.44
299.214	1742.44
299.445	1748.44
299.675	1791.44
299.905	1838.44
300.136	1902.44
300.366	2209.44
300.597	2768.44
300.827	3821.44
301.057	5227.44
301.288	5202.44
301.518	3346.44
301.748	2562.44
301.979	2376.44
302.209	2338.44
302.439	2321.44
302.669	2446.44
302.9	2924.44
303.13	4140.44
303.36	6143.44
303.59	8091.44
303.82	7065.44
304.051	4208.44
304.281	3050.44
304.511	2580.44
304.741	2351.44
304.971	2241.44
305.201	2087.44
305.431	2006.44
305.661	1998.44
305.891	1894.44
306.121	1889.44
306.352	1904.44
306.582	1885.44
306.812	1840.44
307.042	1871.44
307.272	1872.44
307.502	1900.44
307.731	1818.44
307.961	1805.44
308.191	1831.44
308.421	1879.44
308.651	1832.44
308.881	1811.44
309.111	1855.44
309.341	1826.44
309.571	1871.44
309.8	1854.44
310.03	1861.44
310.26	1892.44
310.49	1870.44
310.72	1907.44
310.949	1910.44
311.179	1951.44
311.409	1911.44
311.639	1934.44
311.868	1935.44
312.098	1959.44
312.328	2009.44
312.557	1968.44
312.787	1968.44
313.017	2011.44
313.246	2062.44
313.476	2022.44
313.706	2096.44
313.935	2238.44
314.165	2352.44
314.394	2466.44
314.624	2373.44
314.853	2174.44
315.083	2170.44
315.312	2171.44
315.542	2246.44
315.771	2241.44
316.001	2273.44
316.23	2351.44
316.46	2418.44
316.689	2649.44
316.919	3180.44
317.148	4604.44
317.377	7070.44
317.607	10360.44
317.836	10764.44
318.065	6559.44
318.295	4270.44
318.524	3450.44
318.753	2979.44
318.983	2754.44
319.212	2580.44
319.441	2506.44
319.67	2460.44
319.9	2424.44
320.129	2378.44
320.358	2401.44
320.587	2380.44
320.816	2341.44
321.046	2350.44
321.275	2421.44
321.504	2399.44
321.733	2445.44
321.962	2572.44
322.191	2556.44
322.42	2513.44
322.649	2468.44
322.878	2490.44
323.108	2509.44
323.337	2535.44
323.566	2610.44
323.795	2680.44
324.024	2684.44
324.253	2747.44
324.482	2846.44
324.71	3000.44
324.939	3228.44
325.168	3206.44
325.397	3444.44
325.626	4028.44
325.855	5597.44
326.084	8671.44
326.313	12561.44
326.542	13338.44
326.77	8993.44
326.999	5940.44
327.228	4962.44
327.457	4782.44
327.686	4809.44
327.914	5135.44
328.143	6014.44
328.372	7272.44
328.6	7838.44
328.829	6967.44
329.058	5842.44
329.287	5162.44
329.515	4678.44
329.744	4370.44
329.972	4086.44
330.201	3971.44
330.43	3754.44
330.658	3693.44
330.887	3594.44
331.115	3532.44
331.344	3523.44
331.572	3463.44
331.801	3560.44
332.03	3559.44
332.258	3648.44
332.486	3764.44
332.715	4362.44
332.943	5306.44
333.172	6584.44
333.4	6531.44
333.629	4946.44
333.857	4536.44
334.085	4543.44
334.314	4776.44
334.542	5201.44
334.771	6064.44
334.999	7510.44
335.227	9448.44
335.455	10563.44
335.684	9421.44
335.912	7707.44
336.14	6560.44
336.369	5745.44
336.597	5249.44
336.825	4797.44
337.053	4563.44
337.281	4258.44
337.51	4029.44
337.738	3926.44
337.966	3746.44
338.194	3592.44
338.422	3527.44
338.65	3425.44
338.878	3358.44
339.106	3243.44
339.334	3238.44
339.562	3151.44
339.79	3095.44
340.018	3112.44
340.246	3078.44
340.474	3087.44
340.702	3068.44
340.93	3098.44
341.158	3100.44
341.386	3044.44
341.614	3035.44
341.842	2929.44
342.07	2932.44
342.298	2821.44
342.526	2816.44
342.754	2761.44
342.981	2743.44
343.209	2729.44
343.437	2786.44
343.665	2839.44
343.893	2805.44
344.12	2872.44
344.348	2791.44
344.576	2802.44
344.804	2745.44
345.031	2690.44
345.259	2632.44
345.487	2607.44
345.714	2549.44
345.942	2581.44
346.17	2578.44
346.397	2593.44
346.625	2536.44
346.853	2545.44
347.08	2564.44
347.308	2533.44
347.535	2568.44
347.763	2592.44
347.99	2539.44
348.218	2507.44
348.445	2498.44
348.673	2488.44
348.9	2474.44
349.128	2512.44
349.355	2534.44
349.583	2424.44
349.81	2437.44
350.037	2450.44
350.265	2430.44
350.492	2424.44
350.72	2414.44
350.947	2412.44
351.174	2433.44
351.402	2439.44
351.629	2413.44
351.856	2387.44
352.083	2406.44
352.311	2381.44
352.538	2378.44
352.765	2438.44
352.992	2434.44
353.22	2381.44
353.447	2414.44
353.674	2440.44
353.901	2429.44
354.128	2418.44
354.355	2433.44
354.583	2390.44
354.81	2379.44
355.037	2494.44
355.264	2450.44
355.491	2489.44
355.718	2475.44
355.945	2494.44
356.172	2476.44
356.399	2479.44
356.626	2542.44
356.853	2519.44
357.08	2541.44
357.307	2567.44
357.534	2604.44
357.761	2643.44
357.988	2634.44
358.215	2620.44
358.441	2554.44
358.668	2561.44
358.895	2576.44
359.122	2574.44
359.349	2532.44
359.576	2598.44
359.802	2585.44
360.029	2591.44
360.256	2542.44
360.483	2613.44
360.709	2568.44
360.936	2581.44
361.163	2609.44
361.39	2593.44
361.616	2612.44
361.843	2604.44
362.07	2618.44
362.296	2621.44
362.523	2584.44
362.749	2559.44
362.976	2618.44
363.203	2573.44
363.429	2518.44
363.656	2566.44
363.882	2560.44
364.109	2550.44
364.335	2547.44
364.562	2573.44
364.788	2613.44
365.015	2593.44
365.241	2668.44
365.468	2851.44
365.694	2967.44
365.92	2878.44
366.147	2632.44
366.373	2648.44
366.599	2644.44
366.826	2650.44
367.052	2671.44
367.278	2637.44
367.505	2641.44
367.731	2613.44
367.957	2616.44
368.184	2670.44
368.41	2641.44
368.636	2676.44
368.862	2719.44
369.089	2672.44
369.315	2646.44
369.541	2645.44
369.767	2682.44
369.993	2676.44
370.219	2632.44
370.445	2661.44
370.672	2691.44
370.898	2723.44
371.124	2695.44
371.35	2796.44
371.576	2745.44
371.802	2791.44
372.028	2786.44
372.254	2769.44
372.48	2812.44
372.706	2807.44
372.932	2851.44
373.158	2816.44
373.384	2827.44
373.61	2810.44
373.835	2851.44
374.061	2846.44
374.287	2874.44
374.513	2861.44
374.739	2956.44
374.965	2941.44
375.191	2910.44
375.416	2963.44
375.642	2926.44
375.868	2892.44
376.094	2847.44
376.319	2798.44
376.545	2868.44
376.771	2783.44
376.997	2797.44
377.222	2759.44
377.448	2714.44
377.674	2795.44
377.899	2740.44
378.125	2766.44
378.35	2782.44
378.576	2781.44
378.802	2848.44
379.027	2873.44
379.253	2937.44
379.478	3123.44
379.704	3605.44
379.929	5104.44
380.155	7842.44
380.38	8646.44
380.606	5252.44
380.831	3717.44
381.057	3267.44
381.282	3037.44
381.507	2882.44
381.733	2840.44
381.958	2812.44
382.184	2764.44
382.409	2718.44
382.634	2700.44
382.86	2693.44
383.085	2705.44
383.31	2694.44
383.535	2688.44
383.761	2692.44
383.986	2734.44
384.211	2780.44
384.436	2754.44
384.662	2809.44
384.887	2831.44
385.112	2801.44
385.337	2812.44
385.562	2826.44
385.787	2820.44
386.013	2844.44
386.238	2797.44
386.463	2820.44
386.688	2806.44
386.913	2742.44
387.138	2823.44
387.363	2808.44
387.588	2757.44
387.813	2799.44
388.038	2839.44
388.263	2819.44
388.488	2769.44
388.713	2787.44
388.938	2788.44
389.163	2768.44
389.387	2841.44
389.612	2790.44
389.837	2792.44
390.062	2786.44
390.287	2836.44
390.512	2826.44
390.736	2862.44
390.961	2899.44
391.186	2933.44
391.411	2933.44
391.636	2967.44
391.86	2963.44
392.085	2918.44
392.31	2904.44
392.534	2874.44
392.759	2889.44
392.984	2878.44
393.208	2870.44
393.433	2841.44
393.658	2825.44
393.882	2818.44
394.107	2840.44
394.331	2800.44
394.556	2853.44
394.78	2838.44
395.005	2828.44
395.229	2869.44
395.454	2918.44
395.678	2918.44
395.903	2946.44
396.127	2935.44
396.352	2889.44
396.576	2902.44
396.801	2896.44
397.025	2942.44
397.249	2913.44
397.474	2960.44
397.698	2970.44
397.922	2952.44
398.147	2974.44
398.371	3036.44
398.595	3011.44
398.82	3151.44
399.044	3214.44
399.268	3399.44
399.492	3589.44
399.717	3701.44
399.941	3705.44
400.165	3538.44
400.389	3461.44
400.613	3303.44
400.837	3196.44
401.062	3163.44
401.286	3090.44
401.51	3086.44
401.734	3074.44
401.958	3082.44
402.182	3138.44
402.406	3056.44
402.63	3083.44
402.854	3167.44
403.078	3109.44
403.302	3161.44
403.526	3174.44
403.75	3216.44
403.974	3214.44
404.198	3159.44
404.422	3241.44
404.645	3196.44
404.869	3183.44
405.093	3264.44
405.317	3260.44
405.541	3293.44
405.765	3250.44
405.988	3353.44
406.212	3299.44
406.436	3302.44
406.66	3305.44
406.883	3324.44
407.107	3404.44
407.331	3472.44
407.555	3485.44
407.778	3485.44
408.002	3450.44
408.226	3409.44
408.449	3409.44
408.673	3339.44
408.896	3313.44
409.12	3250.44
409.344	3264.44
409.567	3193.44
409.791	3206.44
410.014	3221.44
410.238	3178.44
410.461	3200.44
410.685	3162.44
410.908	3127.44
411.132	3142.44
411.355	3088.44
411.578	3089.44
411.802	3058.44
412.025	3088.44
412.249	3127.44
412.472	3068.44
412.695	3090.44
412.919	3077.44
413.142	2986.44
413.365	2998.44
413.589	3042.44
413.812	3074.44
414.035	2996.44
414.258	3017.44
414.482	2977.44
414.705	3026.44
414.928	2998.44
415.151	3000.44
415.374	3022.44
415.597	2976.44
415.821	2974.44
416.044	2972.44
416.267	2916.44
416.49	2883.44
416.713	2874.44
416.936	2952.44
417.159	2820.44
417.382	2879.44
417.605	2878.44
417.828	2877.44
418.051	2901.44
418.274	2946.44
418.497	2908.44
418.72	2968.44
418.943	2906.44
419.166	3054.44
419.389	3224.44
419.611	3178.44
419.834	3071.44
420.057	3015.44
420.28	2943.44
420.503	2860.44
420.726	2862.44
420.948	2884.44
421.171	2872.44
421.394	2952.44
421.617	2871.44
421.839	2922.44
422.062	2939.44
422.285	2900.44
422.507	2985.44
422.73	2994.44
422.953	3017.44
423.175	3002.44
423.398	2975.44
423.621	2881.44
423.843	2941.44
424.066	2933.44
424.288	2873.44
424.511	2834.44
424.733	2874.44
424.956	2870.44
425.178	2850.44
425.401	2833.44
425.623	2860.44
425.846	2835.44
426.068	2807.44
426.291	2768.44
426.513	2725.44
426.735	2788.44
426.958	2770.44
427.18	2720.44
427.402	2744.44
427.625	2751.44
427.847	2718.44
428.069	2715.44
428.292	2703.44
428.514	2705.44
428.736	2721.44
428.958	2703.44
429.181	2640.44
429.403	2653.44
429.625	2648.44
429.847	2712.44
430.069	2764.44
430.292	2822.44
430.514	2862.44
430.736	2902.44
430.958	2757.44
431.18	2662.44
431.402	2666.44
431.624	2613.44
431.846	2651.44
432.068	2620.44
432.29	2644.44
432.512	2597.44
432.734	2636.44
432.956	2668.44
433.178	2654.44
433.4	2634.44
433.622	2660.44
433.844	2724.44
434.066	2683.44
434.287	2684.44
434.509	2732.44
434.731	2718.44
434.953	2780.44
435.175	2752.44
435.397	2762.44
435.618	2687.44
435.84	2751.44
436.062	2709.44
436.284	2640.44
436.505	2669.44
436.727	2692.44
436.949	2586.44
437.17	2646.44
437.392	2609.44
437.614	2601.44
437.835	2536.44
438.057	2525.44
438.278	2549.44
438.5	2590.44
438.721	2600.44
438.943	2646.44
439.165	2741.44
439.386	2744.44
439.608	2773.44
439.829	2727.44
440.05	2864.44
440.272	2886.44
440.493	2732.44
440.715	2746.44
440.936	2768.44
441.158	2774.44
441.379	2778.44
441.6	2929.44
441.822	2938.44
442.043	3096.44
442.264	3182.44
442.486	3016.44
442.707	2904.44
442.928	2870.44
443.149	2830.44
443.371	2790.44
443.592	2873.44
443.813	2916.44
444.034	2888.44
444.255	2904.44
444.476	2989.44
444.698	3009.44
444.919	3056.44
445.14	3137.44
445.361	3002.44
445.582	2952.44
445.803	2873.44
446.024	2802.44
446.245	2824.44
446.466	2828.44
446.687	2857.44
446.908	2763.44
447.129	2698.44
447.35	2670.44
447.571	2668.44
447.792	2630.44
448.013	2664.44
448.234	2588.44
448.455	2604.44
448.675	2635.44
448.896	2651.44
449.117	2775.44
449.338	2982.44
449.559	3140.44
449.779	2848.44
450	2648.44
450.221	2568.44
450.442	2587.44
450.662	2581.44
450.883	2524.44
451.104	2583.44
451.324	2562.44
451.545	2559.44
451.766	2593.44
451.986	2642.44
452.207	2799.44
452.428	3662.44
452.648	5450.44
452.869	4538.44
453.089	3193.44
453.31	3030.44
453.53	2953.44
453.751	3030.44
453.971	3196.44
454.192	3090.44
454.412	2738.44
454.633	2556.44
454.853	2533.44
455.073	2453.44
455.294	2465.44
455.514	2455.44
455.734	2452.44
455.955	2453.44
456.175	2442.44
456.395	2451.44
456.616	2416.44
456.836	2518.44
457.056	2539.44
457.276	2514.44
457.497	2654.44
457.717	2680.44
457.937	2575.44
458.157	2566.44
458.377	2616.44
458.598	2668.44
458.818	2656.44
459.038	2671.44
459.258	2661.44
459.478	2708.44
459.698	2742.44
459.918	2755.44
460.138	2752.44
460.358	2848.44
460.578	2880.44
460.798	2903.44
461.018	2892.44
461.238	2910.44
461.458	2912.44
461.678	2958.44
461.898	3041.44
462.118	3026.44
462.338	3080.44
462.558	3089.44
462.777	3186.44
462.997	3254.44
463.217	3429.44
463.437	3486.44
463.657	3540.44
463.876	3644.44
464.096	3362.44
464.316	3228.44
464.536	3196.44
464.755	3135.44
464.975	3028.44
465.195	2955.44
465.414	2883.44
465.634	2804.44
465.854	2756.44
466.073	2746.44
466.293	2712.44
466.512	2684.44
466.732	2712.44
466.951	2813.44
467.171	3076.44
467.391	2952.44
467.61	2749.44
467.829	2647.44
468.049	2626.44
468.268	2632.44
468.488	2607.44
468.707	2585.44
468.927	2616.44
469.146	2602.44
469.365	2643.44
469.585	2660.44
469.804	2719.44
470.023	2794.44
470.243	2840.44
470.462	2880.44
470.681	3054.44
470.901	3269.44
471.12	3808.44
471.339	3790.44
471.558	3172.44
471.777	2910.44
471.997	2808.44
472.216	2696.44
472.435	2672.44
472.654	2623.44
472.873	2629.44
473.092	2636.44
473.311	2637.44
473.53	2681.44
473.749	2719.44
473.968	2782.44
474.187	2649.44
474.406	2608.44
474.625	2645.44
474.844	2618.44
475.063	2682.44
475.282	2610.44
475.501	2642.44
475.72	2668.44
475.939	2718.44
476.158	2712.44
476.377	2771.44
476.596	2757.44
476.814	2789.44
477.033	2797.44
477.252	2790.44
477.471	2882.44
477.69	2916.44
477.908	2933.44
478.127	3013.44
478.346	3001.44
478.564	3036.44
478.783	3046.44
479.002	3121.44
479.22	3094.44
479.439	3204.44
479.658	3135.44
479.876	3140.44
480.095	3213.44
480.313	3245.44
480.532	3258.44
480.751	3257.44
480.969	3198.44
481.188	3208.44
481.406	3190.44
481.624	3204.44
481.843	3224.44
482.061	3244.44
482.28	3177.44
482.498	3197.44
482.717	3206.44
482.935	3204.44
483.153	3228.44
483.372	3262.44
483.59	3279.44
483.808	3380.44
484.027	3450.44
484.245	3689.44
484.463	4126.44
484.681	4534.44
484.9	4163.44
485.118	3847.44
485.336	3766.44
485.554	3805.44
485.772	4042.44
485.99	4595.44
486.209	4900.44
486.427	4149.44
486.645	3745.44
486.863	3552.44
487.081	3477.44
487.299	3445.44
487.517	3415.44
487.735	3427.44
