Data from SnStandardFlinnAPT0064_LampEnergy10_LIBS07252019.E.O._I.C._HRD10591_15-22-37-494.txt Node
Date: Thu Jul 25 15:22:37 EDT 2019
User: cochatt
Spectrometer: HR+D1059
Trigger mode: 1
Integration Time (sec): 1.000000E-1
Scans to average: 1
Electric dark correction enabled: true
Nonlinearity correction enabled: false
Boxcar width: 0
XAxis mode: Wavelengths
Number of Pixels in Spectrum: 2048
>>>>>Begin Spectral Data<<<<<
223.165	-16.75
223.4	-16.75
223.635	-16.75
223.869	-12.75
224.104	-16.75
224.338	-23.75
224.573	-18.75
224.808	-6.75
225.042	-10.75
225.277	-6.75
225.511	-2.75
225.746	15.25
225.98	-3.75
226.215	15.25
226.449	21.25
226.683	18.25
226.918	29.25
227.152	20.25
227.387	41.25
227.621	40.25
227.856	45.25
228.09	46.25
228.324	50.25
228.559	59.25
228.793	122.25
229.027	297.25
229.262	333.25
229.496	311.25
229.73	304.25
229.964	311.25
230.199	299.25
230.433	318.25
230.667	314.25
230.901	323.25
231.136	334.25
231.37	329.25
231.604	393.25
231.838	449.25
232.072	535.25
232.306	575.25
232.541	483.25
232.775	422.25
233.009	383.25
233.243	389.25
233.477	439.25
233.711	521.25
233.945	583.25
234.179	511.25
234.413	450.25
234.647	448.25
234.881	450.25
235.115	508.25
235.349	610.25
235.583	763.25
235.817	976.25
236.051	978.25
236.285	650.25
236.519	533.25
236.753	479.25
236.987	490.25
237.221	524.25
237.455	499.25
237.689	449.25
237.922	479.25
238.156	464.25
238.39	479.25
238.624	491.25
238.858	467.25
239.091	491.25
239.325	474.25
239.559	519.25
239.793	499.25
240.027	523.25
240.26	522.25
240.494	541.25
240.728	569.25
240.961	604.25
241.195	621.25
241.429	678.25
241.662	684.25
241.896	770.25
242.13	942.25
242.363	1236.25
242.597	1637.25
242.83	1539.25
243.064	1566.25
243.298	1877.25
243.531	1500.25
243.765	921.25
243.998	748.25
244.232	704.25
244.465	658.25
244.699	651.25
244.932	638.25
245.166	649.25
245.399	673.25
245.633	679.25
245.866	656.25
246.099	641.25
246.333	653.25
246.566	613.25
246.8	617.25
247.033	634.25
247.266	633.25
247.5	668.25
247.733	644.25
247.966	696.25
248.2	785.25
248.433	833.25
248.666	1003.25
248.899	953.25
249.133	834.25
249.366	859.25
249.599	947.25
249.832	1073.25
250.066	1076.25
250.299	836.25
250.532	785.25
250.765	764.25
250.998	722.25
251.231	725.25
251.465	747.25
251.698	714.25
251.931	725.25
252.164	747.25
252.397	753.25
252.63	776.25
252.863	790.25
253.096	835.25
253.329	793.25
253.562	776.25
253.795	777.25
254.028	773.25
254.261	823.25
254.494	874.25
254.727	1007.25
254.96	1242.25
255.193	1208.25
255.426	952.25
255.659	845.25
255.892	847.25
256.124	855.25
256.357	859.25
256.59	893.25
256.823	950.25
257.056	1069.25
257.289	1353.25
257.521	1494.25
257.754	1190.25
257.987	976.25
258.22	905.25
258.452	908.25
258.685	884.25
258.918	927.25
259.151	965.25
259.383	1083.25
259.616	1180.25
259.849	1285.25
260.081	1090.25
260.314	994.25
260.547	963.25
260.779	961.25
261.012	930.25
261.244	960.25
261.477	981.25
261.71	986.25
261.942	989.25
262.175	1021.25
262.407	1037.25
262.64	1046.25
262.872	1095.25
263.105	1135.25
263.337	1205.25
263.57	1273.25
263.802	1282.25
264.035	1337.25
264.267	1381.25
264.499	1398.25
264.732	1411.25
264.964	1436.25
265.197	1436.25
265.429	1441.25
265.661	1481.25
265.894	1560.25
266.126	1760.25
266.358	1957.25
266.591	1925.25
266.823	1596.25
267.055	1431.25
267.287	1354.25
267.52	1322.25
267.752	1281.25
267.984	1277.25
268.216	1254.25
268.448	1242.25
268.681	1238.25
268.913	1217.25
269.145	1252.25
269.377	1266.25
269.609	1235.25
269.841	1260.25
270.073	1378.25
270.306	1598.25
270.538	2131.25
270.77	3206.25
271.002	3926.25
271.234	2752.25
271.466	1825.25
271.698	1505.25
271.93	1370.25
272.162	1278.25
272.394	1284.25
272.626	1251.25
272.858	1224.25
273.09	1205.25
273.322	1230.25
273.553	1210.25
273.785	1190.25
274.017	1205.25
274.249	1215.25
274.481	1206.25
274.713	1177.25
274.945	1221.25
275.176	1234.25
275.408	1212.25
275.64	1245.25
275.872	1193.25
276.104	1226.25
276.335	1252.25
276.567	1296.25
276.799	1296.25
277.031	1298.25
277.262	1308.25
277.494	1420.25
277.726	1582.25
277.957	1794.25
278.189	2149.25
278.421	1960.25
278.652	1775.25
278.884	1670.25
279.115	1480.25
279.347	1452.25
279.579	1426.25
279.81	1378.25
280.042	1391.25
280.273	1441.25
280.505	1482.25
280.736	1482.25
280.968	1563.25
281.199	1746.25
281.431	2066.25
281.662	2088.25
281.894	1785.25
282.125	1630.25
282.356	1642.25
282.588	1660.25
282.819	1723.25
283.051	1753.25
283.282	1967.25
283.513	2439.25
283.745	3527.25
283.976	5651.25
284.207	8062.25
284.439	7352.25
284.67	4431.25
284.901	3651.25
285.132	3692.25
285.364	3591.25
285.595	2668.25
285.826	2412.25
286.057	2819.25
286.288	3842.25
286.52	5245.25
286.751	4861.25
286.982	2967.25
287.213	2254.25
287.444	1939.25
287.675	1839.25
287.906	1771.25
288.138	1675.25
288.369	1673.25
288.6	1695.25
288.831	1645.25
289.062	1628.25
289.293	1656.25
289.524	1675.25
289.755	1653.25
289.986	1691.25
290.217	1678.25
290.448	1685.25
290.679	1715.25
290.91	1737.25
291.141	1853.25
291.371	2053.25
291.602	2149.25
291.833	1911.25
292.064	1726.25
292.295	1639.25
292.526	1613.25
292.757	1618.25
292.987	1600.25
293.218	1567.25
293.449	1593.25
293.68	1576.25
293.91	1554.25
294.141	1541.25
294.372	1539.25
294.603	1608.25
294.833	1563.25
295.064	1556.25
295.295	1486.25
295.525	1541.25
295.756	1530.25
295.987	1529.25
296.217	1560.25
296.448	1539.25
296.679	1568.25
296.909	1609.25
297.14	1570.25
297.37	1596.25
297.601	1635.25
297.831	1593.25
298.062	1635.25
298.292	1632.25
298.523	1698.25
298.753	1691.25
298.984	1690.25
299.214	1702.25
299.445	1730.25
299.675	1751.25
299.905	1859.25
300.136	1883.25
300.366	2114.25
300.597	2739.25
300.827	3822.25
301.057	5325.25
301.288	5249.25
301.518	3271.25
301.748	2553.25
301.979	2356.25
302.209	2216.25
302.439	2265.25
302.669	2389.25
302.9	2915.25
303.13	4145.25
303.36	6209.25
303.59	8284.25
303.82	7146.25
304.051	4097.25
304.281	2969.25
304.511	2449.25
304.741	2273.25
304.971	2142.25
305.201	2038.25
305.431	1978.25
305.661	1957.25
305.891	1887.25
306.121	1868.25
306.352	1873.25
306.582	1802.25
306.812	1795.25
307.042	1830.25
307.272	1830.25
307.502	1816.25
307.731	1806.25
307.961	1851.25
308.191	1809.25
308.421	1779.25
308.651	1795.25
308.881	1766.25
309.111	1842.25
309.341	1781.25
309.571	1823.25
309.8	1849.25
310.03	1817.25
310.26	1812.25
310.49	1837.25
310.72	1870.25
310.949	1866.25
311.179	1887.25
311.409	1919.25
311.639	1936.25
311.868	1918.25
312.098	1939.25
312.328	1990.25
312.557	1945.25
312.787	1959.25
313.017	1973.25
313.246	1989.25
313.476	2005.25
313.706	2088.25
313.935	2165.25
314.165	2345.25
314.394	2487.25
314.624	2381.25
314.853	2124.25
315.083	2125.25
315.312	2155.25
315.542	2170.25
315.771	2170.25
316.001	2261.25
316.23	2294.25
316.46	2363.25
316.689	2592.25
316.919	3163.25
317.148	4648.25
317.377	7163.25
317.607	10568.25
317.836	10941.25
318.065	6463.25
318.295	4149.25
318.524	3341.25
318.753	2925.25
318.983	2677.25
319.212	2531.25
319.441	2490.25
319.67	2414.25
319.9	2429.25
320.129	2378.25
320.358	2321.25
320.587	2344.25
320.816	2339.25
321.046	2318.25
321.275	2348.25
321.504	2377.25
321.733	2385.25
321.962	2496.25
322.191	2503.25
322.42	2461.25
322.649	2461.25
322.878	2447.25
323.108	2490.25
323.337	2574.25
323.566	2544.25
323.795	2597.25
324.024	2676.25
324.253	2747.25
324.482	2813.25
324.71	2969.25
324.939	3215.25
325.168	3237.25
325.397	3309.25
325.626	3938.25
325.855	5559.25
326.084	8857.25
326.313	12853.25
326.542	13481.25
326.77	8945.25
326.999	5740.25
327.228	4827.25
327.457	4643.25
327.686	4716.25
327.914	4975.25
328.143	5886.25
328.372	6978.25
328.6	7739.25
328.829	6823.25
329.058	5580.25
329.287	4973.25
329.515	4512.25
329.744	4254.25
329.972	3955.25
330.201	3815.25
330.43	3717.25
330.658	3555.25
330.887	3589.25
331.115	3491.25
331.344	3490.25
331.572	3425.25
331.801	3475.25
332.03	3528.25
332.258	3527.25
332.486	3755.25
332.715	4270.25
332.943	5344.25
333.172	6644.25
333.4	6527.25
333.629	4883.25
333.857	4417.25
334.085	4376.25
334.314	4609.25
334.542	5033.25
334.771	5952.25
334.999	7306.25
335.227	9208.25
335.455	10250.25
335.684	9140.25
335.912	7510.25
336.14	6306.25
336.369	5590.25
336.597	5155.25
336.825	4648.25
337.053	4483.25
337.281	4205.25
337.51	3935.25
337.738	3851.25
337.966	3754.25
338.194	3525.25
338.422	3475.25
338.65	3368.25
338.878	3337.25
339.106	3243.25
339.334	3227.25
339.562	3119.25
339.79	3135.25
340.018	3069.25
340.246	3022.25
340.474	2968.25
340.702	3024.25
340.93	2982.25
341.158	3010.25
341.386	2995.25
341.614	2969.25
341.842	2924.25
342.07	2823.25
342.298	2803.25
342.526	2790.25
342.754	2787.25
342.981	2725.25
343.209	2715.25
343.437	2672.25
343.665	2807.25
343.893	2825.25
344.12	2804.25
344.348	2793.25
344.576	2741.25
344.804	2675.25
345.031	2646.25
345.259	2655.25
345.487	2625.25
345.714	2611.25
345.942	2548.25
346.17	2563.25
346.397	2487.25
346.625	2534.25
346.853	2525.25
347.08	2531.25
347.308	2519.25
347.535	2516.25
347.763	2510.25
347.99	2459.25
348.218	2446.25
348.445	2499.25
348.673	2422.25
348.9	2504.25
349.128	2467.25
349.355	2431.25
349.583	2424.25
349.81	2459.25
350.037	2443.25
350.265	2410.25
350.492	2403.25
350.72	2388.25
350.947	2393.25
351.174	2444.25
351.402	2403.25
351.629	2392.25
351.856	2339.25
352.083	2377.25
352.311	2389.25
352.538	2352.25
352.765	2383.25
352.992	2409.25
353.22	2379.25
353.447	2374.25
353.674	2364.25
353.901	2383.25
354.128	2428.25
354.355	2372.25
354.583	2429.25
354.81	2377.25
355.037	2427.25
355.264	2415.25
355.491	2470.25
355.718	2481.25
355.945	2479.25
356.172	2472.25
356.399	2455.25
356.626	2489.25
356.853	2480.25
357.08	2491.25
357.307	2580.25
357.534	2609.25
357.761	2618.25
357.988	2565.25
358.215	2526.25
358.441	2597.25
358.668	2543.25
358.895	2574.25
359.122	2510.25
359.349	2494.25
359.576	2540.25
359.802	2510.25
360.029	2554.25
360.256	2510.25
360.483	2581.25
360.709	2552.25
360.936	2555.25
361.163	2532.25
361.39	2559.25
361.616	2550.25
361.843	2587.25
362.07	2586.25
362.296	2587.25
362.523	2547.25
362.749	2579.25
362.976	2571.25
363.203	2549.25
363.429	2512.25
363.656	2577.25
363.882	2511.25
364.109	2514.25
364.335	2552.25
364.562	2552.25
364.788	2549.25
365.015	2595.25
365.241	2637.25
365.468	2805.25
365.694	2981.25
365.92	2829.25
366.147	2612.25
366.373	2580.25
366.599	2576.25
366.826	2635.25
367.052	2581.25
367.278	2653.25
367.505	2637.25
367.731	2635.25
367.957	2590.25
368.184	2638.25
368.41	2649.25
368.636	2661.25
368.862	2650.25
369.089	2622.25
369.315	2661.25
369.541	2684.25
369.767	2617.25
369.993	2680.25
370.219	2623.25
370.445	2671.25
370.672	2642.25
370.898	2671.25
371.124	2730.25
371.35	2739.25
371.576	2707.25
371.802	2724.25
372.028	2748.25
372.254	2751.25
372.48	2816.25
372.706	2788.25
372.932	2759.25
373.158	2799.25
373.384	2794.25
373.61	2761.25
373.835	2829.25
374.061	2809.25
374.287	2839.25
374.513	2794.25
374.739	2913.25
374.965	2850.25
375.191	2966.25
375.416	2902.25
375.642	2876.25
375.868	2877.25
376.094	2790.25
376.319	2841.25
376.545	2771.25
376.771	2742.25
376.997	2774.25
377.222	2773.25
377.448	2746.25
377.674	2750.25
377.899	2722.25
378.125	2733.25
378.35	2761.25
378.576	2744.25
378.802	2765.25
379.027	2790.25
379.253	2887.25
379.478	3097.25
379.704	3593.25
379.929	5241.25
380.155	8090.25
380.38	8681.25
380.606	5249.25
380.831	3687.25
381.057	3176.25
381.282	2960.25
381.507	2831.25
381.733	2761.25
381.958	2757.25
382.184	2751.25
382.409	2726.25
382.634	2738.25
382.86	2695.25
383.085	2678.25
383.31	2695.25
383.535	2691.25
383.761	2674.25
383.986	2686.25
384.211	2751.25
384.436	2752.25
384.662	2769.25
384.887	2751.25
385.112	2749.25
385.337	2820.25
385.562	2790.25
385.787	2818.25
386.013	2796.25
386.238	2821.25
386.463	2763.25
386.688	2794.25
386.913	2809.25
387.138	2765.25
387.363	2757.25
387.588	2722.25
387.813	2761.25
388.038	2772.25
388.263	2790.25
388.488	2821.25
388.713	2796.25
388.938	2798.25
389.163	2742.25
389.387	2722.25
389.612	2741.25
389.837	2765.25
390.062	2738.25
390.287	2814.25
390.512	2810.25
390.736	2889.25
390.961	2851.25
391.186	2896.25
391.411	2914.25
391.636	2903.25
391.86	2916.25
392.085	2930.25
392.31	2929.25
392.534	2892.25
392.759	2801.25
392.984	2804.25
393.208	2841.25
393.433	2859.25
393.658	2888.25
393.882	2796.25
394.107	2792.25
394.331	2780.25
394.556	2792.25
394.78	2819.25
395.005	2825.25
395.229	2841.25
395.454	2880.25
395.678	2933.25
395.903	2895.25
396.127	2875.25
396.352	2860.25
396.576	2876.25
396.801	2857.25
397.025	2921.25
397.249	2916.25
397.474	2885.25
397.698	2902.25
397.922	2949.25
398.147	2949.25
398.371	3006.25
398.595	3038.25
398.82	3129.25
399.044	3182.25
399.268	3306.25
399.492	3561.25
399.717	3693.25
399.941	3638.25
400.165	3543.25
400.389	3419.25
400.613	3289.25
400.837	3186.25
401.062	3099.25
401.286	3112.25
401.51	3121.25
401.734	3001.25
401.958	3021.25
402.182	3044.25
402.406	3040.25
402.63	3050.25
402.854	3113.25
403.078	3097.25
403.302	3143.25
403.526	3134.25
403.75	3145.25
403.974	3220.25
404.198	3141.25
404.422	3194.25
404.645	3153.25
404.869	3191.25
405.093	3197.25
405.317	3164.25
405.541	3224.25
405.765	3271.25
405.988	3281.25
406.212	3272.25
406.436	3241.25
406.66	3265.25
406.883	3269.25
407.107	3412.25
407.331	3470.25
407.555	3502.25
407.778	3449.25
408.002	3440.25
408.226	3385.25
408.449	3364.25
408.673	3333.25
408.896	3270.25
409.12	3230.25
409.344	3266.25
409.567	3190.25
409.791	3185.25
410.014	3199.25
410.238	3150.25
410.461	3171.25
410.685	3151.25
410.908	3092.25
411.132	3107.25
411.355	3056.25
411.578	3025.25
411.802	3080.25
412.025	3032.25
412.249	3076.25
412.472	3042.25
412.695	2983.25
412.919	2971.25
413.142	2978.25
413.365	2996.25
413.589	3025.25
413.812	2949.25
414.035	3008.25
414.258	3014.25
414.482	2969.25
414.705	3019.25
414.928	3025.25
415.151	2971.25
415.374	2973.25
415.597	2925.25
415.821	2855.25
416.044	2923.25
416.267	2866.25
416.49	2911.25
416.713	2793.25
416.936	2876.25
417.159	2873.25
417.382	2839.25
417.605	2805.25
417.828	2870.25
418.051	2865.25
418.274	2879.25
418.497	2874.25
418.72	2965.25
418.943	2941.25
419.166	3041.25
419.389	3225.25
419.611	3165.25
419.834	3068.25
420.057	3021.25
420.28	2938.25
420.503	2891.25
420.726	2919.25
420.948	2872.25
421.171	2885.25
421.394	2849.25
421.617	2891.25
421.839	2870.25
422.062	2917.25
422.285	2802.25
422.507	2904.25
422.73	2937.25
422.953	2931.25
423.175	2972.25
423.398	2949.25
423.621	2855.25
423.843	2915.25
424.066	2906.25
424.288	2858.25
424.511	2842.25
424.733	2849.25
424.956	2843.25
425.178	2841.25
425.401	2852.25
425.623	2850.25
425.846	2803.25
426.068	2812.25
426.291	2764.25
426.513	2741.25
426.735	2716.25
426.958	2742.25
427.18	2683.25
427.402	2741.25
427.625	2741.25
427.847	2663.25
428.069	2714.25
428.292	2697.25
428.514	2681.25
428.736	2694.25
428.958	2680.25
429.181	2627.25
429.403	2634.25
429.625	2620.25
429.847	2679.25
430.069	2729.25
430.292	2806.25
430.514	2830.25
430.736	2834.25
430.958	2709.25
431.18	2611.25
431.402	2639.25
431.624	2585.25
431.846	2586.25
432.068	2636.25
432.29	2624.25
432.512	2614.25
432.734	2667.25
432.956	2637.25
433.178	2623.25
433.4	2638.25
433.622	2591.25
433.844	2684.25
434.066	2657.25
434.287	2675.25
434.509	2702.25
434.731	2702.25
434.953	2740.25
435.175	2755.25
435.397	2726.25
435.618	2706.25
435.84	2670.25
436.062	2611.25
436.284	2632.25
436.505	2629.25
436.727	2659.25
436.949	2648.25
437.17	2611.25
437.392	2570.25
437.614	2547.25
437.835	2511.25
438.057	2551.25
438.278	2538.25
438.5	2533.25
438.721	2595.25
438.943	2688.25
439.165	2749.25
439.386	2721.25
439.608	2712.25
439.829	2729.25
440.05	2788.25
440.272	2852.25
440.493	2733.25
440.715	2673.25
440.936	2763.25
441.158	2730.25
441.379	2768.25
441.6	2883.25
441.822	2909.25
442.043	3050.25
442.264	3158.25
442.486	3013.25
442.707	2897.25
442.928	2791.25
443.149	2823.25
443.371	2797.25
443.592	2866.25
443.813	2919.25
444.034	2845.25
444.255	2936.25
444.476	2895.25
444.698	2972.25
444.919	3071.25
445.14	3107.25
445.361	2957.25
445.582	2821.25
445.803	2837.25
446.024	2823.25
446.245	2789.25
446.466	2833.25
446.687	2748.25
446.908	2763.25
447.129	2673.25
447.35	2656.25
447.571	2626.25
447.792	2581.25
448.013	2581.25
448.234	2623.25
448.455	2609.25
448.675	2612.25
448.896	2645.25
449.117	2748.25
449.338	2989.25
449.559	3112.25
449.779	2829.25
450	2650.25
450.221	2565.25
450.442	2598.25
450.662	2555.25
450.883	2508.25
451.104	2513.25
451.324	2487.25
451.545	2528.25
451.766	2509.25
451.986	2582.25
452.207	2798.25
452.428	3637.25
452.648	5494.25
452.869	4540.25
453.089	3073.25
453.31	2920.25
453.53	2940.25
453.751	3043.25
453.971	3191.25
454.192	3143.25
454.412	2711.25
454.633	2542.25
454.853	2461.25
455.073	2442.25
455.294	2433.25
455.514	2429.25
455.734	2444.25
455.955	2379.25
456.175	2411.25
456.395	2419.25
456.616	2430.25
456.836	2432.25
457.056	2473.25
457.276	2455.25
457.497	2603.25
457.717	2676.25
457.937	2563.25
458.157	2576.25
458.377	2594.25
458.598	2604.25
458.818	2589.25
459.038	2597.25
459.258	2646.25
459.478	2665.25
459.698	2671.25
459.918	2685.25
460.138	2773.25
460.358	2797.25
460.578	2824.25
460.798	2827.25
461.018	2888.25
461.238	2861.25
461.458	2900.25
461.678	2871.25
461.898	3013.25
462.118	2949.25
462.338	3070.25
462.558	3037.25
462.777	3159.25
462.997	3233.25
463.217	3423.25
463.437	3492.25
463.657	3571.25
463.876	3590.25
464.096	3342.25
464.316	3177.25
464.536	3165.25
464.755	3074.25
464.975	3047.25
465.195	2960.25
465.414	2854.25
465.634	2737.25
465.854	2734.25
466.073	2704.25
466.293	2662.25
466.512	2665.25
466.732	2673.25
466.951	2819.25
467.171	3002.25
467.391	2963.25
467.61	2727.25
467.829	2633.25
468.049	2599.25
468.268	2540.25
468.488	2546.25
468.707	2562.25
468.927	2593.25
469.146	2548.25
469.365	2565.25
469.585	2588.25
469.804	2642.25
470.023	2687.25
470.243	2739.25
470.462	2841.25
470.681	2983.25
470.901	3297.25
471.12	3754.25
471.339	3845.25
471.558	3134.25
471.777	2847.25
471.997	2755.25
472.216	2740.25
472.435	2647.25
472.654	2650.25
472.873	2579.25
473.092	2587.25
473.311	2603.25
473.53	2625.25
473.749	2645.25
473.968	2746.25
474.187	2655.25
474.406	2595.25
474.625	2577.25
474.844	2586.25
475.063	2623.25
475.282	2594.25
475.501	2621.25
475.72	2623.25
475.939	2691.25
476.158	2736.25
476.377	2793.25
476.596	2743.25
476.814	2765.25
477.033	2717.25
477.252	2766.25
477.471	2822.25
477.69	2888.25
477.908	2927.25
478.127	2981.25
478.346	2911.25
478.564	2979.25
478.783	3030.25
479.002	3098.25
479.22	3044.25
479.439	3082.25
479.658	3111.25
479.876	3126.25
480.095	3145.25
480.313	3199.25
480.532	3219.25
480.751	3195.25
480.969	3163.25
481.188	3114.25
481.406	3133.25
481.624	3166.25
481.843	3105.25
482.061	3178.25
482.28	3133.25
482.498	3125.25
482.717	3130.25
482.935	3169.25
483.153	3255.25
483.372	3236.25
483.59	3286.25
483.808	3301.25
484.027	3387.25
484.245	3607.25
484.463	4095.25
484.681	4597.25
484.9	4105.25
485.118	3817.25
485.336	3723.25
485.554	3791.25
485.772	3993.25
485.99	4578.25
486.209	4917.25
486.427	4146.25
486.645	3658.25
486.863	3505.25
487.081	3421.25
487.299	3383.25
487.517	3343.25
487.735	3422.25
