Data from SnStandardFlinnAPT0064_LampEnergy10_LIBS07252019.E.O._I.C._HRD10591_15-22-28-494.txt Node
Date: Thu Jul 25 15:22:28 EDT 2019
User: cochatt
Spectrometer: HR+D1059
Trigger mode: 1
Integration Time (sec): 1.000000E-1
Scans to average: 1
Electric dark correction enabled: true
Nonlinearity correction enabled: false
Boxcar width: 0
XAxis mode: Wavelengths
Number of Pixels in Spectrum: 2048
>>>>>Begin Spectral Data<<<<<
223.165	-15.38
223.4	-15.38
223.635	-15.38
223.869	-17.38
224.104	-20.38
224.338	-11.38
224.573	-13.38
224.808	-19.38
225.042	-13.38
225.277	-0.38
225.511	-0.38
225.746	-1.38
225.98	6.62
226.215	10.62
226.449	17.62
226.683	12.62
226.918	26.62
227.152	38.62
227.387	26.62
227.621	33.62
227.856	38.62
228.09	55.62
228.324	32.62
228.559	57.62
228.793	123.62
229.027	316.62
229.262	330.62
229.496	314.62
229.73	305.62
229.964	284.62
230.199	302.62
230.433	307.62
230.667	288.62
230.901	321.62
231.136	329.62
231.37	358.62
231.604	388.62
231.838	416.62
232.072	493.62
232.306	563.62
232.541	450.62
232.775	427.62
233.009	411.62
233.243	426.62
233.477	459.62
233.711	522.62
233.945	570.62
234.179	491.62
234.413	455.62
234.647	458.62
234.881	456.62
235.115	522.62
235.349	598.62
235.583	763.62
235.817	965.62
236.051	946.62
236.285	653.62
236.519	509.62
236.753	472.62
236.987	495.62
237.221	539.62
237.455	497.62
237.689	439.62
237.922	452.62
238.156	477.62
238.39	483.62
238.624	496.62
238.858	459.62
239.091	480.62
239.325	479.62
239.559	484.62
239.793	513.62
240.027	510.62
240.26	537.62
240.494	521.62
240.728	573.62
240.961	605.62
241.195	652.62
241.429	643.62
241.662	685.62
241.896	777.62
242.13	935.62
242.363	1215.62
242.597	1577.62
242.83	1487.62
243.064	1520.62
243.298	1798.62
243.531	1472.62
243.765	953.62
243.998	772.62
244.232	660.62
244.465	679.62
244.699	610.62
244.932	639.62
245.166	672.62
245.399	676.62
245.633	675.62
245.866	658.62
246.099	679.62
246.333	631.62
246.566	671.62
246.8	609.62
247.033	626.62
247.266	612.62
247.5	627.62
247.733	660.62
247.966	705.62
248.2	753.62
248.433	853.62
248.666	972.62
248.899	961.62
249.133	836.62
249.366	876.62
249.599	932.62
249.832	1064.62
250.066	1074.62
250.299	867.62
250.532	742.62
250.765	752.62
250.998	757.62
251.231	757.62
251.465	746.62
251.698	730.62
251.931	716.62
252.164	753.62
252.397	769.62
252.63	757.62
252.863	796.62
253.096	775.62
253.329	795.62
253.562	786.62
253.795	784.62
254.028	797.62
254.261	822.62
254.494	880.62
254.727	1018.62
254.96	1208.62
255.193	1219.62
255.426	948.62
255.659	845.62
255.892	855.62
256.124	856.62
256.357	879.62
256.59	914.62
256.823	959.62
257.056	1095.62
257.289	1304.62
257.521	1426.62
257.754	1170.62
257.987	969.62
258.22	899.62
258.452	899.62
258.685	897.62
258.918	924.62
259.151	1004.62
259.383	1067.62
259.616	1220.62
259.849	1258.62
260.081	1066.62
260.314	970.62
260.547	973.62
260.779	954.62
261.012	921.62
261.244	954.62
261.477	978.62
261.71	996.62
261.942	991.62
262.175	1013.62
262.407	1052.62
262.64	1069.62
262.872	1062.62
263.105	1141.62
263.337	1219.62
263.57	1271.62
263.802	1322.62
264.035	1289.62
264.267	1348.62
264.499	1397.62
264.732	1441.62
264.964	1448.62
265.197	1418.62
265.429	1472.62
265.661	1516.62
265.894	1596.62
266.126	1767.62
266.358	1964.62
266.591	1874.62
266.823	1594.62
267.055	1444.62
267.287	1395.62
267.52	1349.62
267.752	1299.62
267.984	1277.62
268.216	1272.62
268.448	1244.62
268.681	1239.62
268.913	1212.62
269.145	1215.62
269.377	1255.62
269.609	1265.62
269.841	1289.62
270.073	1410.62
270.306	1573.62
270.538	2163.62
270.77	3153.62
271.002	3886.62
271.234	2729.62
271.466	1825.62
271.698	1501.62
271.93	1370.62
272.162	1331.62
272.394	1286.62
272.626	1262.62
272.858	1217.62
273.09	1194.62
273.322	1211.62
273.553	1186.62
273.785	1211.62
274.017	1194.62
274.249	1204.62
274.481	1238.62
274.713	1201.62
274.945	1210.62
275.176	1221.62
275.408	1227.62
275.64	1207.62
275.872	1215.62
276.104	1270.62
276.335	1234.62
276.567	1266.62
276.799	1253.62
277.031	1305.62
277.262	1325.62
277.494	1380.62
277.726	1553.62
277.957	1777.62
278.189	2079.62
278.421	1943.62
278.652	1735.62
278.884	1660.62
279.115	1508.62
279.347	1431.62
279.579	1365.62
279.81	1406.62
280.042	1391.62
280.273	1399.62
280.505	1430.62
280.736	1484.62
280.968	1558.62
281.199	1767.62
281.431	1950.62
281.662	2093.62
281.894	1773.62
282.125	1605.62
282.356	1637.62
282.588	1630.62
282.819	1684.62
283.051	1767.62
283.282	1945.62
283.513	2375.62
283.745	3471.62
283.976	5567.62
284.207	7904.62
284.439	7212.62
284.67	4419.62
284.901	3608.62
285.132	3631.62
285.364	3479.62
285.595	2609.62
285.826	2421.62
286.057	2806.62
286.288	3839.62
286.52	5179.62
286.751	4771.62
286.982	2963.62
287.213	2223.62
287.444	1942.62
287.675	1846.62
287.906	1776.62
288.138	1705.62
288.369	1694.62
288.6	1693.62
288.831	1668.62
289.062	1667.62
289.293	1692.62
289.524	1670.62
289.755	1670.62
289.986	1699.62
290.217	1719.62
290.448	1729.62
290.679	1713.62
290.91	1781.62
291.141	1874.62
291.371	2004.62
291.602	2115.62
291.833	1911.62
292.064	1731.62
292.295	1661.62
292.526	1612.62
292.757	1609.62
292.987	1602.62
293.218	1602.62
293.449	1612.62
293.68	1587.62
293.91	1565.62
294.141	1546.62
294.372	1532.62
294.603	1552.62
294.833	1538.62
295.064	1576.62
295.295	1539.62
295.525	1559.62
295.756	1552.62
295.987	1519.62
296.217	1567.62
296.448	1593.62
296.679	1564.62
296.909	1585.62
297.14	1567.62
297.37	1605.62
297.601	1618.62
297.831	1608.62
298.062	1657.62
298.292	1618.62
298.523	1715.62
298.753	1704.62
298.984	1708.62
299.214	1723.62
299.445	1754.62
299.675	1724.62
299.905	1841.62
300.136	1911.62
300.366	2139.62
300.597	2711.62
300.827	3802.62
301.057	5106.62
301.288	5134.62
301.518	3291.62
301.748	2497.62
301.979	2326.62
302.209	2276.62
302.439	2281.62
302.669	2378.62
302.9	2911.62
303.13	4132.62
303.36	6115.62
303.59	8013.62
303.82	6971.62
304.051	4093.62
304.281	2933.62
304.511	2500.62
304.741	2307.62
304.971	2139.62
305.201	2055.62
305.431	2015.62
305.661	1945.62
305.891	1898.62
306.121	1839.62
306.352	1849.62
306.582	1851.62
306.812	1823.62
307.042	1836.62
307.272	1835.62
307.502	1794.62
307.731	1837.62
307.961	1795.62
308.191	1806.62
308.421	1827.62
308.651	1812.62
308.881	1837.62
309.111	1839.62
309.341	1829.62
309.571	1860.62
309.8	1862.62
310.03	1847.62
310.26	1851.62
310.49	1863.62
310.72	1939.62
310.949	1859.62
311.179	1926.62
311.409	1909.62
311.639	1943.62
311.868	1925.62
312.098	1938.62
312.328	1969.62
312.557	1956.62
312.787	1943.62
313.017	2004.62
313.246	1988.62
313.476	2019.62
313.706	2113.62
313.935	2224.62
314.165	2346.62
314.394	2467.62
314.624	2319.62
314.853	2146.62
315.083	2114.62
315.312	2137.62
315.542	2191.62
315.771	2192.62
316.001	2262.62
316.23	2321.62
316.46	2428.62
316.689	2622.62
316.919	3208.62
317.148	4562.62
317.377	6983.62
317.607	10265.62
317.836	10607.62
318.065	6376.62
318.295	4090.62
318.524	3332.62
318.753	2949.62
318.983	2714.62
319.212	2535.62
319.441	2455.62
319.67	2422.62
319.9	2394.62
320.129	2372.62
320.358	2323.62
320.587	2315.62
320.816	2338.62
321.046	2331.62
321.275	2365.62
321.504	2401.62
321.733	2475.62
321.962	2508.62
322.191	2536.62
322.42	2497.62
322.649	2526.62
322.878	2448.62
323.108	2440.62
323.337	2533.62
323.566	2563.62
323.795	2605.62
324.024	2624.62
324.253	2714.62
324.482	2847.62
324.71	2978.62
324.939	3208.62
325.168	3277.62
325.397	3354.62
325.626	3967.62
325.855	5505.62
326.084	8644.62
326.313	12460.62
326.542	13221.62
326.77	8773.62
326.999	5843.62
327.228	4883.62
327.457	4599.62
327.686	4696.62
327.914	5097.62
328.143	5910.62
328.372	7050.62
328.6	7617.62
328.829	6789.62
329.058	5753.62
329.287	5030.62
329.515	4613.62
329.744	4249.62
329.972	4036.62
330.201	3889.62
330.43	3759.62
330.658	3591.62
330.887	3549.62
331.115	3517.62
331.344	3447.62
331.572	3442.62
331.801	3510.62
332.03	3461.62
332.258	3594.62
332.486	3698.62
332.715	4279.62
332.943	5298.62
333.172	6502.62
333.4	6443.62
333.629	4864.62
333.857	4469.62
334.085	4455.62
334.314	4611.62
334.542	5041.62
334.771	5916.62
334.999	7323.62
335.227	9225.62
335.455	10304.62
335.684	9165.62
335.912	7600.62
336.14	6409.62
336.369	5639.62
336.597	5181.62
336.825	4766.62
337.053	4465.62
337.281	4172.62
337.51	4048.62
337.738	3817.62
337.966	3736.62
338.194	3575.62
338.422	3499.62
338.65	3391.62
338.878	3329.62
339.106	3292.62
339.334	3225.62
339.562	3124.62
339.79	3132.62
340.018	3144.62
340.246	3045.62
340.474	3018.62
340.702	2961.62
340.93	3036.62
341.158	3079.62
341.386	3050.62
341.614	2980.62
341.842	2904.62
342.07	2884.62
342.298	2779.62
342.526	2807.62
342.754	2768.62
342.981	2719.62
343.209	2716.62
343.437	2767.62
343.665	2853.62
343.893	2858.62
344.12	2851.62
344.348	2829.62
344.576	2729.62
344.804	2751.62
345.031	2596.62
345.259	2649.62
345.487	2660.62
345.714	2635.62
345.942	2563.62
346.17	2523.62
346.397	2537.62
346.625	2518.62
346.853	2546.62
347.08	2540.62
347.308	2505.62
347.535	2523.62
347.763	2534.62
347.99	2552.62
348.218	2513.62
348.445	2505.62
348.673	2476.62
348.9	2516.62
349.128	2503.62
349.355	2489.62
349.583	2495.62
349.81	2438.62
350.037	2418.62
350.265	2382.62
350.492	2429.62
350.72	2436.62
350.947	2373.62
351.174	2439.62
351.402	2435.62
351.629	2409.62
351.856	2420.62
352.083	2403.62
352.311	2400.62
352.538	2377.62
352.765	2381.62
352.992	2372.62
353.22	2386.62
353.447	2406.62
353.674	2399.62
353.901	2371.62
354.128	2396.62
354.355	2431.62
354.583	2431.62
354.81	2431.62
355.037	2422.62
355.264	2428.62
355.491	2406.62
355.718	2470.62
355.945	2431.62
356.172	2469.62
356.399	2466.62
356.626	2495.62
356.853	2511.62
357.08	2554.62
357.307	2603.62
357.534	2580.62
357.761	2598.62
357.988	2583.62
358.215	2615.62
358.441	2580.62
358.668	2559.62
358.895	2567.62
359.122	2537.62
359.349	2570.62
359.576	2503.62
359.802	2493.62
360.029	2507.62
360.256	2620.62
360.483	2541.62
360.709	2578.62
360.936	2577.62
361.163	2589.62
361.39	2592.62
361.616	2545.62
361.843	2595.62
362.07	2629.62
362.296	2585.62
362.523	2522.62
362.749	2620.62
362.976	2577.62
363.203	2588.62
363.429	2511.62
363.656	2561.62
363.882	2547.62
364.109	2543.62
364.335	2581.62
364.562	2537.62
364.788	2544.62
365.015	2588.62
365.241	2631.62
365.468	2821.62
365.694	2949.62
365.92	2833.62
366.147	2648.62
366.373	2642.62
366.599	2616.62
366.826	2622.62
367.052	2613.62
367.278	2651.62
367.505	2641.62
367.731	2623.62
367.957	2632.62
368.184	2634.62
368.41	2687.62
368.636	2710.62
368.862	2688.62
369.089	2665.62
369.315	2644.62
369.541	2701.62
369.767	2634.62
369.993	2652.62
370.219	2674.62
370.445	2669.62
370.672	2677.62
370.898	2639.62
371.124	2631.62
371.35	2738.62
371.576	2746.62
371.802	2812.62
372.028	2819.62
372.254	2765.62
372.48	2768.62
372.706	2794.62
372.932	2863.62
373.158	2819.62
373.384	2768.62
373.61	2828.62
373.835	2852.62
374.061	2826.62
374.287	2835.62
374.513	2861.62
374.739	2929.62
374.965	2861.62
375.191	2932.62
375.416	2919.62
375.642	2850.62
375.868	2853.62
376.094	2806.62
376.319	2819.62
376.545	2841.62
376.771	2790.62
376.997	2732.62
377.222	2735.62
377.448	2711.62
377.674	2721.62
377.899	2715.62
378.125	2752.62
378.35	2735.62
378.576	2723.62
378.802	2719.62
379.027	2814.62
379.253	2869.62
379.478	3058.62
379.704	3527.62
379.929	5119.62
380.155	7835.62
380.38	8380.62
380.606	5107.62
380.831	3638.62
381.057	3247.62
381.282	2953.62
381.507	2836.62
381.733	2800.62
381.958	2773.62
382.184	2759.62
382.409	2725.62
382.634	2702.62
382.86	2715.62
383.085	2659.62
383.31	2701.62
383.535	2689.62
383.761	2708.62
383.986	2758.62
384.211	2749.62
384.436	2803.62
384.662	2752.62
384.887	2775.62
385.112	2769.62
385.337	2847.62
385.562	2784.62
385.787	2787.62
386.013	2827.62
386.238	2805.62
386.463	2792.62
386.688	2840.62
386.913	2745.62
387.138	2839.62
387.363	2789.62
387.588	2736.62
387.813	2763.62
388.038	2831.62
388.263	2743.62
388.488	2786.62
388.713	2756.62
388.938	2776.62
389.163	2757.62
389.387	2777.62
389.612	2777.62
389.837	2799.62
390.062	2787.62
390.287	2824.62
390.512	2824.62
390.736	2853.62
390.961	2910.62
391.186	2915.62
391.411	2939.62
391.636	2907.62
391.86	2964.62
392.085	2977.62
392.31	2866.62
392.534	2868.62
392.759	2835.62
392.984	2895.62
393.208	2980.62
393.433	3047.62
393.658	3062.62
393.882	2853.62
394.107	2839.62
394.331	2839.62
394.556	2824.62
394.78	2849.62
395.005	2883.62
395.229	2871.62
395.454	2916.62
395.678	2927.62
395.903	2911.62
396.127	2899.62
396.352	2843.62
396.576	2901.62
396.801	2970.62
397.025	3023.62
397.249	2996.62
397.474	2987.62
397.698	2934.62
397.922	2984.62
398.147	2943.62
398.371	3024.62
398.595	3060.62
398.82	3074.62
399.044	3273.62
399.268	3355.62
399.492	3549.62
399.717	3721.62
399.941	3726.62
400.165	3591.62
400.389	3430.62
400.613	3268.62
400.837	3181.62
401.062	3103.62
401.286	3132.62
401.51	3089.62
401.734	3029.62
401.958	3091.62
402.182	3095.62
402.406	3043.62
402.63	3099.62
402.854	3161.62
403.078	3130.62
403.302	3196.62
403.526	3159.62
403.75	3235.62
403.974	3205.62
404.198	3190.62
404.422	3198.62
404.645	3178.62
404.869	3177.62
405.093	3224.62
405.317	3232.62
405.541	3240.62
405.765	3254.62
405.988	3304.62
406.212	3295.62
406.436	3267.62
406.66	3291.62
406.883	3289.62
407.107	3388.62
407.331	3463.62
407.555	3511.62
407.778	3497.62
408.002	3445.62
408.226	3372.62
408.449	3461.62
408.673	3338.62
408.896	3251.62
409.12	3195.62
409.344	3283.62
409.567	3177.62
409.791	3203.62
410.014	3147.62
410.238	3193.62
410.461	3220.62
410.685	3156.62
410.908	3119.62
411.132	3161.62
411.355	3064.62
411.578	3107.62
411.802	3089.62
412.025	3035.62
412.249	3108.62
412.472	3066.62
412.695	2977.62
412.919	3006.62
413.142	3027.62
413.365	3028.62
413.589	3012.62
413.812	3044.62
414.035	2992.62
414.258	3026.62
414.482	3005.62
414.705	3016.62
414.928	3031.62
415.151	3007.62
415.374	2957.62
415.597	2956.62
415.821	2877.62
416.044	2867.62
416.267	2880.62
416.49	2893.62
416.713	2873.62
416.936	2881.62
417.159	2863.62
417.382	2849.62
417.605	2780.62
417.828	2839.62
418.051	2865.62
418.274	2873.62
418.497	2909.62
418.72	2997.62
418.943	2919.62
419.166	3045.62
419.389	3215.62
419.611	3144.62
419.834	3101.62
420.057	3042.62
420.28	2953.62
420.503	2890.62
420.726	2865.62
420.948	2874.62
421.171	2850.62
421.394	2866.62
421.617	2831.62
421.839	2897.62
422.062	2914.62
422.285	2877.62
422.507	2976.62
422.73	2973.62
422.953	2991.62
423.175	2995.62
423.398	2968.62
423.621	2896.62
423.843	2871.62
424.066	2891.62
424.288	2889.62
424.511	2830.62
424.733	2868.62
424.956	2844.62
425.178	2820.62
425.401	2844.62
425.623	2865.62
425.846	2774.62
426.068	2799.62
426.291	2790.62
426.513	2764.62
426.735	2814.62
426.958	2806.62
427.18	2708.62
427.402	2711.62
427.625	2744.62
427.847	2740.62
428.069	2691.62
428.292	2713.62
428.514	2692.62
428.736	2677.62
428.958	2696.62
429.181	2602.62
429.403	2647.62
429.625	2651.62
429.847	2648.62
430.069	2722.62
430.292	2806.62
430.514	2838.62
430.736	2889.62
430.958	2739.62
431.18	2666.62
431.402	2654.62
431.624	2589.62
431.846	2659.62
432.068	2568.62
432.29	2652.62
432.512	2609.62
432.734	2650.62
432.956	2625.62
433.178	2665.62
433.4	2699.62
433.622	2685.62
433.844	2673.62
434.066	2640.62
434.287	2678.62
434.509	2725.62
434.731	2729.62
434.953	2744.62
435.175	2725.62
435.397	2803.62
435.618	2686.62
435.84	2684.62
436.062	2622.62
436.284	2635.62
436.505	2619.62
436.727	2605.62
436.949	2666.62
437.17	2601.62
437.392	2590.62
437.614	2581.62
437.835	2501.62
438.057	2521.62
438.278	2533.62
438.5	2599.62
438.721	2585.62
438.943	2668.62
439.165	2740.62
439.386	2692.62
439.608	2714.62
439.829	2724.62
440.05	2821.62
440.272	2855.62
440.493	2707.62
440.715	2697.62
440.936	2726.62
441.158	2741.62
441.379	2821.62
441.6	2897.62
441.822	2961.62
442.043	3134.62
442.264	3153.62
442.486	3018.62
442.707	2873.62
442.928	2848.62
443.149	2842.62
443.371	2853.62
443.592	2796.62
443.813	2868.62
444.034	2881.62
444.255	2885.62
444.476	2923.62
444.698	2995.62
444.919	3043.62
445.14	3154.62
445.361	3017.62
445.582	2907.62
445.803	2809.62
446.024	2783.62
446.245	2820.62
446.466	2819.62
446.687	2777.62
446.908	2780.62
447.129	2671.62
447.35	2643.62
447.571	2681.62
447.792	2596.62
448.013	2559.62
448.234	2629.62
448.455	2683.62
448.675	2643.62
448.896	2699.62
449.117	2801.62
449.338	3004.62
449.559	3133.62
449.779	2785.62
450	2624.62
450.221	2603.62
450.442	2602.62
450.662	2567.62
450.883	2576.62
451.104	2532.62
451.324	2521.62
451.545	2559.62
451.766	2574.62
451.986	2595.62
452.207	2821.62
452.428	3626.62
452.648	5361.62
452.869	4497.62
453.089	3128.62
453.31	2980.62
453.53	2942.62
453.751	3008.62
453.971	3163.62
454.192	3093.62
454.412	2678.62
454.633	2524.62
454.853	2519.62
455.073	2471.62
455.294	2484.62
455.514	2425.62
455.734	2437.62
455.955	2414.62
456.175	2402.62
456.395	2417.62
456.616	2425.62
456.836	2459.62
457.056	2467.62
457.276	2479.62
457.497	2654.62
457.717	2671.62
457.937	2626.62
458.157	2563.62
458.377	2515.62
458.598	2644.62
458.818	2634.62
459.038	2615.62
459.258	2674.62
459.478	2688.62
459.698	2728.62
459.918	2691.62
460.138	2788.62
460.358	2836.62
460.578	2812.62
460.798	2842.62
461.018	2847.62
461.238	2896.62
461.458	2930.62
461.678	2909.62
461.898	3011.62
462.118	2998.62
462.338	3112.62
462.558	3093.62
462.777	3147.62
462.997	3266.62
463.217	3411.62
463.437	3580.62
463.657	3559.62
463.876	3551.62
464.096	3363.62
464.316	3239.62
464.536	3195.62
464.755	3081.62
464.975	3031.62
465.195	2889.62
465.414	2834.62
465.634	2803.62
465.854	2762.62
466.073	2735.62
466.293	2649.62
466.512	2633.62
466.732	2705.62
466.951	2863.62
467.171	3004.62
467.391	2941.62
467.61	2668.62
467.829	2681.62
468.049	2663.62
468.268	2544.62
468.488	2551.62
468.707	2583.62
468.927	2617.62
469.146	2579.62
469.365	2611.62
469.585	2657.62
469.804	2659.62
470.023	2715.62
470.243	2738.62
470.462	2873.62
470.681	2995.62
470.901	3258.62
471.12	3729.62
471.339	3745.62
471.558	3138.62
471.777	2899.62
471.997	2751.62
472.216	2655.62
472.435	2671.62
472.654	2555.62
472.873	2590.62
473.092	2592.62
473.311	2617.62
473.53	2659.62
473.749	2725.62
473.968	2799.62
474.187	2679.62
474.406	2582.62
474.625	2607.62
474.844	2601.62
475.063	2626.62
475.282	2637.62
475.501	2680.62
475.72	2682.62
475.939	2689.62
476.158	2664.62
476.377	2783.62
476.596	2762.62
476.814	2751.62
477.033	2739.62
477.252	2776.62
477.471	2873.62
477.69	2920.62
477.908	2919.62
478.127	2949.62
478.346	2955.62
478.564	2962.62
478.783	3011.62
479.002	3084.62
479.22	3129.62
479.439	3166.62
479.658	3077.62
479.876	3142.62
480.095	3176.62
480.313	3238.62
480.532	3207.62
480.751	3221.62
480.969	3170.62
481.188	3180.62
481.406	3165.62
481.624	3142.62
481.843	3170.62
482.061	3208.62
482.28	3154.62
482.498	3149.62
482.717	3154.62
482.935	3165.62
483.153	3227.62
483.372	3248.62
483.59	3266.62
483.808	3372.62
484.027	3408.62
484.245	3624.62
484.463	4131.62
484.681	4533.62
484.9	4078.62
485.118	3818.62
485.336	3743.62
485.554	3796.62
485.772	3963.62
485.99	4513.62
486.209	4903.62
486.427	4157.62
486.645	3683.62
486.863	3538.62
487.081	3455.62
487.299	3404.62
487.517	3366.62
487.735	3332.62
