Data from SnStandardFlinnAPT0064_QswitchEnergy10_LIBS07252019.E.O._I.C._HRD10591_15-26-24-973.txt Node
Date: Thu Jul 25 15:26:24 EDT 2019
User: cochatt
Spectrometer: HR+D1059
Trigger mode: 1
Integration Time (sec): 1.000000E-1
Scans to average: 1
Electric dark correction enabled: true
Nonlinearity correction enabled: false
Boxcar width: 0
XAxis mode: Wavelengths
Number of Pixels in Spectrum: 2048
>>>>>Begin Spectral Data<<<<<
223.165	-9.06
223.4	-9.06
223.635	-9.06
223.869	-2.06
224.104	-21.06
224.338	-27.06
224.573	-21.06
224.808	8.94
225.042	-10.06
225.277	-5.06
225.511	-6.06
225.746	8.94
225.98	11.94
226.215	6.94
226.449	5.94
226.683	11.94
226.918	18.94
227.152	27.94
227.387	40.94
227.621	36.94
227.856	50.94
228.09	52.94
228.324	66.94
228.559	59.94
228.793	58.94
229.027	74.94
229.262	70.94
229.496	57.94
229.73	71.94
229.964	68.94
230.199	67.94
230.433	77.94
230.667	79.94
230.901	69.94
231.136	89.94
231.37	84.94
231.604	87.94
231.838	102.94
232.072	118.94
232.306	112.94
232.541	97.94
232.775	89.94
233.009	81.94
233.243	75.94
233.477	75.94
233.711	92.94
233.945	97.94
234.179	80.94
234.413	84.94
234.647	88.94
234.881	81.94
235.115	87.94
235.349	92.94
235.583	93.94
235.817	117.94
236.051	113.94
236.285	97.94
236.519	70.94
236.753	96.94
236.987	79.94
237.221	88.94
237.455	87.94
237.689	72.94
237.922	73.94
238.156	83.94
238.39	90.94
238.624	84.94
238.858	81.94
239.091	66.94
239.325	65.94
239.559	75.94
239.793	83.94
240.027	75.94
240.26	74.94
240.494	90.94
240.728	79.94
240.961	82.94
241.195	77.94
241.429	85.94
241.662	105.94
241.896	87.94
242.13	94.94
242.363	122.94
242.597	160.94
242.83	128.94
243.064	131.94
243.298	168.94
243.531	151.94
243.765	93.94
243.998	90.94
244.232	83.94
244.465	82.94
244.699	88.94
244.932	83.94
245.166	73.94
245.399	81.94
245.633	83.94
245.866	107.94
246.099	88.94
246.333	98.94
246.566	88.94
246.8	85.94
247.033	88.94
247.266	85.94
247.5	75.94
247.733	77.94
247.966	92.94
248.2	97.94
248.433	116.94
248.666	118.94
248.899	119.94
249.133	91.94
249.366	90.94
249.599	106.94
249.832	118.94
250.066	116.94
250.299	93.94
250.532	89.94
250.765	93.94
250.998	95.94
251.231	74.94
251.465	78.94
251.698	78.94
251.931	74.94
252.164	91.94
252.397	92.94
252.63	98.94
252.863	115.94
253.096	90.94
253.329	91.94
253.562	100.94
253.795	97.94
254.028	92.94
254.261	88.94
254.494	89.94
254.727	124.94
254.96	137.94
255.193	123.94
255.426	96.94
255.659	94.94
255.892	94.94
256.124	87.94
256.357	110.94
256.59	87.94
256.823	100.94
257.056	119.94
257.289	155.94
257.521	165.94
257.754	124.94
257.987	92.94
258.22	94.94
258.452	92.94
258.685	92.94
258.918	92.94
259.151	92.94
259.383	110.94
259.616	147.94
259.849	151.94
260.081	108.94
260.314	86.94
260.547	97.94
260.779	88.94
261.012	91.94
261.244	95.94
261.477	94.94
261.71	84.94
261.942	81.94
262.175	94.94
262.407	83.94
262.64	87.94
262.872	89.94
263.105	85.94
263.337	91.94
263.57	99.94
263.802	86.94
264.035	109.94
264.267	88.94
264.499	89.94
264.732	83.94
264.964	84.94
265.197	90.94
265.429	107.94
265.661	119.94
265.894	98.94
266.126	118.94
266.358	149.94
266.591	142.94
266.823	108.94
267.055	91.94
267.287	85.94
267.52	84.94
267.752	92.94
267.984	81.94
268.216	81.94
268.448	73.94
268.681	95.94
268.913	92.94
269.145	86.94
269.377	85.94
269.609	89.94
269.841	100.94
270.073	112.94
270.306	127.94
270.538	184.94
270.77	302.94
271.002	358.94
271.234	189.94
271.466	107.94
271.698	92.94
271.93	94.94
272.162	88.94
272.394	86.94
272.626	85.94
272.858	82.94
273.09	89.94
273.322	93.94
273.553	79.94
273.785	72.94
274.017	93.94
274.249	74.94
274.481	100.94
274.713	102.94
274.945	100.94
275.176	96.94
275.408	90.94
275.64	94.94
275.872	102.94
276.104	105.94
276.335	107.94
276.567	94.94
276.799	87.94
277.031	88.94
277.262	97.94
277.494	108.94
277.726	117.94
277.957	167.94
278.189	223.94
278.421	214.94
278.652	168.94
278.884	183.94
279.115	155.94
279.347	119.94
279.579	90.94
279.81	90.94
280.042	100.94
280.273	102.94
280.505	112.94
280.736	116.94
280.968	113.94
281.199	152.94
281.431	229.94
281.662	243.94
281.894	175.94
282.125	107.94
282.356	117.94
282.588	111.94
282.819	114.94
283.051	115.94
283.282	133.94
283.513	173.94
283.745	274.94
283.976	472.94
284.207	695.94
284.439	551.94
284.67	255.94
284.901	245.94
285.132	330.94
285.364	353.94
285.595	212.94
285.826	172.94
286.057	239.94
286.288	371.94
286.52	547.94
286.751	446.94
286.982	168.94
287.213	121.94
287.444	109.94
287.675	98.94
287.906	88.94
288.138	127.94
288.369	99.94
288.6	102.94
288.831	91.94
289.062	89.94
289.293	92.94
289.524	94.94
289.755	78.94
289.986	89.94
290.217	114.94
290.448	95.94
290.679	111.94
290.91	118.94
291.141	175.94
291.371	233.94
291.602	268.94
291.833	196.94
292.064	129.94
292.295	104.94
292.526	95.94
292.757	93.94
292.987	92.94
293.218	96.94
293.449	99.94
293.68	89.94
293.91	99.94
294.141	103.94
294.372	103.94
294.603	92.94
294.833	104.94
295.064	92.94
295.295	99.94
295.525	97.94
295.756	87.94
295.987	87.94
296.217	92.94
296.448	77.94
296.679	100.94
296.909	84.94
297.14	98.94
297.37	88.94
297.601	93.94
297.831	101.94
298.062	103.94
298.292	86.94
298.523	100.94
298.753	97.94
298.984	106.94
299.214	89.94
299.445	108.94
299.675	113.94
299.905	119.94
300.136	141.94
300.366	140.94
300.597	253.94
300.827	403.94
301.057	610.94
301.288	568.94
301.518	241.94
301.748	152.94
301.979	136.94
302.209	126.94
302.439	133.94
302.669	160.94
302.9	243.94
303.13	455.94
303.36	799.94
303.59	1087.94
303.82	773.94
304.051	268.94
304.281	154.94
304.511	139.94
304.741	124.94
304.971	105.94
305.201	107.94
305.431	97.94
305.661	106.94
305.891	107.94
306.121	110.94
306.352	101.94
306.582	110.94
306.812	119.94
307.042	94.94
307.272	104.94
307.502	108.94
307.731	119.94
307.961	97.94
308.191	101.94
308.421	103.94
308.651	107.94
308.881	96.94
309.111	117.94
309.341	93.94
309.571	104.94
309.8	110.94
310.03	111.94
310.26	118.94
310.49	122.94
310.72	98.94
310.949	101.94
311.179	115.94
311.409	93.94
311.639	118.94
311.868	116.94
312.098	115.94
312.328	117.94
312.557	113.94
312.787	110.94
313.017	97.94
313.246	129.94
313.476	120.94
313.706	126.94
313.935	146.94
314.165	197.94
314.394	236.94
314.624	184.94
314.853	141.94
315.083	127.94
315.312	131.94
315.542	119.94
315.771	118.94
316.001	135.94
316.23	135.94
316.46	141.94
316.689	170.94
316.919	241.94
317.148	442.94
317.377	804.94
317.607	1299.94
317.836	1230.94
318.065	466.94
318.295	211.94
318.524	139.94
318.753	141.94
318.983	139.94
319.212	123.94
319.441	114.94
319.67	104.94
319.9	119.94
320.129	113.94
320.358	122.94
320.587	121.94
320.816	125.94
321.046	121.94
321.275	118.94
321.504	124.94
321.733	127.94
321.962	139.94
322.191	170.94
322.42	124.94
322.649	119.94
322.878	135.94
323.108	122.94
323.337	125.94
323.566	127.94
323.795	124.94
324.024	121.94
324.253	138.94
324.482	160.94
324.71	227.94
324.939	259.94
325.168	223.94
325.397	187.94
325.626	243.94
325.855	451.94
326.084	833.94
326.313	1436.94
326.542	1399.94
326.77	554.94
326.999	249.94
327.228	201.94
327.457	226.94
327.686	228.94
327.914	150.94
328.143	140.94
328.372	134.94
328.6	120.94
328.829	123.94
329.058	128.94
329.287	125.94
329.515	127.94
329.744	121.94
329.972	103.94
330.201	105.94
330.43	116.94
330.658	113.94
330.887	112.94
331.115	116.94
331.344	121.94
331.572	118.94
331.801	121.94
332.03	127.94
332.258	115.94
332.486	185.94
332.715	260.94
332.943	451.94
333.172	709.94
333.4	595.94
333.629	230.94
333.857	141.94
334.085	117.94
334.314	124.94
334.542	122.94
334.771	128.94
334.999	111.94
335.227	119.94
335.455	122.94
335.684	118.94
335.912	118.94
336.14	109.94
336.369	113.94
336.597	95.94
336.825	117.94
337.053	108.94
337.281	111.94
337.51	111.94
337.738	104.94
337.966	112.94
338.194	112.94
338.422	115.94
338.65	117.94
338.878	110.94
339.106	116.94
339.334	120.94
339.562	121.94
339.79	113.94
340.018	117.94
340.246	123.94
340.474	115.94
340.702	111.94
340.93	112.94
341.158	116.94
341.386	118.94
341.614	120.94
341.842	124.94
342.07	100.94
342.298	118.94
342.526	107.94
342.754	117.94
342.981	120.94
343.209	111.94
343.437	126.94
343.665	113.94
343.893	104.94
344.12	116.94
344.348	103.94
344.576	92.94
344.804	131.94
345.031	107.94
345.259	101.94
345.487	111.94
345.714	114.94
345.942	115.94
346.17	114.94
346.397	105.94
346.625	111.94
346.853	103.94
347.08	107.94
347.308	121.94
347.535	113.94
347.763	102.94
347.99	91.94
348.218	105.94
348.445	108.94
348.673	101.94
348.9	100.94
349.128	121.94
349.355	116.94
349.583	118.94
349.81	104.94
350.037	107.94
350.265	116.94
350.492	107.94
350.72	105.94
350.947	109.94
351.174	122.94
351.402	99.94
351.629	104.94
351.856	109.94
352.083	108.94
352.311	116.94
352.538	119.94
352.765	111.94
352.992	108.94
353.22	104.94
353.447	98.94
353.674	101.94
353.901	97.94
354.128	96.94
354.355	100.94
354.583	105.94
354.81	103.94
355.037	111.94
355.264	102.94
355.491	101.94
355.718	104.94
355.945	105.94
356.172	97.94
356.399	108.94
356.626	95.94
356.853	113.94
357.08	115.94
357.307	112.94
357.534	105.94
357.761	119.94
357.988	111.94
358.215	103.94
358.441	113.94
358.668	101.94
358.895	103.94
359.122	115.94
359.349	121.94
359.576	121.94
359.802	109.94
360.029	106.94
360.256	111.94
360.483	111.94
360.709	98.94
360.936	109.94
361.163	113.94
361.39	104.94
361.616	102.94
361.843	105.94
362.07	122.94
362.296	101.94
362.523	95.94
362.749	95.94
362.976	96.94
363.203	106.94
363.429	106.94
363.656	86.94
363.882	99.94
364.109	113.94
364.335	103.94
364.562	99.94
364.788	104.94
365.015	112.94
365.241	135.94
365.468	179.94
365.694	252.94
365.92	204.94
366.147	116.94
366.373	93.94
366.599	95.94
366.826	91.94
367.052	95.94
367.278	87.94
367.505	92.94
367.731	90.94
367.957	81.94
368.184	128.94
368.41	113.94
368.636	120.94
368.862	122.94
369.089	106.94
369.315	114.94
369.541	121.94
369.767	99.94
369.993	109.94
370.219	114.94
370.445	121.94
370.672	97.94
370.898	98.94
371.124	113.94
371.35	107.94
371.576	105.94
371.802	108.94
372.028	104.94
372.254	113.94
372.48	115.94
372.706	111.94
372.932	111.94
373.158	109.94
373.384	109.94
373.61	102.94
373.835	107.94
374.061	102.94
374.287	91.94
374.513	104.94
374.739	101.94
374.965	113.94
375.191	113.94
375.416	119.94
375.642	104.94
375.868	107.94
376.094	117.94
376.319	107.94
376.545	100.94
376.771	100.94
376.997	108.94
377.222	100.94
377.448	108.94
377.674	119.94
377.899	107.94
378.125	101.94
378.35	113.94
378.576	102.94
378.802	106.94
379.027	127.94
379.253	145.94
379.478	160.94
379.704	283.94
379.929	679.94
380.155	1402.94
380.38	1475.94
380.606	489.94
380.831	186.94
381.057	147.94
381.282	124.94
381.507	123.94
381.733	114.94
381.958	95.94
382.184	99.94
382.409	111.94
382.634	113.94
382.86	124.94
383.085	116.94
383.31	104.94
383.535	103.94
383.761	107.94
383.986	104.94
384.211	98.94
384.436	94.94
384.662	96.94
384.887	92.94
385.112	106.94
385.337	100.94
385.562	107.94
385.787	94.94
386.013	108.94
386.238	97.94
386.463	117.94
386.688	104.94
386.913	109.94
387.138	113.94
387.363	116.94
387.588	94.94
387.813	95.94
388.038	111.94
388.263	114.94
388.488	108.94
388.713	77.94
388.938	95.94
389.163	114.94
389.387	104.94
389.612	99.94
389.837	98.94
390.062	95.94
390.287	91.94
390.512	110.94
390.736	95.94
390.961	102.94
391.186	105.94
391.411	93.94
391.636	102.94
391.86	102.94
392.085	96.94
392.31	102.94
392.534	100.94
392.759	86.94
392.984	101.94
393.208	108.94
393.433	131.94
393.658	119.94
393.882	108.94
394.107	87.94
394.331	105.94
394.556	96.94
394.78	93.94
395.005	109.94
395.229	92.94
395.454	99.94
395.678	91.94
395.903	93.94
396.127	96.94
396.352	92.94
396.576	111.94
396.801	91.94
397.025	108.94
397.249	97.94
397.474	106.94
397.698	89.94
397.922	95.94
398.147	91.94
398.371	106.94
398.595	95.94
398.82	91.94
399.044	115.94
399.268	88.94
399.492	93.94
399.717	90.94
399.941	99.94
400.165	89.94
400.389	98.94
400.613	88.94
400.837	101.94
401.062	97.94
401.286	92.94
401.51	96.94
401.734	90.94
401.958	100.94
402.182	100.94
402.406	93.94
402.63	97.94
402.854	91.94
403.078	91.94
403.302	103.94
403.526	81.94
403.75	87.94
403.974	101.94
404.198	92.94
404.422	92.94
404.645	92.94
404.869	97.94
405.093	105.94
405.317	84.94
405.541	104.94
405.765	125.94
405.988	123.94
406.212	105.94
406.436	106.94
406.66	94.94
406.883	98.94
407.107	84.94
407.331	88.94
407.555	91.94
407.778	82.94
408.002	96.94
408.226	95.94
408.449	102.94
408.673	103.94
408.896	100.94
409.12	98.94
409.344	107.94
409.567	110.94
409.791	109.94
410.014	95.94
410.238	105.94
410.461	92.94
410.685	95.94
410.908	98.94
411.132	100.94
411.355	111.94
411.578	104.94
411.802	102.94
412.025	87.94
412.249	100.94
412.472	95.94
412.695	101.94
412.919	107.94
413.142	97.94
413.365	104.94
413.589	88.94
413.812	92.94
414.035	90.94
414.258	91.94
414.482	103.94
414.705	90.94
414.928	112.94
415.151	100.94
415.374	83.94
415.597	84.94
415.821	76.94
416.044	72.94
416.267	102.94
416.49	90.94
416.713	97.94
416.936	88.94
417.159	78.94
417.382	87.94
417.605	90.94
417.828	84.94
418.051	89.94
418.274	108.94
418.497	98.94
418.72	98.94
418.943	113.94
419.166	97.94
419.389	102.94
419.611	93.94
419.834	100.94
420.057	96.94
420.28	94.94
420.503	103.94
420.726	90.94
420.948	98.94
421.171	93.94
421.394	100.94
421.617	89.94
421.839	91.94
422.062	112.94
422.285	111.94
422.507	112.94
422.73	117.94
422.953	129.94
423.175	100.94
423.398	101.94
423.621	94.94
423.843	80.94
424.066	97.94
424.288	99.94
424.511	85.94
424.733	95.94
424.956	94.94
425.178	98.94
425.401	70.94
425.623	99.94
425.846	100.94
426.068	89.94
426.291	99.94
426.513	92.94
426.735	97.94
426.958	99.94
427.18	107.94
427.402	97.94
427.625	103.94
427.847	100.94
428.069	99.94
428.292	83.94
428.514	99.94
428.736	108.94
428.958	96.94
429.181	89.94
429.403	101.94
429.625	95.94
429.847	84.94
430.069	93.94
430.292	103.94
430.514	102.94
430.736	108.94
430.958	96.94
431.18	103.94
431.402	92.94
431.624	87.94
431.846	100.94
432.068	90.94
432.29	99.94
432.512	92.94
432.734	83.94
432.956	88.94
433.178	99.94
433.4	93.94
433.622	84.94
433.844	92.94
434.066	96.94
434.287	81.94
434.509	94.94
434.731	88.94
434.953	93.94
435.175	91.94
435.397	100.94
435.618	87.94
435.84	81.94
436.062	89.94
436.284	88.94
436.505	90.94
436.727	99.94
436.949	88.94
437.17	113.94
437.392	91.94
437.614	81.94
437.835	85.94
438.057	79.94
438.278	104.94
438.5	98.94
438.721	108.94
438.943	107.94
439.165	107.94
439.386	111.94
439.608	102.94
439.829	88.94
440.05	114.94
440.272	125.94
440.493	112.94
440.715	104.94
440.936	101.94
441.158	104.94
441.379	93.94
441.6	102.94
441.822	103.94
442.043	119.94
442.264	125.94
442.486	110.94
442.707	94.94
442.928	89.94
443.149	85.94
443.371	112.94
443.592	96.94
443.813	99.94
444.034	98.94
444.255	108.94
444.476	110.94
444.698	89.94
444.919	100.94
445.14	219.94
445.361	147.94
445.582	97.94
445.803	100.94
446.024	110.94
446.245	95.94
446.466	90.94
446.687	95.94
446.908	102.94
447.129	103.94
447.35	83.94
447.571	86.94
447.792	88.94
448.013	91.94
448.234	95.94
448.455	107.94
448.675	99.94
448.896	71.94
449.117	96.94
449.338	120.94
449.559	141.94
449.779	119.94
450	95.94
450.221	107.94
450.442	115.94
450.662	114.94
450.883	95.94
451.104	111.94
451.324	116.94
451.545	112.94
451.766	113.94
451.986	129.94
452.207	209.94
452.428	509.94
452.648	1243.94
452.869	738.94
453.089	193.94
453.31	113.94
453.53	127.94
453.751	124.94
453.971	156.94
454.192	123.94
454.412	99.94
454.633	103.94
454.853	84.94
455.073	96.94
455.294	91.94
455.514	89.94
455.734	95.94
455.955	96.94
456.175	83.94
456.395	92.94
456.616	99.94
456.836	96.94
457.056	101.94
457.276	104.94
457.497	106.94
457.717	116.94
457.937	111.94
458.157	67.94
458.377	100.94
458.598	86.94
458.818	95.94
459.038	72.94
459.258	84.94
459.478	86.94
459.698	89.94
459.918	82.94
460.138	93.94
460.358	75.94
460.578	88.94
460.798	90.94
461.018	104.94
461.238	99.94
461.458	87.94
461.678	87.94
461.898	87.94
462.118	90.94
462.338	99.94
462.558	104.94
462.777	102.94
462.997	99.94
463.217	111.94
463.437	140.94
463.657	165.94
463.876	183.94
464.096	113.94
464.316	93.94
464.536	108.94
464.755	109.94
464.975	83.94
465.195	92.94
465.414	97.94
465.634	91.94
465.854	88.94
466.073	95.94
466.293	88.94
466.512	86.94
466.732	101.94
466.951	117.94
467.171	123.94
467.391	129.94
467.61	105.94
467.829	108.94
468.049	121.94
468.268	96.94
468.488	106.94
468.707	84.94
468.927	94.94
469.146	98.94
469.365	93.94
469.585	106.94
469.804	108.94
470.023	108.94
470.243	113.94
470.462	104.94
470.681	99.94
470.901	124.94
471.12	177.94
471.339	195.94
471.558	131.94
471.777	117.94
471.997	112.94
472.216	99.94
472.435	85.94
472.654	96.94
472.873	98.94
473.092	107.94
473.311	89.94
473.53	99.94
473.749	97.94
473.968	87.94
474.187	90.94
474.406	92.94
474.625	86.94
474.844	86.94
475.063	97.94
475.282	87.94
475.501	96.94
475.72	95.94
475.939	83.94
476.158	102.94
476.377	124.94
476.596	104.94
476.814	98.94
477.033	81.94
477.252	108.94
477.471	100.94
477.69	95.94
477.908	98.94
478.127	106.94
478.346	100.94
478.564	100.94
478.783	96.94
479.002	90.94
479.22	80.94
479.439	93.94
479.658	100.94
479.876	101.94
480.095	87.94
480.313	92.94
480.532	89.94
480.751	96.94
480.969	96.94
481.188	100.94
481.406	105.94
481.624	91.94
481.843	118.94
482.061	123.94
482.28	101.94
482.498	103.94
482.717	86.94
482.935	99.94
483.153	85.94
483.372	106.94
483.59	111.94
483.808	89.94
484.027	94.94
484.245	108.94
484.463	163.94
484.681	212.94
484.9	148.94
485.118	94.94
485.336	97.94
485.554	99.94
485.772	110.94
485.99	177.94
486.209	242.94
486.427	156.94
486.645	122.94
486.863	96.94
487.081	90.94
487.299	107.94
487.517	116.94
487.735	106.94
487.953	106.94
488.171	114.94
488.389	102.94
488.607	95.94
488.825	103.94
489.043	88.94
489.261	106.94
489.479	97.94
489.696	107.94
489.914	91.94
490.132	98.94
490.35	94.94
490.568	109.94
490.786	101.94
491.003	96.94
491.221	107.94
491.439	111.94
491.657	108.94
491.874	92.94
492.092	94.94
492.31	120.94
492.527	101.94
492.745	89.94
492.963	105.94
493.18	108.94
493.398	111.94
493.615	94.94
493.833	101.94
494.05	95.94
494.268	111.94
494.485	93.94
494.703	100.94
494.92	99.94
495.138	105.94
495.355	111.94
495.573	108.94
495.79	107.94
496.008	91.94
496.225	104.94
496.442	101.94
496.66	113.94
496.877	153.94
497.094	154.94
497.312	92.94
497.529	95.94
497.746	95.94
497.963	93.94
498.181	107.94
498.398	102.94
498.615	93.94
498.832	100.94
499.049	101.94
499.267	121.94
499.484	141.94
499.701	109.94
499.918	91.94
500.135	87.94
500.352	99.94
500.569	95.94
500.786	96.94
501.003	110.94
501.22	113.94
501.437	89.94
501.654	76.94
501.871	97.94
502.088	85.94
502.305	92.94
502.522	97.94
502.739	106.94
502.956	91.94
503.172	98.94
503.389	98.94
503.606	98.94
503.823	95.94
504.04	114.94
504.256	87.94
504.473	95.94
504.69	92.94
504.907	120.94
505.123	101.94
505.34	96.94
505.557	84.94
505.773	114.94
505.99	99.94
506.207	107.94
506.423	105.94
506.64	122.94
506.856	102.94
507.073	90.94
507.289	103.94
507.506	106.94
507.722	97.94
507.939	106.94
508.155	92.94
508.372	86.94
508.588	102.94
508.805	107.94
509.021	99.94
