Data from SnStandardFlinnAPT0064_LampEnergy10_LIBS07252019.E.O._I.C._HRD10591_15-20-51-494.txt Node
Date: Thu Jul 25 15:20:51 EDT 2019
User: cochatt
Spectrometer: HR+D1059
Trigger mode: 1
Integration Time (sec): 1.000000E-1
Scans to average: 1
Electric dark correction enabled: true
Nonlinearity correction enabled: false
Boxcar width: 0
XAxis mode: Wavelengths
Number of Pixels in Spectrum: 2048
>>>>>Begin Spectral Data<<<<<
223.165	-29.06
223.4	-29.06
223.635	-29.06
223.869	-22.06
224.104	-9.06
224.338	-11.06
224.573	-15.06
224.808	-19.06
225.042	-0.06
225.277	-0.06
225.511	-1.06
225.746	14.94
225.98	6.94
226.215	14.94
226.449	2.94
226.683	5.94
226.918	26.94
227.152	33.94
227.387	45.94
227.621	28.94
227.856	45.94
228.09	39.94
228.324	37.94
228.559	40.94
228.793	129.94
229.027	310.94
229.262	317.94
229.496	312.94
229.73	290.94
229.964	306.94
230.199	299.94
230.433	324.94
230.667	314.94
230.901	319.94
231.136	339.94
231.37	360.94
231.604	377.94
231.838	429.94
232.072	511.94
232.306	574.94
232.541	466.94
232.775	410.94
233.009	403.94
233.243	428.94
233.477	476.94
233.711	512.94
233.945	578.94
234.179	504.94
234.413	440.94
234.647	458.94
234.881	467.94
235.115	522.94
235.349	612.94
235.583	767.94
235.817	981.94
236.051	957.94
236.285	672.94
236.519	541.94
236.753	511.94
236.987	510.94
237.221	530.94
237.455	515.94
237.689	467.94
237.922	448.94
238.156	469.94
238.39	490.94
238.624	488.94
238.858	477.94
239.091	468.94
239.325	494.94
239.559	499.94
239.793	495.94
240.027	498.94
240.26	530.94
240.494	563.94
240.728	578.94
240.961	610.94
241.195	638.94
241.429	690.94
241.662	697.94
241.896	773.94
242.13	953.94
242.363	1213.94
242.597	1587.94
242.83	1513.94
243.064	1542.94
243.298	1795.94
243.531	1474.94
243.765	950.94
243.998	769.94
244.232	710.94
244.465	663.94
244.699	662.94
244.932	677.94
245.166	709.94
245.399	685.94
245.633	675.94
245.866	712.94
246.099	669.94
246.333	662.94
246.566	653.94
246.8	654.94
247.033	626.94
247.266	658.94
247.5	667.94
247.733	687.94
247.966	706.94
248.2	780.94
248.433	892.94
248.666	1007.94
248.899	927.94
249.133	853.94
249.366	875.94
249.599	963.94
249.832	1065.94
250.066	1063.94
250.299	849.94
250.532	792.94
250.765	745.94
250.998	734.94
251.231	742.94
251.465	745.94
251.698	722.94
251.931	738.94
252.164	749.94
252.397	773.94
252.63	789.94
252.863	815.94
253.096	788.94
253.329	781.94
253.562	758.94
253.795	797.94
254.028	818.94
254.261	811.94
254.494	883.94
254.727	1036.94
254.96	1222.94
255.193	1224.94
255.426	1008.94
255.659	847.94
255.892	863.94
256.124	872.94
256.357	881.94
256.59	911.94
256.823	988.94
257.056	1134.94
257.289	1374.94
257.521	1479.94
257.754	1183.94
257.987	954.94
258.22	908.94
258.452	902.94
258.685	939.94
258.918	978.94
259.151	982.94
259.383	1099.94
259.616	1193.94
259.849	1281.94
260.081	1118.94
260.314	981.94
260.547	924.94
260.779	926.94
261.012	952.94
261.244	971.94
261.477	964.94
261.71	976.94
261.942	1022.94
262.175	1031.94
262.407	1043.94
262.64	1061.94
262.872	1104.94
263.105	1154.94
263.337	1226.94
263.57	1240.94
263.802	1272.94
264.035	1318.94
264.267	1327.94
264.499	1361.94
264.732	1417.94
264.964	1437.94
265.197	1464.94
265.429	1460.94
265.661	1481.94
265.894	1583.94
266.126	1746.94
266.358	1969.94
266.591	1910.94
266.823	1638.94
267.055	1480.94
267.287	1383.94
267.52	1352.94
267.752	1279.94
267.984	1285.94
268.216	1305.94
268.448	1261.94
268.681	1240.94
268.913	1218.94
269.145	1239.94
269.377	1231.94
269.609	1205.94
269.841	1265.94
270.073	1389.94
270.306	1597.94
270.538	2122.94
270.77	3168.94
271.002	3889.94
271.234	2801.94
271.466	1864.94
271.698	1511.94
271.93	1388.94
272.162	1320.94
272.394	1307.94
272.626	1242.94
272.858	1221.94
273.09	1227.94
273.322	1242.94
273.553	1205.94
273.785	1191.94
274.017	1206.94
274.249	1176.94
274.481	1225.94
274.713	1175.94
274.945	1206.94
275.176	1221.94
275.408	1210.94
275.64	1206.94
275.872	1252.94
276.104	1253.94
276.335	1287.94
276.567	1257.94
276.799	1256.94
277.031	1291.94
277.262	1324.94
277.494	1401.94
277.726	1569.94
277.957	1843.94
278.189	2100.94
278.421	1991.94
278.652	1758.94
278.884	1633.94
279.115	1501.94
279.347	1451.94
279.579	1373.94
279.81	1359.94
280.042	1398.94
280.273	1401.94
280.505	1443.94
280.736	1488.94
280.968	1597.94
281.199	1784.94
281.431	2013.94
281.662	2131.94
281.894	1778.94
282.125	1643.94
282.356	1648.94
282.588	1685.94
282.819	1714.94
283.051	1837.94
283.282	1987.94
283.513	2471.94
283.745	3556.94
283.976	5530.94
284.207	7891.94
284.439	7196.94
284.67	4531.94
284.901	3764.94
285.132	3792.94
285.364	3570.94
285.595	2704.94
285.826	2379.94
286.057	2862.94
286.288	3869.94
286.52	5072.94
286.751	4761.94
286.982	3080.94
287.213	2314.94
287.444	2000.94
287.675	1867.94
287.906	1830.94
288.138	1725.94
288.369	1693.94
288.6	1726.94
288.831	1671.94
289.062	1637.94
289.293	1627.94
289.524	1716.94
289.755	1693.94
289.986	1695.94
290.217	1694.94
290.448	1689.94
290.679	1736.94
290.91	1768.94
291.141	1864.94
291.371	2027.94
291.602	2134.94
291.833	1943.94
292.064	1778.94
292.295	1718.94
292.526	1661.94
292.757	1643.94
292.987	1599.94
293.218	1587.94
293.449	1597.94
293.68	1558.94
293.91	1569.94
294.141	1532.94
294.372	1577.94
294.603	1557.94
294.833	1573.94
295.064	1560.94
295.295	1570.94
295.525	1561.94
295.756	1552.94
295.987	1584.94
296.217	1599.94
296.448	1571.94
296.679	1588.94
296.909	1578.94
297.14	1619.94
297.37	1653.94
297.601	1646.94
297.831	1610.94
298.062	1659.94
298.292	1616.94
298.523	1681.94
298.753	1702.94
298.984	1704.94
299.214	1732.94
299.445	1752.94
299.675	1738.94
299.905	1846.94
300.136	1922.94
300.366	2118.94
300.597	2717.94
300.827	3719.94
301.057	5180.94
301.288	5179.94
301.518	3409.94
301.748	2632.94
301.979	2392.94
302.209	2280.94
302.439	2359.94
302.669	2441.94
302.9	2926.94
303.13	4118.94
303.36	6075.94
303.59	8010.94
303.82	7097.94
304.051	4221.94
304.281	3093.94
304.511	2562.94
304.741	2363.94
304.971	2236.94
305.201	2081.94
305.431	2008.94
305.661	1969.94
305.891	1896.94
306.121	1879.94
306.352	1906.94
306.582	1857.94
306.812	1839.94
307.042	1868.94
307.272	1840.94
307.502	1848.94
307.731	1847.94
307.961	1804.94
308.191	1815.94
308.421	1791.94
308.651	1837.94
308.881	1853.94
309.111	1823.94
309.341	1845.94
309.571	1853.94
309.8	1844.94
310.03	1839.94
310.26	1847.94
310.49	1850.94
310.72	1870.94
310.949	1835.94
311.179	1927.94
311.409	1886.94
311.639	1920.94
311.868	1942.94
312.098	1951.94
312.328	1968.94
312.557	1954.94
312.787	1990.94
313.017	1995.94
313.246	1990.94
313.476	2008.94
313.706	2081.94
313.935	2172.94
314.165	2345.94
314.394	2435.94
314.624	2358.94
314.853	2189.94
315.083	2145.94
315.312	2199.94
315.542	2185.94
315.771	2175.94
316.001	2231.94
316.23	2342.94
316.46	2435.94
316.689	2690.94
316.919	3221.94
317.148	4533.94
317.377	6987.94
317.607	10090.94
317.836	10663.94
318.065	6545.94
318.295	4337.94
318.524	3437.94
318.753	3000.94
318.983	2769.94
319.212	2563.94
319.441	2514.94
319.67	2440.94
319.9	2436.94
320.129	2346.94
320.358	2307.94
320.587	2363.94
320.816	2347.94
321.046	2359.94
321.275	2354.94
321.504	2421.94
321.733	2449.94
321.962	2490.94
322.191	2517.94
322.42	2507.94
322.649	2467.94
322.878	2507.94
323.108	2471.94
323.337	2507.94
323.566	2571.94
323.795	2638.94
324.024	2668.94
324.253	2733.94
324.482	2843.94
324.71	2986.94
324.939	3237.94
325.168	3228.94
325.397	3409.94
325.626	4058.94
325.855	5579.94
326.084	8618.94
326.313	12458.94
326.542	13305.94
326.77	9155.94
326.999	5966.94
327.228	5065.94
327.457	4765.94
327.686	4891.94
327.914	5202.94
328.143	6112.94
328.372	7194.94
328.6	7801.94
328.829	7091.94
329.058	5916.94
329.287	5119.94
329.515	4645.94
329.744	4373.94
329.972	4108.94
330.201	3914.94
330.43	3786.94
330.658	3658.94
330.887	3559.94
331.115	3517.94
331.344	3462.94
331.572	3475.94
331.801	3488.94
332.03	3602.94
332.258	3534.94
332.486	3849.94
332.715	4327.94
332.943	5234.94
333.172	6579.94
333.4	6573.94
333.629	5005.94
333.857	4513.94
334.085	4468.94
334.314	4745.94
334.542	5192.94
334.771	6103.94
334.999	7511.94
335.227	9449.94
335.455	10517.94
335.684	9576.94
335.912	7845.94
336.14	6593.94
336.369	5728.94
336.597	5297.94
336.825	4834.94
337.053	4554.94
337.281	4259.94
337.51	4058.94
337.738	3922.94
337.966	3788.94
338.194	3600.94
338.422	3499.94
338.65	3351.94
338.878	3336.94
339.106	3249.94
339.334	3223.94
339.562	3210.94
339.79	3074.94
340.018	3122.94
340.246	2998.94
340.474	3080.94
340.702	3078.94
340.93	3049.94
341.158	3015.94
341.386	3028.94
341.614	3000.94
341.842	2919.94
342.07	2901.94
342.298	2839.94
342.526	2834.94
342.754	2741.94
342.981	2729.94
343.209	2710.94
343.437	2778.94
343.665	2840.94
343.893	2823.94
344.12	2812.94
344.348	2805.94
344.576	2694.94
344.804	2726.94
345.031	2645.94
345.259	2628.94
345.487	2599.94
345.714	2590.94
345.942	2555.94
346.17	2586.94
346.397	2566.94
346.625	2544.94
346.853	2551.94
347.08	2517.94
347.308	2510.94
347.535	2521.94
347.763	2541.94
347.99	2512.94
348.218	2492.94
348.445	2460.94
348.673	2503.94
348.9	2469.94
349.128	2473.94
349.355	2406.94
349.583	2440.94
349.81	2386.94
350.037	2369.94
350.265	2410.94
350.492	2403.94
350.72	2439.94
350.947	2413.94
351.174	2406.94
351.402	2401.94
351.629	2433.94
351.856	2389.94
352.083	2399.94
352.311	2401.94
352.538	2388.94
352.765	2414.94
352.992	2372.94
353.22	2377.94
353.447	2403.94
353.674	2388.94
353.901	2383.94
354.128	2393.94
354.355	2431.94
354.583	2396.94
354.81	2415.94
355.037	2475.94
355.264	2433.94
355.491	2490.94
355.718	2433.94
355.945	2468.94
356.172	2493.94
356.399	2507.94
356.626	2507.94
356.853	2512.94
357.08	2503.94
357.307	2542.94
357.534	2588.94
357.761	2624.94
357.988	2585.94
358.215	2586.94
358.441	2543.94
358.668	2545.94
358.895	2582.94
359.122	2538.94
359.349	2526.94
359.576	2533.94
359.802	2569.94
360.029	2529.94
360.256	2602.94
360.483	2519.94
360.709	2562.94
360.936	2577.94
361.163	2571.94
361.39	2574.94
361.616	2552.94
361.843	2529.94
362.07	2565.94
362.296	2580.94
362.523	2584.94
362.749	2558.94
362.976	2546.94
363.203	2548.94
363.429	2550.94
363.656	2560.94
363.882	2522.94
364.109	2519.94
364.335	2564.94
364.562	2563.94
364.788	2542.94
365.015	2567.94
365.241	2665.94
365.468	2802.94
365.694	2949.94
365.92	2830.94
366.147	2623.94
366.373	2632.94
366.599	2632.94
366.826	2597.94
367.052	2585.94
367.278	2626.94
367.505	2594.94
367.731	2659.94
367.957	2639.94
368.184	2642.94
368.41	2658.94
368.636	2671.94
368.862	2675.94
369.089	2652.94
369.315	2617.94
369.541	2673.94
369.767	2695.94
369.993	2639.94
370.219	2656.94
370.445	2658.94
370.672	2676.94
370.898	2651.94
371.124	2719.94
371.35	2738.94
371.576	2784.94
371.802	2752.94
372.028	2759.94
372.254	2734.94
372.48	2784.94
372.706	2802.94
372.932	2749.94
373.158	2801.94
373.384	2783.94
373.61	2827.94
373.835	2824.94
374.061	2796.94
374.287	2879.94
374.513	2863.94
374.739	2866.94
374.965	2856.94
375.191	2931.94
375.416	2934.94
375.642	2872.94
375.868	2829.94
376.094	2801.94
376.319	2819.94
376.545	2783.94
376.771	2739.94
376.997	2728.94
377.222	2717.94
377.448	2731.94
377.674	2730.94
377.899	2744.94
378.125	2747.94
378.35	2737.94
378.576	2771.94
378.802	2748.94
379.027	2831.94
379.253	2916.94
379.478	3012.94
379.704	3510.94
379.929	5077.94
380.155	7687.94
380.38	8433.94
380.606	5286.94
380.831	3732.94
381.057	3266.94
381.282	2923.94
381.507	2897.94
381.733	2825.94
381.958	2713.94
382.184	2691.94
382.409	2738.94
382.634	2682.94
382.86	2671.94
383.085	2705.94
383.31	2736.94
383.535	2702.94
383.761	2656.94
383.986	2705.94
384.211	2723.94
384.436	2791.94
384.662	2774.94
384.887	2817.94
385.112	2719.94
385.337	2776.94
385.562	2775.94
385.787	2798.94
386.013	2816.94
386.238	2787.94
386.463	2775.94
386.688	2752.94
386.913	2703.94
387.138	2755.94
387.363	2785.94
387.588	2805.94
387.813	2776.94
388.038	2760.94
388.263	2738.94
388.488	2753.94
388.713	2826.94
388.938	2774.94
389.163	2771.94
389.387	2747.94
389.612	2712.94
389.837	2805.94
390.062	2758.94
390.287	2796.94
390.512	2829.94
390.736	2853.94
390.961	2914.94
391.186	2911.94
391.411	2901.94
391.636	2951.94
391.86	2932.94
392.085	2916.94
392.31	2904.94
392.534	2830.94
392.759	2845.94
392.984	2842.94
393.208	2861.94
393.433	2856.94
393.658	2854.94
393.882	2779.94
394.107	2773.94
394.331	2826.94
394.556	2807.94
394.78	2824.94
395.005	2869.94
395.229	2865.94
395.454	2902.94
395.678	2927.94
395.903	2913.94
396.127	2900.94
396.352	2831.94
396.576	2843.94
396.801	2875.94
397.025	2910.94
397.249	2945.94
397.474	2931.94
397.698	2907.94
397.922	2961.94
398.147	2953.94
398.371	2941.94
398.595	3038.94
398.82	3080.94
399.044	3258.94
399.268	3332.94
399.492	3477.94
399.717	3647.94
399.941	3675.94
400.165	3544.94
400.389	3375.94
400.613	3269.94
400.837	3158.94
401.062	3179.94
401.286	3044.94
401.51	3062.94
401.734	3006.94
401.958	3080.94
402.182	3006.94
402.406	3073.94
402.63	3054.94
402.854	3126.94
403.078	3123.94
403.302	3135.94
403.526	3167.94
403.75	3137.94
403.974	3191.94
404.198	3160.94
404.422	3163.94
404.645	3186.94
404.869	3125.94
405.093	3189.94
405.317	3152.94
405.541	3232.94
405.765	3247.94
405.988	3365.94
406.212	3290.94
406.436	3269.94
406.66	3280.94
406.883	3223.94
407.107	3401.94
407.331	3387.94
407.555	3486.94
407.778	3441.94
408.002	3384.94
408.226	3379.94
408.449	3385.94
408.673	3280.94
408.896	3286.94
409.12	3207.94
409.344	3243.94
409.567	3222.94
409.791	3165.94
410.014	3175.94
410.238	3117.94
410.461	3166.94
410.685	3121.94
410.908	3084.94
411.132	3117.94
411.355	3020.94
411.578	3045.94
411.802	2986.94
412.025	3057.94
412.249	3076.94
412.472	3044.94
412.695	3016.94
412.919	2955.94
413.142	3045.94
413.365	2995.94
413.589	3002.94
413.812	2963.94
414.035	2950.94
414.258	2983.94
414.482	2963.94
414.705	3027.94
414.928	3014.94
415.151	2973.94
415.374	2920.94
415.597	2939.94
415.821	2911.94
416.044	2922.94
416.267	2864.94
416.49	2865.94
416.713	2861.94
416.936	2898.94
417.159	2833.94
417.382	2872.94
417.605	2813.94
417.828	2819.94
418.051	2889.94
418.274	2937.94
418.497	2913.94
418.72	2954.94
418.943	2938.94
419.166	3087.94
419.389	3225.94
419.611	3203.94
419.834	3068.94
420.057	2973.94
420.28	2902.94
420.503	2869.94
420.726	2827.94
420.948	2835.94
421.171	2891.94
421.394	2845.94
421.617	2822.94
421.839	2856.94
422.062	2917.94
422.285	2829.94
422.507	2870.94
422.73	2901.94
422.953	2963.94
423.175	2953.94
423.398	2954.94
423.621	2911.94
423.843	2959.94
424.066	2896.94
424.288	2855.94
424.511	2846.94
424.733	2861.94
424.956	2853.94
425.178	2797.94
425.401	2856.94
425.623	2840.94
425.846	2769.94
426.068	2782.94
426.291	2755.94
426.513	2737.94
426.735	2766.94
426.958	2691.94
427.18	2708.94
427.402	2726.94
427.625	2734.94
427.847	2693.94
428.069	2605.94
428.292	2759.94
428.514	2627.94
428.736	2687.94
428.958	2644.94
429.181	2585.94
429.403	2582.94
429.625	2622.94
429.847	2673.94
430.069	2690.94
430.292	2737.94
430.514	2866.94
430.736	2882.94
430.958	2700.94
431.18	2633.94
431.402	2615.94
431.624	2597.94
431.846	2622.94
432.068	2578.94
432.29	2636.94
432.512	2559.94
432.734	2640.94
432.956	2603.94
433.178	2674.94
433.4	2624.94
433.622	2681.94
433.844	2704.94
434.066	2663.94
434.287	2621.94
434.509	2737.94
434.731	2767.94
434.953	2750.94
435.175	2754.94
435.397	2798.94
435.618	2677.94
435.84	2648.94
436.062	2568.94
436.284	2682.94
436.505	2589.94
436.727	2651.94
436.949	2613.94
437.17	2590.94
437.392	2539.94
437.614	2567.94
437.835	2559.94
438.057	2607.94
438.278	2509.94
438.5	2557.94
438.721	2585.94
438.943	2682.94
439.165	2766.94
439.386	2746.94
439.608	2708.94
439.829	2685.94
440.05	2789.94
440.272	2794.94
440.493	2739.94
440.715	2662.94
440.936	2706.94
441.158	2735.94
441.379	2766.94
441.6	2864.94
441.822	2989.94
442.043	3062.94
442.264	3177.94
442.486	2941.94
442.707	2896.94
442.928	2799.94
443.149	2797.94
443.371	2757.94
443.592	2785.94
443.813	2857.94
444.034	2874.94
444.255	2933.94
444.476	2925.94
444.698	3000.94
444.919	3064.94
445.14	3097.94
445.361	2941.94
445.582	2935.94
445.803	2805.94
446.024	2744.94
446.245	2853.94
446.466	2817.94
446.687	2777.94
446.908	2783.94
447.129	2667.94
447.35	2646.94
447.571	2627.94
447.792	2553.94
448.013	2616.94
448.234	2579.94
448.455	2564.94
448.675	2608.94
448.896	2609.94
449.117	2805.94
449.338	2978.94
449.559	3099.94
449.779	2811.94
450	2626.94
450.221	2581.94
450.442	2538.94
450.662	2516.94
450.883	2546.94
451.104	2562.94
451.324	2535.94
451.545	2526.94
451.766	2571.94
451.986	2619.94
452.207	2800.94
452.428	3608.94
452.648	5389.94
452.869	4643.94
453.089	3179.94
453.31	2976.94
453.53	2978.94
453.751	2991.94
453.971	3155.94
454.192	3073.94
454.412	2743.94
454.633	2556.94
454.853	2489.94
455.073	2447.94
455.294	2467.94
455.514	2449.94
455.734	2416.94
455.955	2391.94
456.175	2411.94
456.395	2461.94
456.616	2449.94
456.836	2432.94
457.056	2466.94
457.276	2459.94
457.497	2601.94
457.717	2642.94
457.937	2589.94
458.157	2565.94
458.377	2611.94
458.598	2608.94
458.818	2617.94
459.038	2631.94
459.258	2656.94
459.478	2695.94
459.698	2665.94
459.918	2659.94
460.138	2724.94
460.358	2791.94
460.578	2827.94
460.798	2867.94
461.018	2832.94
461.238	2893.94
461.458	2936.94
461.678	2929.94
461.898	3007.94
462.118	2991.94
462.338	3060.94
462.558	3063.94
462.777	3127.94
462.997	3263.94
463.217	3384.94
463.437	3465.94
463.657	3542.94
463.876	3498.94
464.096	3378.94
464.316	3270.94
464.536	3189.94
464.755	3056.94
464.975	3007.94
465.195	2888.94
465.414	2858.94
465.634	2757.94
465.854	2755.94
466.073	2706.94
466.293	2684.94
466.512	2642.94
466.732	2693.94
466.951	2765.94
467.171	2997.94
467.391	2942.94
467.61	2709.94
467.829	2652.94
468.049	2589.94
468.268	2575.94
468.488	2569.94
468.707	2570.94
468.927	2545.94
469.146	2600.94
469.365	2653.94
469.585	2672.94
469.804	2676.94
470.023	2730.94
470.243	2760.94
470.462	2870.94
470.681	2947.94
470.901	3334.94
471.12	3779.94
471.339	3704.94
471.558	3154.94
471.777	2931.94
471.997	2772.94
472.216	2721.94
472.435	2649.94
472.654	2660.94
472.873	2541.94
473.092	2570.94
473.311	2601.94
473.53	2620.94
473.749	2672.94
473.968	2755.94
474.187	2666.94
474.406	2615.94
474.625	2621.94
474.844	2578.94
475.063	2593.94
475.282	2645.94
475.501	2618.94
475.72	2678.94
475.939	2673.94
476.158	2717.94
476.377	2776.94
476.596	2750.94
476.814	2755.94
477.033	2757.94
477.252	2754.94
477.471	2820.94
477.69	2865.94
477.908	2892.94
478.127	2955.94
478.346	2972.94
478.564	3010.94
478.783	3044.94
479.002	3081.94
479.22	3054.94
479.439	3089.94
479.658	3077.94
479.876	3136.94
480.095	3167.94
480.313	3243.94
480.532	3263.94
480.751	3252.94
480.969	3201.94
481.188	3195.94
481.406	3145.94
481.624	3129.94
481.843	3176.94
482.061	3189.94
482.28	3167.94
482.498	3179.94
482.717	3178.94
482.935	3149.94
483.153	3233.94
483.372	3231.94
483.59	3244.94
483.808	3316.94
484.027	3393.94
484.245	3606.94
484.463	4022.94
484.681	4403.94
484.9	4097.94
485.118	3821.94
485.336	3769.94
485.554	3810.94
485.772	3988.94
485.99	4487.94
486.209	4769.94
486.427	4132.94
486.645	3698.94
486.863	3559.94
487.081	3417.94
487.299	3401.94
487.517	3414.94
487.735	3395.94
