Data from SnStandardFlinnAPT0064_LampEnergy10_LIBS07252019.E.O._I.C._HRD10591_15-20-12-493.txt Node
Date: Thu Jul 25 15:20:12 EDT 2019
User: cochatt
Spectrometer: HR+D1059
Trigger mode: 1
Integration Time (sec): 1.000000E-1
Scans to average: 1
Electric dark correction enabled: true
Nonlinearity correction enabled: false
Boxcar width: 0
XAxis mode: Wavelengths
Number of Pixels in Spectrum: 2048
>>>>>Begin Spectral Data<<<<<
223.165	-3.56
223.4	-3.56
223.635	-3.56
223.869	-21.56
224.104	-7.56
224.338	-19.56
224.573	-14.56
224.808	-9.56
225.042	-5.56
225.277	-16.56
225.511	-10.56
225.746	1.44
225.98	4.44
226.215	16.44
226.449	15.44
226.683	17.44
226.918	22.44
227.152	31.44
227.387	28.44
227.621	26.44
227.856	50.44
228.09	54.44
228.324	52.44
228.559	62.44
228.793	120.44
229.027	298.44
229.262	350.44
229.496	285.44
229.73	276.44
229.964	304.44
230.199	313.44
230.433	303.44
230.667	305.44
230.901	304.44
231.136	361.44
231.37	362.44
231.604	403.44
231.838	448.44
232.072	530.44
232.306	567.44
232.541	488.44
232.775	418.44
233.009	390.44
233.243	411.44
233.477	457.44
233.711	528.44
233.945	592.44
234.179	498.44
234.413	443.44
234.647	452.44
234.881	468.44
235.115	517.44
235.349	648.44
235.583	780.44
235.817	1060.44
236.051	1050.44
236.285	690.44
236.519	514.44
236.753	518.44
236.987	531.44
237.221	560.44
237.455	493.44
237.689	450.44
237.922	452.44
238.156	497.44
238.39	478.44
238.624	490.44
238.858	489.44
239.091	503.44
239.325	505.44
239.559	495.44
239.793	502.44
240.027	519.44
240.26	566.44
240.494	548.44
240.728	582.44
240.961	614.44
241.195	677.44
241.429	684.44
241.662	690.44
241.896	809.44
242.13	982.44
242.363	1338.44
242.597	1674.44
242.83	1631.44
243.064	1598.44
243.298	1975.44
243.531	1561.44
243.765	973.44
243.998	788.44
244.232	704.44
244.465	660.44
244.699	653.44
244.932	653.44
245.166	668.44
245.399	649.44
245.633	656.44
245.866	674.44
246.099	649.44
246.333	649.44
246.566	606.44
246.8	637.44
247.033	633.44
247.266	618.44
247.5	663.44
247.733	669.44
247.966	703.44
248.2	766.44
248.433	855.44
248.666	1001.44
248.899	971.44
249.133	846.44
249.366	850.44
249.599	1008.44
249.832	1119.44
250.066	1107.44
250.299	866.44
250.532	758.44
250.765	735.44
250.998	737.44
251.231	734.44
251.465	732.44
251.698	720.44
251.931	749.44
252.164	723.44
252.397	757.44
252.63	790.44
252.863	790.44
253.096	777.44
253.329	789.44
253.562	780.44
253.795	788.44
254.028	780.44
254.261	809.44
254.494	880.44
254.727	1027.44
254.96	1304.44
255.193	1228.44
255.426	990.44
255.659	883.44
255.892	874.44
256.124	880.44
256.357	868.44
256.59	946.44
256.823	993.44
257.056	1101.44
257.289	1399.44
257.521	1498.44
257.754	1156.44
257.987	979.44
258.22	920.44
258.452	908.44
258.685	939.44
258.918	964.44
259.151	1004.44
259.383	1103.44
259.616	1220.44
259.849	1264.44
260.081	1114.44
260.314	1000.44
260.547	952.44
260.779	949.44
261.012	969.44
261.244	912.44
261.477	963.44
261.71	990.44
261.942	978.44
262.175	1003.44
262.407	1040.44
262.64	1033.44
262.872	1097.44
263.105	1124.44
263.337	1192.44
263.57	1226.44
263.802	1254.44
264.035	1265.44
264.267	1300.44
264.499	1364.44
264.732	1374.44
264.964	1412.44
265.197	1408.44
265.429	1391.44
265.661	1432.44
265.894	1550.44
266.126	1699.44
266.358	1949.44
266.591	1909.44
266.823	1590.44
267.055	1438.44
267.287	1363.44
267.52	1304.44
267.752	1309.44
267.984	1278.44
268.216	1238.44
268.448	1226.44
268.681	1255.44
268.913	1192.44
269.145	1236.44
269.377	1225.44
269.609	1257.44
269.841	1280.44
270.073	1402.44
270.306	1622.44
270.538	2253.44
270.77	3375.44
271.002	4179.44
271.234	2904.44
271.466	1918.44
271.698	1555.44
271.93	1432.44
272.162	1344.44
272.394	1286.44
272.626	1231.44
272.858	1225.44
273.09	1223.44
273.322	1191.44
273.553	1196.44
273.785	1172.44
274.017	1213.44
274.249	1210.44
274.481	1192.44
274.713	1203.44
274.945	1204.44
275.176	1205.44
275.408	1202.44
275.64	1229.44
275.872	1209.44
276.104	1260.44
276.335	1262.44
276.567	1246.44
276.799	1280.44
277.031	1321.44
277.262	1313.44
277.494	1377.44
277.726	1560.44
277.957	1868.44
278.189	2135.44
278.421	1980.44
278.652	1786.44
278.884	1673.44
279.115	1486.44
279.347	1413.44
279.579	1420.44
279.81	1394.44
280.042	1396.44
280.273	1418.44
280.505	1480.44
280.736	1516.44
280.968	1596.44
281.199	1781.44
281.431	2060.44
281.662	2109.44
281.894	1784.44
282.125	1615.44
282.356	1657.44
282.588	1664.44
282.819	1747.44
283.051	1800.44
283.282	2009.44
283.513	2524.44
283.745	3694.44
283.976	5946.44
284.207	8606.44
284.439	7803.44
284.67	4738.44
284.901	3872.44
285.132	3880.44
285.364	3667.44
285.595	2834.44
285.826	2489.44
286.057	2905.44
286.288	4014.44
286.52	5590.44
286.751	5184.44
286.982	3118.44
287.213	2287.44
287.444	2009.44
287.675	1872.44
287.906	1772.44
288.138	1728.44
288.369	1723.44
288.6	1700.44
288.831	1703.44
289.062	1697.44
289.293	1654.44
289.524	1693.44
289.755	1666.44
289.986	1704.44
290.217	1726.44
290.448	1680.44
290.679	1729.44
290.91	1781.44
291.141	1842.44
291.371	2036.44
291.602	2156.44
291.833	1919.44
292.064	1784.44
292.295	1649.44
292.526	1658.44
292.757	1636.44
292.987	1605.44
293.218	1559.44
293.449	1573.44
293.68	1568.44
293.91	1584.44
294.141	1585.44
294.372	1543.44
294.603	1567.44
294.833	1548.44
295.064	1561.44
295.295	1571.44
295.525	1557.44
295.756	1545.44
295.987	1537.44
296.217	1546.44
296.448	1588.44
296.679	1594.44
296.909	1569.44
297.14	1618.44
297.37	1621.44
297.601	1598.44
297.831	1611.44
298.062	1608.44
298.292	1652.44
298.523	1673.44
298.753	1680.44
298.984	1680.44
299.214	1746.44
299.445	1747.44
299.675	1796.44
299.905	1840.44
300.136	1936.44
300.366	2167.44
300.597	2833.44
300.827	4013.44
301.057	5462.44
301.288	5520.44
301.518	3500.44
301.748	2627.44
301.979	2390.44
302.209	2328.44
302.439	2340.44
302.669	2493.44
302.9	2982.44
303.13	4319.44
303.36	6435.44
303.59	8730.44
303.82	7664.44
304.051	4373.44
304.281	3051.44
304.511	2568.44
304.741	2329.44
304.971	2196.44
305.201	2107.44
305.431	1990.44
305.661	2001.44
305.891	1933.44
306.121	1872.44
306.352	1869.44
306.582	1878.44
306.812	1825.44
307.042	1833.44
307.272	1852.44
307.502	1842.44
307.731	1798.44
307.961	1788.44
308.191	1772.44
308.421	1800.44
308.651	1789.44
308.881	1811.44
309.111	1770.44
309.341	1782.44
309.571	1800.44
309.8	1865.44
310.03	1844.44
310.26	1827.44
310.49	1798.44
310.72	1893.44
310.949	1883.44
311.179	1863.44
311.409	1896.44
311.639	1903.44
311.868	1896.44
312.098	1893.44
312.328	1911.44
312.557	1928.44
312.787	1964.44
313.017	1976.44
313.246	1964.44
313.476	1993.44
313.706	2033.44
313.935	2182.44
314.165	2383.44
314.394	2488.44
314.624	2405.44
314.853	2195.44
315.083	2121.44
315.312	2170.44
315.542	2217.44
315.771	2211.44
316.001	2228.44
316.23	2318.44
316.46	2436.44
316.689	2680.44
316.919	3221.44
317.148	4804.44
317.377	7536.44
317.607	11104.44
317.836	11586.44
318.065	6938.44
318.295	4317.44
318.524	3474.44
318.753	3003.44
318.983	2714.44
319.212	2562.44
319.441	2490.44
319.67	2454.44
319.9	2398.44
320.129	2356.44
320.358	2364.44
320.587	2361.44
320.816	2334.44
321.046	2357.44
321.275	2375.44
321.504	2381.44
321.733	2422.44
321.962	2483.44
322.191	2515.44
322.42	2497.44
322.649	2435.44
322.878	2501.44
323.108	2450.44
323.337	2537.44
323.566	2565.44
323.795	2593.44
324.024	2664.44
324.253	2693.44
324.482	2791.44
324.71	2993.44
324.939	3215.44
325.168	3282.44
325.397	3445.44
325.626	4105.44
325.855	5816.44
326.084	9192.44
326.313	13259.44
326.542	13864.44
326.77	9367.44
326.999	6056.44
327.228	5043.44
327.457	4784.44
327.686	4831.44
327.914	5161.44
328.143	6029.44
328.372	7215.44
328.6	7885.44
328.829	7017.44
329.058	5836.44
329.287	5076.44
329.515	4585.44
329.744	4272.44
329.972	3991.44
330.201	3795.44
330.43	3719.44
330.658	3604.44
330.887	3535.44
331.115	3498.44
331.344	3456.44
331.572	3390.44
331.801	3457.44
332.03	3486.44
332.258	3557.44
332.486	3720.44
332.715	4283.44
332.943	5412.44
333.172	6780.44
333.4	6716.44
333.629	4992.44
333.857	4492.44
334.085	4487.44
334.314	4649.44
334.542	5044.44
334.771	6034.44
334.999	7453.44
335.227	9510.44
335.455	10536.44
335.684	9390.44
335.912	7653.44
336.14	6412.44
336.369	5759.44
336.597	5189.44
336.825	4822.44
337.053	4473.44
337.281	4191.44
337.51	3962.44
337.738	3832.44
337.966	3670.44
338.194	3552.44
338.422	3378.44
338.65	3349.44
338.878	3308.44
339.106	3184.44
339.334	3176.44
339.562	3145.44
339.79	3025.44
340.018	3054.44
340.246	2993.44
340.474	2979.44
340.702	2960.44
340.93	2962.44
341.158	3022.44
341.386	2964.44
341.614	2968.44
341.842	2866.44
342.07	2814.44
342.298	2762.44
342.526	2728.44
342.754	2650.44
342.981	2679.44
343.209	2680.44
343.437	2771.44
343.665	2746.44
343.893	2786.44
344.12	2797.44
344.348	2736.44
344.576	2696.44
344.804	2645.44
345.031	2620.44
345.259	2591.44
345.487	2634.44
345.714	2570.44
345.942	2517.44
346.17	2537.44
346.397	2497.44
346.625	2474.44
346.853	2486.44
347.08	2487.44
347.308	2465.44
347.535	2509.44
347.763	2491.44
347.99	2460.44
348.218	2464.44
348.445	2440.44
348.673	2443.44
348.9	2436.44
349.128	2418.44
349.355	2454.44
349.583	2408.44
349.81	2369.44
350.037	2363.44
350.265	2376.44
350.492	2380.44
350.72	2379.44
350.947	2378.44
351.174	2372.44
351.402	2407.44
351.629	2359.44
351.856	2384.44
352.083	2341.44
352.311	2355.44
352.538	2380.44
352.765	2375.44
352.992	2336.44
353.22	2334.44
353.447	2352.44
353.674	2342.44
353.901	2379.44
354.128	2364.44
354.355	2368.44
354.583	2401.44
354.81	2420.44
355.037	2389.44
355.264	2389.44
355.491	2370.44
355.718	2362.44
355.945	2398.44
356.172	2441.44
356.399	2419.44
356.626	2446.44
356.853	2514.44
357.08	2486.44
357.307	2514.44
357.534	2544.44
357.761	2562.44
357.988	2578.44
358.215	2550.44
358.441	2551.44
358.668	2523.44
358.895	2556.44
359.122	2459.44
359.349	2553.44
359.576	2505.44
359.802	2540.44
360.029	2512.44
360.256	2482.44
360.483	2519.44
360.709	2542.44
360.936	2544.44
361.163	2514.44
361.39	2495.44
361.616	2512.44
361.843	2548.44
362.07	2563.44
362.296	2541.44
362.523	2513.44
362.749	2511.44
362.976	2553.44
363.203	2500.44
363.429	2521.44
363.656	2516.44
363.882	2522.44
364.109	2486.44
364.335	2468.44
364.562	2552.44
364.788	2534.44
365.015	2556.44
365.241	2625.44
365.468	2779.44
365.694	2917.44
365.92	2810.44
366.147	2573.44
366.373	2604.44
366.599	2589.44
366.826	2543.44
367.052	2572.44
367.278	2576.44
367.505	2610.44
367.731	2584.44
367.957	2607.44
368.184	2602.44
368.41	2661.44
368.636	2631.44
368.862	2653.44
369.089	2599.44
369.315	2573.44
369.541	2618.44
369.767	2577.44
369.993	2648.44
370.219	2597.44
370.445	2661.44
370.672	2643.44
370.898	2670.44
371.124	2645.44
371.35	2676.44
371.576	2712.44
371.802	2704.44
372.028	2691.44
372.254	2717.44
372.48	2728.44
372.706	2718.44
372.932	2756.44
373.158	2732.44
373.384	2754.44
373.61	2736.44
373.835	2743.44
374.061	2784.44
374.287	2761.44
374.513	2772.44
374.739	2824.44
374.965	2812.44
375.191	2837.44
375.416	2816.44
375.642	2823.44
375.868	2822.44
376.094	2767.44
376.319	2722.44
376.545	2716.44
376.771	2675.44
376.997	2675.44
377.222	2668.44
377.448	2687.44
377.674	2690.44
377.899	2660.44
378.125	2696.44
378.35	2657.44
378.576	2679.44
378.802	2696.44
379.027	2727.44
379.253	2909.44
379.478	2998.44
379.704	3589.44
379.929	5304.44
380.155	8199.44
380.38	8950.44
380.606	5411.44
380.831	3760.44
381.057	3232.44
381.282	2980.44
381.507	2866.44
381.733	2770.44
381.958	2743.44
382.184	2727.44
382.409	2710.44
382.634	2696.44
382.86	2673.44
383.085	2654.44
383.31	2716.44
383.535	2722.44
383.761	2686.44
383.986	2674.44
384.211	2724.44
384.436	2720.44
384.662	2737.44
384.887	2764.44
385.112	2724.44
385.337	2750.44
385.562	2742.44
385.787	2701.44
386.013	2774.44
386.238	2761.44
386.463	2736.44
386.688	2774.44
386.913	2705.44
387.138	2736.44
387.363	2756.44
387.588	2720.44
387.813	2727.44
388.038	2730.44
388.263	2752.44
388.488	2712.44
388.713	2774.44
388.938	2706.44
389.163	2742.44
389.387	2726.44
389.612	2740.44
389.837	2766.44
390.062	2785.44
390.287	2788.44
390.512	2767.44
390.736	2832.44
390.961	2803.44
391.186	2804.44
391.411	2879.44
391.636	2885.44
391.86	2868.44
392.085	2908.44
392.31	2854.44
392.534	2823.44
392.759	2814.44
392.984	2791.44
393.208	2793.44
393.433	2837.44
393.658	2823.44
393.882	2771.44
394.107	2823.44
394.331	2780.44
394.556	2783.44
394.78	2822.44
395.005	2832.44
395.229	2812.44
395.454	2838.44
395.678	2818.44
395.903	2848.44
396.127	2817.44
396.352	2775.44
396.576	2761.44
396.801	2812.44
397.025	2854.44
397.249	2847.44
397.474	2911.44
397.698	2893.44
397.922	2962.44
398.147	2910.44
398.371	2931.44
398.595	3066.44
398.82	3061.44
399.044	3152.44
399.268	3297.44
399.492	3504.44
399.717	3664.44
399.941	3662.44
400.165	3463.44
400.389	3357.44
400.613	3216.44
400.837	3201.44
401.062	3136.44
401.286	3071.44
401.51	3053.44
401.734	2979.44
401.958	3056.44
402.182	3060.44
402.406	3036.44
402.63	3000.44
402.854	3102.44
403.078	3103.44
403.302	3057.44
403.526	3142.44
403.75	3127.44
403.974	3116.44
404.198	3105.44
404.422	3146.44
404.645	3114.44
404.869	3117.44
405.093	3188.44
405.317	3104.44
405.541	3181.44
405.765	3230.44
405.988	3250.44
406.212	3234.44
406.436	3249.44
406.66	3279.44
406.883	3242.44
407.107	3358.44
407.331	3416.44
407.555	3453.44
407.778	3404.44
408.002	3365.44
408.226	3337.44
408.449	3368.44
408.673	3301.44
408.896	3261.44
409.12	3157.44
409.344	3180.44
409.567	3164.44
409.791	3163.44
410.014	3121.44
410.238	3112.44
410.461	3072.44
410.685	3074.44
410.908	3080.44
411.132	3109.44
411.355	3043.44
411.578	3001.44
411.802	3041.44
412.025	3029.44
412.249	3006.44
412.472	3006.44
412.695	2997.44
412.919	2963.44
413.142	2999.44
413.365	3004.44
413.589	2997.44
413.812	2939.44
414.035	2969.44
414.258	2962.44
414.482	2975.44
414.705	3021.44
414.928	2954.44
415.151	2974.44
415.374	2980.44
415.597	2948.44
415.821	2898.44
416.044	2872.44
416.267	2890.44
416.49	2857.44
416.713	2845.44
416.936	2819.44
417.159	2747.44
417.382	2822.44
417.605	2826.44
417.828	2869.44
418.051	2884.44
418.274	2848.44
418.497	2842.44
418.72	2941.44
418.943	2873.44
419.166	3057.44
419.389	3155.44
419.611	3142.44
419.834	3074.44
420.057	2950.44
420.28	2864.44
420.503	2818.44
420.726	2865.44
420.948	2816.44
421.171	2840.44
421.394	2872.44
421.617	2937.44
421.839	2889.44
422.062	2900.44
422.285	2844.44
422.507	2890.44
422.73	2931.44
422.953	2917.44
423.175	3009.44
423.398	2969.44
423.621	2860.44
423.843	2860.44
424.066	2841.44
424.288	2819.44
424.511	2842.44
424.733	2814.44
424.956	2761.44
425.178	2812.44
425.401	2808.44
425.623	2813.44
425.846	2778.44
426.068	2791.44
426.291	2733.44
426.513	2742.44
426.735	2718.44
426.958	2730.44
427.18	2709.44
427.402	2698.44
427.625	2709.44
427.847	2650.44
428.069	2647.44
428.292	2635.44
428.514	2661.44
428.736	2624.44
428.958	2648.44
429.181	2601.44
429.403	2603.44
429.625	2635.44
429.847	2622.44
430.069	2675.44
430.292	2771.44
430.514	2882.44
430.736	2872.44
430.958	2732.44
431.18	2584.44
431.402	2641.44
431.624	2624.44
431.846	2614.44
432.068	2595.44
432.29	2626.44
432.512	2593.44
432.734	2616.44
432.956	2616.44
433.178	2589.44
433.4	2588.44
433.622	2618.44
433.844	2645.44
434.066	2609.44
434.287	2641.44
434.509	2681.44
434.731	2720.44
434.953	2725.44
435.175	2725.44
435.397	2697.44
435.618	2662.44
435.84	2681.44
436.062	2566.44
436.284	2629.44
436.505	2634.44
436.727	2647.44
436.949	2628.44
437.17	2605.44
437.392	2578.44
437.614	2529.44
437.835	2532.44
438.057	2551.44
438.278	2516.44
438.5	2546.44
438.721	2615.44
438.943	2661.44
439.165	2737.44
439.386	2771.44
439.608	2698.44
439.829	2743.44
440.05	2826.44
440.272	2856.44
440.493	2761.44
440.715	2729.44
440.936	2716.44
441.158	2740.44
441.379	2777.44
441.6	2861.44
441.822	2937.44
442.043	3080.44
442.264	3216.44
442.486	2973.44
442.707	2932.44
442.928	2816.44
443.149	2832.44
443.371	2752.44
443.592	2778.44
443.813	2774.44
444.034	2842.44
444.255	2897.44
444.476	2931.44
444.698	2926.44
444.919	2980.44
445.14	3021.44
445.361	2955.44
445.582	2872.44
445.803	2768.44
446.024	2801.44
446.245	2797.44
446.466	2779.44
446.687	2779.44
446.908	2736.44
447.129	2637.44
447.35	2644.44
447.571	2653.44
447.792	2577.44
448.013	2598.44
448.234	2605.44
448.455	2604.44
448.675	2617.44
448.896	2704.44
449.117	2807.44
449.338	3067.44
449.559	3204.44
449.779	2800.44
450	2606.44
450.221	2572.44
450.442	2572.44
450.662	2529.44
450.883	2543.44
451.104	2541.44
451.324	2544.44
451.545	2518.44
451.766	2547.44
451.986	2578.44
452.207	2765.44
452.428	3646.44
452.648	5605.44
452.869	4623.44
453.089	3207.44
453.31	2985.44
453.53	3000.44
453.751	3065.44
453.971	3226.44
454.192	3167.44
454.412	2769.44
454.633	2566.44
454.853	2541.44
455.073	2448.44
455.294	2433.44
455.514	2392.44
455.734	2403.44
455.955	2420.44
456.175	2344.44
456.395	2424.44
456.616	2430.44
456.836	2437.44
457.056	2486.44
457.276	2486.44
457.497	2646.44
457.717	2628.44
457.937	2594.44
458.157	2554.44
458.377	2620.44
458.598	2583.44
458.818	2590.44
459.038	2567.44
459.258	2604.44
459.478	2648.44
459.698	2638.44
459.918	2649.44
460.138	2706.44
460.358	2823.44
460.578	2805.44
460.798	2913.44
461.018	2847.44
461.238	2850.44
461.458	2880.44
461.678	2884.44
461.898	3007.44
462.118	2995.44
462.338	3052.44
462.558	3087.44
462.777	3138.44
462.997	3185.44
463.217	3344.44
463.437	3477.44
463.657	3578.44
463.876	3580.44
464.096	3339.44
464.316	3167.44
464.536	3168.44
464.755	3043.44
464.975	3015.44
465.195	2884.44
465.414	2839.44
465.634	2774.44
465.854	2667.44
466.073	2693.44
466.293	2666.44
466.512	2698.44
466.732	2642.44
466.951	2826.44
467.171	3031.44
467.391	3022.44
467.61	2664.44
467.829	2629.44
468.049	2640.44
468.268	2550.44
468.488	2572.44
468.707	2600.44
468.927	2582.44
469.146	2591.44
469.365	2623.44
469.585	2573.44
469.804	2700.44
470.023	2705.44
470.243	2761.44
470.462	2838.44
470.681	2966.44
470.901	3350.44
471.12	3899.44
471.339	3920.44
471.558	3181.44
471.777	2890.44
471.997	2793.44
472.216	2669.44
472.435	2645.44
472.654	2622.44
472.873	2607.44
473.092	2613.44
473.311	2554.44
473.53	2644.44
473.749	2709.44
473.968	2873.44
474.187	2688.44
474.406	2604.44
474.625	2539.44
474.844	2607.44
475.063	2602.44
475.282	2620.44
475.501	2583.44
475.72	2628.44
475.939	2665.44
476.158	2699.44
476.377	2740.44
476.596	2704.44
476.814	2756.44
477.033	2713.44
477.252	2724.44
477.471	2802.44
477.69	2841.44
477.908	2902.44
478.127	2980.44
478.346	2928.44
478.564	3017.44
478.783	3019.44
479.002	3078.44
479.22	3047.44
479.439	3085.44
479.658	3068.44
479.876	3108.44
480.095	3153.44
480.313	3213.44
480.532	3248.44
480.751	3185.44
480.969	3171.44
481.188	3128.44
481.406	3075.44
481.624	3136.44
481.843	3167.44
482.061	3206.44
482.28	3180.44
482.498	3100.44
482.717	3086.44
482.935	3161.44
483.153	3207.44
483.372	3242.44
483.59	3352.44
483.808	3269.44
484.027	3473.44
484.245	3664.44
484.463	4169.44
484.681	4685.44
484.9	4127.44
485.118	3836.44
485.336	3750.44
485.554	3794.44
485.772	4050.44
485.99	4671.44
486.209	5060.44
486.427	4185.44
486.645	3713.44
486.863	3502.44
487.081	3442.44
487.299	3408.44
487.517	3369.44
487.735	3396.44
