Data from SnStandardFlinnAPT0064_LampEnergy5.5_LIBS07252019.E.O._I.C._HRD10591_15-15-20-491.txt Node
Date: Thu Jul 25 15:15:20 EDT 2019
User: cochatt
Spectrometer: HR+D1059
Trigger mode: 1
Integration Time (sec): 1.000000E-1
Scans to average: 1
Electric dark correction enabled: true
Nonlinearity correction enabled: false
Boxcar width: 0
XAxis mode: Wavelengths
Number of Pixels in Spectrum: 2048
>>>>>Begin Spectral Data<<<<<
223.165	-14.19
223.4	-14.19
223.635	-14.19
223.869	-22.19
224.104	-14.19
224.338	-13.19
224.573	-12.19
224.808	-22.19
225.042	0.81
225.277	-10.19
225.511	-10.19
225.746	16.81
225.98	9.81
226.215	-0.19
226.449	16.81
226.683	27.81
226.918	20.81
227.152	25.81
227.387	33.81
227.621	38.81
227.856	55.81
228.09	46.81
228.324	44.81
228.559	66.81
228.793	84.81
229.027	134.81
229.262	152.81
229.496	148.81
229.73	143.81
229.964	155.81
230.199	148.81
230.433	170.81
230.667	167.81
230.901	157.81
231.136	166.81
231.37	172.81
231.604	185.81
231.838	193.81
232.072	222.81
232.306	219.81
232.541	206.81
232.775	193.81
233.009	199.81
233.243	209.81
233.477	222.81
233.711	234.81
233.945	236.81
234.179	224.81
234.413	217.81
234.647	220.81
234.881	207.81
235.115	227.81
235.349	273.81
235.583	311.81
235.817	394.81
236.051	355.81
236.285	263.81
236.519	251.81
236.753	216.81
236.987	225.81
237.221	231.81
237.455	235.81
237.689	231.81
237.922	232.81
238.156	237.81
238.39	229.81
238.624	229.81
238.858	222.81
239.091	231.81
239.325	222.81
239.559	224.81
239.793	227.81
240.027	239.81
240.26	231.81
240.494	238.81
240.728	254.81
240.961	263.81
241.195	298.81
241.429	295.81
241.662	288.81
241.896	310.81
242.13	379.81
242.363	445.81
242.597	559.81
242.83	537.81
243.064	568.81
243.298	629.81
243.531	565.81
243.765	376.81
243.998	320.81
244.232	307.81
244.465	286.81
244.699	291.81
244.932	282.81
245.166	289.81
245.399	296.81
245.633	295.81
245.866	295.81
246.099	291.81
246.333	298.81
246.566	283.81
246.8	270.81
247.033	287.81
247.266	292.81
247.5	283.81
247.733	305.81
247.966	315.81
248.2	325.81
248.433	375.81
248.666	369.81
248.899	356.81
249.133	343.81
249.366	345.81
249.599	380.81
249.832	417.81
250.066	417.81
250.299	354.81
250.532	331.81
250.765	325.81
250.998	323.81
251.231	333.81
251.465	337.81
251.698	329.81
251.931	327.81
252.164	326.81
252.397	340.81
252.63	336.81
252.863	369.81
253.096	342.81
253.329	345.81
253.562	340.81
253.795	327.81
254.028	354.81
254.261	367.81
254.494	372.81
254.727	413.81
254.96	445.81
255.193	460.81
255.426	390.81
255.659	370.81
255.892	371.81
256.124	362.81
256.357	379.81
256.59	376.81
256.823	418.81
257.056	417.81
257.289	489.81
257.521	507.81
257.754	453.81
257.987	392.81
258.22	396.81
258.452	399.81
258.685	398.81
258.918	390.81
259.151	405.81
259.383	443.81
259.616	478.81
259.849	497.81
260.081	455.81
260.314	413.81
260.547	401.81
260.779	409.81
261.012	426.81
261.244	407.81
261.477	405.81
261.71	445.81
261.942	441.81
262.175	434.81
262.407	449.81
262.64	463.81
262.872	468.81
263.105	491.81
263.337	533.81
263.57	538.81
263.802	548.81
264.035	533.81
264.267	588.81
264.499	585.81
264.732	591.81
264.964	629.81
265.197	633.81
265.429	614.81
265.661	635.81
265.894	654.81
266.126	701.81
266.358	773.81
266.591	747.81
266.823	627.81
267.055	611.81
267.287	590.81
267.52	562.81
267.752	553.81
267.984	581.81
268.216	536.81
268.448	559.81
268.681	513.81
268.913	521.81
269.145	533.81
269.377	541.81
269.609	533.81
269.841	537.81
270.073	552.81
270.306	605.81
270.538	805.81
270.77	1094.81
271.002	1329.81
271.234	997.81
271.466	710.81
271.698	606.81
271.93	533.81
272.162	562.81
272.394	535.81
272.626	538.81
272.858	525.81
273.09	525.81
273.322	518.81
273.553	498.81
273.785	518.81
274.017	497.81
274.249	517.81
274.481	521.81
274.713	523.81
274.945	510.81
275.176	518.81
275.408	491.81
275.64	505.81
275.872	518.81
276.104	513.81
276.335	508.81
276.567	530.81
276.799	548.81
277.031	554.81
277.262	545.81
277.494	577.81
277.726	610.81
277.957	662.81
278.189	738.81
278.421	703.81
278.652	662.81
278.884	633.81
279.115	598.81
279.347	583.81
279.579	563.81
279.81	576.81
280.042	557.81
280.273	579.81
280.505	586.81
280.736	604.81
280.968	606.81
281.199	656.81
281.431	723.81
281.662	747.81
281.894	665.81
282.125	645.81
282.356	651.81
282.588	679.81
282.819	670.81
283.051	713.81
283.282	767.81
283.513	939.81
283.745	1239.81
283.976	1957.81
284.207	2677.81
284.439	2419.81
284.67	1545.81
284.901	1258.81
285.132	1230.81
285.364	1126.81
285.595	957.81
285.826	883.81
286.057	996.81
286.288	1323.81
286.52	1711.81
286.751	1608.81
286.982	1067.81
287.213	832.81
287.444	781.81
287.675	725.81
287.906	717.81
288.138	691.81
288.369	678.81
288.6	691.81
288.831	683.81
289.062	706.81
289.293	684.81
289.524	687.81
289.755	674.81
289.986	699.81
290.217	685.81
290.448	691.81
290.679	683.81
290.91	687.81
291.141	723.81
291.371	746.81
291.602	764.81
291.833	777.81
292.064	709.81
292.295	663.81
292.526	652.81
292.757	643.81
292.987	641.81
293.218	673.81
293.449	685.81
293.68	649.81
293.91	641.81
294.141	665.81
294.372	635.81
294.603	649.81
294.833	666.81
295.064	660.81
295.295	639.81
295.525	651.81
295.756	659.81
295.987	634.81
296.217	660.81
296.448	636.81
296.679	645.81
296.909	669.81
297.14	666.81
297.37	680.81
297.601	674.81
297.831	666.81
298.062	672.81
298.292	663.81
298.523	665.81
298.753	689.81
298.984	689.81
299.214	685.81
299.445	696.81
299.675	714.81
299.905	733.81
300.136	730.81
300.366	836.81
300.597	1013.81
300.827	1294.81
301.057	1738.81
301.288	1707.81
301.518	1137.81
301.748	949.81
301.979	885.81
302.209	835.81
302.439	859.81
302.669	917.81
302.9	1041.81
303.13	1380.81
303.36	1961.81
303.59	2553.81
303.82	2241.81
304.051	1435.81
304.281	1077.81
304.511	951.81
304.741	881.81
304.971	833.81
305.201	824.81
305.431	771.81
305.661	756.81
305.891	763.81
306.121	749.81
306.352	753.81
306.582	751.81
306.812	737.81
307.042	739.81
307.272	754.81
307.502	757.81
307.731	754.81
307.961	735.81
308.191	761.81
308.421	749.81
308.651	734.81
308.881	750.81
309.111	737.81
309.341	748.81
309.571	751.81
309.8	751.81
310.03	757.81
310.26	777.81
310.49	769.81
310.72	742.81
310.949	771.81
311.179	783.81
311.409	758.81
311.639	790.81
311.868	772.81
312.098	781.81
312.328	796.81
312.557	793.81
312.787	804.81
313.017	791.81
313.246	795.81
313.476	809.81
313.706	861.81
313.935	854.81
314.165	877.81
314.394	916.81
314.624	861.81
314.853	854.81
315.083	885.81
315.312	886.81
315.542	893.81
315.771	888.81
316.001	907.81
316.23	905.81
316.46	945.81
316.689	994.81
316.919	1161.81
317.148	1576.81
317.377	2350.81
317.607	3428.81
317.836	3531.81
318.065	2155.81
318.295	1461.81
318.524	1225.81
318.753	1109.81
318.983	1037.81
319.212	1005.81
319.441	1003.81
319.67	972.81
319.9	967.81
320.129	933.81
320.358	965.81
320.587	950.81
320.816	939.81
321.046	942.81
321.275	924.81
321.504	941.81
321.733	971.81
321.962	988.81
322.191	972.81
322.42	1006.81
322.649	997.81
322.878	995.81
323.108	988.81
323.337	998.81
323.566	1032.81
323.795	1019.81
324.024	1030.81
324.253	1050.81
324.482	1092.81
324.71	1147.81
324.939	1193.81
325.168	1250.81
325.397	1261.81
325.626	1447.81
325.855	1923.81
326.084	2922.81
326.313	4206.81
326.542	4425.81
326.77	2949.81
326.999	2045.81
327.228	1731.81
327.457	1692.81
327.686	1714.81
327.914	1795.81
328.143	2041.81
328.372	2313.81
328.6	2512.81
328.829	2359.81
329.058	2124.81
329.287	1921.81
329.515	1724.81
329.744	1657.81
329.972	1559.81
330.201	1479.81
330.43	1432.81
330.658	1401.81
330.887	1394.81
331.115	1395.81
331.344	1362.81
331.572	1344.81
331.801	1340.81
332.03	1382.81
332.258	1348.81
332.486	1422.81
332.715	1557.81
332.943	1868.81
333.172	2201.81
333.4	2179.81
333.629	1780.81
333.857	1686.81
334.085	1693.81
334.314	1787.81
334.542	1845.81
334.771	2169.81
334.999	2529.81
335.227	3051.81
335.455	3373.81
335.684	3191.81
335.912	2748.81
336.14	2396.81
336.369	2170.81
336.597	1971.81
336.825	1864.81
337.053	1745.81
337.281	1653.81
337.51	1568.81
337.738	1540.81
337.966	1449.81
338.194	1432.81
338.422	1340.81
338.65	1400.81
338.878	1290.81
339.106	1294.81
339.334	1265.81
339.562	1226.81
339.79	1239.81
340.018	1258.81
340.246	1212.81
340.474	1208.81
340.702	1210.81
340.93	1231.81
341.158	1207.81
341.386	1175.81
341.614	1202.81
341.842	1179.81
342.07	1155.81
342.298	1139.81
342.526	1135.81
342.754	1116.81
342.981	1115.81
343.209	1111.81
343.437	1120.81
343.665	1146.81
343.893	1140.81
344.12	1153.81
344.348	1166.81
344.576	1108.81
344.804	1061.81
345.031	1066.81
345.259	1049.81
345.487	1037.81
345.714	1059.81
345.942	1059.81
346.17	1042.81
346.397	1015.81
346.625	1043.81
346.853	1034.81
347.08	1027.81
347.308	1042.81
347.535	1043.81
347.763	1033.81
347.99	1006.81
348.218	1002.81
348.445	1018.81
348.673	997.81
348.9	1029.81
349.128	994.81
349.355	1007.81
349.583	991.81
349.81	1006.81
350.037	998.81
350.265	962.81
350.492	990.81
350.72	983.81
350.947	1012.81
351.174	1012.81
351.402	1015.81
351.629	1007.81
351.856	965.81
352.083	974.81
352.311	984.81
352.538	977.81
352.765	975.81
352.992	966.81
353.22	987.81
353.447	971.81
353.674	955.81
353.901	972.81
354.128	999.81
354.355	986.81
354.583	965.81
354.81	971.81
355.037	990.81
355.264	1010.81
355.491	966.81
355.718	999.81
355.945	1016.81
356.172	1033.81
356.399	1013.81
356.626	1029.81
356.853	1022.81
357.08	1015.81
357.307	1045.81
357.534	1053.81
357.761	1026.81
357.988	1038.81
358.215	1044.81
358.441	1029.81
358.668	1031.81
358.895	1033.81
359.122	1043.81
359.349	1035.81
359.576	1019.81
359.802	1057.81
360.029	1037.81
360.256	1065.81
360.483	1056.81
360.709	1046.81
360.936	1053.81
361.163	1039.81
361.39	1033.81
361.616	1060.81
361.843	1049.81
362.07	1027.81
362.296	1023.81
362.523	1021.81
362.749	1045.81
362.976	1028.81
363.203	1054.81
363.429	1048.81
363.656	1049.81
363.882	1047.81
364.109	1057.81
364.335	1045.81
364.562	1057.81
364.788	1065.81
365.015	1054.81
365.241	1039.81
365.468	1085.81
365.694	1111.81
365.92	1101.81
366.147	1052.81
366.373	1065.81
366.599	1087.81
366.826	1049.81
367.052	1077.81
367.278	1084.81
367.505	1074.81
367.731	1075.81
367.957	1058.81
368.184	1051.81
368.41	1103.81
368.636	1084.81
368.862	1093.81
369.089	1094.81
369.315	1091.81
369.541	1082.81
369.767	1101.81
369.993	1115.81
370.219	1060.81
370.445	1103.81
370.672	1097.81
370.898	1065.81
371.124	1090.81
371.35	1117.81
371.576	1129.81
371.802	1130.81
372.028	1116.81
372.254	1122.81
372.48	1116.81
372.706	1143.81
372.932	1134.81
373.158	1143.81
373.384	1179.81
373.61	1157.81
373.835	1139.81
374.061	1139.81
374.287	1151.81
374.513	1187.81
374.739	1210.81
374.965	1193.81
375.191	1185.81
375.416	1162.81
375.642	1178.81
375.868	1191.81
376.094	1171.81
376.319	1148.81
376.545	1135.81
376.771	1145.81
376.997	1121.81
377.222	1127.81
377.448	1121.81
377.674	1117.81
377.899	1146.81
378.125	1148.81
378.35	1140.81
378.576	1126.81
378.802	1143.81
379.027	1148.81
379.253	1165.81
379.478	1179.81
379.704	1361.81
379.929	1807.81
380.155	2565.81
380.38	2683.81
380.606	1797.81
380.831	1376.81
381.057	1236.81
381.282	1197.81
381.507	1161.81
381.733	1151.81
381.958	1089.81
382.184	1149.81
382.409	1118.81
382.634	1126.81
382.86	1099.81
383.085	1113.81
383.31	1132.81
383.535	1141.81
383.761	1142.81
383.986	1153.81
384.211	1124.81
384.436	1130.81
384.662	1134.81
384.887	1139.81
385.112	1148.81
385.337	1149.81
385.562	1149.81
385.787	1163.81
386.013	1173.81
386.238	1168.81
386.463	1193.81
386.688	1172.81
386.913	1130.81
387.138	1119.81
387.363	1141.81
387.588	1149.81
387.813	1171.81
388.038	1163.81
388.263	1162.81
388.488	1164.81
388.713	1159.81
388.938	1151.81
389.163	1146.81
389.387	1145.81
389.612	1127.81
389.837	1149.81
390.062	1149.81
390.287	1174.81
390.512	1181.81
390.736	1198.81
390.961	1198.81
391.186	1166.81
391.411	1188.81
391.636	1219.81
391.86	1234.81
392.085	1235.81
392.31	1252.81
392.534	1204.81
392.759	1216.81
392.984	1155.81
393.208	1163.81
393.433	1183.81
393.658	1175.81
393.882	1159.81
394.107	1184.81
394.331	1175.81
394.556	1199.81
394.78	1202.81
395.005	1182.81
395.229	1211.81
395.454	1206.81
395.678	1223.81
395.903	1205.81
396.127	1207.81
396.352	1153.81
396.576	1199.81
396.801	1158.81
397.025	1187.81
397.249	1212.81
397.474	1216.81
397.698	1226.81
397.922	1211.81
398.147	1221.81
398.371	1247.81
398.595	1292.81
398.82	1331.81
399.044	1343.81
399.268	1402.81
399.492	1477.81
399.717	1565.81
399.941	1526.81
400.165	1491.81
400.389	1438.81
400.613	1341.81
400.837	1349.81
401.062	1322.81
401.286	1297.81
401.51	1258.81
401.734	1258.81
401.958	1290.81
402.182	1312.81
402.406	1295.81
402.63	1273.81
402.854	1304.81
403.078	1275.81
403.302	1356.81
403.526	1334.81
403.75	1318.81
403.974	1345.81
404.198	1340.81
404.422	1334.81
404.645	1340.81
404.869	1322.81
405.093	1349.81
405.317	1339.81
405.541	1366.81
405.765	1341.81
405.988	1369.81
406.212	1347.81
406.436	1318.81
406.66	1365.81
406.883	1370.81
407.107	1378.81
407.331	1452.81
407.555	1431.81
407.778	1457.81
408.002	1443.81
408.226	1376.81
408.449	1449.81
408.673	1381.81
408.896	1365.81
409.12	1360.81
409.344	1326.81
409.567	1338.81
409.791	1310.81
410.014	1319.81
410.238	1296.81
410.461	1303.81
410.685	1300.81
410.908	1325.81
411.132	1313.81
411.355	1310.81
411.578	1274.81
411.802	1292.81
412.025	1288.81
412.249	1307.81
412.472	1293.81
412.695	1257.81
412.919	1244.81
413.142	1242.81
413.365	1266.81
413.589	1277.81
413.812	1239.81
414.035	1233.81
414.258	1259.81
414.482	1272.81
414.705	1273.81
414.928	1257.81
415.151	1272.81
415.374	1226.81
415.597	1237.81
415.821	1242.81
416.044	1230.81
416.267	1215.81
416.49	1190.81
416.713	1224.81
416.936	1218.81
417.159	1197.81
417.382	1198.81
417.605	1194.81
417.828	1189.81
418.051	1204.81
418.274	1227.81
418.497	1210.81
418.72	1277.81
418.943	1237.81
419.166	1303.81
419.389	1387.81
419.611	1307.81
419.834	1300.81
420.057	1242.81
420.28	1213.81
420.503	1198.81
420.726	1201.81
420.948	1241.81
421.171	1223.81
421.394	1201.81
421.617	1226.81
421.839	1238.81
422.062	1271.81
422.285	1218.81
422.507	1241.81
422.73	1214.81
422.953	1215.81
423.175	1230.81
423.398	1253.81
423.621	1212.81
423.843	1252.81
424.066	1223.81
424.288	1212.81
424.511	1225.81
424.733	1259.81
424.956	1222.81
425.178	1221.81
425.401	1224.81
425.623	1213.81
425.846	1156.81
426.068	1208.81
426.291	1175.81
426.513	1185.81
426.735	1172.81
426.958	1222.81
427.18	1130.81
427.402	1168.81
427.625	1187.81
427.847	1119.81
428.069	1103.81
428.292	1175.81
428.514	1126.81
428.736	1157.81
428.958	1125.81
429.181	1144.81
429.403	1113.81
429.625	1111.81
429.847	1133.81
430.069	1147.81
430.292	1159.81
430.514	1219.81
430.736	1173.81
430.958	1157.81
431.18	1126.81
431.402	1129.81
431.624	1128.81
431.846	1116.81
432.068	1077.81
432.29	1097.81
432.512	1100.81
432.734	1125.81
432.956	1171.81
433.178	1152.81
433.4	1137.81
433.622	1127.81
433.844	1139.81
434.066	1141.81
434.287	1119.81
434.509	1123.81
434.731	1156.81
434.953	1163.81
435.175	1188.81
435.397	1168.81
435.618	1115.81
435.84	1118.81
436.062	1101.81
436.284	1110.81
436.505	1120.81
436.727	1119.81
436.949	1111.81
437.17	1121.81
437.392	1098.81
437.614	1070.81
437.835	1063.81
438.057	1077.81
438.278	1077.81
438.5	1126.81
438.721	1111.81
438.943	1118.81
439.165	1109.81
439.386	1135.81
439.608	1169.81
439.829	1165.81
440.05	1201.81
440.272	1219.81
440.493	1152.81
440.715	1174.81
440.936	1147.81
441.158	1201.81
441.379	1210.81
441.6	1216.81
441.822	1251.81
442.043	1295.81
442.264	1301.81
442.486	1207.81
442.707	1245.81
442.928	1247.81
443.149	1174.81
443.371	1199.81
443.592	1219.81
443.813	1209.81
444.034	1230.81
444.255	1236.81
444.476	1234.81
444.698	1273.81
444.919	1310.81
445.14	1377.81
445.361	1292.81
445.582	1255.81
445.803	1213.81
446.024	1206.81
446.245	1171.81
446.466	1197.81
446.687	1183.81
446.908	1185.81
447.129	1156.81
447.35	1157.81
447.571	1173.81
447.792	1106.81
448.013	1072.81
448.234	1099.81
448.455	1134.81
448.675	1117.81
448.896	1141.81
449.117	1159.81
449.338	1217.81
449.559	1271.81
449.779	1159.81
450	1117.81
450.221	1095.81
450.442	1124.81
450.662	1046.81
450.883	1069.81
451.104	1083.81
451.324	1073.81
451.545	1089.81
451.766	1078.81
451.986	1057.81
452.207	1121.81
452.428	1313.81
452.648	1747.81
452.869	1502.81
453.089	1214.81
453.31	1168.81
453.53	1149.81
453.751	1163.81
453.971	1229.81
454.192	1245.81
454.412	1088.81
454.633	1089.81
454.853	1040.81
455.073	1033.81
455.294	1052.81
455.514	1044.81
455.734	1037.81
455.955	1012.81
456.175	1020.81
456.395	1026.81
456.616	1034.81
456.836	1030.81
457.056	1066.81
457.276	1044.81
457.497	1073.81
457.717	1077.81
457.937	1073.81
458.157	1049.81
458.377	1089.81
458.598	1092.81
458.818	1077.81
459.038	1095.81
459.258	1102.81
459.478	1090.81
459.698	1110.81
459.918	1159.81
460.138	1165.81
460.358	1198.81
460.578	1180.81
460.798	1219.81
461.018	1205.81
461.238	1221.81
461.458	1218.81
461.678	1223.81
461.898	1239.81
462.118	1272.81
462.338	1281.81
462.558	1317.81
462.777	1301.81
462.997	1369.81
463.217	1398.81
463.437	1435.81
463.657	1421.81
463.876	1421.81
464.096	1363.81
464.316	1315.81
464.536	1329.81
464.755	1309.81
464.975	1257.81
465.195	1234.81
465.414	1205.81
465.634	1157.81
465.854	1141.81
466.073	1125.81
466.293	1117.81
466.512	1122.81
466.732	1129.81
466.951	1173.81
467.171	1233.81
467.391	1228.81
467.61	1146.81
467.829	1095.81
468.049	1091.81
468.268	1073.81
468.488	1058.81
468.707	1091.81
468.927	1098.81
469.146	1094.81
469.365	1117.81
469.585	1099.81
469.804	1149.81
470.023	1146.81
470.243	1159.81
470.462	1190.81
470.681	1225.81
470.901	1329.81
471.12	1511.81
471.339	1469.81
471.558	1276.81
471.777	1193.81
471.997	1193.81
472.216	1117.81
472.435	1109.81
472.654	1074.81
472.873	1076.81
473.092	1093.81
473.311	1095.81
473.53	1122.81
473.749	1134.81
473.968	1170.81
474.187	1135.81
474.406	1119.81
474.625	1098.81
474.844	1108.81
475.063	1125.81
475.282	1097.81
475.501	1120.81
475.72	1108.81
475.939	1116.81
476.158	1135.81
476.377	1159.81
476.596	1137.81
476.814	1177.81
477.033	1156.81
477.252	1143.81
477.471	1192.81
477.69	1253.81
477.908	1240.81
478.127	1259.81
478.346	1253.81
478.564	1265.81
478.783	1304.81
479.002	1285.81
479.22	1314.81
479.439	1302.81
479.658	1316.81
479.876	1278.81
480.095	1330.81
480.313	1347.81
480.532	1335.81
480.751	1370.81
480.969	1333.81
481.188	1310.81
481.406	1244.81
481.624	1306.81
481.843	1313.81
482.061	1308.81
482.28	1325.81
482.498	1303.81
482.717	1304.81
482.935	1358.81
483.153	1352.81
483.372	1355.81
483.59	1373.81
483.808	1371.81
484.027	1406.81
484.245	1473.81
484.463	1585.81
484.681	1751.81
484.9	1622.81
485.118	1521.81
485.336	1523.81
485.554	1529.81
485.772	1572.81
485.99	1717.81
486.209	1871.81
486.427	1617.81
486.645	1504.81
486.863	1430.81
487.081	1461.81
487.299	1433.81
487.517	1404.81
487.735	1414.81
487.953	1476.81
488.171	1411.81
488.389	1420.81
488.607	1409.81
488.825	1362.81
489.043	1337.81
489.261	1358.81
489.479	1347.81
489.696	1373.81
489.914	1387.81
490.132	1354.81
490.35	1413.81
490.568	1401.81
490.786	1413.81
491.003	1416.81
491.221	1463.81
