Data from SnStandardFlinnAPT0064_LampEnergy10_LIBS07252019.E.O._I.C._HRD10591_15-21-38-494.txt Node
Date: Thu Jul 25 15:21:38 EDT 2019
User: cochatt
Spectrometer: HR+D1059
Trigger mode: 1
Integration Time (sec): 1.000000E-1
Scans to average: 1
Electric dark correction enabled: true
Nonlinearity correction enabled: false
Boxcar width: 0
XAxis mode: Wavelengths
Number of Pixels in Spectrum: 2048
>>>>>Begin Spectral Data<<<<<
223.165	-13.19
223.4	-13.19
223.635	-13.19
223.869	-14.19
224.104	-13.19
224.338	-5.19
224.573	-21.19
224.808	-23.19
225.042	-9.19
225.277	-2.19
225.511	-9.19
225.746	-1.19
225.98	15.81
226.215	-1.19
226.449	14.81
226.683	25.81
226.918	19.81
227.152	36.81
227.387	42.81
227.621	34.81
227.856	36.81
228.09	50.81
228.324	49.81
228.559	53.81
228.793	121.81
229.027	311.81
229.262	326.81
229.496	294.81
229.73	285.81
229.964	304.81
230.199	320.81
230.433	298.81
230.667	303.81
230.901	316.81
231.136	327.81
231.37	347.81
231.604	377.81
231.838	436.81
232.072	516.81
232.306	575.81
232.541	456.81
232.775	408.81
233.009	386.81
233.243	421.81
233.477	468.81
233.711	529.81
233.945	567.81
234.179	498.81
234.413	454.81
234.647	427.81
234.881	467.81
235.115	503.81
235.349	591.81
235.583	774.81
235.817	999.81
236.051	1021.81
236.285	667.81
236.519	537.81
236.753	481.81
236.987	497.81
237.221	524.81
237.455	527.81
237.689	465.81
237.922	449.81
238.156	463.81
238.39	482.81
238.624	478.81
238.858	474.81
239.091	479.81
239.325	490.81
239.559	487.81
239.793	509.81
240.027	518.81
240.26	541.81
240.494	557.81
240.728	593.81
240.961	592.81
241.195	648.81
241.429	650.81
241.662	706.81
241.896	750.81
242.13	941.81
242.363	1231.81
242.597	1632.81
242.83	1511.81
243.064	1541.81
243.298	1842.81
243.531	1474.81
243.765	934.81
243.998	783.81
244.232	687.81
244.465	650.81
244.699	639.81
244.932	680.81
245.166	689.81
245.399	689.81
245.633	687.81
245.866	693.81
246.099	669.81
246.333	630.81
246.566	626.81
246.8	624.81
247.033	643.81
247.266	656.81
247.5	639.81
247.733	663.81
247.966	717.81
248.2	757.81
248.433	872.81
248.666	974.81
248.899	974.81
249.133	829.81
249.366	837.81
249.599	947.81
249.832	1095.81
250.066	1105.81
250.299	859.81
250.532	749.81
250.765	767.81
250.998	731.81
251.231	742.81
251.465	741.81
251.698	743.81
251.931	722.81
252.164	745.81
252.397	783.81
252.63	786.81
252.863	802.81
253.096	785.81
253.329	787.81
253.562	790.81
253.795	810.81
254.028	811.81
254.261	834.81
254.494	873.81
254.727	1013.81
254.96	1233.81
255.193	1196.81
255.426	975.81
255.659	891.81
255.892	857.81
256.124	875.81
256.357	857.81
256.59	895.81
256.823	955.81
257.056	1109.81
257.289	1354.81
257.521	1502.81
257.754	1211.81
257.987	962.81
258.22	927.81
258.452	906.81
258.685	882.81
258.918	963.81
259.151	1001.81
259.383	1078.81
259.616	1217.81
259.849	1291.81
260.081	1099.81
260.314	989.81
260.547	940.81
260.779	909.81
261.012	959.81
261.244	941.81
261.477	971.81
261.71	974.81
261.942	985.81
262.175	990.81
262.407	1040.81
262.64	1053.81
262.872	1095.81
263.105	1124.81
263.337	1189.81
263.57	1299.81
263.802	1319.81
264.035	1302.81
264.267	1361.81
264.499	1389.81
264.732	1427.81
264.964	1437.81
265.197	1439.81
265.429	1420.81
265.661	1484.81
265.894	1621.81
266.126	1788.81
266.358	1967.81
266.591	1887.81
266.823	1623.81
267.055	1479.81
267.287	1386.81
267.52	1341.81
267.752	1322.81
267.984	1286.81
268.216	1258.81
268.448	1226.81
268.681	1254.81
268.913	1229.81
269.145	1234.81
269.377	1242.81
269.609	1254.81
269.841	1303.81
270.073	1369.81
270.306	1607.81
270.538	2157.81
270.77	3222.81
271.002	4032.81
271.234	2777.81
271.466	1863.81
271.698	1504.81
271.93	1393.81
272.162	1317.81
272.394	1265.81
272.626	1235.81
272.858	1210.81
273.09	1215.81
273.322	1235.81
273.553	1214.81
273.785	1174.81
274.017	1172.81
274.249	1222.81
274.481	1218.81
274.713	1184.81
274.945	1222.81
275.176	1218.81
275.408	1227.81
275.64	1238.81
275.872	1229.81
276.104	1255.81
276.335	1256.81
276.567	1299.81
276.799	1283.81
277.031	1303.81
277.262	1317.81
277.494	1411.81
277.726	1553.81
277.957	1809.81
278.189	2079.81
278.421	1925.81
278.652	1739.81
278.884	1671.81
279.115	1509.81
279.347	1447.81
279.579	1403.81
279.81	1395.81
280.042	1398.81
280.273	1413.81
280.505	1453.81
280.736	1487.81
280.968	1572.81
281.199	1785.81
281.431	2033.81
281.662	2073.81
281.894	1747.81
282.125	1638.81
282.356	1622.81
282.588	1620.81
282.819	1651.81
283.051	1811.81
283.282	1971.81
283.513	2487.81
283.745	3620.81
283.976	5671.81
284.207	8195.81
284.439	7313.81
284.67	4476.81
284.901	3708.81
285.132	3690.81
285.364	3521.81
285.595	2697.81
285.826	2415.81
286.057	2822.81
286.288	3887.81
286.52	5293.81
286.751	4921.81
286.982	3007.81
287.213	2205.81
287.444	1977.81
287.675	1869.81
287.906	1779.81
288.138	1738.81
288.369	1695.81
288.6	1711.81
288.831	1638.81
289.062	1645.81
289.293	1687.81
289.524	1682.81
289.755	1714.81
289.986	1722.81
290.217	1699.81
290.448	1750.81
290.679	1729.81
290.91	1743.81
291.141	1888.81
291.371	2045.81
291.602	2141.81
291.833	1968.81
292.064	1713.81
292.295	1658.81
292.526	1667.81
292.757	1633.81
292.987	1633.81
293.218	1603.81
293.449	1572.81
293.68	1595.81
293.91	1592.81
294.141	1554.81
294.372	1569.81
294.603	1574.81
294.833	1553.81
295.064	1578.81
295.295	1590.81
295.525	1543.81
295.756	1595.81
295.987	1577.81
296.217	1590.81
296.448	1569.81
296.679	1612.81
296.909	1561.81
297.14	1586.81
297.37	1639.81
297.601	1632.81
297.831	1613.81
298.062	1624.81
298.292	1650.81
298.523	1684.81
298.753	1703.81
298.984	1717.81
299.214	1716.81
299.445	1698.81
299.675	1769.81
299.905	1830.81
300.136	1888.81
300.366	2149.81
300.597	2741.81
300.827	3887.81
301.057	5245.81
301.288	5241.81
301.518	3336.81
301.748	2626.81
301.979	2340.81
302.209	2279.81
302.439	2305.81
302.669	2484.81
302.9	2982.81
303.13	4133.81
303.36	6186.81
303.59	8235.81
303.82	7113.81
304.051	4173.81
304.281	3016.81
304.511	2483.81
304.741	2336.81
304.971	2172.81
305.201	2045.81
305.431	1997.81
305.661	1945.81
305.891	1922.81
306.121	1835.81
306.352	1908.81
306.582	1862.81
306.812	1857.81
307.042	1865.81
307.272	1803.81
307.502	1795.81
307.731	1831.81
307.961	1812.81
308.191	1817.81
308.421	1789.81
308.651	1784.81
308.881	1815.81
309.111	1828.81
309.341	1790.81
309.571	1845.81
309.8	1842.81
310.03	1853.81
310.26	1840.81
310.49	1865.81
310.72	1879.81
310.949	1870.81
311.179	1892.81
311.409	1909.81
311.639	1910.81
311.868	1928.81
312.098	1929.81
312.328	1916.81
312.557	1919.81
312.787	1947.81
313.017	1944.81
313.246	1960.81
313.476	1982.81
313.706	2061.81
313.935	2191.81
314.165	2309.81
314.394	2462.81
314.624	2385.81
314.853	2195.81
315.083	2193.81
315.312	2160.81
315.542	2198.81
315.771	2211.81
316.001	2212.81
316.23	2322.81
316.46	2405.81
316.689	2655.81
316.919	3200.81
317.148	4709.81
317.377	7187.81
317.607	10465.81
317.836	10806.81
318.065	6503.81
318.295	4237.81
318.524	3327.81
318.753	2947.81
318.983	2746.81
319.212	2541.81
319.441	2477.81
319.67	2416.81
319.9	2366.81
320.129	2376.81
320.358	2371.81
320.587	2366.81
320.816	2360.81
321.046	2342.81
321.275	2403.81
321.504	2437.81
321.733	2470.81
321.962	2517.81
322.191	2520.81
322.42	2486.81
322.649	2478.81
322.878	2484.81
323.108	2493.81
323.337	2520.81
323.566	2527.81
323.795	2640.81
324.024	2615.81
324.253	2734.81
324.482	2869.81
324.71	2996.81
324.939	3211.81
325.168	3300.81
325.397	3343.81
325.626	3991.81
325.855	5633.81
326.084	8798.81
326.313	12773.81
326.542	13473.81
326.77	8980.81
326.999	5801.81
327.228	4968.81
327.457	4737.81
327.686	4733.81
327.914	5053.81
328.143	6074.81
328.372	7193.81
328.6	7832.81
328.829	7066.81
329.058	5818.81
329.287	5107.81
329.515	4655.81
329.744	4247.81
329.972	4119.81
330.201	3859.81
330.43	3709.81
330.658	3577.81
330.887	3601.81
331.115	3517.81
331.344	3509.81
331.572	3458.81
331.801	3454.81
332.03	3507.81
332.258	3582.81
332.486	3827.81
332.715	4259.81
332.943	5305.81
333.172	6603.81
333.4	6553.81
333.629	4893.81
333.857	4496.81
334.085	4527.81
334.314	4779.81
334.542	5174.81
334.771	6075.81
334.999	7475.81
335.227	9533.81
335.455	10575.81
335.684	9415.81
335.912	7633.81
336.14	6433.81
336.369	5671.81
336.597	5200.81
336.825	4781.81
337.053	4558.81
337.281	4302.81
337.51	4027.81
337.738	3906.81
337.966	3729.81
338.194	3666.81
338.422	3575.81
338.65	3384.81
338.878	3292.81
339.106	3259.81
339.334	3231.81
339.562	3167.81
339.79	3061.81
340.018	3082.81
340.246	3034.81
340.474	3012.81
340.702	3004.81
340.93	3048.81
341.158	3049.81
341.386	2998.81
341.614	2983.81
341.842	2926.81
342.07	2882.81
342.298	2800.81
342.526	2741.81
342.754	2753.81
342.981	2709.81
343.209	2689.81
343.437	2797.81
343.665	2802.81
343.893	2830.81
344.12	2851.81
344.348	2772.81
344.576	2697.81
344.804	2681.81
345.031	2635.81
345.259	2630.81
345.487	2591.81
345.714	2583.81
345.942	2557.81
346.17	2549.81
346.397	2543.81
346.625	2545.81
346.853	2529.81
347.08	2568.81
347.308	2554.81
347.535	2574.81
347.763	2500.81
347.99	2531.81
348.218	2479.81
348.445	2494.81
348.673	2420.81
348.9	2465.81
349.128	2461.81
349.355	2463.81
349.583	2434.81
349.81	2487.81
350.037	2399.81
350.265	2398.81
350.492	2450.81
350.72	2385.81
350.947	2437.81
351.174	2406.81
351.402	2431.81
351.629	2440.81
351.856	2380.81
352.083	2386.81
352.311	2383.81
352.538	2366.81
352.765	2391.81
352.992	2380.81
353.22	2374.81
353.447	2343.81
353.674	2403.81
353.901	2426.81
354.128	2405.81
354.355	2399.81
354.583	2440.81
354.81	2394.81
355.037	2404.81
355.264	2499.81
355.491	2431.81
355.718	2455.81
355.945	2493.81
356.172	2487.81
356.399	2491.81
356.626	2477.81
356.853	2563.81
357.08	2479.81
357.307	2538.81
357.534	2607.81
357.761	2603.81
357.988	2637.81
358.215	2573.81
358.441	2582.81
358.668	2556.81
358.895	2530.81
359.122	2507.81
359.349	2569.81
359.576	2540.81
359.802	2577.81
360.029	2559.81
360.256	2538.81
360.483	2609.81
360.709	2531.81
360.936	2525.81
361.163	2552.81
361.39	2567.81
361.616	2522.81
361.843	2560.81
362.07	2560.81
362.296	2594.81
362.523	2646.81
362.749	2610.81
362.976	2575.81
363.203	2516.81
363.429	2500.81
363.656	2555.81
363.882	2533.81
364.109	2579.81
364.335	2513.81
364.562	2529.81
364.788	2533.81
365.015	2599.81
365.241	2653.81
365.468	2758.81
365.694	2949.81
365.92	2838.81
366.147	2661.81
366.373	2645.81
366.599	2610.81
366.826	2620.81
367.052	2613.81
367.278	2688.81
367.505	2631.81
367.731	2614.81
367.957	2635.81
368.184	2641.81
368.41	2644.81
368.636	2680.81
368.862	2662.81
369.089	2623.81
369.315	2657.81
369.541	2731.81
369.767	2705.81
369.993	2641.81
370.219	2625.81
370.445	2659.81
370.672	2665.81
370.898	2686.81
371.124	2736.81
371.35	2701.81
371.576	2737.81
371.802	2768.81
372.028	2712.81
372.254	2720.81
372.48	2774.81
372.706	2743.81
372.932	2799.81
373.158	2798.81
373.384	2841.81
373.61	2792.81
373.835	2846.81
374.061	2839.81
374.287	2829.81
374.513	2845.81
374.739	2903.81
374.965	2959.81
375.191	2933.81
375.416	2867.81
375.642	2903.81
375.868	2882.81
376.094	2879.81
376.319	2846.81
376.545	2821.81
376.771	2735.81
376.997	2742.81
377.222	2742.81
377.448	2697.81
377.674	2746.81
377.899	2703.81
378.125	2797.81
378.35	2767.81
378.576	2700.81
378.802	2781.81
379.027	2817.81
379.253	2842.81
379.478	3056.81
379.704	3643.81
379.929	5191.81
380.155	7882.81
380.38	8513.81
380.606	5210.81
380.831	3690.81
381.057	3192.81
381.282	2965.81
381.507	2896.81
381.733	2855.81
381.958	2781.81
382.184	2723.81
382.409	2711.81
382.634	2673.81
382.86	2697.81
383.085	2718.81
383.31	2695.81
383.535	2699.81
383.761	2723.81
383.986	2725.81
384.211	2790.81
384.436	2821.81
384.662	2767.81
384.887	2833.81
385.112	2797.81
385.337	2787.81
385.562	2774.81
385.787	2808.81
386.013	2837.81
386.238	2821.81
386.463	2758.81
386.688	2770.81
386.913	2741.81
387.138	2771.81
387.363	2769.81
387.588	2711.81
387.813	2730.81
388.038	2720.81
388.263	2792.81
388.488	2823.81
388.713	2772.81
388.938	2803.81
389.163	2773.81
389.387	2836.81
389.612	2761.81
389.837	2774.81
390.062	2781.81
390.287	2833.81
390.512	2849.81
390.736	2860.81
390.961	2853.81
391.186	2922.81
391.411	2914.81
391.636	2936.81
391.86	2971.81
392.085	2944.81
392.31	2897.81
392.534	2871.81
392.759	2855.81
392.984	2854.81
393.208	2841.81
393.433	2851.81
393.658	2849.81
393.882	2770.81
394.107	2794.81
394.331	2839.81
394.556	2859.81
394.78	2849.81
395.005	2834.81
395.229	2842.81
395.454	2885.81
395.678	2895.81
395.903	2910.81
396.127	2877.81
396.352	2851.81
396.576	2852.81
396.801	2880.81
397.025	2921.81
397.249	2910.81
397.474	2930.81
397.698	2927.81
397.922	2985.81
398.147	2954.81
398.371	3003.81
398.595	3005.81
398.82	3120.81
399.044	3223.81
399.268	3361.81
399.492	3559.81
399.717	3715.81
399.941	3689.81
400.165	3509.81
400.389	3421.81
400.613	3328.81
400.837	3155.81
401.062	3138.81
401.286	3101.81
401.51	3050.81
401.734	3069.81
401.958	3093.81
402.182	3110.81
402.406	3065.81
402.63	3125.81
402.854	3106.81
403.078	3106.81
403.302	3130.81
403.526	3159.81
403.75	3172.81
403.974	3189.81
404.198	3205.81
404.422	3211.81
404.645	3206.81
404.869	3160.81
405.093	3193.81
405.317	3158.81
405.541	3236.81
405.765	3237.81
405.988	3360.81
406.212	3281.81
406.436	3286.81
406.66	3281.81
406.883	3258.81
407.107	3354.81
407.331	3417.81
407.555	3507.81
407.778	3411.81
408.002	3466.81
408.226	3417.81
408.449	3423.81
408.673	3346.81
408.896	3277.81
409.12	3283.81
409.344	3303.81
409.567	3158.81
409.791	3195.81
410.014	3198.81
410.238	3127.81
410.461	3205.81
410.685	3186.81
410.908	3106.81
411.132	3121.81
411.355	3050.81
411.578	3091.81
411.802	3064.81
412.025	3075.81
412.249	3116.81
412.472	3069.81
412.695	2985.81
412.919	3019.81
413.142	3058.81
413.365	3013.81
413.589	3028.81
413.812	2945.81
414.035	3000.81
414.258	3022.81
414.482	2984.81
414.705	3002.81
414.928	3018.81
415.151	2973.81
415.374	2981.81
415.597	2959.81
415.821	2899.81
416.044	2840.81
416.267	2867.81
416.49	2899.81
416.713	2877.81
416.936	2917.81
417.159	2878.81
417.382	2841.81
417.605	2847.81
417.828	2840.81
418.051	2912.81
418.274	2914.81
418.497	2847.81
418.72	2991.81
418.943	2925.81
419.166	3039.81
419.389	3178.81
419.611	3131.81
419.834	3077.81
420.057	3020.81
420.28	2962.81
420.503	2893.81
420.726	2885.81
420.948	2901.81
421.171	2895.81
421.394	2915.81
421.617	2865.81
421.839	2918.81
422.062	2927.81
422.285	2840.81
422.507	2952.81
422.73	2927.81
422.953	2947.81
423.175	2985.81
423.398	2934.81
423.621	2916.81
423.843	2867.81
424.066	2922.81
424.288	2878.81
424.511	2916.81
424.733	2843.81
424.956	2823.81
425.178	2869.81
425.401	2829.81
425.623	2905.81
425.846	2816.81
426.068	2789.81
426.291	2745.81
426.513	2729.81
426.735	2766.81
426.958	2789.81
427.18	2684.81
427.402	2736.81
427.625	2722.81
427.847	2646.81
428.069	2699.81
428.292	2703.81
428.514	2667.81
428.736	2661.81
428.958	2657.81
429.181	2603.81
429.403	2637.81
429.625	2651.81
429.847	2669.81
430.069	2695.81
430.292	2808.81
430.514	2863.81
430.736	2863.81
430.958	2679.81
431.18	2660.81
431.402	2645.81
431.624	2669.81
431.846	2625.81
432.068	2607.81
432.29	2650.81
432.512	2530.81
432.734	2619.81
432.956	2602.81
433.178	2665.81
433.4	2665.81
433.622	2631.81
433.844	2676.81
434.066	2655.81
434.287	2656.81
434.509	2712.81
434.731	2735.81
434.953	2729.81
435.175	2768.81
435.397	2752.81
435.618	2731.81
435.84	2655.81
436.062	2657.81
436.284	2639.81
436.505	2678.81
436.727	2638.81
436.949	2585.81
437.17	2652.81
437.392	2582.81
437.614	2578.81
437.835	2470.81
438.057	2541.81
438.278	2543.81
438.5	2562.81
438.721	2582.81
438.943	2699.81
439.165	2771.81
439.386	2747.81
439.608	2727.81
439.829	2774.81
440.05	2827.81
440.272	2891.81
440.493	2742.81
440.715	2719.81
440.936	2754.81
441.158	2748.81
441.379	2818.81
441.6	2806.81
441.822	2963.81
442.043	3102.81
442.264	3203.81
442.486	2979.81
442.707	2883.81
442.928	2827.81
443.149	2823.81
443.371	2844.81
443.592	2782.81
443.813	2877.81
444.034	2839.81
444.255	2896.81
444.476	2954.81
444.698	3009.81
444.919	3107.81
445.14	3111.81
445.361	2944.81
445.582	2908.81
445.803	2813.81
446.024	2774.81
446.245	2792.81
446.466	2817.81
446.687	2792.81
446.908	2788.81
447.129	2669.81
447.35	2665.81
447.571	2649.81
447.792	2617.81
448.013	2638.81
448.234	2654.81
448.455	2579.81
448.675	2684.81
448.896	2678.81
449.117	2789.81
449.338	3024.81
449.559	3152.81
449.779	2822.81
450	2639.81
450.221	2596.81
450.442	2549.81
450.662	2536.81
450.883	2552.81
451.104	2495.81
451.324	2540.81
451.545	2528.81
451.766	2561.81
451.986	2619.81
452.207	2750.81
452.428	3613.81
452.648	5420.81
452.869	4519.81
453.089	3178.81
453.31	2958.81
453.53	2922.81
453.751	3025.81
453.971	3237.81
454.192	3113.81
454.412	2711.81
454.633	2528.81
454.853	2477.81
455.073	2447.81
455.294	2437.81
455.514	2456.81
455.734	2450.81
455.955	2415.81
456.175	2416.81
456.395	2447.81
456.616	2435.81
456.836	2511.81
457.056	2505.81
457.276	2450.81
457.497	2644.81
457.717	2681.81
457.937	2591.81
458.157	2610.81
458.377	2632.81
458.598	2594.81
458.818	2594.81
459.038	2609.81
459.258	2617.81
459.478	2679.81
459.698	2660.81
459.918	2773.81
460.138	2769.81
460.358	2849.81
460.578	2822.81
460.798	2879.81
461.018	2870.81
461.238	2866.81
461.458	2874.81
461.678	2953.81
461.898	3044.81
462.118	3047.81
462.338	3073.81
462.558	3119.81
462.777	3160.81
462.997	3271.81
463.217	3380.81
463.437	3493.81
463.657	3573.81
463.876	3595.81
464.096	3379.81
464.316	3147.81
464.536	3166.81
464.755	3126.81
464.975	3028.81
465.195	2911.81
465.414	2837.81
465.634	2767.81
465.854	2728.81
466.073	2717.81
466.293	2681.81
466.512	2678.81
466.732	2719.81
466.951	2827.81
467.171	3000.81
467.391	2983.81
467.61	2702.81
467.829	2601.81
468.049	2627.81
468.268	2544.81
468.488	2561.81
468.707	2572.81
468.927	2507.81
469.146	2573.81
469.365	2607.81
469.585	2609.81
469.804	2653.81
470.023	2713.81
470.243	2773.81
470.462	2862.81
470.681	3020.81
470.901	3313.81
471.12	3803.81
471.339	3807.81
471.558	3141.81
471.777	2866.81
471.997	2769.81
472.216	2710.81
472.435	2703.81
472.654	2609.81
472.873	2588.81
473.092	2606.81
473.311	2635.81
473.53	2673.81
473.749	2705.81
473.968	2828.81
474.187	2631.81
474.406	2599.81
474.625	2619.81
474.844	2613.81
475.063	2632.81
475.282	2648.81
475.501	2679.81
475.72	2638.81
475.939	2703.81
476.158	2736.81
476.377	2760.81
476.596	2773.81
476.814	2752.81
477.033	2735.81
477.252	2754.81
477.471	2815.81
477.69	2920.81
477.908	2930.81
478.127	2981.81
478.346	2956.81
478.564	3035.81
478.783	3000.81
479.002	3050.81
479.22	3115.81
479.439	3086.81
479.658	3145.81
479.876	3118.81
480.095	3134.81
480.313	3285.81
480.532	3172.81
480.751	3248.81
480.969	3171.81
481.188	3199.81
481.406	3146.81
481.624	3175.81
481.843	3186.81
482.061	3155.81
482.28	3143.81
482.498	3209.81
482.717	3133.81
482.935	3233.81
483.153	3201.81
483.372	3301.81
483.59	3270.81
483.808	3367.81
484.027	3459.81
484.245	3619.81
484.463	4170.81
484.681	4573.81
484.9	4123.81
485.118	3883.81
485.336	3745.81
485.554	3839.81
485.772	4071.81
485.99	4607.81
486.209	4935.81
486.427	4188.81
486.645	3637.81
486.863	3594.81
487.081	3506.81
487.299	3368.81
487.517	3387.81
487.735	3431.81
