Data from SnStandardFlinnAPT0064_LampEnergy10_LIBS07252019.E.O._I.C._HRD10591_15-21-54-495.txt Node
Date: Thu Jul 25 15:21:54 EDT 2019
User: cochatt
Spectrometer: HR+D1059
Trigger mode: 1
Integration Time (sec): 1.000000E-1
Scans to average: 1
Electric dark correction enabled: true
Nonlinearity correction enabled: false
Boxcar width: 0
XAxis mode: Wavelengths
Number of Pixels in Spectrum: 2048
>>>>>Begin Spectral Data<<<<<
223.165	-19.25
223.4	-19.25
223.635	-19.25
223.869	-17.25
224.104	-7.25
224.338	-8.25
224.573	-18.25
224.808	-2.25
225.042	-10.25
225.277	0.75
225.511	0.75
225.746	-13.25
225.98	1.75
226.215	10.75
226.449	11.75
226.683	8.75
226.918	27.75
227.152	33.75
227.387	44.75
227.621	38.75
227.856	39.75
228.09	42.75
228.324	40.75
228.559	55.75
228.793	114.75
229.027	312.75
229.262	329.75
229.496	308.75
229.73	303.75
229.964	297.75
230.199	304.75
230.433	297.75
230.667	306.75
230.901	325.75
231.136	343.75
231.37	348.75
231.604	385.75
231.838	452.75
232.072	538.75
232.306	569.75
232.541	476.75
232.775	425.75
233.009	408.75
233.243	403.75
233.477	433.75
233.711	502.75
233.945	580.75
234.179	502.75
234.413	459.75
234.647	454.75
234.881	449.75
235.115	493.75
235.349	597.75
235.583	769.75
235.817	1004.75
236.051	960.75
236.285	646.75
236.519	527.75
236.753	492.75
236.987	512.75
237.221	519.75
237.455	513.75
237.689	461.75
237.922	447.75
238.156	470.75
238.39	496.75
238.624	495.75
238.858	477.75
239.091	488.75
239.325	493.75
239.559	509.75
239.793	493.75
240.027	520.75
240.26	538.75
240.494	560.75
240.728	582.75
240.961	587.75
241.195	651.75
241.429	676.75
241.662	684.75
241.896	766.75
242.13	951.75
242.363	1238.75
242.597	1602.75
242.83	1520.75
243.064	1508.75
243.298	1768.75
243.531	1443.75
243.765	965.75
243.998	775.75
244.232	713.75
244.465	678.75
244.699	646.75
244.932	654.75
245.166	637.75
245.399	658.75
245.633	674.75
245.866	677.75
246.099	662.75
246.333	634.75
246.566	630.75
246.8	671.75
247.033	654.75
247.266	633.75
247.5	659.75
247.733	650.75
247.966	686.75
248.2	749.75
248.433	876.75
248.666	969.75
248.899	940.75
249.133	842.75
249.366	877.75
249.599	973.75
249.832	1100.75
250.066	1077.75
250.299	858.75
250.532	772.75
250.765	750.75
250.998	734.75
251.231	735.75
251.465	706.75
251.698	725.75
251.931	727.75
252.164	734.75
252.397	766.75
252.63	782.75
252.863	787.75
253.096	787.75
253.329	769.75
253.562	775.75
253.795	770.75
254.028	786.75
254.261	815.75
254.494	890.75
254.727	1012.75
254.96	1244.75
255.193	1227.75
255.426	950.75
255.659	887.75
255.892	854.75
256.124	849.75
256.357	869.75
256.59	897.75
256.823	992.75
257.056	1107.75
257.289	1360.75
257.521	1501.75
257.754	1176.75
257.987	956.75
258.22	912.75
258.452	902.75
258.685	924.75
258.918	952.75
259.151	1022.75
259.383	1069.75
259.616	1202.75
259.849	1279.75
260.081	1074.75
260.314	979.75
260.547	947.75
260.779	964.75
261.012	961.75
261.244	963.75
261.477	980.75
261.71	970.75
261.942	982.75
262.175	994.75
262.407	1048.75
262.64	1044.75
262.872	1100.75
263.105	1160.75
263.337	1197.75
263.57	1272.75
263.802	1326.75
264.035	1307.75
264.267	1334.75
264.499	1366.75
264.732	1425.75
264.964	1404.75
265.197	1446.75
265.429	1439.75
265.661	1462.75
265.894	1580.75
266.126	1782.75
266.358	1976.75
266.591	1932.75
266.823	1614.75
267.055	1445.75
267.287	1382.75
267.52	1366.75
267.752	1288.75
267.984	1247.75
268.216	1223.75
268.448	1253.75
268.681	1234.75
268.913	1222.75
269.145	1220.75
269.377	1226.75
269.609	1252.75
269.841	1276.75
270.073	1365.75
270.306	1565.75
270.538	2128.75
270.77	3218.75
271.002	3841.75
271.234	2750.75
271.466	1819.75
271.698	1509.75
271.93	1389.75
272.162	1310.75
272.394	1249.75
272.626	1221.75
272.858	1226.75
273.09	1234.75
273.322	1199.75
273.553	1185.75
273.785	1186.75
274.017	1191.75
274.249	1200.75
274.481	1196.75
274.713	1188.75
274.945	1208.75
275.176	1244.75
275.408	1194.75
275.64	1191.75
275.872	1214.75
276.104	1281.75
276.335	1276.75
276.567	1255.75
276.799	1255.75
277.031	1303.75
277.262	1346.75
277.494	1383.75
277.726	1584.75
277.957	1888.75
278.189	2171.75
278.421	1990.75
278.652	1762.75
278.884	1656.75
279.115	1506.75
279.347	1428.75
279.579	1379.75
279.81	1349.75
280.042	1345.75
280.273	1393.75
280.505	1406.75
280.736	1461.75
280.968	1562.75
281.199	1790.75
281.431	2080.75
281.662	2094.75
281.894	1789.75
282.125	1643.75
282.356	1628.75
282.588	1644.75
282.819	1682.75
283.051	1807.75
283.282	1972.75
283.513	2431.75
283.745	3604.75
283.976	5630.75
284.207	8046.75
284.439	7208.75
284.67	4540.75
284.901	3719.75
285.132	3735.75
285.364	3573.75
285.595	2695.75
285.826	2404.75
286.057	2853.75
286.288	3886.75
286.52	5153.75
286.751	4895.75
286.982	3014.75
287.213	2230.75
287.444	1969.75
287.675	1836.75
287.906	1772.75
288.138	1691.75
288.369	1678.75
288.6	1664.75
288.831	1682.75
289.062	1677.75
289.293	1664.75
289.524	1686.75
289.755	1711.75
289.986	1706.75
290.217	1697.75
290.448	1714.75
290.679	1709.75
290.91	1744.75
291.141	1898.75
291.371	2034.75
291.602	2193.75
291.833	1952.75
292.064	1761.75
292.295	1679.75
292.526	1672.75
292.757	1648.75
292.987	1568.75
293.218	1551.75
293.449	1601.75
293.68	1574.75
293.91	1595.75
294.141	1596.75
294.372	1531.75
294.603	1568.75
294.833	1539.75
295.064	1534.75
295.295	1537.75
295.525	1563.75
295.756	1567.75
295.987	1512.75
296.217	1582.75
296.448	1584.75
296.679	1599.75
296.909	1556.75
297.14	1618.75
297.37	1594.75
297.601	1630.75
297.831	1632.75
298.062	1600.75
298.292	1635.75
298.523	1675.75
298.753	1675.75
298.984	1735.75
299.214	1713.75
299.445	1696.75
299.675	1725.75
299.905	1800.75
300.136	1914.75
300.366	2137.75
300.597	2741.75
300.827	3788.75
301.057	5247.75
301.288	5213.75
301.518	3390.75
301.748	2555.75
301.979	2309.75
302.209	2265.75
302.439	2293.75
302.669	2500.75
302.9	2946.75
303.13	4200.75
303.36	6198.75
303.59	8256.75
303.82	7103.75
304.051	4233.75
304.281	3014.75
304.511	2513.75
304.741	2322.75
304.971	2176.75
305.201	2044.75
305.431	2002.75
305.661	1946.75
305.891	1912.75
306.121	1842.75
306.352	1865.75
306.582	1825.75
306.812	1829.75
307.042	1838.75
307.272	1831.75
307.502	1859.75
307.731	1818.75
307.961	1775.75
308.191	1837.75
308.421	1816.75
308.651	1799.75
308.881	1809.75
309.111	1798.75
309.341	1825.75
309.571	1823.75
309.8	1826.75
310.03	1859.75
310.26	1892.75
310.49	1824.75
310.72	1867.75
310.949	1892.75
311.179	1898.75
311.409	1902.75
311.639	1932.75
311.868	1910.75
312.098	1962.75
312.328	1982.75
312.557	1959.75
312.787	1990.75
313.017	1994.75
313.246	1983.75
313.476	2042.75
313.706	2075.75
313.935	2215.75
314.165	2381.75
314.394	2482.75
314.624	2392.75
314.853	2151.75
315.083	2132.75
315.312	2189.75
315.542	2196.75
315.771	2189.75
316.001	2267.75
316.23	2327.75
316.46	2401.75
316.689	2713.75
316.919	3214.75
317.148	4634.75
317.377	7104.75
317.607	10359.75
317.836	10678.75
318.065	6474.75
318.295	4250.75
318.524	3376.75
318.753	2930.75
318.983	2700.75
319.212	2590.75
319.441	2470.75
319.67	2443.75
319.9	2368.75
320.129	2354.75
320.358	2336.75
320.587	2307.75
320.816	2314.75
321.046	2336.75
321.275	2339.75
321.504	2360.75
321.733	2430.75
321.962	2502.75
322.191	2546.75
322.42	2463.75
322.649	2462.75
322.878	2491.75
323.108	2485.75
323.337	2532.75
323.566	2548.75
323.795	2571.75
324.024	2665.75
324.253	2688.75
324.482	2845.75
324.71	3032.75
324.939	3238.75
325.168	3244.75
325.397	3376.75
325.626	4058.75
325.855	5586.75
326.084	8687.75
326.313	12658.75
326.542	13393.75
326.77	8924.75
326.999	5884.75
327.228	4883.75
327.457	4636.75
327.686	4703.75
327.914	4996.75
328.143	5807.75
328.372	6825.75
328.6	7410.75
328.829	6721.75
329.058	5652.75
329.287	5008.75
329.515	4526.75
329.744	4183.75
329.972	4015.75
330.201	3869.75
330.43	3683.75
330.658	3638.75
330.887	3585.75
331.115	3404.75
331.344	3473.75
331.572	3394.75
331.801	3431.75
332.03	3505.75
332.258	3531.75
332.486	3751.75
332.715	4288.75
332.943	5333.75
333.172	6527.75
333.4	6529.75
333.629	4928.75
333.857	4481.75
334.085	4462.75
334.314	4610.75
334.542	5060.75
334.771	5868.75
334.999	7214.75
335.227	8964.75
335.455	9948.75
335.684	9065.75
335.912	7477.75
336.14	6328.75
336.369	5623.75
336.597	5084.75
336.825	4692.75
337.053	4477.75
337.281	4197.75
337.51	4064.75
337.738	3816.75
337.966	3744.75
338.194	3542.75
338.422	3462.75
338.65	3377.75
338.878	3304.75
339.106	3237.75
339.334	3215.75
339.562	3132.75
339.79	3084.75
340.018	3118.75
340.246	3018.75
340.474	3030.75
340.702	3016.75
340.93	3035.75
341.158	3022.75
341.386	2973.75
341.614	2979.75
341.842	2904.75
342.07	2798.75
342.298	2827.75
342.526	2775.75
342.754	2735.75
342.981	2708.75
343.209	2713.75
343.437	2717.75
343.665	2718.75
343.893	2814.75
344.12	2756.75
344.348	2793.75
344.576	2756.75
344.804	2706.75
345.031	2664.75
345.259	2590.75
345.487	2585.75
345.714	2582.75
345.942	2546.75
346.17	2526.75
346.397	2513.75
346.625	2510.75
346.853	2506.75
347.08	2513.75
347.308	2445.75
347.535	2540.75
347.763	2477.75
347.99	2506.75
348.218	2518.75
348.445	2474.75
348.673	2470.75
348.9	2480.75
349.128	2473.75
349.355	2478.75
349.583	2434.75
349.81	2415.75
350.037	2415.75
350.265	2424.75
350.492	2400.75
350.72	2406.75
350.947	2399.75
351.174	2397.75
351.402	2400.75
351.629	2407.75
351.856	2393.75
352.083	2384.75
352.311	2386.75
352.538	2388.75
352.765	2371.75
352.992	2366.75
353.22	2363.75
353.447	2384.75
353.674	2359.75
353.901	2355.75
354.128	2443.75
354.355	2339.75
354.583	2418.75
354.81	2375.75
355.037	2418.75
355.264	2421.75
355.491	2461.75
355.718	2453.75
355.945	2464.75
356.172	2490.75
356.399	2467.75
356.626	2506.75
356.853	2498.75
357.08	2488.75
357.307	2546.75
357.534	2586.75
357.761	2563.75
357.988	2582.75
358.215	2533.75
358.441	2562.75
358.668	2541.75
358.895	2553.75
359.122	2496.75
359.349	2525.75
359.576	2543.75
359.802	2527.75
360.029	2534.75
360.256	2533.75
360.483	2512.75
360.709	2550.75
360.936	2552.75
361.163	2551.75
361.39	2531.75
361.616	2578.75
361.843	2559.75
362.07	2610.75
362.296	2542.75
362.523	2529.75
362.749	2546.75
362.976	2534.75
363.203	2592.75
363.429	2526.75
363.656	2518.75
363.882	2518.75
364.109	2498.75
364.335	2530.75
364.562	2540.75
364.788	2516.75
365.015	2572.75
365.241	2643.75
365.468	2808.75
365.694	2944.75
365.92	2815.75
366.147	2590.75
366.373	2614.75
366.599	2629.75
366.826	2622.75
367.052	2573.75
367.278	2626.75
367.505	2604.75
367.731	2592.75
367.957	2574.75
368.184	2653.75
368.41	2679.75
368.636	2628.75
368.862	2668.75
369.089	2665.75
369.315	2692.75
369.541	2655.75
369.767	2607.75
369.993	2652.75
370.219	2627.75
370.445	2645.75
370.672	2680.75
370.898	2692.75
371.124	2674.75
371.35	2736.75
371.576	2687.75
371.802	2722.75
372.028	2764.75
372.254	2741.75
372.48	2824.75
372.706	2836.75
372.932	2797.75
373.158	2792.75
373.384	2814.75
373.61	2764.75
373.835	2775.75
374.061	2815.75
374.287	2867.75
374.513	2871.75
374.739	2940.75
374.965	2924.75
375.191	2873.75
375.416	2872.75
375.642	2864.75
375.868	2842.75
376.094	2797.75
376.319	2808.75
376.545	2794.75
376.771	2811.75
376.997	2712.75
377.222	2721.75
377.448	2726.75
377.674	2751.75
377.899	2699.75
378.125	2699.75
378.35	2721.75
378.576	2717.75
378.802	2773.75
379.027	2832.75
379.253	2901.75
379.478	3047.75
379.704	3569.75
379.929	5175.75
380.155	7950.75
380.38	8846.75
380.606	5294.75
380.831	3709.75
381.057	3244.75
381.282	2962.75
381.507	2866.75
381.733	2829.75
381.958	2766.75
382.184	2706.75
382.409	2715.75
382.634	2681.75
382.86	2692.75
383.085	2661.75
383.31	2694.75
383.535	2703.75
383.761	2665.75
383.986	2696.75
384.211	2766.75
384.436	2786.75
384.662	2735.75
384.887	2791.75
385.112	2830.75
385.337	2788.75
385.562	2746.75
385.787	2802.75
386.013	2789.75
386.238	2788.75
386.463	2762.75
386.688	2820.75
386.913	2780.75
387.138	2787.75
387.363	2831.75
387.588	2759.75
387.813	2726.75
388.038	2758.75
388.263	2844.75
388.488	2750.75
388.713	2784.75
388.938	2769.75
389.163	2810.75
389.387	2755.75
389.612	2718.75
389.837	2785.75
390.062	2750.75
390.287	2808.75
390.512	2767.75
390.736	2843.75
390.961	2905.75
391.186	2931.75
391.411	2886.75
391.636	2899.75
391.86	2966.75
392.085	2874.75
392.31	2940.75
392.534	2857.75
392.759	2898.75
392.984	2862.75
393.208	2838.75
393.433	2871.75
393.658	2886.75
393.882	2826.75
394.107	2785.75
394.331	2852.75
394.556	2832.75
394.78	2793.75
395.005	2826.75
395.229	2852.75
395.454	2929.75
395.678	2810.75
395.903	2892.75
396.127	2924.75
396.352	2906.75
396.576	2818.75
396.801	2823.75
397.025	2920.75
397.249	2917.75
397.474	2930.75
397.698	2937.75
397.922	2951.75
398.147	2916.75
398.371	3012.75
398.595	3007.75
398.82	3079.75
399.044	3171.75
399.268	3298.75
399.492	3561.75
399.717	3666.75
399.941	3694.75
400.165	3525.75
400.389	3419.75
400.613	3271.75
400.837	3184.75
401.062	3121.75
401.286	3067.75
401.51	3075.75
401.734	2993.75
401.958	3106.75
402.182	3063.75
402.406	3040.75
402.63	3110.75
402.854	3097.75
403.078	3099.75
403.302	3151.75
403.526	3148.75
403.75	3131.75
403.974	3121.75
404.198	3183.75
404.422	3200.75
404.645	3159.75
404.869	3151.75
405.093	3183.75
405.317	3182.75
405.541	3194.75
405.765	3269.75
405.988	3305.75
406.212	3357.75
406.436	3276.75
406.66	3292.75
406.883	3318.75
407.107	3424.75
407.331	3436.75
407.555	3522.75
407.778	3378.75
408.002	3349.75
408.226	3414.75
408.449	3392.75
408.673	3362.75
408.896	3301.75
409.12	3244.75
409.344	3200.75
409.567	3177.75
409.791	3179.75
410.014	3175.75
410.238	3150.75
410.461	3181.75
410.685	3145.75
410.908	3100.75
411.132	3182.75
411.355	3081.75
411.578	3089.75
411.802	3075.75
412.025	3098.75
412.249	3031.75
412.472	3029.75
412.695	3020.75
412.919	3006.75
413.142	3003.75
413.365	3045.75
413.589	3018.75
413.812	2956.75
414.035	2980.75
414.258	3032.75
414.482	2983.75
414.705	3022.75
414.928	2992.75
415.151	2958.75
415.374	2920.75
415.597	2984.75
415.821	2912.75
416.044	2850.75
416.267	2928.75
416.49	2853.75
416.713	2904.75
416.936	2838.75
417.159	2884.75
417.382	2837.75
417.605	2848.75
417.828	2880.75
418.051	2841.75
418.274	2892.75
418.497	2879.75
418.72	2979.75
418.943	2966.75
419.166	3055.75
419.389	3185.75
419.611	3186.75
419.834	3072.75
420.057	3025.75
420.28	2944.75
420.503	2898.75
420.726	2886.75
420.948	2896.75
421.171	2929.75
421.394	2903.75
421.617	2862.75
421.839	2889.75
422.062	2916.75
422.285	2855.75
422.507	2990.75
422.73	2906.75
422.953	2985.75
423.175	3028.75
423.398	2983.75
423.621	2836.75
423.843	2870.75
424.066	2902.75
424.288	2838.75
424.511	2896.75
424.733	2862.75
424.956	2832.75
425.178	2845.75
425.401	2841.75
425.623	2830.75
425.846	2734.75
426.068	2806.75
426.291	2845.75
426.513	2749.75
426.735	2745.75
426.958	2810.75
427.18	2743.75
427.402	2749.75
427.625	2740.75
427.847	2654.75
428.069	2622.75
428.292	2657.75
428.514	2674.75
428.736	2680.75
428.958	2704.75
429.181	2616.75
429.403	2610.75
429.625	2669.75
429.847	2648.75
430.069	2735.75
430.292	2750.75
430.514	2856.75
430.736	2856.75
430.958	2731.75
431.18	2680.75
431.402	2634.75
431.624	2577.75
431.846	2640.75
432.068	2591.75
432.29	2618.75
432.512	2605.75
432.734	2676.75
432.956	2611.75
433.178	2634.75
433.4	2589.75
433.622	2658.75
433.844	2668.75
434.066	2645.75
434.287	2628.75
434.509	2685.75
434.731	2739.75
434.953	2744.75
435.175	2790.75
435.397	2749.75
435.618	2710.75
435.84	2644.75
436.062	2638.75
436.284	2653.75
436.505	2624.75
436.727	2615.75
436.949	2600.75
437.17	2614.75
437.392	2556.75
437.614	2595.75
437.835	2515.75
438.057	2564.75
438.278	2530.75
438.5	2563.75
438.721	2624.75
438.943	2663.75
439.165	2709.75
439.386	2776.75
439.608	2776.75
439.829	2759.75
440.05	2806.75
440.272	2876.75
440.493	2741.75
440.715	2705.75
440.936	2744.75
441.158	2723.75
441.379	2765.75
441.6	2894.75
441.822	2942.75
442.043	3126.75
442.264	3143.75
442.486	2975.75
442.707	2846.75
442.928	2848.75
443.149	2830.75
443.371	2813.75
443.592	2832.75
443.813	2838.75
444.034	2833.75
444.255	2880.75
444.476	2916.75
444.698	3020.75
444.919	3087.75
445.14	3068.75
445.361	2943.75
445.582	2870.75
445.803	2828.75
446.024	2797.75
446.245	2791.75
446.466	2793.75
446.687	2754.75
446.908	2756.75
447.129	2643.75
447.35	2642.75
447.571	2710.75
447.792	2578.75
448.013	2641.75
448.234	2570.75
448.455	2576.75
448.675	2637.75
448.896	2704.75
449.117	2770.75
449.338	2982.75
449.559	3057.75
449.779	2816.75
450	2652.75
450.221	2576.75
450.442	2550.75
450.662	2529.75
450.883	2540.75
451.104	2524.75
451.324	2554.75
451.545	2571.75
451.766	2581.75
451.986	2598.75
452.207	2820.75
452.428	3654.75
452.648	5635.75
452.869	4629.75
453.089	3202.75
453.31	2896.75
453.53	2895.75
453.751	3059.75
453.971	3151.75
454.192	3054.75
454.412	2682.75
454.633	2590.75
454.853	2483.75
455.073	2446.75
455.294	2450.75
455.514	2396.75
455.734	2420.75
455.955	2402.75
456.175	2422.75
456.395	2404.75
456.616	2444.75
456.836	2473.75
457.056	2454.75
457.276	2460.75
457.497	2638.75
457.717	2611.75
457.937	2563.75
458.157	2577.75
458.377	2584.75
458.598	2588.75
458.818	2598.75
459.038	2628.75
459.258	2635.75
459.478	2681.75
459.698	2639.75
459.918	2691.75
460.138	2723.75
460.358	2812.75
460.578	2864.75
460.798	2856.75
461.018	2869.75
461.238	2907.75
461.458	2861.75
461.678	2933.75
461.898	2981.75
462.118	2992.75
462.338	3047.75
462.558	3109.75
462.777	3129.75
462.997	3295.75
463.217	3366.75
463.437	3506.75
463.657	3530.75
463.876	3527.75
464.096	3397.75
464.316	3166.75
464.536	3175.75
464.755	3078.75
464.975	3043.75
465.195	2901.75
465.414	2894.75
465.634	2772.75
465.854	2720.75
466.073	2640.75
466.293	2696.75
466.512	2672.75
466.732	2688.75
466.951	2812.75
467.171	2969.75
467.391	2930.75
467.61	2706.75
467.829	2596.75
468.049	2610.75
468.268	2565.75
468.488	2535.75
468.707	2552.75
468.927	2527.75
469.146	2513.75
469.365	2602.75
469.585	2592.75
469.804	2684.75
470.023	2724.75
470.243	2739.75
470.462	2910.75
470.681	3015.75
470.901	3236.75
471.12	3786.75
471.339	3729.75
471.558	3170.75
471.777	2875.75
471.997	2773.75
472.216	2710.75
472.435	2631.75
472.654	2634.75
472.873	2562.75
473.092	2614.75
473.311	2590.75
473.53	2640.75
473.749	2700.75
473.968	2744.75
474.187	2632.75
474.406	2584.75
474.625	2610.75
474.844	2614.75
475.063	2591.75
475.282	2608.75
475.501	2640.75
475.72	2607.75
475.939	2669.75
476.158	2744.75
476.377	2799.75
476.596	2722.75
476.814	2753.75
477.033	2737.75
477.252	2783.75
477.471	2848.75
477.69	2880.75
477.908	2925.75
478.127	2954.75
478.346	2929.75
478.564	2967.75
478.783	3038.75
479.002	3046.75
479.22	3074.75
479.439	3116.75
479.658	3080.75
479.876	3145.75
480.095	3172.75
480.313	3225.75
480.532	3265.75
480.751	3235.75
480.969	3142.75
481.188	3139.75
481.406	3162.75
481.624	3197.75
481.843	3160.75
482.061	3233.75
482.28	3184.75
482.498	3164.75
482.717	3186.75
482.935	3145.75
483.153	3239.75
483.372	3295.75
483.59	3311.75
483.808	3290.75
484.027	3446.75
484.245	3668.75
484.463	4062.75
484.681	4460.75
484.9	4068.75
485.118	3795.75
485.336	3692.75
485.554	3809.75
485.772	4007.75
485.99	4554.75
486.209	4820.75
486.427	4136.75
486.645	3666.75
486.863	3515.75
487.081	3444.75
487.299	3357.75
487.517	3355.75
487.735	3375.75
