Data from SnStandardFlinnAPT0064_LampEnergy10_LIBS07252019.E.O._I.C._HRD10591_15-21-06-493.txt Node
Date: Thu Jul 25 15:21:06 EDT 2019
User: cochatt
Spectrometer: HR+D1059
Trigger mode: 1
Integration Time (sec): 1.000000E-1
Scans to average: 1
Electric dark correction enabled: true
Nonlinearity correction enabled: false
Boxcar width: 0
XAxis mode: Wavelengths
Number of Pixels in Spectrum: 2048
>>>>>Begin Spectral Data<<<<<
223.165	-16.69
223.4	-16.69
223.635	-16.69
223.869	-24.69
224.104	-10.69
224.338	-7.69
224.573	-11.69
224.808	-4.69
225.042	-17.69
225.277	-18.69
225.511	-9.69
225.746	6.31
225.98	1.31
226.215	12.31
226.449	21.31
226.683	21.31
226.918	32.31
227.152	27.31
227.387	27.31
227.621	37.31
227.856	43.31
228.09	51.31
228.324	38.31
228.559	37.31
228.793	115.31
229.027	301.31
229.262	340.31
229.496	294.31
229.73	308.31
229.964	301.31
230.199	287.31
230.433	290.31
230.667	311.31
230.901	307.31
231.136	316.31
231.37	347.31
231.604	376.31
231.838	435.31
232.072	525.31
232.306	579.31
232.541	443.31
232.775	415.31
233.009	426.31
233.243	406.31
233.477	473.31
233.711	534.31
233.945	587.31
234.179	494.31
234.413	447.31
234.647	439.31
234.881	466.31
235.115	531.31
235.349	603.31
235.583	783.31
235.817	1006.31
236.051	1014.31
236.285	628.31
236.519	534.31
236.753	489.31
236.987	517.31
237.221	530.31
237.455	529.31
237.689	455.31
237.922	437.31
238.156	471.31
238.39	486.31
238.624	476.31
238.858	477.31
239.091	489.31
239.325	476.31
239.559	475.31
239.793	494.31
240.027	507.31
240.26	539.31
240.494	534.31
240.728	555.31
240.961	593.31
241.195	645.31
241.429	678.31
241.662	703.31
241.896	805.31
242.13	980.31
242.363	1263.31
242.597	1619.31
242.83	1608.31
243.064	1530.31
243.298	1836.31
243.531	1515.31
243.765	930.31
243.998	775.31
244.232	691.31
244.465	652.31
244.699	653.31
244.932	654.31
245.166	649.31
245.399	675.31
245.633	665.31
245.866	694.31
246.099	669.31
246.333	644.31
246.566	634.31
246.8	641.31
247.033	661.31
247.266	650.31
247.5	639.31
247.733	668.31
247.966	706.31
248.2	749.31
248.433	866.31
248.666	1005.31
248.899	907.31
249.133	845.31
249.366	864.31
249.599	965.31
249.832	1067.31
250.066	1104.31
250.299	813.31
250.532	770.31
250.765	763.31
250.998	709.31
251.231	743.31
251.465	732.31
251.698	719.31
251.931	727.31
252.164	756.31
252.397	760.31
252.63	787.31
252.863	799.31
253.096	778.31
253.329	797.31
253.562	767.31
253.795	771.31
254.028	788.31
254.261	801.31
254.494	895.31
254.727	1004.31
254.96	1248.31
255.193	1236.31
255.426	963.31
255.659	860.31
255.892	872.31
256.124	849.31
256.357	887.31
256.59	915.31
256.823	946.31
257.056	1071.31
257.289	1391.31
257.521	1500.31
257.754	1200.31
257.987	975.31
258.22	915.31
258.452	901.31
258.685	894.31
258.918	960.31
259.151	997.31
259.383	1088.31
259.616	1199.31
259.849	1263.31
260.081	1078.31
260.314	964.31
260.547	950.31
260.779	923.31
261.012	952.31
261.244	980.31
261.477	985.31
261.71	963.31
261.942	973.31
262.175	982.31
262.407	1044.31
262.64	1072.31
262.872	1111.31
263.105	1124.31
263.337	1203.31
263.57	1239.31
263.802	1299.31
264.035	1318.31
264.267	1320.31
264.499	1382.31
264.732	1416.31
264.964	1421.31
265.197	1407.31
265.429	1423.31
265.661	1443.31
265.894	1592.31
266.126	1765.31
266.358	1951.31
266.591	1923.31
266.823	1629.31
267.055	1465.31
267.287	1352.31
267.52	1333.31
267.752	1293.31
267.984	1284.31
268.216	1246.31
268.448	1256.31
268.681	1224.31
268.913	1213.31
269.145	1206.31
269.377	1207.31
269.609	1224.31
269.841	1261.31
270.073	1333.31
270.306	1587.31
270.538	2170.31
270.77	3259.31
271.002	3990.31
271.234	2782.31
271.466	1864.31
271.698	1538.31
271.93	1355.31
272.162	1346.31
272.394	1289.31
272.626	1256.31
272.858	1208.31
273.09	1234.31
273.322	1178.31
273.553	1196.31
273.785	1167.31
274.017	1185.31
274.249	1193.31
274.481	1184.31
274.713	1209.31
274.945	1214.31
275.176	1205.31
275.408	1197.31
275.64	1213.31
275.872	1219.31
276.104	1248.31
276.335	1247.31
276.567	1278.31
276.799	1276.31
277.031	1297.31
277.262	1308.31
277.494	1373.31
277.726	1552.31
277.957	1816.31
278.189	2100.31
278.421	1982.31
278.652	1775.31
278.884	1697.31
279.115	1499.31
279.347	1438.31
279.579	1366.31
279.81	1371.31
280.042	1416.31
280.273	1401.31
280.505	1420.31
280.736	1499.31
280.968	1600.31
281.199	1795.31
281.431	2081.31
281.662	2087.31
281.894	1771.31
282.125	1621.31
282.356	1627.31
282.588	1659.31
282.819	1707.31
283.051	1777.31
283.282	2011.31
283.513	2490.31
283.745	3599.31
283.976	5633.31
284.207	8180.31
284.439	7449.31
284.67	4561.31
284.901	3727.31
285.132	3778.31
285.364	3603.31
285.595	2695.31
285.826	2475.31
286.057	2823.31
286.288	3894.31
286.52	5345.31
286.751	5003.31
286.982	3034.31
287.213	2234.31
287.444	1998.31
287.675	1864.31
287.906	1747.31
288.138	1729.31
288.369	1671.31
288.6	1657.31
288.831	1647.31
289.062	1649.31
289.293	1666.31
289.524	1655.31
289.755	1676.31
289.986	1657.31
290.217	1702.31
290.448	1731.31
290.679	1713.31
290.91	1769.31
291.141	1906.31
291.371	2005.31
291.602	2124.31
291.833	1922.31
292.064	1761.31
292.295	1640.31
292.526	1640.31
292.757	1572.31
292.987	1590.31
293.218	1570.31
293.449	1580.31
293.68	1603.31
293.91	1577.31
294.141	1559.31
294.372	1532.31
294.603	1588.31
294.833	1603.31
295.064	1552.31
295.295	1586.31
295.525	1569.31
295.756	1551.31
295.987	1520.31
296.217	1571.31
296.448	1570.31
296.679	1545.31
296.909	1594.31
297.14	1587.31
297.37	1588.31
297.601	1600.31
297.831	1597.31
298.062	1627.31
298.292	1654.31
298.523	1661.31
298.753	1752.31
298.984	1708.31
299.214	1729.31
299.445	1765.31
299.675	1768.31
299.905	1855.31
300.136	1851.31
300.366	2112.31
300.597	2747.31
300.827	3872.31
301.057	5299.31
301.288	5301.31
301.518	3408.31
301.748	2557.31
301.979	2327.31
302.209	2249.31
302.439	2335.31
302.669	2445.31
302.9	2975.31
303.13	4223.31
303.36	6369.31
303.59	8408.31
303.82	7336.31
304.051	4220.31
304.281	3038.31
304.511	2528.31
304.741	2281.31
304.971	2175.31
305.201	2068.31
305.431	1998.31
305.661	1935.31
305.891	1889.31
306.121	1854.31
306.352	1855.31
306.582	1858.31
306.812	1872.31
307.042	1809.31
307.272	1864.31
307.502	1807.31
307.731	1787.31
307.961	1798.31
308.191	1788.31
308.421	1756.31
308.651	1791.31
308.881	1785.31
309.111	1807.31
309.341	1785.31
309.571	1828.31
309.8	1822.31
310.03	1841.31
310.26	1835.31
310.49	1824.31
310.72	1839.31
310.949	1894.31
311.179	1843.31
311.409	1907.31
311.639	1902.31
311.868	1899.31
312.098	1928.31
312.328	1968.31
312.557	1957.31
312.787	1970.31
313.017	1941.31
313.246	1983.31
313.476	2016.31
313.706	2078.31
313.935	2207.31
314.165	2421.31
314.394	2481.31
314.624	2359.31
314.853	2174.31
315.083	2122.31
315.312	2132.31
315.542	2140.31
315.771	2197.31
316.001	2253.31
316.23	2319.31
316.46	2405.31
316.689	2663.31
316.919	3221.31
317.148	4593.31
317.377	7270.31
317.607	10610.31
317.836	11063.31
318.065	6608.31
318.295	4193.31
318.524	3459.31
318.753	2969.31
318.983	2704.31
319.212	2544.31
319.441	2457.31
319.67	2422.31
319.9	2392.31
320.129	2367.31
320.358	2371.31
320.587	2315.31
320.816	2330.31
321.046	2340.31
321.275	2389.31
321.504	2418.31
321.733	2413.31
321.962	2475.31
322.191	2520.31
322.42	2500.31
322.649	2527.31
322.878	2479.31
323.108	2455.31
323.337	2496.31
323.566	2595.31
323.795	2616.31
324.024	2687.31
324.253	2753.31
324.482	2841.31
324.71	3009.31
324.939	3237.31
325.168	3273.31
325.397	3419.31
325.626	4008.31
325.855	5579.31
326.084	8942.31
326.313	12881.31
326.542	13555.31
326.77	9135.31
326.999	5918.31
327.228	4989.31
327.457	4701.31
327.686	4742.31
327.914	5107.31
328.143	5963.31
328.372	7091.31
328.6	7760.31
328.829	6885.31
329.058	5792.31
329.287	5106.31
329.515	4579.31
329.744	4288.31
329.972	4095.31
330.201	3865.31
330.43	3680.31
330.658	3575.31
330.887	3601.31
331.115	3475.31
331.344	3503.31
331.572	3488.31
331.801	3480.31
332.03	3518.31
332.258	3591.31
332.486	3724.31
332.715	4277.31
332.943	5363.31
333.172	6603.31
333.4	6628.31
333.629	4979.31
333.857	4503.31
334.085	4478.31
334.314	4730.31
334.542	5169.31
334.771	5945.31
334.999	7489.31
335.227	9306.31
335.455	10464.31
335.684	9327.31
335.912	7552.31
336.14	6448.31
336.369	5693.31
336.597	5245.31
336.825	4805.31
337.053	4510.31
337.281	4284.31
337.51	4004.31
337.738	3878.31
337.966	3716.31
338.194	3582.31
338.422	3480.31
338.65	3382.31
338.878	3284.31
339.106	3274.31
339.334	3188.31
339.562	3149.31
339.79	3065.31
340.018	3070.31
340.246	3029.31
340.474	3073.31
340.702	3003.31
340.93	3035.31
341.158	3058.31
341.386	2991.31
341.614	2932.31
341.842	2916.31
342.07	2817.31
342.298	2790.31
342.526	2739.31
342.754	2735.31
342.981	2716.31
343.209	2701.31
343.437	2747.31
343.665	2772.31
343.893	2791.31
344.12	2820.31
344.348	2776.31
344.576	2733.31
344.804	2691.31
345.031	2646.31
345.259	2600.31
345.487	2546.31
345.714	2560.31
345.942	2568.31
346.17	2559.31
346.397	2478.31
346.625	2479.31
346.853	2489.31
347.08	2518.31
347.308	2523.31
347.535	2535.31
347.763	2524.31
347.99	2537.31
348.218	2460.31
348.445	2431.31
348.673	2480.31
348.9	2430.31
349.128	2451.31
349.355	2431.31
349.583	2436.31
349.81	2418.31
350.037	2359.31
350.265	2400.31
350.492	2380.31
350.72	2414.31
350.947	2393.31
351.174	2416.31
351.402	2387.31
351.629	2381.31
351.856	2359.31
352.083	2396.31
352.311	2365.31
352.538	2361.31
352.765	2361.31
352.992	2400.31
353.22	2324.31
353.447	2359.31
353.674	2366.31
353.901	2368.31
354.128	2351.31
354.355	2362.31
354.583	2367.31
354.81	2400.31
355.037	2410.31
355.264	2423.31
355.491	2452.31
355.718	2413.31
355.945	2445.31
356.172	2398.31
356.399	2456.31
356.626	2461.31
356.853	2521.31
357.08	2471.31
357.307	2526.31
357.534	2543.31
357.761	2534.31
357.988	2576.31
358.215	2535.31
358.441	2591.31
358.668	2477.31
358.895	2547.31
359.122	2548.31
359.349	2523.31
359.576	2543.31
359.802	2539.31
360.029	2504.31
360.256	2534.31
360.483	2515.31
360.709	2531.31
360.936	2559.31
361.163	2523.31
361.39	2542.31
361.616	2547.31
361.843	2556.31
362.07	2573.31
362.296	2561.31
362.523	2549.31
362.749	2574.31
362.976	2544.31
363.203	2529.31
363.429	2483.31
363.656	2566.31
363.882	2540.31
364.109	2527.31
364.335	2536.31
364.562	2550.31
364.788	2545.31
365.015	2586.31
365.241	2641.31
365.468	2771.31
365.694	2931.31
365.92	2878.31
366.147	2619.31
366.373	2651.31
366.599	2546.31
366.826	2588.31
367.052	2585.31
367.278	2580.31
367.505	2581.31
367.731	2607.31
367.957	2621.31
368.184	2596.31
368.41	2675.31
368.636	2631.31
368.862	2633.31
369.089	2605.31
369.315	2581.31
369.541	2612.31
369.767	2642.31
369.993	2605.31
370.219	2632.31
370.445	2642.31
370.672	2651.31
370.898	2692.31
371.124	2667.31
371.35	2687.31
371.576	2684.31
371.802	2769.31
372.028	2774.31
372.254	2752.31
372.48	2757.31
372.706	2792.31
372.932	2801.31
373.158	2720.31
373.384	2778.31
373.61	2755.31
373.835	2802.31
374.061	2830.31
374.287	2834.31
374.513	2804.31
374.739	2884.31
374.965	2923.31
375.191	2877.31
375.416	2886.31
375.642	2883.31
375.868	2855.31
376.094	2844.31
376.319	2747.31
376.545	2780.31
376.771	2740.31
376.997	2698.31
377.222	2683.31
377.448	2719.31
377.674	2770.31
377.899	2660.31
378.125	2747.31
378.35	2745.31
378.576	2747.31
378.802	2772.31
379.027	2790.31
379.253	2878.31
379.478	3080.31
379.704	3607.31
379.929	5177.31
380.155	8027.31
380.38	8798.31
380.606	5284.31
380.831	3679.31
381.057	3227.31
381.282	2968.31
381.507	2832.31
381.733	2781.31
381.958	2715.31
382.184	2691.31
382.409	2683.31
382.634	2695.31
382.86	2633.31
383.085	2662.31
383.31	2662.31
383.535	2724.31
383.761	2699.31
383.986	2710.31
384.211	2724.31
384.436	2714.31
384.662	2789.31
384.887	2769.31
385.112	2733.31
385.337	2772.31
385.562	2807.31
385.787	2718.31
386.013	2755.31
386.238	2764.31
386.463	2749.31
386.688	2775.31
386.913	2699.31
387.138	2750.31
387.363	2747.31
387.588	2707.31
387.813	2714.31
388.038	2723.31
388.263	2721.31
388.488	2779.31
388.713	2763.31
388.938	2789.31
389.163	2704.31
389.387	2824.31
389.612	2728.31
389.837	2753.31
390.062	2757.31
390.287	2802.31
390.512	2791.31
390.736	2823.31
390.961	2840.31
391.186	2853.31
391.411	2901.31
391.636	2868.31
391.86	2893.31
392.085	2920.31
392.31	2905.31
392.534	2876.31
392.759	2852.31
392.984	2805.31
393.208	2805.31
393.433	2901.31
393.658	2935.31
393.882	2784.31
394.107	2774.31
394.331	2829.31
394.556	2829.31
394.78	2851.31
395.005	2820.31
395.229	2839.31
395.454	2839.31
395.678	2827.31
395.903	2880.31
396.127	2878.31
396.352	2834.31
396.576	2825.31
396.801	2860.31
397.025	2944.31
397.249	2948.31
397.474	2929.31
397.698	2871.31
397.922	2992.31
398.147	2939.31
398.371	2978.31
398.595	3045.31
398.82	3090.31
399.044	3166.31
399.268	3317.31
399.492	3551.31
399.717	3657.31
399.941	3649.31
400.165	3556.31
400.389	3345.31
400.613	3243.31
400.837	3109.31
401.062	3133.31
401.286	3080.31
401.51	3078.31
401.734	3024.31
401.958	3065.31
402.182	3105.31
402.406	3053.31
402.63	3075.31
402.854	3063.31
403.078	3073.31
403.302	3069.31
403.526	3122.31
403.75	3153.31
403.974	3245.31
404.198	3150.31
404.422	3188.31
404.645	3180.31
404.869	3159.31
405.093	3232.31
405.317	3146.31
405.541	3232.31
405.765	3279.31
405.988	3277.31
406.212	3232.31
406.436	3196.31
406.66	3260.31
406.883	3261.31
407.107	3332.31
407.331	3417.31
407.555	3495.31
407.778	3404.31
408.002	3445.31
408.226	3349.31
408.449	3346.31
408.673	3329.31
408.896	3239.31
409.12	3184.31
409.344	3231.31
409.567	3142.31
409.791	3171.31
410.014	3164.31
410.238	3115.31
410.461	3144.31
410.685	3142.31
410.908	3097.31
411.132	3094.31
411.355	3007.31
411.578	3039.31
411.802	3042.31
412.025	3067.31
412.249	3078.31
412.472	3105.31
412.695	2985.31
412.919	2948.31
413.142	3052.31
413.365	2939.31
413.589	3017.31
413.812	2966.31
414.035	2973.31
414.258	2994.31
414.482	2991.31
414.705	2991.31
414.928	2986.31
415.151	2951.31
415.374	2932.31
415.597	2887.31
415.821	2888.31
416.044	2859.31
416.267	2829.31
416.49	2877.31
416.713	2806.31
416.936	2867.31
417.159	2866.31
417.382	2823.31
417.605	2798.31
417.828	2834.31
418.051	2865.31
418.274	2885.31
418.497	2908.31
418.72	2952.31
418.943	2885.31
419.166	3044.31
419.389	3176.31
419.611	3145.31
419.834	3019.31
420.057	2961.31
420.28	2943.31
420.503	2885.31
420.726	2857.31
420.948	2866.31
421.171	2854.31
421.394	2833.31
421.617	2885.31
421.839	2895.31
422.062	2917.31
422.285	2818.31
422.507	2892.31
422.73	2957.31
422.953	2961.31
423.175	2943.31
423.398	2950.31
423.621	2804.31
423.843	2933.31
424.066	2907.31
424.288	2826.31
424.511	2820.31
424.733	2865.31
424.956	2843.31
425.178	2815.31
425.401	2836.31
425.623	2805.31
425.846	2788.31
426.068	2821.31
426.291	2690.31
426.513	2728.31
426.735	2786.31
426.958	2731.31
427.18	2660.31
427.402	2685.31
427.625	2711.31
427.847	2678.31
428.069	2630.31
428.292	2683.31
428.514	2653.31
428.736	2660.31
428.958	2645.31
429.181	2585.31
429.403	2579.31
429.625	2611.31
429.847	2598.31
430.069	2647.31
430.292	2775.31
430.514	2818.31
430.736	2805.31
430.958	2691.31
431.18	2644.31
431.402	2595.31
431.624	2637.31
431.846	2598.31
432.068	2600.31
432.29	2623.31
432.512	2587.31
432.734	2614.31
432.956	2595.31
433.178	2614.31
433.4	2627.31
433.622	2630.31
433.844	2651.31
434.066	2614.31
434.287	2630.31
434.509	2688.31
434.731	2698.31
434.953	2725.31
435.175	2787.31
435.397	2735.31
435.618	2676.31
435.84	2669.31
436.062	2617.31
436.284	2579.31
436.505	2633.31
436.727	2585.31
436.949	2582.31
437.17	2582.31
437.392	2565.31
437.614	2559.31
437.835	2492.31
438.057	2530.31
438.278	2508.31
438.5	2562.31
438.721	2576.31
438.943	2672.31
439.165	2713.31
439.386	2669.31
439.608	2729.31
439.829	2705.31
440.05	2803.31
440.272	2856.31
440.493	2731.31
440.715	2695.31
440.936	2696.31
441.158	2751.31
441.379	2720.31
441.6	2818.31
441.822	2937.31
442.043	3075.31
442.264	3201.31
442.486	3007.31
442.707	2834.31
442.928	2854.31
443.149	2817.31
443.371	2797.31
443.592	2824.31
443.813	2791.31
444.034	2843.31
444.255	2870.31
444.476	2959.31
444.698	2943.31
444.919	2993.31
445.14	3063.31
445.361	2926.31
445.582	2852.31
445.803	2813.31
446.024	2782.31
446.245	2772.31
446.466	2805.31
446.687	2726.31
446.908	2708.31
447.129	2670.31
447.35	2649.31
447.571	2618.31
447.792	2559.31
448.013	2583.31
448.234	2551.31
448.455	2583.31
448.675	2563.31
448.896	2659.31
449.117	2820.31
449.338	3004.31
449.559	3144.31
449.779	2787.31
450	2612.31
450.221	2563.31
450.442	2584.31
450.662	2548.31
450.883	2516.31
451.104	2512.31
451.324	2502.31
451.545	2526.31
451.766	2540.31
451.986	2603.31
452.207	2766.31
452.428	3625.31
452.648	5562.31
452.869	4648.31
453.089	3121.31
453.31	2973.31
453.53	2939.31
453.751	3064.31
453.971	3192.31
454.192	3131.31
454.412	2691.31
454.633	2555.31
454.853	2471.31
455.073	2411.31
455.294	2401.31
455.514	2389.31
455.734	2383.31
455.955	2358.31
456.175	2392.31
456.395	2422.31
456.616	2372.31
456.836	2449.31
457.056	2472.31
457.276	2462.31
457.497	2651.31
457.717	2649.31
457.937	2561.31
458.157	2559.31
458.377	2510.31
458.598	2577.31
458.818	2601.31
459.038	2604.31
459.258	2592.31
459.478	2662.31
459.698	2689.31
459.918	2719.31
460.138	2732.31
460.358	2776.31
460.578	2829.31
460.798	2805.31
461.018	2833.31
461.238	2857.31
461.458	2875.31
461.678	2856.31
461.898	3013.31
462.118	2995.31
462.338	3060.31
462.558	3052.31
462.777	3117.31
462.997	3259.31
463.217	3330.31
463.437	3500.31
463.657	3570.31
463.876	3570.31
464.096	3342.31
464.316	3143.31
464.536	3181.31
464.755	3064.31
464.975	2979.31
465.195	2872.31
465.414	2803.31
465.634	2773.31
465.854	2737.31
466.073	2661.31
466.293	2693.31
466.512	2652.31
466.732	2661.31
466.951	2821.31
467.171	2991.31
467.391	2975.31
467.61	2658.31
467.829	2617.31
468.049	2591.31
468.268	2555.31
468.488	2512.31
468.707	2563.31
468.927	2580.31
469.146	2525.31
469.365	2601.31
469.585	2596.31
469.804	2710.31
470.023	2738.31
470.243	2786.31
470.462	2865.31
470.681	2999.31
470.901	3287.31
471.12	3790.31
471.339	3744.31
471.558	3160.31
471.777	2847.31
471.997	2695.31
472.216	2702.31
472.435	2625.31
472.654	2617.31
472.873	2613.31
473.092	2609.31
473.311	2643.31
473.53	2644.31
473.749	2648.31
473.968	2781.31
474.187	2582.31
474.406	2607.31
474.625	2592.31
474.844	2583.31
475.063	2630.31
475.282	2586.31
475.501	2611.31
475.72	2647.31
475.939	2629.31
476.158	2728.31
476.377	2772.31
476.596	2736.31
476.814	2719.31
477.033	2783.31
477.252	2752.31
477.471	2770.31
477.69	2877.31
477.908	2898.31
478.127	2925.31
478.346	2952.31
478.564	3046.31
478.783	3038.31
479.002	3001.31
479.22	3083.31
479.439	3121.31
479.658	3058.31
479.876	3089.31
480.095	3145.31
480.313	3177.31
480.532	3176.31
480.751	3215.31
480.969	3165.31
481.188	3123.31
481.406	3139.31
481.624	3182.31
481.843	3167.31
482.061	3217.31
482.28	3115.31
482.498	3188.31
482.717	3092.31
482.935	3176.31
483.153	3197.31
483.372	3301.31
483.59	3278.31
483.808	3302.31
484.027	3384.31
484.245	3627.31
484.463	4062.31
484.681	4551.31
484.9	4100.31
485.118	3809.31
485.336	3758.31
485.554	3801.31
485.772	4052.31
485.99	4553.31
486.209	4875.31
486.427	4132.31
486.645	3687.31
486.863	3536.31
487.081	3460.31
487.299	3380.31
487.517	3352.31
487.735	3361.31
