Data from SnStandardFlinnAPT0064_LampEnergy10_LIBS07252019.E.O._I.C._HRD10591_15-20-39-494.txt Node
Date: Thu Jul 25 15:20:39 EDT 2019
User: cochatt
Spectrometer: HR+D1059
Trigger mode: 1
Integration Time (sec): 1.000000E-1
Scans to average: 1
Electric dark correction enabled: true
Nonlinearity correction enabled: false
Boxcar width: 0
XAxis mode: Wavelengths
Number of Pixels in Spectrum: 2048
>>>>>Begin Spectral Data<<<<<
223.165	-20.38
223.4	-20.38
223.635	-20.38
223.869	-31.38
224.104	-16.38
224.338	-14.38
224.573	-13.38
224.808	-3.38
225.042	-9.38
225.277	-6.38
225.511	-7.38
225.746	-4.38
225.98	6.62
226.215	10.62
226.449	16.62
226.683	24.62
226.918	36.62
227.152	31.62
227.387	48.62
227.621	31.62
227.856	38.62
228.09	41.62
228.324	55.62
228.559	54.62
228.793	130.62
229.027	315.62
229.262	347.62
229.496	311.62
229.73	304.62
229.964	295.62
230.199	319.62
230.433	309.62
230.667	312.62
230.901	331.62
231.136	342.62
231.37	356.62
231.604	387.62
231.838	453.62
232.072	513.62
232.306	559.62
232.541	477.62
232.775	427.62
233.009	414.62
233.243	421.62
233.477	472.62
233.711	513.62
233.945	585.62
234.179	521.62
234.413	481.62
234.647	461.62
234.881	472.62
235.115	522.62
235.349	605.62
235.583	765.62
235.817	954.62
236.051	954.62
236.285	663.62
236.519	519.62
236.753	484.62
236.987	506.62
237.221	518.62
237.455	496.62
237.689	468.62
237.922	457.62
238.156	495.62
238.39	499.62
238.624	510.62
238.858	484.62
239.091	483.62
239.325	499.62
239.559	492.62
239.793	517.62
240.027	496.62
240.26	552.62
240.494	552.62
240.728	576.62
240.961	606.62
241.195	658.62
241.429	693.62
241.662	699.62
241.896	776.62
242.13	933.62
242.363	1227.62
242.597	1585.62
242.83	1521.62
243.064	1506.62
243.298	1754.62
243.531	1483.62
243.765	936.62
243.998	808.62
244.232	708.62
244.465	675.62
244.699	643.62
244.932	636.62
245.166	669.62
245.399	678.62
245.633	687.62
245.866	697.62
246.099	653.62
246.333	662.62
246.566	647.62
246.8	628.62
247.033	627.62
247.266	602.62
247.5	658.62
247.733	675.62
247.966	711.62
248.2	760.62
248.433	857.62
248.666	985.62
248.899	939.62
249.133	871.62
249.366	892.62
249.599	951.62
249.832	1082.62
250.066	1049.62
250.299	845.62
250.532	793.62
250.765	744.62
250.998	746.62
251.231	745.62
251.465	747.62
251.698	722.62
251.931	729.62
252.164	740.62
252.397	764.62
252.63	805.62
252.863	810.62
253.096	757.62
253.329	778.62
253.562	789.62
253.795	782.62
254.028	803.62
254.261	823.62
254.494	879.62
254.727	1012.62
254.96	1227.62
255.193	1181.62
255.426	963.62
255.659	874.62
255.892	847.62
256.124	860.62
256.357	886.62
256.59	949.62
256.823	975.62
257.056	1114.62
257.289	1343.62
257.521	1451.62
257.754	1183.62
257.987	969.62
258.22	931.62
258.452	894.62
258.685	923.62
258.918	957.62
259.151	971.62
259.383	1103.62
259.616	1201.62
259.849	1278.62
260.081	1115.62
260.314	990.62
260.547	974.62
260.779	958.62
261.012	978.62
261.244	966.62
261.477	993.62
261.71	981.62
261.942	1010.62
262.175	1005.62
262.407	1049.62
262.64	1067.62
262.872	1096.62
263.105	1148.62
263.337	1204.62
263.57	1259.62
263.802	1267.62
264.035	1316.62
264.267	1349.62
264.499	1362.62
264.732	1407.62
264.964	1427.62
265.197	1450.62
265.429	1448.62
265.661	1442.62
265.894	1567.62
266.126	1757.62
266.358	1923.62
266.591	1893.62
266.823	1607.62
267.055	1447.62
267.287	1385.62
267.52	1317.62
267.752	1277.62
267.984	1257.62
268.216	1247.62
268.448	1218.62
268.681	1220.62
268.913	1237.62
269.145	1210.62
269.377	1224.62
269.609	1243.62
269.841	1296.62
270.073	1350.62
270.306	1619.62
270.538	2178.62
270.77	3170.62
271.002	3874.62
271.234	2762.62
271.466	1871.62
271.698	1537.62
271.93	1365.62
272.162	1338.62
272.394	1281.62
272.626	1256.62
272.858	1235.62
273.09	1172.62
273.322	1232.62
273.553	1201.62
273.785	1224.62
274.017	1175.62
274.249	1202.62
274.481	1178.62
274.713	1183.62
274.945	1191.62
275.176	1221.62
275.408	1225.62
275.64	1211.62
275.872	1245.62
276.104	1285.62
276.335	1244.62
276.567	1281.62
276.799	1271.62
277.031	1315.62
277.262	1363.62
277.494	1391.62
277.726	1562.62
277.957	1844.62
278.189	2095.62
278.421	1985.62
278.652	1778.62
278.884	1693.62
279.115	1508.62
279.347	1455.62
279.579	1382.62
279.81	1388.62
280.042	1428.62
280.273	1427.62
280.505	1438.62
280.736	1508.62
280.968	1567.62
281.199	1742.62
281.431	2041.62
281.662	2097.62
281.894	1833.62
282.125	1640.62
282.356	1636.62
282.588	1633.62
282.819	1695.62
283.051	1783.62
283.282	2034.62
283.513	2488.62
283.745	3594.62
283.976	5548.62
284.207	7801.62
284.439	7185.62
284.67	4531.62
284.901	3745.62
285.132	3787.62
285.364	3557.62
285.595	2704.62
285.826	2429.62
286.057	2804.62
286.288	3864.62
286.52	5087.62
286.751	4792.62
286.982	3057.62
287.213	2327.62
287.444	1987.62
287.675	1880.62
287.906	1785.62
288.138	1763.62
288.369	1704.62
288.6	1683.62
288.831	1653.62
289.062	1679.62
289.293	1651.62
289.524	1659.62
289.755	1684.62
289.986	1746.62
290.217	1725.62
290.448	1688.62
290.679	1741.62
290.91	1758.62
291.141	1879.62
291.371	2049.62
291.602	2126.62
291.833	1913.62
292.064	1740.62
292.295	1704.62
292.526	1647.62
292.757	1618.62
292.987	1609.62
293.218	1577.62
293.449	1591.62
293.68	1603.62
293.91	1567.62
294.141	1551.62
294.372	1538.62
294.603	1539.62
294.833	1532.62
295.064	1561.62
295.295	1542.62
295.525	1573.62
295.756	1606.62
295.987	1588.62
296.217	1609.62
296.448	1603.62
296.679	1567.62
296.909	1569.62
297.14	1586.62
297.37	1596.62
297.601	1617.62
297.831	1629.62
298.062	1624.62
298.292	1651.62
298.523	1663.62
298.753	1688.62
298.984	1686.62
299.214	1744.62
299.445	1726.62
299.675	1757.62
299.905	1849.62
300.136	1925.62
300.366	2117.62
300.597	2690.62
300.827	3777.62
301.057	5150.62
301.288	5148.62
301.518	3379.62
301.748	2626.62
301.979	2314.62
302.209	2247.62
302.439	2302.62
302.669	2430.62
302.9	2909.62
303.13	4127.62
303.36	6027.62
303.59	7912.62
303.82	7033.62
304.051	4231.62
304.281	3032.62
304.511	2577.62
304.741	2347.62
304.971	2195.62
305.201	2100.62
305.431	2017.62
305.661	1992.62
305.891	1930.62
306.121	1889.62
306.352	1896.62
306.582	1843.62
306.812	1780.62
307.042	1857.62
307.272	1855.62
307.502	1792.62
307.731	1828.62
307.961	1837.62
308.191	1787.62
308.421	1815.62
308.651	1834.62
308.881	1815.62
309.111	1782.62
309.341	1844.62
309.571	1819.62
309.8	1839.62
310.03	1865.62
310.26	1906.62
310.49	1846.62
310.72	1884.62
310.949	1859.62
311.179	1894.62
311.409	1909.62
311.639	1893.62
311.868	1958.62
312.098	1973.62
312.328	1946.62
312.557	1968.62
312.787	1951.62
313.017	1961.62
313.246	1988.62
313.476	2022.62
313.706	2067.62
313.935	2205.62
314.165	2323.62
314.394	2447.62
314.624	2315.62
314.853	2199.62
315.083	2137.62
315.312	2139.62
315.542	2197.62
315.771	2226.62
316.001	2216.62
316.23	2354.62
316.46	2421.62
316.689	2659.62
316.919	3167.62
317.148	4556.62
317.377	6916.62
317.607	10098.62
317.836	10563.62
318.065	6508.62
318.295	4267.62
318.524	3429.62
318.753	2961.62
318.983	2748.62
319.212	2571.62
319.441	2557.62
319.67	2464.62
319.9	2415.62
320.129	2347.62
320.358	2348.62
320.587	2334.62
320.816	2341.62
321.046	2348.62
321.275	2349.62
321.504	2370.62
321.733	2433.62
321.962	2504.62
322.191	2522.62
322.42	2511.62
322.649	2487.62
322.878	2504.62
323.108	2524.62
323.337	2539.62
323.566	2536.62
323.795	2630.62
324.024	2643.62
324.253	2726.62
324.482	2835.62
324.71	2989.62
324.939	3204.62
325.168	3311.62
325.397	3388.62
325.626	4013.62
325.855	5579.62
326.084	8581.62
326.313	12367.62
326.542	13227.62
326.77	9015.62
326.999	6011.62
327.228	4981.62
327.457	4796.62
327.686	4848.62
327.914	5135.62
328.143	6096.62
328.372	7105.62
328.6	7775.62
328.829	6909.62
329.058	5765.62
329.287	5151.62
329.515	4623.62
329.744	4200.62
329.972	4103.62
330.201	3863.62
330.43	3765.62
330.658	3619.62
330.887	3541.62
331.115	3511.62
331.344	3485.62
331.572	3429.62
331.801	3504.62
332.03	3493.62
332.258	3579.62
332.486	3727.62
332.715	4339.62
332.943	5290.62
333.172	6549.62
333.4	6559.62
333.629	5041.62
333.857	4511.62
334.085	4507.62
334.314	4777.62
334.542	5165.62
334.771	6112.62
334.999	7366.62
335.227	9311.62
335.455	10411.62
335.684	9353.62
335.912	7703.62
336.14	6537.62
336.369	5826.62
336.597	5211.62
336.825	4785.62
337.053	4492.62
337.281	4333.62
337.51	4049.62
337.738	3900.62
337.966	3723.62
338.194	3601.62
338.422	3511.62
338.65	3413.62
338.878	3305.62
339.106	3268.62
339.334	3203.62
339.562	3109.62
339.79	3044.62
340.018	3041.62
340.246	3058.62
340.474	3065.62
340.702	3014.62
340.93	3037.62
341.158	3063.62
341.386	3009.62
341.614	2978.62
341.842	2920.62
342.07	2865.62
342.298	2783.62
342.526	2765.62
342.754	2738.62
342.981	2695.62
343.209	2677.62
343.437	2755.62
343.665	2784.62
343.893	2778.62
344.12	2763.62
344.348	2783.62
344.576	2685.62
344.804	2712.62
345.031	2603.62
345.259	2563.62
345.487	2608.62
345.714	2527.62
345.942	2536.62
346.17	2545.62
346.397	2544.62
346.625	2548.62
346.853	2508.62
347.08	2510.62
347.308	2520.62
347.535	2476.62
347.763	2557.62
347.99	2489.62
348.218	2482.62
348.445	2429.62
348.673	2415.62
348.9	2453.62
349.128	2432.62
349.355	2473.62
349.583	2404.62
349.81	2412.62
350.037	2410.62
350.265	2423.62
350.492	2421.62
350.72	2396.62
350.947	2389.62
351.174	2402.62
351.402	2363.62
351.629	2431.62
351.856	2387.62
352.083	2402.62
352.311	2363.62
352.538	2409.62
352.765	2364.62
352.992	2355.62
353.22	2384.62
353.447	2351.62
353.674	2344.62
353.901	2380.62
354.128	2392.62
354.355	2334.62
354.583	2368.62
354.81	2393.62
355.037	2413.62
355.264	2404.62
355.491	2387.62
355.718	2407.62
355.945	2433.62
356.172	2415.62
356.399	2431.62
356.626	2454.62
356.853	2498.62
357.08	2483.62
357.307	2544.62
357.534	2566.62
357.761	2550.62
357.988	2589.62
358.215	2505.62
358.441	2560.62
358.668	2521.62
358.895	2500.62
359.122	2520.62
359.349	2549.62
359.576	2563.62
359.802	2523.62
360.029	2475.62
360.256	2512.62
360.483	2586.62
360.709	2569.62
360.936	2535.62
361.163	2572.62
361.39	2515.62
361.616	2517.62
361.843	2582.62
362.07	2563.62
362.296	2601.62
362.523	2545.62
362.749	2557.62
362.976	2513.62
363.203	2516.62
363.429	2549.62
363.656	2517.62
363.882	2599.62
364.109	2556.62
364.335	2440.62
364.562	2517.62
364.788	2516.62
365.015	2603.62
365.241	2623.62
365.468	2800.62
365.694	2936.62
365.92	2832.62
366.147	2632.62
366.373	2594.62
366.599	2641.62
366.826	2598.62
367.052	2617.62
367.278	2624.62
367.505	2639.62
367.731	2601.62
367.957	2621.62
368.184	2609.62
368.41	2675.62
368.636	2619.62
368.862	2689.62
369.089	2659.62
369.315	2636.62
369.541	2609.62
369.767	2594.62
369.993	2591.62
370.219	2606.62
370.445	2598.62
370.672	2655.62
370.898	2620.62
371.124	2690.62
371.35	2724.62
371.576	2708.62
371.802	2731.62
372.028	2760.62
372.254	2755.62
372.48	2739.62
372.706	2749.62
372.932	2787.62
373.158	2806.62
373.384	2792.62
373.61	2772.62
373.835	2784.62
374.061	2799.62
374.287	2852.62
374.513	2806.62
374.739	2869.62
374.965	2920.62
375.191	2905.62
375.416	2873.62
375.642	2876.62
375.868	2873.62
376.094	2780.62
376.319	2769.62
376.545	2766.62
376.771	2770.62
376.997	2732.62
377.222	2724.62
377.448	2700.62
377.674	2678.62
377.899	2668.62
378.125	2701.62
378.35	2727.62
378.576	2709.62
378.802	2726.62
379.027	2841.62
379.253	2900.62
379.478	3021.62
379.704	3547.62
379.929	5110.62
380.155	7849.62
380.38	8523.62
380.606	5262.62
380.831	3722.62
381.057	3188.62
381.282	2961.62
381.507	2891.62
381.733	2793.62
381.958	2740.62
382.184	2700.62
382.409	2691.62
382.634	2735.62
382.86	2655.62
383.085	2680.62
383.31	2657.62
383.535	2701.62
383.761	2641.62
383.986	2651.62
384.211	2730.62
384.436	2783.62
384.662	2722.62
384.887	2764.62
385.112	2735.62
385.337	2729.62
385.562	2768.62
385.787	2769.62
386.013	2879.62
386.238	2774.62
386.463	2803.62
386.688	2743.62
386.913	2719.62
387.138	2741.62
387.363	2749.62
387.588	2739.62
387.813	2756.62
388.038	2769.62
388.263	2732.62
388.488	2754.62
388.713	2765.62
388.938	2768.62
389.163	2740.62
389.387	2733.62
389.612	2762.62
389.837	2751.62
390.062	2820.62
390.287	2776.62
390.512	2788.62
390.736	2842.62
390.961	2873.62
391.186	2886.62
391.411	2856.62
391.636	2909.62
391.86	2934.62
392.085	2891.62
392.31	2889.62
392.534	2839.62
392.759	2882.62
392.984	2810.62
393.208	2805.62
393.433	2817.62
393.658	2804.62
393.882	2756.62
394.107	2744.62
394.331	2819.62
394.556	2865.62
394.78	2828.62
395.005	2799.62
395.229	2865.62
395.454	2913.62
395.678	2894.62
395.903	2883.62
396.127	2839.62
396.352	2825.62
396.576	2845.62
396.801	2844.62
397.025	2891.62
397.249	2881.62
397.474	2918.62
397.698	2905.62
397.922	2901.62
398.147	2912.62
398.371	2979.62
398.595	3025.62
398.82	3114.62
399.044	3133.62
399.268	3365.62
399.492	3561.62
399.717	3657.62
399.941	3619.62
400.165	3488.62
400.389	3411.62
400.613	3217.62
400.837	3129.62
401.062	3109.62
401.286	3103.62
401.51	3042.62
401.734	3027.62
401.958	3063.62
402.182	3057.62
402.406	2995.62
402.63	3083.62
402.854	3091.62
403.078	3072.62
403.302	3121.62
403.526	3139.62
403.75	3168.62
403.974	3176.62
404.198	3149.62
404.422	3166.62
404.645	3186.62
404.869	3148.62
405.093	3173.62
405.317	3116.62
405.541	3167.62
405.765	3152.62
405.988	3282.62
406.212	3212.62
406.436	3230.62
406.66	3248.62
406.883	3226.62
407.107	3347.62
407.331	3416.62
407.555	3470.62
407.778	3395.62
408.002	3375.62
408.226	3391.62
408.449	3375.62
408.673	3327.62
408.896	3211.62
409.12	3202.62
409.344	3245.62
409.567	3179.62
409.791	3192.62
410.014	3172.62
410.238	3103.62
410.461	3175.62
410.685	3126.62
410.908	3095.62
411.132	3057.62
411.355	2988.62
411.578	3049.62
411.802	3020.62
412.025	2998.62
412.249	3029.62
412.472	3037.62
412.695	3012.62
412.919	2945.62
413.142	2943.62
413.365	3018.62
413.589	2981.62
413.812	2951.62
414.035	2986.62
414.258	3005.62
414.482	3017.62
414.705	3003.62
414.928	2948.62
415.151	2956.62
415.374	2996.62
415.597	2885.62
415.821	2888.62
416.044	2831.62
416.267	2843.62
416.49	2870.62
416.713	2845.62
416.936	2907.62
417.159	2825.62
417.382	2841.62
417.605	2826.62
417.828	2823.62
418.051	2899.62
418.274	2907.62
418.497	2917.62
418.72	2978.62
418.943	2896.62
419.166	3068.62
419.389	3178.62
419.611	3135.62
419.834	3055.62
420.057	2975.62
420.28	2921.62
420.503	2838.62
420.726	2879.62
420.948	2856.62
421.171	2871.62
421.394	2841.62
421.617	2789.62
421.839	2901.62
422.062	2910.62
422.285	2809.62
422.507	2877.62
422.73	2906.62
422.953	2920.62
423.175	2939.62
423.398	2964.62
423.621	2857.62
423.843	2891.62
424.066	2893.62
424.288	2857.62
424.511	2851.62
424.733	2889.62
424.956	2793.62
425.178	2851.62
425.401	2830.62
425.623	2854.62
425.846	2747.62
426.068	2759.62
426.291	2780.62
426.513	2744.62
426.735	2716.62
426.958	2720.62
427.18	2695.62
427.402	2686.62
427.625	2745.62
427.847	2641.62
428.069	2681.62
428.292	2727.62
428.514	2632.62
428.736	2642.62
428.958	2681.62
429.181	2623.62
429.403	2621.62
429.625	2661.62
429.847	2632.62
430.069	2713.62
430.292	2773.62
430.514	2869.62
430.736	2841.62
430.958	2686.62
431.18	2644.62
431.402	2630.62
431.624	2618.62
431.846	2600.62
432.068	2632.62
432.29	2571.62
432.512	2586.62
432.734	2639.62
432.956	2626.62
433.178	2653.62
433.4	2625.62
433.622	2661.62
433.844	2691.62
434.066	2625.62
434.287	2675.62
434.509	2695.62
434.731	2719.62
434.953	2748.62
435.175	2725.62
435.397	2746.62
435.618	2655.62
435.84	2624.62
436.062	2576.62
436.284	2587.62
436.505	2599.62
436.727	2603.62
436.949	2603.62
437.17	2586.62
437.392	2558.62
437.614	2544.62
437.835	2540.62
438.057	2507.62
438.278	2497.62
438.5	2547.62
438.721	2616.62
438.943	2689.62
439.165	2688.62
439.386	2711.62
439.608	2691.62
439.829	2740.62
440.05	2795.62
440.272	2804.62
440.493	2804.62
440.715	2706.62
440.936	2660.62
441.158	2720.62
441.379	2790.62
441.6	2869.62
441.822	2950.62
442.043	3050.62
442.264	3075.62
442.486	3008.62
442.707	2872.62
442.928	2821.62
443.149	2741.62
443.371	2768.62
443.592	2821.62
443.813	2836.62
444.034	2829.62
444.255	2889.62
444.476	2903.62
444.698	2938.62
444.919	2993.62
445.14	3103.62
445.361	2938.62
445.582	2894.62
445.803	2819.62
446.024	2847.62
446.245	2780.62
446.466	2803.62
446.687	2722.62
446.908	2733.62
447.129	2676.62
447.35	2656.62
447.571	2620.62
447.792	2619.62
448.013	2637.62
448.234	2595.62
448.455	2587.62
448.675	2606.62
448.896	2687.62
449.117	2760.62
449.338	2957.62
449.559	3029.62
449.779	2787.62
450	2616.62
450.221	2550.62
450.442	2567.62
450.662	2545.62
450.883	2476.62
451.104	2505.62
451.324	2528.62
451.545	2513.62
451.766	2549.62
451.986	2587.62
452.207	2847.62
452.428	3641.62
452.648	5475.62
452.869	4575.62
453.089	3164.62
453.31	2965.62
453.53	3015.62
453.751	3004.62
453.971	3180.62
454.192	3083.62
454.412	2731.62
454.633	2548.62
454.853	2515.62
455.073	2468.62
455.294	2481.62
455.514	2433.62
455.734	2449.62
455.955	2361.62
456.175	2406.62
456.395	2401.62
456.616	2411.62
456.836	2480.62
457.056	2514.62
457.276	2440.62
457.497	2610.62
457.717	2653.62
457.937	2579.62
458.157	2571.62
458.377	2527.62
458.598	2587.62
458.818	2604.62
459.038	2607.62
459.258	2592.62
459.478	2638.62
459.698	2664.62
459.918	2653.62
460.138	2725.62
460.358	2801.62
460.578	2855.62
460.798	2846.62
461.018	2882.62
461.238	2834.62
461.458	2820.62
461.678	2947.62
461.898	2990.62
462.118	3001.62
462.338	3062.62
462.558	3040.62
462.777	3136.62
462.997	3295.62
463.217	3404.62
463.437	3466.62
463.657	3526.62
463.876	3496.62
464.096	3347.62
464.316	3175.62
464.536	3155.62
464.755	3073.62
464.975	3005.62
465.195	2843.62
465.414	2841.62
465.634	2687.62
465.854	2741.62
466.073	2697.62
466.293	2707.62
466.512	2611.62
466.732	2684.62
466.951	2784.62
467.171	2994.62
467.391	2913.62
467.61	2699.62
467.829	2601.62
468.049	2565.62
468.268	2592.62
468.488	2534.62
468.707	2577.62
468.927	2576.62
469.146	2583.62
469.365	2597.62
469.585	2609.62
469.804	2634.62
470.023	2758.62
470.243	2794.62
470.462	2867.62
470.681	2984.62
470.901	3295.62
471.12	3713.62
471.339	3675.62
471.558	3152.62
471.777	2852.62
471.997	2733.62
472.216	2671.62
472.435	2647.62
472.654	2619.62
472.873	2621.62
473.092	2592.62
473.311	2633.62
473.53	2587.62
473.749	2660.62
473.968	2771.62
474.187	2627.62
474.406	2619.62
474.625	2633.62
474.844	2610.62
475.063	2596.62
475.282	2607.62
475.501	2595.62
475.72	2623.62
475.939	2641.62
476.158	2737.62
476.377	2776.62
476.596	2697.62
476.814	2737.62
477.033	2755.62
477.252	2790.62
477.471	2823.62
477.69	2898.62
477.908	2906.62
478.127	2945.62
478.346	2973.62
478.564	2991.62
478.783	3016.62
479.002	3072.62
479.22	3076.62
479.439	3106.62
479.658	3112.62
479.876	3129.62
480.095	3134.62
480.313	3188.62
480.532	3260.62
480.751	3203.62
480.969	3173.62
481.188	3121.62
481.406	3147.62
481.624	3132.62
481.843	3152.62
482.061	3163.62
482.28	3136.62
482.498	3085.62
482.717	3092.62
482.935	3177.62
483.153	3222.62
483.372	3243.62
483.59	3260.62
483.808	3274.62
484.027	3403.62
484.245	3604.62
484.463	4041.62
484.681	4393.62
484.9	4083.62
485.118	3820.62
485.336	3747.62
485.554	3816.62
485.772	3947.62
485.99	4545.62
486.209	4835.62
486.427	4041.62
486.645	3711.62
486.863	3533.62
487.081	3467.62
487.299	3387.62
487.517	3374.62
487.735	3382.62
