Data from SnStandardFlinnAPT0064_QswitchEnergy10_LIBS07252019.E.O._I.C._HRD10591_15-27-00-981.txt Node
Date: Thu Jul 25 15:27:00 EDT 2019
User: cochatt
Spectrometer: HR+D1059
Trigger mode: 1
Integration Time (sec): 1.000000E-1
Scans to average: 1
Electric dark correction enabled: true
Nonlinearity correction enabled: false
Boxcar width: 0
XAxis mode: Wavelengths
Number of Pixels in Spectrum: 2048
>>>>>Begin Spectral Data<<<<<
223.165	-20.44
223.4	-20.44
223.635	-20.44
223.869	-20.44
224.104	-31.44
224.338	-22.44
224.573	-22.44
224.808	-16.44
225.042	5.56
225.277	16.56
225.511	-3.44
225.746	2.56
225.98	1.56
226.215	14.56
226.449	23.56
226.683	9.56
226.918	31.56
227.152	31.56
227.387	39.56
227.621	48.56
227.856	52.56
228.09	41.56
228.324	49.56
228.559	59.56
228.793	42.56
229.027	67.56
229.262	86.56
229.496	73.56
229.73	68.56
229.964	72.56
230.199	67.56
230.433	65.56
230.667	77.56
230.901	61.56
231.136	73.56
231.37	91.56
231.604	81.56
231.838	107.56
232.072	111.56
232.306	127.56
232.541	89.56
232.775	93.56
233.009	96.56
233.243	89.56
233.477	67.56
233.711	74.56
233.945	108.56
234.179	97.56
234.413	83.56
234.647	90.56
234.881	83.56
235.115	85.56
235.349	97.56
235.583	104.56
235.817	111.56
236.051	135.56
236.285	88.56
236.519	92.56
236.753	79.56
236.987	75.56
237.221	68.56
237.455	59.56
237.689	79.56
237.922	81.56
238.156	78.56
238.39	92.56
238.624	82.56
238.858	67.56
239.091	81.56
239.325	79.56
239.559	80.56
239.793	75.56
240.027	90.56
240.26	81.56
240.494	75.56
240.728	75.56
240.961	81.56
241.195	84.56
241.429	82.56
241.662	73.56
241.896	87.56
242.13	89.56
242.363	121.56
242.597	145.56
242.83	138.56
243.064	133.56
243.298	154.56
243.531	141.56
243.765	101.56
243.998	87.56
244.232	89.56
244.465	84.56
244.699	82.56
244.932	87.56
245.166	77.56
245.399	81.56
245.633	82.56
245.866	87.56
246.099	84.56
246.333	84.56
246.566	79.56
246.8	77.56
247.033	70.56
247.266	83.56
247.5	83.56
247.733	76.56
247.966	89.56
248.2	96.56
248.433	104.56
248.666	115.56
248.899	117.56
249.133	89.56
249.366	85.56
249.599	111.56
249.832	117.56
250.066	119.56
250.299	94.56
250.532	85.56
250.765	81.56
250.998	77.56
251.231	92.56
251.465	91.56
251.698	75.56
251.931	75.56
252.164	78.56
252.397	81.56
252.63	102.56
252.863	102.56
253.096	72.56
253.329	104.56
253.562	84.56
253.795	79.56
254.028	88.56
254.261	96.56
254.494	99.56
254.727	98.56
254.96	131.56
255.193	127.56
255.426	115.56
255.659	94.56
255.892	102.56
256.124	88.56
256.357	88.56
256.59	101.56
256.823	92.56
257.056	119.56
257.289	143.56
257.521	150.56
257.754	135.56
257.987	102.56
258.22	95.56
258.452	95.56
258.685	92.56
258.918	85.56
259.151	86.56
259.383	100.56
259.616	119.56
259.849	153.56
260.081	105.56
260.314	82.56
260.547	77.56
260.779	79.56
261.012	87.56
261.244	86.56
261.477	80.56
261.71	82.56
261.942	77.56
262.175	76.56
262.407	95.56
262.64	95.56
262.872	87.56
263.105	74.56
263.337	81.56
263.57	91.56
263.802	80.56
264.035	104.56
264.267	86.56
264.499	84.56
264.732	73.56
264.964	88.56
265.197	83.56
265.429	79.56
265.661	88.56
265.894	86.56
266.126	119.56
266.358	142.56
266.591	139.56
266.823	108.56
267.055	79.56
267.287	104.56
267.52	84.56
267.752	81.56
267.984	105.56
268.216	101.56
268.448	84.56
268.681	107.56
268.913	71.56
269.145	93.56
269.377	106.56
269.609	96.56
269.841	104.56
270.073	91.56
270.306	127.56
270.538	201.56
270.77	317.56
271.002	359.56
271.234	187.56
271.466	110.56
271.698	82.56
271.93	100.56
272.162	90.56
272.394	92.56
272.626	76.56
272.858	95.56
273.09	88.56
273.322	79.56
273.553	87.56
273.785	75.56
274.017	84.56
274.249	79.56
274.481	98.56
274.713	87.56
274.945	85.56
275.176	96.56
275.408	101.56
275.64	72.56
275.872	95.56
276.104	97.56
276.335	110.56
276.567	100.56
276.799	93.56
277.031	100.56
277.262	102.56
277.494	101.56
277.726	124.56
277.957	179.56
278.189	228.56
278.421	208.56
278.652	165.56
278.884	170.56
279.115	150.56
279.347	115.56
279.579	103.56
279.81	84.56
280.042	99.56
280.273	88.56
280.505	98.56
280.736	107.56
280.968	106.56
281.199	151.56
281.431	235.56
281.662	236.56
281.894	172.56
282.125	116.56
282.356	115.56
282.588	101.56
282.819	106.56
283.051	109.56
283.282	131.56
283.513	177.56
283.745	296.56
283.976	513.56
284.207	744.56
284.439	561.56
284.67	244.56
284.901	251.56
285.132	312.56
285.364	374.56
285.595	210.56
285.826	160.56
286.057	230.56
286.288	369.56
286.52	588.56
286.751	487.56
286.982	177.56
287.213	109.56
287.444	107.56
287.675	108.56
287.906	89.56
288.138	86.56
288.369	97.56
288.6	106.56
288.831	97.56
289.062	92.56
289.293	106.56
289.524	93.56
289.755	83.56
289.986	101.56
290.217	106.56
290.448	93.56
290.679	106.56
290.91	115.56
291.141	139.56
291.371	193.56
291.602	240.56
291.833	180.56
292.064	118.56
292.295	104.56
292.526	92.56
292.757	101.56
292.987	94.56
293.218	101.56
293.449	97.56
293.68	87.56
293.91	89.56
294.141	96.56
294.372	104.56
294.603	92.56
294.833	94.56
295.064	92.56
295.295	93.56
295.525	100.56
295.756	91.56
295.987	90.56
296.217	88.56
296.448	91.56
296.679	113.56
296.909	89.56
297.14	88.56
297.37	105.56
297.601	112.56
297.831	101.56
298.062	95.56
298.292	91.56
298.523	93.56
298.753	80.56
298.984	100.56
299.214	103.56
299.445	105.56
299.675	110.56
299.905	121.56
300.136	115.56
300.366	155.56
300.597	243.56
300.827	426.56
301.057	655.56
301.288	572.56
301.518	225.56
301.748	147.56
301.979	133.56
302.209	118.56
302.439	133.56
302.669	160.56
302.9	247.56
303.13	447.56
303.36	787.56
303.59	1085.56
303.82	773.56
304.051	263.56
304.281	141.56
304.511	133.56
304.741	116.56
304.971	109.56
305.201	118.56
305.431	120.56
305.661	83.56
305.891	102.56
306.121	111.56
306.352	103.56
306.582	100.56
306.812	115.56
307.042	111.56
307.272	116.56
307.502	108.56
307.731	109.56
307.961	119.56
308.191	101.56
308.421	98.56
308.651	100.56
308.881	108.56
309.111	99.56
309.341	105.56
309.571	99.56
309.8	96.56
310.03	104.56
310.26	101.56
310.49	99.56
310.72	98.56
310.949	111.56
311.179	100.56
311.409	87.56
311.639	93.56
311.868	105.56
312.098	111.56
312.328	117.56
312.557	98.56
312.787	113.56
313.017	115.56
313.246	111.56
313.476	115.56
313.706	117.56
313.935	141.56
314.165	175.56
314.394	188.56
314.624	163.56
314.853	117.56
315.083	110.56
315.312	129.56
315.542	118.56
315.771	117.56
316.001	119.56
316.23	127.56
316.46	138.56
316.689	172.56
316.919	235.56
317.148	457.56
317.377	864.56
317.607	1391.56
317.836	1313.56
318.065	499.56
318.295	225.56
318.524	160.56
318.753	116.56
318.983	121.56
319.212	123.56
319.441	116.56
319.67	105.56
319.9	123.56
320.129	116.56
320.358	117.56
320.587	120.56
320.816	138.56
321.046	108.56
321.275	130.56
321.504	122.56
321.733	131.56
321.962	135.56
322.191	154.56
322.42	122.56
322.649	115.56
322.878	108.56
323.108	111.56
323.337	120.56
323.566	116.56
323.795	131.56
324.024	127.56
324.253	130.56
324.482	164.56
324.71	219.56
324.939	280.56
325.168	221.56
325.397	189.56
325.626	234.56
325.855	449.56
326.084	864.56
326.313	1483.56
326.542	1497.56
326.77	563.56
326.999	237.56
327.228	200.56
327.457	218.56
327.686	191.56
327.914	142.56
328.143	150.56
328.372	130.56
328.6	125.56
328.829	115.56
329.058	125.56
329.287	120.56
329.515	113.56
329.744	112.56
329.972	113.56
330.201	114.56
330.43	118.56
330.658	109.56
330.887	106.56
331.115	107.56
331.344	101.56
331.572	116.56
331.801	105.56
332.03	117.56
332.258	129.56
332.486	178.56
332.715	257.56
332.943	475.56
333.172	709.56
333.4	613.56
333.629	226.56
333.857	141.56
334.085	127.56
334.314	116.56
334.542	122.56
334.771	124.56
334.999	120.56
335.227	114.56
335.455	113.56
335.684	139.56
335.912	120.56
336.14	99.56
336.369	113.56
336.597	101.56
336.825	114.56
337.053	108.56
337.281	118.56
337.51	113.56
337.738	106.56
337.966	111.56
338.194	118.56
338.422	119.56
338.65	115.56
338.878	114.56
339.106	108.56
339.334	120.56
339.562	105.56
339.79	111.56
340.018	119.56
340.246	109.56
340.474	113.56
340.702	99.56
340.93	117.56
341.158	108.56
341.386	105.56
341.614	111.56
341.842	115.56
342.07	117.56
342.298	125.56
342.526	120.56
342.754	113.56
342.981	116.56
343.209	97.56
343.437	103.56
343.665	93.56
343.893	116.56
344.12	115.56
344.348	112.56
344.576	126.56
344.804	102.56
345.031	111.56
345.259	113.56
345.487	109.56
345.714	115.56
345.942	94.56
346.17	103.56
346.397	115.56
346.625	120.56
346.853	95.56
347.08	80.56
347.308	117.56
347.535	108.56
347.763	103.56
347.99	100.56
348.218	103.56
348.445	106.56
348.673	117.56
348.9	117.56
349.128	111.56
349.355	122.56
349.583	113.56
349.81	106.56
350.037	99.56
350.265	105.56
350.492	95.56
350.72	116.56
350.947	123.56
351.174	115.56
351.402	122.56
351.629	127.56
351.856	100.56
352.083	95.56
352.311	120.56
352.538	108.56
352.765	107.56
352.992	113.56
353.22	94.56
353.447	95.56
353.674	91.56
353.901	116.56
354.128	117.56
354.355	100.56
354.583	102.56
354.81	105.56
355.037	114.56
355.264	116.56
355.491	92.56
355.718	109.56
355.945	91.56
356.172	89.56
356.399	91.56
356.626	99.56
356.853	113.56
357.08	113.56
357.307	89.56
357.534	105.56
357.761	107.56
357.988	97.56
358.215	102.56
358.441	106.56
358.668	98.56
358.895	107.56
359.122	113.56
359.349	118.56
359.576	104.56
359.802	99.56
360.029	95.56
360.256	103.56
360.483	98.56
360.709	124.56
360.936	123.56
361.163	100.56
361.39	105.56
361.616	99.56
361.843	120.56
362.07	121.56
362.296	118.56
362.523	111.56
362.749	108.56
362.976	95.56
363.203	112.56
363.429	111.56
363.656	100.56
363.882	111.56
364.109	104.56
364.335	113.56
364.562	108.56
364.788	92.56
365.015	119.56
365.241	123.56
365.468	176.56
365.694	215.56
365.92	185.56
366.147	106.56
366.373	102.56
366.599	98.56
366.826	109.56
367.052	105.56
367.278	116.56
367.505	113.56
367.731	101.56
367.957	99.56
368.184	100.56
368.41	104.56
368.636	113.56
368.862	101.56
369.089	97.56
369.315	109.56
369.541	105.56
369.767	99.56
369.993	109.56
370.219	107.56
370.445	115.56
370.672	114.56
370.898	101.56
371.124	97.56
371.35	104.56
371.576	116.56
371.802	100.56
372.028	111.56
372.254	98.56
372.48	108.56
372.706	120.56
372.932	98.56
373.158	113.56
373.384	119.56
373.61	108.56
373.835	95.56
374.061	115.56
374.287	113.56
374.513	100.56
374.739	107.56
374.965	120.56
375.191	96.56
375.416	106.56
375.642	99.56
375.868	109.56
376.094	97.56
376.319	110.56
376.545	100.56
376.771	113.56
376.997	102.56
377.222	102.56
377.448	98.56
377.674	85.56
377.899	87.56
378.125	112.56
378.35	113.56
378.576	123.56
378.802	115.56
379.027	117.56
379.253	133.56
379.478	160.56
379.704	285.56
379.929	680.56
380.155	1443.56
380.38	1537.56
380.606	492.56
380.831	193.56
381.057	117.56
381.282	132.56
381.507	105.56
381.733	103.56
381.958	101.56
382.184	102.56
382.409	99.56
382.634	116.56
382.86	100.56
383.085	103.56
383.31	101.56
383.535	106.56
383.761	101.56
383.986	97.56
384.211	105.56
384.436	96.56
384.662	99.56
384.887	114.56
385.112	108.56
385.337	93.56
385.562	103.56
385.787	90.56
386.013	105.56
386.238	97.56
386.463	89.56
386.688	93.56
386.913	99.56
387.138	91.56
387.363	114.56
387.588	103.56
387.813	101.56
388.038	87.56
388.263	117.56
388.488	97.56
388.713	99.56
388.938	111.56
389.163	119.56
389.387	108.56
389.612	100.56
389.837	96.56
390.062	102.56
390.287	101.56
390.512	104.56
390.736	107.56
390.961	105.56
391.186	114.56
391.411	95.56
391.636	93.56
391.86	94.56
392.085	90.56
392.31	98.56
392.534	90.56
392.759	91.56
392.984	97.56
393.208	104.56
393.433	123.56
393.658	123.56
393.882	100.56
394.107	82.56
394.331	90.56
394.556	104.56
394.78	88.56
395.005	91.56
395.229	108.56
395.454	106.56
395.678	96.56
395.903	112.56
396.127	87.56
396.352	99.56
396.576	103.56
396.801	127.56
397.025	125.56
397.249	109.56
397.474	89.56
397.698	104.56
397.922	90.56
398.147	95.56
398.371	99.56
398.595	106.56
398.82	98.56
399.044	103.56
399.268	98.56
399.492	96.56
399.717	92.56
399.941	101.56
400.165	97.56
400.389	86.56
400.613	102.56
400.837	96.56
401.062	104.56
401.286	97.56
401.51	103.56
401.734	100.56
401.958	95.56
402.182	100.56
402.406	108.56
402.63	92.56
402.854	98.56
403.078	97.56
403.302	114.56
403.526	96.56
403.75	82.56
403.974	88.56
404.198	91.56
404.422	91.56
404.645	105.56
404.869	84.56
405.093	106.56
405.317	103.56
405.541	96.56
405.765	115.56
405.988	126.56
406.212	108.56
406.436	87.56
406.66	100.56
406.883	98.56
407.107	100.56
407.331	93.56
407.555	107.56
407.778	89.56
408.002	97.56
408.226	86.56
408.449	91.56
408.673	115.56
408.896	99.56
409.12	84.56
409.344	88.56
409.567	82.56
409.791	99.56
410.014	113.56
410.238	99.56
410.461	99.56
410.685	85.56
410.908	92.56
411.132	111.56
411.355	103.56
411.578	101.56
411.802	83.56
412.025	93.56
412.249	89.56
412.472	113.56
412.695	92.56
412.919	95.56
413.142	87.56
413.365	101.56
413.589	99.56
413.812	93.56
414.035	97.56
414.258	103.56
414.482	103.56
414.705	103.56
414.928	101.56
415.151	98.56
415.374	88.56
415.597	88.56
415.821	90.56
416.044	101.56
416.267	101.56
416.49	100.56
416.713	101.56
416.936	91.56
417.159	91.56
417.382	88.56
417.605	95.56
417.828	87.56
418.051	104.56
418.274	90.56
418.497	96.56
418.72	97.56
418.943	92.56
419.166	113.56
419.389	107.56
419.611	105.56
419.834	114.56
420.057	95.56
420.28	98.56
420.503	112.56
420.726	88.56
420.948	95.56
421.171	81.56
421.394	85.56
421.617	99.56
421.839	94.56
422.062	111.56
422.285	95.56
422.507	102.56
422.73	103.56
422.953	118.56
423.175	115.56
423.398	96.56
423.621	92.56
423.843	86.56
424.066	97.56
424.288	85.56
424.511	103.56
424.733	94.56
424.956	95.56
425.178	99.56
425.401	99.56
425.623	98.56
425.846	91.56
426.068	80.56
426.291	93.56
426.513	85.56
426.735	105.56
426.958	97.56
427.18	92.56
427.402	95.56
427.625	92.56
427.847	91.56
428.069	93.56
428.292	97.56
428.514	103.56
428.736	98.56
428.958	99.56
429.181	89.56
429.403	99.56
429.625	89.56
429.847	92.56
430.069	103.56
430.292	120.56
430.514	98.56
430.736	90.56
430.958	96.56
431.18	91.56
431.402	93.56
431.624	94.56
431.846	97.56
432.068	83.56
432.29	96.56
432.512	93.56
432.734	91.56
432.956	99.56
433.178	101.56
433.4	83.56
433.622	92.56
433.844	94.56
434.066	92.56
434.287	91.56
434.509	92.56
434.731	91.56
434.953	98.56
435.175	99.56
435.397	88.56
435.618	93.56
435.84	107.56
436.062	88.56
436.284	101.56
436.505	84.56
436.727	94.56
436.949	84.56
437.17	95.56
437.392	88.56
437.614	92.56
437.835	84.56
438.057	108.56
438.278	96.56
438.5	95.56
438.721	83.56
438.943	108.56
439.165	113.56
439.386	113.56
439.608	97.56
439.829	90.56
440.05	111.56
440.272	115.56
440.493	94.56
440.715	96.56
440.936	86.56
441.158	104.56
441.379	96.56
441.6	91.56
441.822	92.56
442.043	105.56
442.264	139.56
442.486	128.56
442.707	106.56
442.928	96.56
443.149	91.56
443.371	108.56
443.592	105.56
443.813	107.56
444.034	93.56
444.255	93.56
444.476	90.56
444.698	94.56
444.919	92.56
445.14	212.56
445.361	132.56
445.582	93.56
445.803	98.56
446.024	100.56
446.245	89.56
446.466	99.56
446.687	118.56
446.908	103.56
447.129	103.56
447.35	77.56
447.571	88.56
447.792	107.56
448.013	88.56
448.234	98.56
448.455	101.56
448.675	114.56
448.896	107.56
449.117	107.56
449.338	134.56
449.559	159.56
449.779	125.56
450	117.56
450.221	100.56
450.442	119.56
450.662	97.56
450.883	117.56
451.104	118.56
451.324	104.56
451.545	100.56
451.766	100.56
451.986	124.56
452.207	202.56
452.428	485.56
452.648	1151.56
452.869	674.56
453.089	190.56
453.31	123.56
453.53	110.56
453.751	149.56
453.971	154.56
454.192	140.56
454.412	106.56
454.633	100.56
454.853	90.56
455.073	90.56
455.294	89.56
455.514	77.56
455.734	92.56
455.955	82.56
456.175	90.56
456.395	100.56
456.616	91.56
456.836	87.56
457.056	84.56
457.276	95.56
457.497	90.56
457.717	123.56
457.937	96.56
458.157	91.56
458.377	105.56
458.598	94.56
458.818	92.56
459.038	96.56
459.258	101.56
459.478	97.56
459.698	103.56
459.918	91.56
460.138	96.56
460.358	89.56
460.578	90.56
460.798	94.56
461.018	89.56
461.238	95.56
461.458	88.56
461.678	87.56
461.898	97.56
462.118	101.56
462.338	93.56
462.558	89.56
462.777	85.56
462.997	99.56
463.217	109.56
463.437	129.56
463.657	186.56
463.876	169.56
464.096	123.56
464.316	105.56
464.536	89.56
464.755	93.56
464.975	101.56
465.195	80.56
465.414	109.56
465.634	87.56
465.854	93.56
466.073	87.56
466.293	83.56
466.512	92.56
466.732	87.56
466.951	106.56
467.171	141.56
467.391	123.56
467.61	114.56
467.829	96.56
468.049	90.56
468.268	105.56
468.488	102.56
468.707	103.56
468.927	96.56
469.146	108.56
469.365	94.56
469.585	89.56
469.804	103.56
470.023	102.56
470.243	117.56
470.462	111.56
470.681	97.56
470.901	119.56
471.12	180.56
471.339	215.56
471.558	122.56
471.777	109.56
471.997	91.56
472.216	89.56
472.435	103.56
472.654	83.56
472.873	95.56
473.092	99.56
473.311	106.56
473.53	99.56
473.749	111.56
473.968	100.56
474.187	98.56
474.406	89.56
474.625	101.56
474.844	100.56
475.063	97.56
475.282	99.56
475.501	86.56
475.72	95.56
475.939	99.56
476.158	95.56
476.377	116.56
476.596	105.56
476.814	103.56
477.033	97.56
477.252	96.56
477.471	84.56
477.69	105.56
477.908	103.56
478.127	90.56
478.346	83.56
478.564	83.56
478.783	88.56
479.002	96.56
479.22	94.56
479.439	84.56
479.658	103.56
479.876	95.56
480.095	83.56
480.313	99.56
480.532	91.56
480.751	85.56
480.969	95.56
481.188	96.56
481.406	107.56
481.624	105.56
481.843	103.56
482.061	122.56
482.28	85.56
482.498	94.56
482.717	97.56
482.935	109.56
483.153	92.56
483.372	95.56
483.59	106.56
483.808	107.56
484.027	105.56
484.245	119.56
484.463	168.56
484.681	230.56
484.9	149.56
485.118	107.56
485.336	109.56
485.554	111.56
485.772	118.56
485.99	182.56
486.209	251.56
486.427	160.56
486.645	102.56
486.863	105.56
487.081	98.56
487.299	105.56
487.517	103.56
487.735	89.56
487.953	81.56
488.171	97.56
488.389	88.56
488.607	83.56
488.825	111.56
489.043	90.56
489.261	86.56
489.479	106.56
489.696	98.56
489.914	107.56
490.132	101.56
490.35	87.56
490.568	97.56
490.786	100.56
491.003	100.56
491.221	109.56
491.439	114.56
491.657	115.56
491.874	96.56
492.092	81.56
492.31	110.56
492.527	97.56
492.745	111.56
492.963	101.56
493.18	88.56
493.398	117.56
493.615	99.56
493.833	92.56
494.05	103.56
494.268	101.56
494.485	92.56
494.703	99.56
494.92	113.56
495.138	116.56
495.355	113.56
495.573	99.56
495.79	77.56
496.008	111.56
496.225	107.56
496.442	103.56
496.66	116.56
496.877	156.56
497.094	149.56
497.312	116.56
497.529	119.56
497.746	95.56
497.963	110.56
498.181	103.56
498.398	91.56
498.615	103.56
498.832	102.56
499.049	106.56
499.267	124.56
499.484	153.56
499.701	122.56
499.918	95.56
500.135	100.56
500.352	82.56
500.569	103.56
500.786	98.56
501.003	94.56
501.22	88.56
501.437	105.56
501.654	102.56
501.871	98.56
502.088	111.56
502.305	94.56
502.522	93.56
502.739	83.56
502.956	96.56
503.172	99.56
503.389	100.56
503.606	86.56
503.823	101.56
504.04	99.56
504.256	107.56
504.473	102.56
504.69	108.56
504.907	107.56
505.123	112.56
505.34	99.56
505.557	95.56
505.773	103.56
505.99	98.56
506.207	85.56
506.423	108.56
506.64	89.56
506.856	99.56
507.073	104.56
507.289	109.56
507.506	102.56
507.722	98.56
507.939	122.56
508.155	115.56
508.372	119.56
508.588	98.56
508.805	90.56
509.021	104.56
509.238	104.56
