Data from SnStandardFlinnAPT0064_LampEnergy5.5_LIBS07252019.E.O._I.C._HRD10591_15-16-38-492.txt Node
Date: Thu Jul 25 15:16:38 EDT 2019
User: cochatt
Spectrometer: HR+D1059
Trigger mode: 1
Integration Time (sec): 1.000000E-1
Scans to average: 1
Electric dark correction enabled: true
Nonlinearity correction enabled: false
Boxcar width: 0
XAxis mode: Wavelengths
Number of Pixels in Spectrum: 2048
>>>>>Begin Spectral Data<<<<<
223.165	-14.81
223.4	-14.81
223.635	-14.81
223.869	-2.81
224.104	-25.81
224.338	-22.81
224.573	-6.81
224.808	-8.81
225.042	-11.81
225.277	3.19
225.511	-0.81
225.746	-6.81
225.98	1.19
226.215	0.19
226.449	23.19
226.683	33.19
226.918	10.19
227.152	30.19
227.387	49.19
227.621	31.19
227.856	19.19
228.09	53.19
228.324	43.19
228.559	56.19
228.793	94.19
229.027	157.19
229.262	163.19
229.496	154.19
229.73	148.19
229.964	150.19
230.199	161.19
230.433	153.19
230.667	165.19
230.901	160.19
231.136	166.19
231.37	183.19
231.604	202.19
231.838	195.19
232.072	267.19
232.306	264.19
232.541	224.19
232.775	208.19
233.009	209.19
233.243	215.19
233.477	224.19
233.711	244.19
233.945	267.19
234.179	227.19
234.413	231.19
234.647	229.19
234.881	236.19
235.115	241.19
235.349	274.19
235.583	354.19
235.817	431.19
236.051	441.19
236.285	303.19
236.519	263.19
236.753	243.19
236.987	229.19
237.221	262.19
237.455	248.19
237.689	227.19
237.922	224.19
238.156	223.19
238.39	225.19
238.624	218.19
238.858	231.19
239.091	224.19
239.325	229.19
239.559	222.19
239.793	258.19
240.027	246.19
240.26	241.19
240.494	251.19
240.728	294.19
240.961	276.19
241.195	283.19
241.429	318.19
241.662	326.19
241.896	338.19
242.13	404.19
242.363	515.19
242.597	671.19
242.83	635.19
243.064	622.19
243.298	727.19
243.531	638.19
243.765	408.19
243.998	357.19
244.232	303.19
244.465	298.19
244.699	299.19
244.932	297.19
245.166	307.19
245.399	307.19
245.633	307.19
245.866	297.19
246.099	291.19
246.333	300.19
246.566	304.19
246.8	290.19
247.033	291.19
247.266	292.19
247.5	303.19
247.733	297.19
247.966	313.19
248.2	326.19
248.433	380.19
248.666	431.19
248.899	414.19
249.133	373.19
249.366	369.19
249.599	396.19
249.832	408.19
250.066	450.19
250.299	391.19
250.532	354.19
250.765	345.19
250.998	315.19
251.231	331.19
251.465	317.19
251.698	325.19
251.931	344.19
252.164	334.19
252.397	351.19
252.63	355.19
252.863	355.19
253.096	341.19
253.329	339.19
253.562	348.19
253.795	317.19
254.028	352.19
254.261	359.19
254.494	397.19
254.727	431.19
254.96	515.19
255.193	503.19
255.426	408.19
255.659	378.19
255.892	380.19
256.124	377.19
256.357	391.19
256.59	406.19
256.823	420.19
257.056	475.19
257.289	544.19
257.521	587.19
257.754	493.19
257.987	423.19
258.22	395.19
258.452	398.19
258.685	426.19
258.918	426.19
259.151	437.19
259.383	453.19
259.616	507.19
259.849	513.19
260.081	470.19
260.314	447.19
260.547	417.19
260.779	416.19
261.012	430.19
261.244	435.19
261.477	426.19
261.71	437.19
261.942	450.19
262.175	449.19
262.407	449.19
262.64	474.19
262.872	482.19
263.105	536.19
263.337	518.19
263.57	567.19
263.802	545.19
264.035	573.19
264.267	573.19
264.499	621.19
264.732	653.19
264.964	641.19
265.197	609.19
265.429	644.19
265.661	641.19
265.894	659.19
266.126	775.19
266.358	833.19
266.591	806.19
266.823	705.19
267.055	659.19
267.287	615.19
267.52	577.19
267.752	578.19
267.984	583.19
268.216	559.19
268.448	534.19
268.681	538.19
268.913	533.19
269.145	524.19
269.377	538.19
269.609	552.19
269.841	553.19
270.073	585.19
270.306	674.19
270.538	885.19
270.77	1285.19
271.002	1568.19
271.234	1113.19
271.466	760.19
271.698	622.19
271.93	592.19
272.162	542.19
272.394	553.19
272.626	554.19
272.858	521.19
273.09	545.19
273.322	530.19
273.553	544.19
273.785	550.19
274.017	523.19
274.249	523.19
274.481	546.19
274.713	529.19
274.945	523.19
275.176	543.19
275.408	531.19
275.64	513.19
275.872	546.19
276.104	560.19
276.335	537.19
276.567	547.19
276.799	541.19
277.031	562.19
277.262	573.19
277.494	584.19
277.726	617.19
277.957	740.19
278.189	830.19
278.421	784.19
278.652	723.19
278.884	649.19
279.115	612.19
279.347	601.19
279.579	611.19
279.81	618.19
280.042	596.19
280.273	608.19
280.505	631.19
280.736	632.19
280.968	655.19
281.199	721.19
281.431	794.19
281.662	821.19
281.894	736.19
282.125	682.19
282.356	664.19
282.588	692.19
282.819	718.19
283.051	752.19
283.282	833.19
283.513	992.19
283.745	1435.19
283.976	2305.19
284.207	3245.19
284.439	2875.19
284.67	1725.19
284.901	1378.19
285.132	1384.19
285.364	1294.19
285.595	1059.19
285.826	976.19
286.057	1150.19
286.288	1546.19
286.52	2065.19
286.751	1892.19
286.982	1165.19
287.213	894.19
287.444	784.19
287.675	767.19
287.906	763.19
288.138	709.19
288.369	701.19
288.6	726.19
288.831	694.19
289.062	701.19
289.293	691.19
289.524	711.19
289.755	734.19
289.986	723.19
290.217	718.19
290.448	703.19
290.679	728.19
290.91	729.19
291.141	775.19
291.371	804.19
291.602	805.19
291.833	766.19
292.064	733.19
292.295	698.19
292.526	683.19
292.757	677.19
292.987	669.19
293.218	670.19
293.449	688.19
293.68	682.19
293.91	682.19
294.141	660.19
294.372	664.19
294.603	683.19
294.833	681.19
295.064	657.19
295.295	671.19
295.525	659.19
295.756	672.19
295.987	659.19
296.217	670.19
296.448	685.19
296.679	664.19
296.909	653.19
297.14	670.19
297.37	681.19
297.601	682.19
297.831	697.19
298.062	715.19
298.292	697.19
298.523	733.19
298.753	689.19
298.984	718.19
299.214	723.19
299.445	738.19
299.675	757.19
299.905	760.19
300.136	802.19
300.366	890.19
300.597	1152.19
300.827	1546.19
301.057	2089.19
301.288	2024.19
301.518	1319.19
301.748	1009.19
301.979	915.19
302.209	926.19
302.439	953.19
302.669	961.19
302.9	1162.19
303.13	1592.19
303.36	2377.19
303.59	3207.19
303.82	2683.19
304.051	1597.19
304.281	1161.19
304.511	995.19
304.741	913.19
304.971	867.19
305.201	853.19
305.431	812.19
305.661	794.19
305.891	792.19
306.121	766.19
306.352	816.19
306.582	758.19
306.812	774.19
307.042	783.19
307.272	780.19
307.502	758.19
307.731	775.19
307.961	772.19
308.191	786.19
308.421	775.19
308.651	766.19
308.881	766.19
309.111	751.19
309.341	775.19
309.571	767.19
309.8	793.19
310.03	813.19
310.26	817.19
310.49	786.19
310.72	791.19
310.949	765.19
311.179	777.19
311.409	797.19
311.639	801.19
311.868	804.19
312.098	817.19
312.328	833.19
312.557	834.19
312.787	818.19
313.017	830.19
313.246	833.19
313.476	854.19
313.706	881.19
313.935	905.19
314.165	950.19
314.394	968.19
314.624	930.19
314.853	919.19
315.083	895.19
315.312	896.19
315.542	919.19
315.771	915.19
316.001	928.19
316.23	956.19
316.46	990.19
316.689	1088.19
316.919	1279.19
317.148	1789.19
317.377	2871.19
317.607	4141.19
317.836	4277.19
318.065	2465.19
318.295	1613.19
318.524	1297.19
318.753	1147.19
318.983	1079.19
319.212	1033.19
319.441	1000.19
319.67	1011.19
319.9	967.19
320.129	952.19
320.358	976.19
320.587	970.19
320.816	973.19
321.046	947.19
321.275	979.19
321.504	994.19
321.733	995.19
321.962	1055.19
322.191	1048.19
322.42	1036.19
322.649	1013.19
322.878	1047.19
323.108	1031.19
323.337	1061.19
323.566	1053.19
323.795	1073.19
324.024	1098.19
324.253	1105.19
324.482	1145.19
324.71	1199.19
324.939	1250.19
325.168	1283.19
325.397	1321.19
325.626	1578.19
325.855	2204.19
326.084	3459.19
326.313	5127.19
326.542	5425.19
326.77	3369.19
326.999	2191.19
327.228	1856.19
327.457	1798.19
327.686	1789.19
327.914	1893.19
328.143	2139.19
328.372	2514.19
328.6	2703.19
328.829	2515.19
329.058	2171.19
329.287	1972.19
329.515	1813.19
329.744	1667.19
329.972	1548.19
330.201	1515.19
330.43	1494.19
330.658	1432.19
330.887	1444.19
331.115	1365.19
331.344	1425.19
331.572	1373.19
331.801	1374.19
332.03	1403.19
332.258	1410.19
332.486	1508.19
332.715	1701.19
332.943	2047.19
333.172	2471.19
333.4	2472.19
333.629	1882.19
333.857	1763.19
334.085	1754.19
334.314	1830.19
334.542	1981.19
334.771	2248.19
334.999	2704.19
335.227	3235.19
335.455	3621.19
335.684	3353.19
335.912	2887.19
336.14	2485.19
336.369	2226.19
336.597	2041.19
336.825	1921.19
337.053	1769.19
337.281	1706.19
337.51	1606.19
337.738	1524.19
337.966	1488.19
338.194	1463.19
338.422	1413.19
338.65	1361.19
338.878	1340.19
339.106	1334.19
339.334	1320.19
339.562	1277.19
339.79	1258.19
340.018	1281.19
340.246	1241.19
340.474	1240.19
340.702	1226.19
340.93	1229.19
341.158	1226.19
341.386	1250.19
341.614	1243.19
341.842	1219.19
342.07	1189.19
342.298	1159.19
342.526	1142.19
342.754	1130.19
342.981	1094.19
343.209	1119.19
343.437	1109.19
343.665	1163.19
343.893	1178.19
344.12	1167.19
344.348	1172.19
344.576	1126.19
344.804	1135.19
345.031	1129.19
345.259	1107.19
345.487	1112.19
345.714	1049.19
345.942	1103.19
346.17	1078.19
346.397	1051.19
346.625	1088.19
346.853	1063.19
347.08	1062.19
347.308	1060.19
347.535	1066.19
347.763	1051.19
347.99	1065.19
348.218	1037.19
348.445	1021.19
348.673	1046.19
348.9	1038.19
349.128	1017.19
349.355	1042.19
349.583	1042.19
349.81	1029.19
350.037	1016.19
350.265	1010.19
350.492	1023.19
350.72	1038.19
350.947	996.19
351.174	1009.19
351.402	1000.19
351.629	1046.19
351.856	1005.19
352.083	1007.19
352.311	1013.19
352.538	988.19
352.765	1024.19
352.992	1050.19
353.22	977.19
353.447	1001.19
353.674	1000.19
353.901	1027.19
354.128	1029.19
354.355	997.19
354.583	993.19
354.81	1029.19
355.037	1038.19
355.264	1033.19
355.491	1037.19
355.718	1061.19
355.945	1009.19
356.172	1035.19
356.399	1013.19
356.626	1041.19
356.853	1036.19
357.08	1043.19
357.307	1053.19
357.534	1062.19
357.761	1061.19
357.988	1066.19
358.215	1075.19
358.441	1059.19
358.668	1081.19
358.895	1087.19
359.122	1044.19
359.349	1069.19
359.576	1058.19
359.802	1079.19
360.029	1065.19
360.256	1080.19
360.483	1053.19
360.709	1075.19
360.936	1108.19
361.163	1068.19
361.39	1086.19
361.616	1097.19
361.843	1102.19
362.07	1074.19
362.296	1061.19
362.523	1065.19
362.749	1072.19
362.976	1064.19
363.203	1077.19
363.429	1055.19
363.656	1072.19
363.882	1112.19
364.109	1082.19
364.335	1086.19
364.562	1098.19
364.788	1109.19
365.015	1089.19
365.241	1100.19
365.468	1128.19
365.694	1169.19
365.92	1135.19
366.147	1094.19
366.373	1098.19
366.599	1082.19
366.826	1111.19
367.052	1099.19
367.278	1159.19
367.505	1133.19
367.731	1116.19
367.957	1108.19
368.184	1086.19
368.41	1121.19
368.636	1093.19
368.862	1093.19
369.089	1121.19
369.315	1109.19
369.541	1095.19
369.767	1114.19
369.993	1103.19
370.219	1101.19
370.445	1112.19
370.672	1113.19
370.898	1123.19
371.124	1157.19
371.35	1142.19
371.576	1149.19
371.802	1140.19
372.028	1135.19
372.254	1161.19
372.48	1157.19
372.706	1185.19
372.932	1176.19
373.158	1165.19
373.384	1207.19
373.61	1163.19
373.835	1195.19
374.061	1174.19
374.287	1172.19
374.513	1206.19
374.739	1233.19
374.965	1215.19
375.191	1228.19
375.416	1227.19
375.642	1200.19
375.868	1201.19
376.094	1163.19
376.319	1171.19
376.545	1157.19
376.771	1171.19
376.997	1188.19
377.222	1181.19
377.448	1156.19
377.674	1163.19
377.899	1161.19
378.125	1141.19
378.35	1165.19
378.576	1144.19
378.802	1175.19
379.027	1186.19
379.253	1224.19
379.478	1308.19
379.704	1449.19
379.929	2038.19
380.155	3059.19
380.38	3247.19
380.606	2049.19
380.831	1460.19
381.057	1297.19
381.282	1225.19
381.507	1181.19
381.733	1179.19
381.958	1158.19
382.184	1183.19
382.409	1135.19
382.634	1161.19
382.86	1153.19
383.085	1103.19
383.31	1163.19
383.535	1147.19
383.761	1130.19
383.986	1165.19
384.211	1173.19
384.436	1187.19
384.662	1208.19
384.887	1167.19
385.112	1169.19
385.337	1179.19
385.562	1213.19
385.787	1189.19
386.013	1200.19
386.238	1207.19
386.463	1177.19
386.688	1197.19
386.913	1173.19
387.138	1157.19
387.363	1171.19
387.588	1178.19
387.813	1203.19
388.038	1185.19
388.263	1186.19
388.488	1181.19
388.713	1197.19
388.938	1188.19
389.163	1191.19
389.387	1190.19
389.612	1184.19
389.837	1189.19
390.062	1188.19
390.287	1193.19
390.512	1182.19
390.736	1210.19
390.961	1216.19
391.186	1215.19
391.411	1223.19
391.636	1239.19
391.86	1246.19
392.085	1246.19
392.31	1238.19
392.534	1225.19
392.759	1236.19
392.984	1182.19
393.208	1253.19
393.433	1262.19
393.658	1249.19
393.882	1199.19
394.107	1226.19
394.331	1200.19
394.556	1204.19
394.78	1184.19
395.005	1201.19
395.229	1211.19
395.454	1217.19
395.678	1244.19
395.903	1209.19
396.127	1217.19
396.352	1213.19
396.576	1220.19
396.801	1283.19
397.025	1242.19
397.249	1245.19
397.474	1286.19
397.698	1250.19
397.922	1283.19
398.147	1225.19
398.371	1290.19
398.595	1313.19
398.82	1302.19
399.044	1360.19
399.268	1446.19
399.492	1511.19
399.717	1539.19
399.941	1562.19
400.165	1497.19
400.389	1461.19
400.613	1382.19
400.837	1364.19
401.062	1347.19
401.286	1335.19
401.51	1321.19
401.734	1347.19
401.958	1339.19
402.182	1325.19
402.406	1301.19
402.63	1304.19
402.854	1365.19
403.078	1328.19
403.302	1357.19
403.526	1371.19
403.75	1362.19
403.974	1352.19
404.198	1364.19
404.422	1354.19
404.645	1358.19
404.869	1336.19
405.093	1363.19
405.317	1346.19
405.541	1396.19
405.765	1401.19
405.988	1378.19
406.212	1367.19
406.436	1387.19
406.66	1397.19
406.883	1389.19
407.107	1422.19
407.331	1456.19
407.555	1511.19
407.778	1447.19
408.002	1419.19
408.226	1463.19
408.449	1418.19
408.673	1441.19
408.896	1399.19
409.12	1360.19
409.344	1379.19
409.567	1358.19
409.791	1329.19
410.014	1385.19
410.238	1383.19
410.461	1335.19
410.685	1344.19
410.908	1337.19
411.132	1360.19
411.355	1273.19
411.578	1315.19
411.802	1326.19
412.025	1277.19
412.249	1283.19
412.472	1297.19
412.695	1298.19
412.919	1267.19
413.142	1283.19
413.365	1295.19
413.589	1295.19
413.812	1273.19
414.035	1311.19
414.258	1283.19
414.482	1283.19
414.705	1287.19
414.928	1291.19
415.151	1282.19
415.374	1264.19
415.597	1274.19
415.821	1258.19
416.044	1276.19
416.267	1241.19
416.49	1255.19
416.713	1225.19
416.936	1264.19
417.159	1233.19
417.382	1210.19
417.605	1227.19
417.828	1234.19
418.051	1256.19
418.274	1248.19
418.497	1263.19
418.72	1239.19
418.943	1257.19
419.166	1311.19
419.389	1373.19
419.611	1377.19
419.834	1337.19
420.057	1288.19
420.28	1281.19
420.503	1242.19
420.726	1234.19
420.948	1211.19
421.171	1249.19
421.394	1277.19
421.617	1248.19
421.839	1241.19
422.062	1239.19
422.285	1258.19
422.507	1278.19
422.73	1296.19
422.953	1277.19
423.175	1270.19
423.398	1279.19
423.621	1234.19
423.843	1276.19
424.066	1265.19
424.288	1223.19
424.511	1261.19
424.733	1267.19
424.956	1249.19
425.178	1227.19
425.401	1237.19
425.623	1240.19
425.846	1205.19
426.068	1211.19
426.291	1183.19
426.513	1179.19
426.735	1178.19
426.958	1180.19
427.18	1158.19
427.402	1200.19
427.625	1154.19
427.847	1147.19
428.069	1150.19
428.292	1160.19
428.514	1167.19
428.736	1159.19
428.958	1189.19
429.181	1139.19
429.403	1129.19
429.625	1147.19
429.847	1149.19
430.069	1184.19
430.292	1192.19
430.514	1233.19
430.736	1223.19
430.958	1169.19
431.18	1141.19
431.402	1126.19
431.624	1115.19
431.846	1119.19
432.068	1120.19
432.29	1122.19
432.512	1131.19
432.734	1134.19
432.956	1137.19
433.178	1143.19
433.4	1158.19
433.622	1185.19
433.844	1178.19
434.066	1167.19
434.287	1127.19
434.509	1149.19
434.731	1175.19
434.953	1190.19
435.175	1217.19
435.397	1178.19
435.618	1173.19
435.84	1158.19
436.062	1120.19
436.284	1104.19
436.505	1112.19
436.727	1147.19
436.949	1126.19
437.17	1133.19
437.392	1119.19
437.614	1111.19
437.835	1119.19
438.057	1086.19
438.278	1102.19
438.5	1133.19
438.721	1130.19
438.943	1159.19
439.165	1184.19
439.386	1181.19
439.608	1190.19
439.829	1229.19
440.05	1248.19
440.272	1254.19
440.493	1175.19
440.715	1188.19
440.936	1158.19
441.158	1189.19
441.379	1219.19
441.6	1288.19
441.822	1303.19
442.043	1341.19
442.264	1329.19
442.486	1289.19
442.707	1234.19
442.928	1231.19
443.149	1271.19
443.371	1234.19
443.592	1216.19
443.813	1257.19
444.034	1266.19
444.255	1258.19
444.476	1274.19
444.698	1328.19
444.919	1355.19
445.14	1431.19
445.361	1317.19
445.582	1279.19
445.803	1224.19
446.024	1254.19
446.245	1219.19
446.466	1242.19
446.687	1215.19
446.908	1210.19
447.129	1179.19
447.35	1155.19
447.571	1168.19
447.792	1132.19
448.013	1147.19
448.234	1150.19
448.455	1135.19
448.675	1150.19
448.896	1203.19
449.117	1216.19
449.338	1303.19
449.559	1349.19
449.779	1207.19
450	1166.19
450.221	1126.19
450.442	1123.19
450.662	1100.19
450.883	1117.19
451.104	1065.19
451.324	1076.19
451.545	1097.19
451.766	1085.19
451.986	1120.19
452.207	1171.19
452.428	1432.19
452.648	1973.19
452.869	1711.19
453.089	1287.19
453.31	1185.19
453.53	1217.19
453.751	1235.19
453.971	1331.19
454.192	1289.19
454.412	1160.19
454.633	1128.19
454.853	1066.19
455.073	1046.19
455.294	1018.19
455.514	1043.19
455.734	1035.19
455.955	1035.19
456.175	1029.19
456.395	1048.19
456.616	1019.19
456.836	1069.19
457.056	1073.19
457.276	1073.19
457.497	1099.19
457.717	1110.19
457.937	1121.19
458.157	1123.19
458.377	1098.19
458.598	1059.19
458.818	1112.19
459.038	1133.19
459.258	1075.19
459.478	1103.19
459.698	1152.19
459.918	1155.19
460.138	1196.19
460.358	1229.19
460.578	1221.19
460.798	1234.19
461.018	1253.19
461.238	1223.19
461.458	1263.19
461.678	1266.19
461.898	1256.19
462.118	1277.19
462.338	1337.19
462.558	1291.19
462.777	1338.19
462.997	1395.19
463.217	1417.19
463.437	1464.19
463.657	1501.19
463.876	1495.19
464.096	1419.19
464.316	1363.19
464.536	1362.19
464.755	1334.19
464.975	1309.19
465.195	1269.19
465.414	1213.19
465.634	1221.19
465.854	1157.19
466.073	1177.19
466.293	1138.19
466.512	1139.19
466.732	1167.19
466.951	1194.19
467.171	1306.19
467.391	1266.19
467.61	1157.19
467.829	1131.19
468.049	1135.19
468.268	1131.19
468.488	1097.19
468.707	1123.19
468.927	1138.19
469.146	1124.19
469.365	1140.19
469.585	1155.19
469.804	1191.19
470.023	1159.19
470.243	1194.19
470.462	1231.19
470.681	1263.19
470.901	1400.19
471.12	1615.19
471.339	1587.19
471.558	1349.19
471.777	1225.19
471.997	1185.19
472.216	1163.19
472.435	1132.19
472.654	1064.19
472.873	1092.19
473.092	1123.19
473.311	1144.19
473.53	1134.19
473.749	1175.19
473.968	1194.19
474.187	1140.19
474.406	1109.19
474.625	1142.19
474.844	1147.19
475.063	1163.19
475.282	1135.19
475.501	1129.19
475.72	1136.19
475.939	1142.19
476.158	1184.19
476.377	1201.19
476.596	1182.19
476.814	1234.19
477.033	1166.19
477.252	1198.19
477.471	1234.19
477.69	1249.19
477.908	1240.19
478.127	1287.19
478.346	1272.19
478.564	1309.19
478.783	1276.19
479.002	1330.19
479.22	1338.19
479.439	1341.19
479.658	1341.19
479.876	1334.19
480.095	1390.19
480.313	1384.19
480.532	1368.19
480.751	1384.19
480.969	1371.19
481.188	1345.19
481.406	1325.19
481.624	1301.19
481.843	1353.19
482.061	1349.19
482.28	1336.19
482.498	1301.19
482.717	1338.19
482.935	1350.19
483.153	1385.19
483.372	1407.19
483.59	1417.19
483.808	1433.19
484.027	1460.19
484.245	1481.19
484.463	1655.19
484.681	1870.19
484.9	1701.19
485.118	1597.19
485.336	1551.19
485.554	1537.19
485.772	1673.19
485.99	1871.19
486.209	2047.19
486.427	1706.19
486.645	1541.19
486.863	1482.19
487.081	1479.19
487.299	1455.19
487.517	1447.19
487.735	1469.19
487.953	1506.19
488.171	1463.19
488.389	1439.19
488.607	1438.19
488.825	1414.19
489.043	1413.19
489.261	1379.19
489.479	1391.19
489.696	1414.19
489.914	1395.19
490.132	1403.19
490.35	1420.19
490.568	1434.19
490.786	1419.19
491.003	1464.19
