Data from SnStandardFlinnAPT0064_QswitchEnergy10_LIBS07252019.E.O._I.C._HRD10591_15-28-58-974.txt Node
Date: Thu Jul 25 15:28:58 EDT 2019
User: cochatt
Spectrometer: HR+D1059
Trigger mode: 1
Integration Time (sec): 1.000000E-1
Scans to average: 1
Electric dark correction enabled: true
Nonlinearity correction enabled: false
Boxcar width: 0
XAxis mode: Wavelengths
Number of Pixels in Spectrum: 2048
>>>>>Begin Spectral Data<<<<<
223.165	-7.75
223.4	-7.75
223.635	-7.75
223.869	-9.75
224.104	-23.75
224.338	-15.75
224.573	-7.75
224.808	-22.75
225.042	-3.75
225.277	-1.75
225.511	2.25
225.746	5.25
225.98	4.25
226.215	17.25
226.449	24.25
226.683	1.25
226.918	11.25
227.152	27.25
227.387	34.25
227.621	37.25
227.856	40.25
228.09	54.25
228.324	70.25
228.559	60.25
228.793	70.25
229.027	64.25
229.262	65.25
229.496	70.25
229.73	78.25
229.964	73.25
230.199	70.25
230.433	77.25
230.667	64.25
230.901	84.25
231.136	77.25
231.37	92.25
231.604	96.25
231.838	91.25
232.072	114.25
232.306	122.25
232.541	110.25
232.775	83.25
233.009	95.25
233.243	97.25
233.477	100.25
233.711	101.25
233.945	107.25
234.179	85.25
234.413	97.25
234.647	87.25
234.881	88.25
235.115	93.25
235.349	91.25
235.583	101.25
235.817	121.25
236.051	138.25
236.285	107.25
236.519	80.25
236.753	91.25
236.987	81.25
237.221	78.25
237.455	92.25
237.689	72.25
237.922	85.25
238.156	83.25
238.39	81.25
238.624	90.25
238.858	87.25
239.091	76.25
239.325	89.25
239.559	79.25
239.793	84.25
240.027	84.25
240.26	83.25
240.494	82.25
240.728	83.25
240.961	92.25
241.195	94.25
241.429	85.25
241.662	92.25
241.896	99.25
242.13	92.25
242.363	134.25
242.597	151.25
242.83	146.25
243.064	136.25
243.298	185.25
243.531	169.25
243.765	107.25
243.998	86.25
244.232	72.25
244.465	75.25
244.699	74.25
244.932	99.25
245.166	92.25
245.399	93.25
245.633	80.25
245.866	89.25
246.099	91.25
246.333	83.25
246.566	94.25
246.8	94.25
247.033	103.25
247.266	89.25
247.5	69.25
247.733	99.25
247.966	84.25
248.2	89.25
248.433	105.25
248.666	135.25
248.899	132.25
249.133	105.25
249.366	103.25
249.599	100.25
249.832	134.25
250.066	137.25
250.299	81.25
250.532	93.25
250.765	88.25
250.998	80.25
251.231	73.25
251.465	89.25
251.698	78.25
251.931	85.25
252.164	78.25
252.397	101.25
252.63	98.25
252.863	95.25
253.096	101.25
253.329	100.25
253.562	88.25
253.795	90.25
254.028	89.25
254.261	92.25
254.494	98.25
254.727	119.25
254.96	152.25
255.193	123.25
255.426	88.25
255.659	86.25
255.892	102.25
256.124	99.25
256.357	101.25
256.59	88.25
256.823	99.25
257.056	121.25
257.289	152.25
257.521	188.25
257.754	120.25
257.987	88.25
258.22	86.25
258.452	88.25
258.685	88.25
258.918	92.25
259.151	89.25
259.383	112.25
259.616	120.25
259.849	161.25
260.081	109.25
260.314	97.25
260.547	92.25
260.779	90.25
261.012	102.25
261.244	83.25
261.477	82.25
261.71	94.25
261.942	95.25
262.175	93.25
262.407	88.25
262.64	101.25
262.872	91.25
263.105	96.25
263.337	101.25
263.57	98.25
263.802	88.25
264.035	99.25
264.267	104.25
264.499	72.25
264.732	94.25
264.964	91.25
265.197	89.25
265.429	78.25
265.661	103.25
265.894	118.25
266.126	146.25
266.358	172.25
266.591	144.25
266.823	116.25
267.055	101.25
267.287	84.25
267.52	93.25
267.752	98.25
267.984	90.25
268.216	92.25
268.448	93.25
268.681	82.25
268.913	102.25
269.145	103.25
269.377	85.25
269.609	116.25
269.841	105.25
270.073	107.25
270.306	144.25
270.538	216.25
270.77	345.25
271.002	386.25
271.234	188.25
271.466	123.25
271.698	89.25
271.93	87.25
272.162	90.25
272.394	72.25
272.626	94.25
272.858	83.25
273.09	86.25
273.322	93.25
273.553	93.25
273.785	94.25
274.017	103.25
274.249	74.25
274.481	83.25
274.713	79.25
274.945	89.25
275.176	74.25
275.408	92.25
275.64	87.25
275.872	91.25
276.104	92.25
276.335	106.25
276.567	99.25
276.799	93.25
277.031	102.25
277.262	96.25
277.494	116.25
277.726	134.25
277.957	202.25
278.189	268.25
278.421	249.25
278.652	220.25
278.884	196.25
279.115	144.25
279.347	112.25
279.579	103.25
279.81	92.25
280.042	100.25
280.273	109.25
280.505	118.25
280.736	108.25
280.968	121.25
281.199	195.25
281.431	268.25
281.662	282.25
281.894	180.25
282.125	117.25
282.356	108.25
282.588	106.25
282.819	121.25
283.051	130.25
283.282	137.25
283.513	208.25
283.745	340.25
283.976	567.25
284.207	828.25
284.439	637.25
284.67	291.25
284.901	278.25
285.132	361.25
285.364	411.25
285.595	226.25
285.826	182.25
286.057	265.25
286.288	454.25
286.52	638.25
286.751	524.25
286.982	216.25
287.213	128.25
287.444	116.25
287.675	100.25
287.906	99.25
288.138	104.25
288.369	115.25
288.6	104.25
288.831	98.25
289.062	97.25
289.293	90.25
289.524	100.25
289.755	87.25
289.986	90.25
290.217	96.25
290.448	106.25
290.679	108.25
290.91	133.25
291.141	173.25
291.371	241.25
291.602	328.25
291.833	199.25
292.064	113.25
292.295	90.25
292.526	94.25
292.757	93.25
292.987	101.25
293.218	96.25
293.449	92.25
293.68	98.25
293.91	87.25
294.141	90.25
294.372	99.25
294.603	90.25
294.833	77.25
295.064	100.25
295.295	98.25
295.525	81.25
295.756	93.25
295.987	108.25
296.217	109.25
296.448	101.25
296.679	104.25
296.909	101.25
297.14	109.25
297.37	94.25
297.601	113.25
297.831	105.25
298.062	96.25
298.292	107.25
298.523	99.25
298.753	106.25
298.984	108.25
299.214	110.25
299.445	94.25
299.675	105.25
299.905	129.25
300.136	132.25
300.366	182.25
300.597	278.25
300.827	460.25
301.057	732.25
301.288	660.25
301.518	272.25
301.748	152.25
301.979	147.25
302.209	148.25
302.439	149.25
302.669	165.25
302.9	290.25
303.13	532.25
303.36	927.25
303.59	1284.25
303.82	884.25
304.051	321.25
304.281	181.25
304.511	132.25
304.741	132.25
304.971	120.25
305.201	119.25
305.431	108.25
305.661	103.25
305.891	105.25
306.121	102.25
306.352	114.25
306.582	98.25
306.812	107.25
307.042	124.25
307.272	93.25
307.502	97.25
307.731	118.25
307.961	120.25
308.191	121.25
308.421	96.25
308.651	112.25
308.881	109.25
309.111	108.25
309.341	116.25
309.571	97.25
309.8	96.25
310.03	108.25
310.26	114.25
310.49	115.25
310.72	122.25
310.949	112.25
311.179	108.25
311.409	100.25
311.639	109.25
311.868	114.25
312.098	115.25
312.328	116.25
312.557	126.25
312.787	118.25
313.017	107.25
313.246	118.25
313.476	124.25
313.706	139.25
313.935	174.25
314.165	208.25
314.394	246.25
314.624	212.25
314.853	141.25
315.083	132.25
315.312	138.25
315.542	135.25
315.771	146.25
316.001	123.25
316.23	147.25
316.46	154.25
316.689	194.25
316.919	271.25
317.148	531.25
317.377	974.25
317.607	1571.25
317.836	1466.25
318.065	570.25
318.295	236.25
318.524	162.25
318.753	162.25
318.983	130.25
319.212	128.25
319.441	130.25
319.67	120.25
319.9	115.25
320.129	114.25
320.358	121.25
320.587	122.25
320.816	120.25
321.046	136.25
321.275	129.25
321.504	109.25
321.733	135.25
321.962	178.25
322.191	172.25
322.42	150.25
322.649	132.25
322.878	120.25
323.108	134.25
323.337	129.25
323.566	142.25
323.795	124.25
324.024	138.25
324.253	150.25
324.482	171.25
324.71	228.25
324.939	293.25
325.168	241.25
325.397	200.25
325.626	282.25
325.855	538.25
326.084	993.25
326.313	1714.25
326.542	1710.25
326.77	663.25
326.999	279.25
327.228	228.25
327.457	256.25
327.686	235.25
327.914	180.25
328.143	140.25
328.372	150.25
328.6	146.25
328.829	131.25
329.058	118.25
329.287	129.25
329.515	139.25
329.744	136.25
329.972	128.25
330.201	123.25
330.43	112.25
330.658	121.25
330.887	116.25
331.115	105.25
331.344	124.25
331.572	118.25
331.801	133.25
332.03	119.25
332.258	145.25
332.486	189.25
332.715	306.25
332.943	520.25
333.172	821.25
333.4	718.25
333.629	267.25
333.857	155.25
334.085	133.25
334.314	140.25
334.542	135.25
334.771	131.25
334.999	122.25
335.227	129.25
335.455	121.25
335.684	132.25
335.912	112.25
336.14	119.25
336.369	104.25
336.597	120.25
336.825	119.25
337.053	105.25
337.281	119.25
337.51	122.25
337.738	127.25
337.966	121.25
338.194	117.25
338.422	109.25
338.65	120.25
338.878	129.25
339.106	124.25
339.334	127.25
339.562	128.25
339.79	118.25
340.018	118.25
340.246	113.25
340.474	115.25
340.702	118.25
340.93	109.25
341.158	126.25
341.386	116.25
341.614	136.25
341.842	119.25
342.07	124.25
342.298	121.25
342.526	117.25
342.754	114.25
342.981	115.25
343.209	108.25
343.437	114.25
343.665	130.25
343.893	120.25
344.12	114.25
344.348	117.25
344.576	102.25
344.804	124.25
345.031	133.25
345.259	122.25
345.487	125.25
345.714	120.25
345.942	110.25
346.17	122.25
346.397	117.25
346.625	130.25
346.853	104.25
347.08	109.25
347.308	116.25
347.535	112.25
347.763	109.25
347.99	97.25
348.218	120.25
348.445	112.25
348.673	120.25
348.9	122.25
349.128	141.25
349.355	131.25
349.583	126.25
349.81	117.25
350.037	120.25
350.265	119.25
350.492	123.25
350.72	122.25
350.947	126.25
351.174	133.25
351.402	117.25
351.629	117.25
351.856	131.25
352.083	124.25
352.311	118.25
352.538	107.25
352.765	126.25
352.992	109.25
353.22	105.25
353.447	112.25
353.674	108.25
353.901	115.25
354.128	113.25
354.355	102.25
354.583	125.25
354.81	119.25
355.037	118.25
355.264	116.25
355.491	117.25
355.718	113.25
355.945	98.25
356.172	100.25
356.399	106.25
356.626	112.25
356.853	128.25
357.08	107.25
357.307	119.25
357.534	101.25
357.761	112.25
357.988	100.25
358.215	105.25
358.441	92.25
358.668	122.25
358.895	126.25
359.122	137.25
359.349	125.25
359.576	120.25
359.802	83.25
360.029	128.25
360.256	108.25
360.483	115.25
360.709	110.25
360.936	133.25
361.163	119.25
361.39	116.25
361.616	121.25
361.843	119.25
362.07	118.25
362.296	118.25
362.523	121.25
362.749	107.25
362.976	120.25
363.203	112.25
363.429	108.25
363.656	105.25
363.882	107.25
364.109	135.25
364.335	109.25
364.562	95.25
364.788	98.25
365.015	117.25
365.241	132.25
365.468	184.25
365.694	284.25
365.92	229.25
366.147	120.25
366.373	108.25
366.599	83.25
366.826	106.25
367.052	100.25
367.278	111.25
367.505	97.25
367.731	105.25
367.957	103.25
368.184	130.25
368.41	120.25
368.636	119.25
368.862	111.25
369.089	118.25
369.315	107.25
369.541	115.25
369.767	128.25
369.993	112.25
370.219	107.25
370.445	124.25
370.672	112.25
370.898	123.25
371.124	114.25
371.35	106.25
371.576	109.25
371.802	119.25
372.028	116.25
372.254	117.25
372.48	114.25
372.706	116.25
372.932	114.25
373.158	132.25
373.384	126.25
373.61	114.25
373.835	118.25
374.061	118.25
374.287	125.25
374.513	128.25
374.739	116.25
374.965	110.25
375.191	112.25
375.416	121.25
375.642	110.25
375.868	109.25
376.094	117.25
376.319	118.25
376.545	118.25
376.771	114.25
376.997	121.25
377.222	115.25
377.448	114.25
377.674	104.25
377.899	105.25
378.125	105.25
378.35	109.25
378.576	124.25
378.802	131.25
379.027	128.25
379.253	157.25
379.478	176.25
379.704	322.25
379.929	842.25
380.155	1691.25
380.38	1752.25
380.606	555.25
380.831	205.25
381.057	162.25
381.282	114.25
381.507	120.25
381.733	119.25
381.958	125.25
382.184	112.25
382.409	116.25
382.634	129.25
382.86	97.25
383.085	108.25
383.31	115.25
383.535	114.25
383.761	105.25
383.986	114.25
384.211	119.25
384.436	114.25
384.662	112.25
384.887	115.25
385.112	103.25
385.337	106.25
385.562	121.25
385.787	95.25
386.013	88.25
386.238	122.25
386.463	120.25
386.688	112.25
386.913	117.25
387.138	106.25
387.363	124.25
387.588	114.25
387.813	112.25
388.038	104.25
388.263	102.25
388.488	118.25
388.713	124.25
388.938	116.25
389.163	101.25
389.387	106.25
389.612	103.25
389.837	92.25
390.062	107.25
390.287	103.25
390.512	123.25
390.736	110.25
390.961	112.25
391.186	109.25
391.411	97.25
391.636	107.25
391.86	92.25
392.085	114.25
392.31	99.25
392.534	91.25
392.759	110.25
392.984	108.25
393.208	118.25
393.433	149.25
393.658	146.25
393.882	102.25
394.107	107.25
394.331	99.25
394.556	106.25
394.78	93.25
395.005	106.25
395.229	102.25
395.454	100.25
395.678	94.25
395.903	96.25
396.127	119.25
396.352	115.25
396.576	105.25
396.801	122.25
397.025	150.25
397.249	130.25
397.474	114.25
397.698	92.25
397.922	97.25
398.147	84.25
398.371	85.25
398.595	112.25
398.82	112.25
399.044	109.25
399.268	104.25
399.492	120.25
399.717	114.25
399.941	87.25
400.165	102.25
400.389	112.25
400.613	109.25
400.837	76.25
401.062	96.25
401.286	88.25
401.51	97.25
401.734	97.25
401.958	83.25
402.182	104.25
402.406	85.25
402.63	100.25
402.854	97.25
403.078	115.25
403.302	110.25
403.526	99.25
403.75	98.25
403.974	102.25
404.198	114.25
404.422	120.25
404.645	103.25
404.869	105.25
405.093	88.25
405.317	100.25
405.541	111.25
405.765	128.25
405.988	154.25
406.212	115.25
406.436	100.25
406.66	110.25
406.883	105.25
407.107	117.25
407.331	102.25
407.555	102.25
407.778	93.25
408.002	77.25
408.226	116.25
408.449	112.25
408.673	108.25
408.896	113.25
409.12	101.25
409.344	100.25
409.567	88.25
409.791	96.25
410.014	94.25
410.238	97.25
410.461	102.25
410.685	107.25
410.908	92.25
411.132	101.25
411.355	109.25
411.578	108.25
411.802	105.25
412.025	112.25
412.249	120.25
412.472	110.25
412.695	107.25
412.919	100.25
413.142	104.25
413.365	116.25
413.589	96.25
413.812	106.25
414.035	97.25
414.258	119.25
414.482	108.25
414.705	98.25
414.928	98.25
415.151	124.25
415.374	103.25
415.597	106.25
415.821	103.25
416.044	98.25
416.267	114.25
416.49	86.25
416.713	107.25
416.936	102.25
417.159	89.25
417.382	101.25
417.605	106.25
417.828	86.25
418.051	111.25
418.274	102.25
418.497	118.25
418.72	118.25
418.943	106.25
419.166	115.25
419.389	113.25
419.611	100.25
419.834	90.25
420.057	100.25
420.28	114.25
420.503	123.25
420.726	93.25
420.948	101.25
421.171	94.25
421.394	100.25
421.617	96.25
421.839	91.25
422.062	102.25
422.285	97.25
422.507	108.25
422.73	131.25
422.953	129.25
423.175	86.25
423.398	113.25
423.621	98.25
423.843	94.25
424.066	96.25
424.288	102.25
424.511	107.25
424.733	106.25
424.956	99.25
425.178	97.25
425.401	99.25
425.623	91.25
425.846	108.25
426.068	106.25
426.291	91.25
426.513	83.25
426.735	98.25
426.958	100.25
427.18	93.25
427.402	98.25
427.625	85.25
427.847	101.25
428.069	112.25
428.292	102.25
428.514	118.25
428.736	99.25
428.958	93.25
429.181	105.25
429.403	105.25
429.625	93.25
429.847	116.25
430.069	114.25
430.292	86.25
430.514	110.25
430.736	104.25
430.958	97.25
431.18	97.25
431.402	106.25
431.624	93.25
431.846	90.25
432.068	91.25
432.29	100.25
432.512	104.25
432.734	104.25
432.956	111.25
433.178	88.25
433.4	97.25
433.622	84.25
433.844	86.25
434.066	90.25
434.287	91.25
434.509	106.25
434.731	92.25
434.953	102.25
435.175	104.25
435.397	96.25
435.618	87.25
435.84	87.25
436.062	98.25
436.284	101.25
436.505	112.25
436.727	99.25
436.949	100.25
437.17	92.25
437.392	86.25
437.614	91.25
437.835	96.25
438.057	114.25
438.278	90.25
438.5	102.25
438.721	102.25
438.943	103.25
439.165	102.25
439.386	116.25
439.608	103.25
439.829	110.25
440.05	120.25
440.272	129.25
440.493	100.25
440.715	98.25
440.936	94.25
441.158	108.25
441.379	99.25
441.6	98.25
441.822	111.25
442.043	123.25
442.264	134.25
442.486	98.25
442.707	114.25
442.928	105.25
443.149	99.25
443.371	100.25
443.592	100.25
443.813	85.25
444.034	106.25
444.255	97.25
444.476	101.25
444.698	99.25
444.919	105.25
445.14	184.25
445.361	146.25
445.582	113.25
445.803	124.25
446.024	99.25
446.245	103.25
446.466	99.25
446.687	122.25
446.908	90.25
447.129	110.25
447.35	113.25
447.571	92.25
447.792	107.25
448.013	107.25
448.234	92.25
448.455	101.25
448.675	97.25
448.896	105.25
449.117	118.25
449.338	125.25
449.559	140.25
449.779	136.25
450	113.25
450.221	102.25
450.442	112.25
450.662	116.25
450.883	108.25
451.104	133.25
451.324	113.25
451.545	118.25
451.766	128.25
451.986	148.25
452.207	214.25
452.428	616.25
452.648	1484.25
452.869	798.25
453.089	232.25
453.31	116.25
453.53	116.25
453.751	140.25
453.971	182.25
454.192	178.25
454.412	110.25
454.633	106.25
454.853	100.25
455.073	98.25
455.294	96.25
455.514	99.25
455.734	104.25
455.955	84.25
456.175	95.25
456.395	108.25
456.616	98.25
456.836	108.25
457.056	115.25
457.276	114.25
457.497	123.25
457.717	125.25
457.937	119.25
458.157	114.25
458.377	101.25
458.598	107.25
458.818	99.25
459.038	93.25
459.258	88.25
459.478	89.25
459.698	95.25
459.918	98.25
460.138	94.25
460.358	98.25
460.578	93.25
460.798	92.25
461.018	104.25
461.238	94.25
461.458	89.25
461.678	96.25
461.898	108.25
462.118	90.25
462.338	100.25
462.558	104.25
462.777	107.25
462.997	105.25
463.217	118.25
463.437	136.25
463.657	203.25
463.876	193.25
464.096	125.25
464.316	105.25
464.536	96.25
464.755	96.25
464.975	90.25
465.195	88.25
465.414	100.25
465.634	92.25
465.854	99.25
466.073	94.25
466.293	94.25
466.512	114.25
466.732	116.25
466.951	129.25
467.171	146.25
467.391	142.25
467.61	124.25
467.829	93.25
468.049	107.25
468.268	97.25
468.488	102.25
468.707	97.25
468.927	89.25
469.146	104.25
469.365	111.25
469.585	98.25
469.804	93.25
470.023	101.25
470.243	105.25
470.462	112.25
470.681	114.25
470.901	142.25
471.12	181.25
471.339	217.25
471.558	136.25
471.777	112.25
471.997	101.25
472.216	100.25
472.435	94.25
472.654	96.25
472.873	101.25
473.092	94.25
473.311	101.25
473.53	122.25
473.749	108.25
473.968	103.25
474.187	110.25
474.406	86.25
474.625	105.25
474.844	110.25
475.063	99.25
475.282	90.25
475.501	98.25
475.72	84.25
475.939	102.25
476.158	100.25
476.377	116.25
476.596	120.25
476.814	116.25
477.033	93.25
477.252	105.25
477.471	99.25
477.69	102.25
477.908	104.25
478.127	104.25
478.346	103.25
478.564	103.25
478.783	109.25
479.002	97.25
479.22	116.25
479.439	84.25
479.658	104.25
479.876	84.25
480.095	95.25
480.313	93.25
480.532	98.25
480.751	105.25
480.969	97.25
481.188	95.25
481.406	92.25
481.624	101.25
481.843	127.25
482.061	132.25
482.28	94.25
482.498	101.25
482.717	90.25
482.935	109.25
483.153	92.25
483.372	91.25
483.59	96.25
483.808	109.25
484.027	101.25
484.245	133.25
484.463	180.25
484.681	252.25
484.9	162.25
485.118	123.25
485.336	124.25
485.554	120.25
485.772	129.25
485.99	178.25
486.209	279.25
486.427	168.25
486.645	124.25
486.863	106.25
487.081	120.25
487.299	91.25
487.517	105.25
487.735	93.25
487.953	94.25
488.171	101.25
488.389	96.25
488.607	90.25
488.825	93.25
489.043	112.25
489.261	107.25
489.479	96.25
489.696	114.25
489.914	103.25
490.132	92.25
490.35	111.25
490.568	92.25
490.786	102.25
491.003	104.25
491.221	131.25
491.439	121.25
491.657	101.25
491.874	113.25
492.092	112.25
492.31	114.25
492.527	109.25
492.745	99.25
492.963	99.25
493.18	110.25
493.398	115.25
493.615	92.25
493.833	107.25
494.05	114.25
494.268	102.25
494.485	110.25
494.703	107.25
494.92	92.25
495.138	106.25
495.355	114.25
495.573	112.25
495.79	106.25
496.008	114.25
496.225	116.25
496.442	122.25
496.66	107.25
496.877	154.25
497.094	158.25
497.312	116.25
497.529	115.25
497.746	121.25
497.963	106.25
498.181	110.25
498.398	118.25
498.615	118.25
498.832	107.25
499.049	116.25
499.267	124.25
499.484	169.25
499.701	128.25
499.918	119.25
500.135	99.25
500.352	104.25
500.569	118.25
500.786	100.25
501.003	106.25
501.22	109.25
501.437	117.25
501.654	101.25
501.871	94.25
502.088	103.25
502.305	100.25
502.522	110.25
502.739	104.25
502.956	94.25
503.172	91.25
503.389	98.25
503.606	115.25
503.823	96.25
504.04	107.25
504.256	113.25
504.473	94.25
504.69	117.25
504.907	120.25
505.123	124.25
505.34	102.25
505.557	101.25
505.773	101.25
505.99	103.25
506.207	113.25
506.423	118.25
506.64	121.25
506.856	108.25
