Data from SnStandardFlinnAPT0064_QswitchEnergy10_LIBS07252019.E.O._I.C._HRD10591_15-28-10-974.txt Node
Date: Thu Jul 25 15:28:10 EDT 2019
User: cochatt
Spectrometer: HR+D1059
Trigger mode: 1
Integration Time (sec): 1.000000E-1
Scans to average: 1
Electric dark correction enabled: true
Nonlinearity correction enabled: false
Boxcar width: 0
XAxis mode: Wavelengths
Number of Pixels in Spectrum: 2048
>>>>>Begin Spectral Data<<<<<
223.165	-24.81
223.4	-24.81
223.635	-24.81
223.869	-23.81
224.104	-21.81
224.338	-22.81
224.573	-22.81
224.808	8.19
225.042	-7.81
225.277	-2.81
225.511	16.19
225.746	14.19
225.98	5.19
226.215	5.19
226.449	24.19
226.683	-2.81
226.918	20.19
227.152	36.19
227.387	41.19
227.621	24.19
227.856	36.19
228.09	37.19
228.324	50.19
228.559	49.19
228.793	68.19
229.027	59.19
229.262	72.19
229.496	79.19
229.73	62.19
229.964	74.19
230.199	66.19
230.433	74.19
230.667	73.19
230.901	61.19
231.136	79.19
231.37	71.19
231.604	80.19
231.838	102.19
232.072	130.19
232.306	118.19
232.541	86.19
232.775	83.19
233.009	76.19
233.243	84.19
233.477	85.19
233.711	98.19
233.945	100.19
234.179	88.19
234.413	84.19
234.647	73.19
234.881	81.19
235.115	90.19
235.349	89.19
235.583	96.19
235.817	126.19
236.051	138.19
236.285	109.19
236.519	82.19
236.753	80.19
236.987	76.19
237.221	70.19
237.455	80.19
237.689	69.19
237.922	69.19
238.156	78.19
238.39	79.19
238.624	98.19
238.858	66.19
239.091	80.19
239.325	56.19
239.559	81.19
239.793	69.19
240.027	73.19
240.26	71.19
240.494	84.19
240.728	77.19
240.961	93.19
241.195	96.19
241.429	91.19
241.662	92.19
241.896	86.19
242.13	100.19
242.363	132.19
242.597	160.19
242.83	156.19
243.064	143.19
243.298	167.19
243.531	163.19
243.765	95.19
243.998	82.19
244.232	83.19
244.465	82.19
244.699	75.19
244.932	73.19
245.166	67.19
245.399	81.19
245.633	82.19
245.866	90.19
246.099	94.19
246.333	81.19
246.566	75.19
246.8	78.19
247.033	82.19
247.266	71.19
247.5	78.19
247.733	79.19
247.966	84.19
248.2	79.19
248.433	108.19
248.666	122.19
248.899	124.19
249.133	95.19
249.366	87.19
249.599	88.19
249.832	129.19
250.066	143.19
250.299	86.19
250.532	90.19
250.765	88.19
250.998	57.19
251.231	74.19
251.465	90.19
251.698	83.19
251.931	79.19
252.164	76.19
252.397	84.19
252.63	102.19
252.863	99.19
253.096	96.19
253.329	98.19
253.562	87.19
253.795	91.19
254.028	73.19
254.261	85.19
254.494	105.19
254.727	118.19
254.96	150.19
255.193	139.19
255.426	95.19
255.659	80.19
255.892	108.19
256.124	96.19
256.357	88.19
256.59	84.19
256.823	83.19
257.056	109.19
257.289	150.19
257.521	189.19
257.754	129.19
257.987	86.19
258.22	76.19
258.452	87.19
258.685	96.19
258.918	82.19
259.151	109.19
259.383	118.19
259.616	127.19
259.849	161.19
260.081	95.19
260.314	100.19
260.547	83.19
260.779	79.19
261.012	89.19
261.244	82.19
261.477	87.19
261.71	81.19
261.942	71.19
262.175	80.19
262.407	76.19
262.64	65.19
262.872	88.19
263.105	92.19
263.337	90.19
263.57	95.19
263.802	71.19
264.035	81.19
264.267	84.19
264.499	74.19
264.732	82.19
264.964	79.19
265.197	90.19
265.429	88.19
265.661	87.19
265.894	110.19
266.126	136.19
266.358	164.19
266.591	153.19
266.823	97.19
267.055	93.19
267.287	84.19
267.52	70.19
267.752	92.19
267.984	71.19
268.216	93.19
268.448	85.19
268.681	85.19
268.913	89.19
269.145	84.19
269.377	84.19
269.609	83.19
269.841	92.19
270.073	109.19
270.306	130.19
270.538	187.19
270.77	352.19
271.002	401.19
271.234	216.19
271.466	110.19
271.698	80.19
271.93	84.19
272.162	72.19
272.394	83.19
272.626	91.19
272.858	82.19
273.09	92.19
273.322	96.19
273.553	80.19
273.785	93.19
274.017	82.19
274.249	81.19
274.481	80.19
274.713	89.19
274.945	78.19
275.176	87.19
275.408	77.19
275.64	98.19
275.872	88.19
276.104	90.19
276.335	105.19
276.567	92.19
276.799	84.19
277.031	100.19
277.262	99.19
277.494	102.19
277.726	136.19
277.957	187.19
278.189	278.19
278.421	245.19
278.652	198.19
278.884	193.19
279.115	134.19
279.347	124.19
279.579	98.19
279.81	109.19
280.042	91.19
280.273	110.19
280.505	113.19
280.736	109.19
280.968	120.19
281.199	165.19
281.431	254.19
281.662	273.19
281.894	172.19
282.125	109.19
282.356	105.19
282.588	114.19
282.819	114.19
283.051	126.19
283.282	156.19
283.513	200.19
283.745	335.19
283.976	619.19
284.207	869.19
284.439	632.19
284.67	298.19
284.901	282.19
285.132	386.19
285.364	436.19
285.595	237.19
285.826	170.19
286.057	278.19
286.288	432.19
286.52	672.19
286.751	533.19
286.982	221.19
287.213	130.19
287.444	102.19
287.675	91.19
287.906	97.19
288.138	95.19
288.369	103.19
288.6	77.19
288.831	81.19
289.062	88.19
289.293	93.19
289.524	95.19
289.755	86.19
289.986	104.19
290.217	99.19
290.448	104.19
290.679	90.19
290.91	125.19
291.141	180.19
291.371	241.19
291.602	310.19
291.833	208.19
292.064	120.19
292.295	97.19
292.526	89.19
292.757	93.19
292.987	89.19
293.218	99.19
293.449	76.19
293.68	104.19
293.91	87.19
294.141	91.19
294.372	105.19
294.603	90.19
294.833	99.19
295.064	88.19
295.295	95.19
295.525	79.19
295.756	90.19
295.987	95.19
296.217	95.19
296.448	98.19
296.679	92.19
296.909	88.19
297.14	95.19
297.37	91.19
297.601	90.19
297.831	97.19
298.062	97.19
298.292	98.19
298.523	98.19
298.753	119.19
298.984	92.19
299.214	113.19
299.445	108.19
299.675	117.19
299.905	113.19
300.136	133.19
300.366	181.19
300.597	297.19
300.827	489.19
301.057	754.19
301.288	664.19
301.518	278.19
301.748	156.19
301.979	139.19
302.209	142.19
302.439	134.19
302.669	182.19
302.9	286.19
303.13	544.19
303.36	954.19
303.59	1296.19
303.82	934.19
304.051	328.19
304.281	165.19
304.511	122.19
304.741	117.19
304.971	99.19
305.201	115.19
305.431	110.19
305.661	117.19
305.891	118.19
306.121	102.19
306.352	92.19
306.582	105.19
306.812	116.19
307.042	120.19
307.272	111.19
307.502	118.19
307.731	104.19
307.961	108.19
308.191	105.19
308.421	108.19
308.651	117.19
308.881	87.19
309.111	105.19
309.341	104.19
309.571	112.19
309.8	103.19
310.03	119.19
310.26	115.19
310.49	118.19
310.72	102.19
310.949	103.19
311.179	105.19
311.409	103.19
311.639	102.19
311.868	87.19
312.098	92.19
312.328	100.19
312.557	104.19
312.787	109.19
313.017	109.19
313.246	119.19
313.476	118.19
313.706	122.19
313.935	166.19
314.165	193.19
314.394	238.19
314.624	184.19
314.853	116.19
315.083	126.19
315.312	130.19
315.542	142.19
315.771	151.19
316.001	142.19
316.23	135.19
316.46	162.19
316.689	175.19
316.919	279.19
317.148	568.19
317.377	1010.19
317.607	1645.19
317.836	1507.19
318.065	559.19
318.295	228.19
318.524	170.19
318.753	136.19
318.983	122.19
319.212	119.19
319.441	126.19
319.67	128.19
319.9	120.19
320.129	106.19
320.358	116.19
320.587	133.19
320.816	119.19
321.046	117.19
321.275	117.19
321.504	121.19
321.733	141.19
321.962	161.19
322.191	155.19
322.42	138.19
322.649	135.19
322.878	126.19
323.108	129.19
323.337	120.19
323.566	124.19
323.795	127.19
324.024	121.19
324.253	150.19
324.482	178.19
324.71	244.19
324.939	314.19
325.168	239.19
325.397	193.19
325.626	259.19
325.855	519.19
326.084	1014.19
326.313	1725.19
326.542	1710.19
326.77	658.19
326.999	286.19
327.228	226.19
327.457	255.19
327.686	248.19
327.914	174.19
328.143	132.19
328.372	129.19
328.6	122.19
328.829	113.19
329.058	117.19
329.287	113.19
329.515	124.19
329.744	120.19
329.972	119.19
330.201	116.19
330.43	116.19
330.658	119.19
330.887	118.19
331.115	109.19
331.344	117.19
331.572	112.19
331.801	109.19
332.03	121.19
332.258	136.19
332.486	172.19
332.715	336.19
332.943	543.19
333.172	822.19
333.4	715.19
333.629	267.19
333.857	143.19
334.085	122.19
334.314	118.19
334.542	116.19
334.771	116.19
334.999	114.19
335.227	109.19
335.455	104.19
335.684	107.19
335.912	111.19
336.14	111.19
336.369	120.19
336.597	120.19
336.825	103.19
337.053	113.19
337.281	116.19
337.51	112.19
337.738	112.19
337.966	102.19
338.194	108.19
338.422	115.19
338.65	120.19
338.878	121.19
339.106	111.19
339.334	122.19
339.562	122.19
339.79	129.19
340.018	112.19
340.246	117.19
340.474	110.19
340.702	121.19
340.93	109.19
341.158	116.19
341.386	114.19
341.614	117.19
341.842	122.19
342.07	120.19
342.298	127.19
342.526	134.19
342.754	113.19
342.981	120.19
343.209	110.19
343.437	121.19
343.665	104.19
343.893	110.19
344.12	116.19
344.348	109.19
344.576	116.19
344.804	117.19
345.031	121.19
345.259	121.19
345.487	109.19
345.714	118.19
345.942	104.19
346.17	106.19
346.397	118.19
346.625	100.19
346.853	112.19
347.08	117.19
347.308	112.19
347.535	104.19
347.763	98.19
347.99	103.19
348.218	94.19
348.445	114.19
348.673	117.19
348.9	109.19
349.128	122.19
349.355	100.19
349.583	109.19
349.81	122.19
350.037	115.19
350.265	119.19
350.492	120.19
350.72	111.19
350.947	113.19
351.174	112.19
351.402	119.19
351.629	128.19
351.856	125.19
352.083	112.19
352.311	105.19
352.538	117.19
352.765	117.19
352.992	117.19
353.22	105.19
353.447	128.19
353.674	92.19
353.901	87.19
354.128	102.19
354.355	98.19
354.583	102.19
354.81	112.19
355.037	106.19
355.264	105.19
355.491	100.19
355.718	92.19
355.945	103.19
356.172	104.19
356.399	122.19
356.626	96.19
356.853	105.19
357.08	116.19
357.307	116.19
357.534	105.19
357.761	103.19
357.988	93.19
358.215	105.19
358.441	112.19
358.668	116.19
358.895	117.19
359.122	130.19
359.349	122.19
359.576	112.19
359.802	123.19
360.029	106.19
360.256	89.19
360.483	108.19
360.709	101.19
360.936	114.19
361.163	120.19
361.39	105.19
361.616	116.19
361.843	117.19
362.07	121.19
362.296	112.19
362.523	111.19
362.749	113.19
362.976	113.19
363.203	124.19
363.429	102.19
363.656	120.19
363.882	105.19
364.109	120.19
364.335	101.19
364.562	90.19
364.788	99.19
365.015	129.19
365.241	134.19
365.468	209.19
365.694	272.19
365.92	211.19
366.147	124.19
366.373	99.19
366.599	106.19
366.826	101.19
367.052	110.19
367.278	88.19
367.505	103.19
367.731	97.19
367.957	100.19
368.184	114.19
368.41	113.19
368.636	141.19
368.862	115.19
369.089	92.19
369.315	99.19
369.541	118.19
369.767	116.19
369.993	99.19
370.219	102.19
370.445	103.19
370.672	113.19
370.898	119.19
371.124	104.19
371.35	108.19
371.576	93.19
371.802	108.19
372.028	126.19
372.254	114.19
372.48	103.19
372.706	108.19
372.932	100.19
373.158	109.19
373.384	113.19
373.61	136.19
373.835	120.19
374.061	119.19
374.287	121.19
374.513	119.19
374.739	122.19
374.965	90.19
375.191	113.19
375.416	106.19
375.642	111.19
375.868	114.19
376.094	103.19
376.319	111.19
376.545	108.19
376.771	102.19
376.997	115.19
377.222	101.19
377.448	112.19
377.674	105.19
377.899	117.19
378.125	116.19
378.35	115.19
378.576	121.19
378.802	132.19
379.027	141.19
379.253	140.19
379.478	181.19
379.704	334.19
379.929	833.19
380.155	1728.19
380.38	1766.19
380.606	591.19
380.831	202.19
381.057	140.19
381.282	123.19
381.507	112.19
381.733	109.19
381.958	119.19
382.184	104.19
382.409	112.19
382.634	104.19
382.86	96.19
383.085	108.19
383.31	102.19
383.535	102.19
383.761	110.19
383.986	110.19
384.211	112.19
384.436	102.19
384.662	108.19
384.887	110.19
385.112	98.19
385.337	96.19
385.562	112.19
385.787	97.19
386.013	113.19
386.238	108.19
386.463	107.19
386.688	112.19
386.913	90.19
387.138	110.19
387.363	116.19
387.588	101.19
387.813	107.19
388.038	117.19
388.263	109.19
388.488	116.19
388.713	112.19
388.938	95.19
389.163	90.19
389.387	110.19
389.612	87.19
389.837	115.19
390.062	97.19
390.287	107.19
390.512	101.19
390.736	96.19
390.961	99.19
391.186	100.19
391.411	86.19
391.636	108.19
391.86	100.19
392.085	111.19
392.31	108.19
392.534	82.19
392.759	109.19
392.984	114.19
393.208	120.19
393.433	150.19
393.658	117.19
393.882	116.19
394.107	90.19
394.331	108.19
394.556	116.19
394.78	98.19
395.005	97.19
395.229	104.19
395.454	91.19
395.678	96.19
395.903	105.19
396.127	94.19
396.352	105.19
396.576	101.19
396.801	111.19
397.025	130.19
397.249	107.19
397.474	104.19
397.698	97.19
397.922	101.19
398.147	100.19
398.371	97.19
398.595	98.19
398.82	101.19
399.044	102.19
399.268	97.19
399.492	94.19
399.717	105.19
399.941	104.19
400.165	97.19
400.389	96.19
400.613	99.19
400.837	92.19
401.062	101.19
401.286	103.19
401.51	76.19
401.734	92.19
401.958	88.19
402.182	110.19
402.406	96.19
402.63	107.19
402.854	93.19
403.078	105.19
403.302	103.19
403.526	96.19
403.75	102.19
403.974	105.19
404.198	87.19
404.422	81.19
404.645	99.19
404.869	102.19
405.093	107.19
405.317	114.19
405.541	110.19
405.765	127.19
405.988	137.19
406.212	123.19
406.436	105.19
406.66	105.19
406.883	102.19
407.107	101.19
407.331	94.19
407.555	110.19
407.778	97.19
408.002	112.19
408.226	95.19
408.449	110.19
408.673	104.19
408.896	105.19
409.12	106.19
409.344	94.19
409.567	109.19
409.791	82.19
410.014	98.19
410.238	105.19
410.461	99.19
410.685	79.19
410.908	103.19
411.132	107.19
411.355	113.19
411.578	105.19
411.802	104.19
412.025	100.19
412.249	102.19
412.472	98.19
412.695	93.19
412.919	80.19
413.142	94.19
413.365	90.19
413.589	90.19
413.812	105.19
414.035	98.19
414.258	105.19
414.482	105.19
414.705	113.19
414.928	107.19
415.151	112.19
415.374	87.19
415.597	95.19
415.821	102.19
416.044	102.19
416.267	94.19
416.49	93.19
416.713	91.19
416.936	97.19
417.159	93.19
417.382	91.19
417.605	89.19
417.828	100.19
418.051	92.19
418.274	99.19
418.497	100.19
418.72	106.19
418.943	104.19
419.166	101.19
419.389	120.19
419.611	112.19
419.834	94.19
420.057	101.19
420.28	100.19
420.503	102.19
420.726	94.19
420.948	94.19
421.171	89.19
421.394	88.19
421.617	75.19
421.839	104.19
422.062	92.19
422.285	105.19
422.507	100.19
422.73	105.19
422.953	133.19
423.175	117.19
423.398	93.19
423.621	91.19
423.843	94.19
424.066	95.19
424.288	105.19
424.511	93.19
424.733	73.19
424.956	87.19
425.178	98.19
425.401	102.19
425.623	92.19
425.846	94.19
426.068	111.19
426.291	98.19
426.513	105.19
426.735	89.19
426.958	106.19
427.18	89.19
427.402	108.19
427.625	101.19
427.847	101.19
428.069	85.19
428.292	93.19
428.514	106.19
428.736	100.19
428.958	89.19
429.181	95.19
429.403	94.19
429.625	102.19
429.847	90.19
430.069	108.19
430.292	92.19
430.514	102.19
430.736	113.19
430.958	93.19
431.18	95.19
431.402	88.19
431.624	91.19
431.846	84.19
432.068	100.19
432.29	87.19
432.512	111.19
432.734	107.19
432.956	93.19
433.178	94.19
433.4	96.19
433.622	106.19
433.844	100.19
434.066	101.19
434.287	86.19
434.509	88.19
434.731	90.19
434.953	81.19
435.175	99.19
435.397	88.19
435.618	93.19
435.84	91.19
436.062	89.19
436.284	92.19
436.505	71.19
436.727	96.19
436.949	89.19
437.17	93.19
437.392	88.19
437.614	96.19
437.835	92.19
438.057	89.19
438.278	90.19
438.5	100.19
438.721	97.19
438.943	94.19
439.165	112.19
439.386	108.19
439.608	96.19
439.829	86.19
440.05	102.19
440.272	124.19
440.493	104.19
440.715	108.19
440.936	104.19
441.158	94.19
441.379	80.19
441.6	105.19
441.822	115.19
442.043	122.19
442.264	147.19
442.486	115.19
442.707	102.19
442.928	99.19
443.149	93.19
443.371	96.19
443.592	92.19
443.813	82.19
444.034	92.19
444.255	89.19
444.476	83.19
444.698	87.19
444.919	95.19
445.14	181.19
445.361	140.19
445.582	90.19
445.803	86.19
446.024	95.19
446.245	100.19
446.466	104.19
446.687	125.19
446.908	101.19
447.129	111.19
447.35	99.19
447.571	90.19
447.792	103.19
448.013	89.19
448.234	99.19
448.455	87.19
448.675	100.19
448.896	117.19
449.117	102.19
449.338	144.19
449.559	144.19
449.779	117.19
450	101.19
450.221	112.19
450.442	106.19
450.662	120.19
450.883	100.19
451.104	122.19
451.324	122.19
451.545	121.19
451.766	116.19
451.986	144.19
452.207	218.19
452.428	585.19
452.648	1435.19
452.869	794.19
453.089	204.19
453.31	120.19
453.53	133.19
453.751	139.19
453.971	163.19
454.192	172.19
454.412	116.19
454.633	96.19
454.853	94.19
455.073	101.19
455.294	100.19
455.514	92.19
455.734	84.19
455.955	90.19
456.175	114.19
456.395	98.19
456.616	81.19
456.836	97.19
457.056	97.19
457.276	95.19
457.497	126.19
457.717	129.19
457.937	101.19
458.157	98.19
458.377	79.19
458.598	89.19
458.818	92.19
459.038	81.19
459.258	86.19
459.478	101.19
459.698	96.19
459.918	88.19
460.138	85.19
460.358	79.19
460.578	72.19
460.798	98.19
461.018	89.19
461.238	86.19
461.458	89.19
461.678	103.19
461.898	82.19
462.118	104.19
462.338	103.19
462.558	93.19
462.777	95.19
462.997	94.19
463.217	110.19
463.437	126.19
463.657	194.19
463.876	198.19
464.096	122.19
464.316	110.19
464.536	94.19
464.755	104.19
464.975	110.19
465.195	91.19
465.414	89.19
465.634	99.19
465.854	84.19
466.073	77.19
466.293	86.19
466.512	86.19
466.732	100.19
466.951	114.19
467.171	160.19
467.391	160.19
467.61	109.19
467.829	100.19
468.049	106.19
468.268	87.19
468.488	105.19
468.707	89.19
468.927	108.19
469.146	91.19
469.365	108.19
469.585	107.19
469.804	95.19
470.023	94.19
470.243	107.19
470.462	103.19
470.681	111.19
470.901	128.19
471.12	181.19
471.339	220.19
471.558	138.19
471.777	118.19
471.997	95.19
472.216	96.19
472.435	96.19
472.654	86.19
472.873	107.19
473.092	92.19
473.311	85.19
473.53	88.19
473.749	94.19
473.968	96.19
474.187	106.19
474.406	100.19
474.625	111.19
474.844	100.19
475.063	89.19
475.282	84.19
475.501	80.19
475.72	87.19
475.939	90.19
476.158	88.19
476.377	103.19
476.596	100.19
476.814	97.19
477.033	89.19
477.252	97.19
477.471	101.19
477.69	104.19
477.908	82.19
478.127	100.19
478.346	85.19
478.564	87.19
478.783	103.19
479.002	116.19
479.22	84.19
479.439	104.19
479.658	87.19
479.876	95.19
480.095	102.19
480.313	97.19
480.532	88.19
480.751	84.19
480.969	96.19
481.188	101.19
481.406	111.19
481.624	90.19
481.843	112.19
482.061	102.19
482.28	96.19
482.498	92.19
482.717	102.19
482.935	112.19
483.153	90.19
483.372	100.19
483.59	101.19
483.808	87.19
484.027	100.19
484.245	138.19
484.463	194.19
484.681	246.19
484.9	146.19
485.118	130.19
485.336	110.19
485.554	102.19
485.772	138.19
485.99	191.19
486.209	282.19
486.427	178.19
486.645	118.19
486.863	109.19
487.081	98.19
487.299	103.19
487.517	96.19
487.735	107.19
487.953	103.19
488.171	105.19
488.389	91.19
488.607	108.19
488.825	98.19
489.043	104.19
489.261	88.19
489.479	109.19
489.696	88.19
489.914	95.19
490.132	96.19
490.35	95.19
490.568	108.19
490.786	109.19
491.003	105.19
491.221	116.19
491.439	106.19
491.657	94.19
491.874	94.19
492.092	119.19
492.31	114.19
492.527	110.19
492.745	96.19
492.963	108.19
493.18	118.19
493.398	117.19
493.615	111.19
493.833	111.19
494.05	105.19
494.268	92.19
494.485	94.19
494.703	101.19
494.92	88.19
495.138	104.19
495.355	116.19
495.573	96.19
495.79	100.19
496.008	104.19
496.225	97.19
496.442	105.19
496.66	122.19
496.877	170.19
497.094	167.19
497.312	108.19
497.529	104.19
497.746	103.19
497.963	103.19
498.181	105.19
498.398	99.19
498.615	100.19
498.832	100.19
499.049	111.19
499.267	132.19
499.484	160.19
499.701	112.19
499.918	116.19
500.135	104.19
500.352	92.19
500.569	96.19
500.786	85.19
501.003	100.19
501.22	105.19
501.437	96.19
501.654	93.19
501.871	75.19
502.088	90.19
502.305	108.19
502.522	102.19
502.739	102.19
502.956	91.19
503.172	114.19
503.389	93.19
503.606	92.19
503.823	99.19
504.04	101.19
504.256	94.19
504.473	97.19
504.69	103.19
504.907	99.19
505.123	117.19
505.34	96.19
505.557	94.19
505.773	110.19
505.99	87.19
506.207	112.19
506.423	101.19
506.64	116.19
506.856	98.19
507.073	108.19
507.289	101.19
507.506	82.19
507.722	92.19
507.939	102.19
508.155	103.19
508.372	78.19
