Data from SnStandardFlinnAPT0064_QswitchEnergy10_LIBS07252019.E.O._I.C._HRD10591_15-26-29-972.txt Node
Date: Thu Jul 25 15:26:29 EDT 2019
User: cochatt
Spectrometer: HR+D1059
Trigger mode: 1
Integration Time (sec): 1.000000E-1
Scans to average: 1
Electric dark correction enabled: true
Nonlinearity correction enabled: false
Boxcar width: 0
XAxis mode: Wavelengths
Number of Pixels in Spectrum: 2048
>>>>>Begin Spectral Data<<<<<
223.165	-17.06
223.4	-17.06
223.635	-17.06
223.869	-24.06
224.104	0.94
224.338	-14.06
224.573	-14.06
224.808	-17.06
225.042	-17.06
225.277	1.94
225.511	-9.06
225.746	4.94
225.98	11.94
226.215	14.94
226.449	14.94
226.683	10.94
226.918	18.94
227.152	32.94
227.387	30.94
227.621	35.94
227.856	37.94
228.09	40.94
228.324	54.94
228.559	59.94
228.793	67.94
229.027	88.94
229.262	66.94
229.496	76.94
229.73	53.94
229.964	64.94
230.199	66.94
230.433	69.94
230.667	83.94
230.901	77.94
231.136	73.94
231.37	93.94
231.604	83.94
231.838	97.94
232.072	102.94
232.306	121.94
232.541	89.94
232.775	97.94
233.009	63.94
233.243	98.94
233.477	81.94
233.711	88.94
233.945	102.94
234.179	94.94
234.413	85.94
234.647	80.94
234.881	86.94
235.115	101.94
235.349	92.94
235.583	102.94
235.817	123.94
236.051	132.94
236.285	103.94
236.519	86.94
236.753	89.94
236.987	78.94
237.221	100.94
237.455	73.94
237.689	94.94
237.922	75.94
238.156	72.94
238.39	89.94
238.624	88.94
238.858	73.94
239.091	74.94
239.325	69.94
239.559	73.94
239.793	77.94
240.027	82.94
240.26	88.94
240.494	66.94
240.728	71.94
240.961	79.94
241.195	74.94
241.429	108.94
241.662	79.94
241.896	92.94
242.13	108.94
242.363	126.94
242.597	134.94
242.83	112.94
243.064	122.94
243.298	169.94
243.531	151.94
243.765	100.94
243.998	86.94
244.232	77.94
244.465	87.94
244.699	93.94
244.932	89.94
245.166	83.94
245.399	79.94
245.633	84.94
245.866	87.94
246.099	70.94
246.333	75.94
246.566	96.94
246.8	67.94
247.033	66.94
247.266	89.94
247.5	85.94
247.733	90.94
247.966	88.94
248.2	77.94
248.433	101.94
248.666	128.94
248.899	119.94
249.133	87.94
249.366	95.94
249.599	103.94
249.832	127.94
250.066	116.94
250.299	89.94
250.532	90.94
250.765	80.94
250.998	77.94
251.231	71.94
251.465	74.94
251.698	85.94
251.931	80.94
252.164	75.94
252.397	86.94
252.63	89.94
252.863	95.94
253.096	85.94
253.329	102.94
253.562	99.94
253.795	95.94
254.028	84.94
254.261	104.94
254.494	95.94
254.727	97.94
254.96	135.94
255.193	123.94
255.426	82.94
255.659	86.94
255.892	81.94
256.124	84.94
256.357	87.94
256.59	91.94
256.823	71.94
257.056	103.94
257.289	139.94
257.521	178.94
257.754	135.94
257.987	82.94
258.22	78.94
258.452	93.94
258.685	84.94
258.918	80.94
259.151	95.94
259.383	113.94
259.616	129.94
259.849	129.94
260.081	110.94
260.314	86.94
260.547	91.94
260.779	78.94
261.012	81.94
261.244	92.94
261.477	84.94
261.71	85.94
261.942	81.94
262.175	88.94
262.407	83.94
262.64	78.94
262.872	78.94
263.105	86.94
263.337	92.94
263.57	76.94
263.802	76.94
264.035	83.94
264.267	75.94
264.499	77.94
264.732	86.94
264.964	85.94
265.197	87.94
265.429	89.94
265.661	101.94
265.894	97.94
266.126	127.94
266.358	150.94
266.591	142.94
266.823	98.94
267.055	80.94
267.287	89.94
267.52	61.94
267.752	89.94
267.984	93.94
268.216	93.94
268.448	80.94
268.681	84.94
268.913	92.94
269.145	91.94
269.377	100.94
269.609	95.94
269.841	100.94
270.073	110.94
270.306	126.94
270.538	191.94
270.77	309.94
271.002	361.94
271.234	187.94
271.466	105.94
271.698	96.94
271.93	90.94
272.162	86.94
272.394	77.94
272.626	88.94
272.858	94.94
273.09	71.94
273.322	77.94
273.553	84.94
273.785	92.94
274.017	79.94
274.249	90.94
274.481	82.94
274.713	82.94
274.945	83.94
275.176	86.94
275.408	88.94
275.64	77.94
275.872	80.94
276.104	86.94
276.335	88.94
276.567	94.94
276.799	102.94
277.031	86.94
277.262	96.94
277.494	113.94
277.726	120.94
277.957	173.94
278.189	236.94
278.421	224.94
278.652	197.94
278.884	180.94
279.115	124.94
279.347	106.94
279.579	88.94
279.81	90.94
280.042	99.94
280.273	103.94
280.505	97.94
280.736	112.94
280.968	122.94
281.199	172.94
281.431	240.94
281.662	267.94
281.894	141.94
282.125	116.94
282.356	120.94
282.588	113.94
282.819	94.94
283.051	106.94
283.282	140.94
283.513	194.94
283.745	296.94
283.976	508.94
284.207	732.94
284.439	568.94
284.67	242.94
284.901	240.94
285.132	335.94
285.364	369.94
285.595	221.94
285.826	150.94
286.057	234.94
286.288	394.94
286.52	577.94
286.751	467.94
286.982	195.94
287.213	119.94
287.444	104.94
287.675	101.94
287.906	104.94
288.138	91.94
288.369	90.94
288.6	92.94
288.831	101.94
289.062	81.94
289.293	79.94
289.524	93.94
289.755	89.94
289.986	87.94
290.217	101.94
290.448	95.94
290.679	109.94
290.91	124.94
291.141	157.94
291.371	226.94
291.602	297.94
291.833	198.94
292.064	106.94
292.295	112.94
292.526	102.94
292.757	99.94
292.987	90.94
293.218	89.94
293.449	89.94
293.68	89.94
293.91	92.94
294.141	102.94
294.372	87.94
294.603	91.94
294.833	74.94
295.064	88.94
295.295	82.94
295.525	100.94
295.756	88.94
295.987	96.94
296.217	85.94
296.448	92.94
296.679	100.94
296.909	96.94
297.14	92.94
297.37	84.94
297.601	100.94
297.831	89.94
298.062	104.94
298.292	116.94
298.523	101.94
298.753	99.94
298.984	112.94
299.214	100.94
299.445	96.94
299.675	121.94
299.905	111.94
300.136	122.94
300.366	167.94
300.597	243.94
300.827	431.94
301.057	642.94
301.288	586.94
301.518	245.94
301.748	142.94
301.979	135.94
302.209	146.94
302.439	144.94
302.669	169.94
302.9	258.94
303.13	481.94
303.36	866.94
303.59	1133.94
303.82	814.94
304.051	281.94
304.281	146.94
304.511	109.94
304.741	118.94
304.971	116.94
305.201	111.94
305.431	104.94
305.661	106.94
305.891	100.94
306.121	89.94
306.352	102.94
306.582	108.94
306.812	108.94
307.042	101.94
307.272	128.94
307.502	97.94
307.731	105.94
307.961	98.94
308.191	108.94
308.421	86.94
308.651	96.94
308.881	112.94
309.111	98.94
309.341	102.94
309.571	110.94
309.8	93.94
310.03	97.94
310.26	104.94
310.49	105.94
310.72	112.94
310.949	113.94
311.179	113.94
311.409	106.94
311.639	97.94
311.868	95.94
312.098	101.94
312.328	114.94
312.557	96.94
312.787	99.94
313.017	108.94
313.246	118.94
313.476	108.94
313.706	119.94
313.935	145.94
314.165	194.94
314.394	206.94
314.624	162.94
314.853	118.94
315.083	130.94
315.312	125.94
315.542	131.94
315.771	125.94
316.001	137.94
316.23	138.94
316.46	137.94
316.689	179.94
316.919	230.94
317.148	477.94
317.377	846.94
317.607	1384.94
317.836	1303.94
318.065	494.94
318.295	202.94
318.524	152.94
318.753	133.94
318.983	122.94
319.212	117.94
319.441	110.94
319.67	102.94
319.9	112.94
320.129	105.94
320.358	112.94
320.587	116.94
320.816	118.94
321.046	115.94
321.275	122.94
321.504	115.94
321.733	142.94
321.962	153.94
322.191	160.94
322.42	126.94
322.649	126.94
322.878	114.94
323.108	110.94
323.337	104.94
323.566	120.94
323.795	118.94
324.024	128.94
324.253	130.94
324.482	164.94
324.71	209.94
324.939	256.94
325.168	223.94
325.397	179.94
325.626	252.94
325.855	463.94
326.084	916.94
326.313	1473.94
326.542	1495.94
326.77	595.94
326.999	246.94
327.228	204.94
327.457	235.94
327.686	212.94
327.914	154.94
328.143	124.94
328.372	129.94
328.6	118.94
328.829	116.94
329.058	106.94
329.287	92.94
329.515	105.94
329.744	109.94
329.972	94.94
330.201	107.94
330.43	97.94
330.658	102.94
330.887	116.94
331.115	124.94
331.344	119.94
331.572	116.94
331.801	113.94
332.03	108.94
332.258	124.94
332.486	157.94
332.715	271.94
332.943	473.94
333.172	728.94
333.4	630.94
333.629	231.94
333.857	151.94
334.085	134.94
334.314	120.94
334.542	120.94
334.771	127.94
334.999	112.94
335.227	112.94
335.455	128.94
335.684	117.94
335.912	118.94
336.14	104.94
336.369	108.94
336.597	90.94
336.825	110.94
337.053	105.94
337.281	104.94
337.51	105.94
337.738	121.94
337.966	103.94
338.194	98.94
338.422	101.94
338.65	98.94
338.878	102.94
339.106	103.94
339.334	113.94
339.562	109.94
339.79	95.94
340.018	95.94
340.246	102.94
340.474	120.94
340.702	110.94
340.93	99.94
341.158	113.94
341.386	106.94
341.614	116.94
341.842	110.94
342.07	97.94
342.298	92.94
342.526	105.94
342.754	99.94
342.981	98.94
343.209	104.94
343.437	104.94
343.665	106.94
343.893	95.94
344.12	105.94
344.348	102.94
344.576	110.94
344.804	120.94
345.031	97.94
345.259	111.94
345.487	108.94
345.714	101.94
345.942	94.94
346.17	122.94
346.397	108.94
346.625	116.94
346.853	103.94
347.08	108.94
347.308	101.94
347.535	102.94
347.763	103.94
347.99	94.94
348.218	103.94
348.445	109.94
348.673	105.94
348.9	115.94
349.128	119.94
349.355	116.94
349.583	128.94
349.81	109.94
350.037	113.94
350.265	113.94
350.492	105.94
350.72	111.94
350.947	112.94
351.174	100.94
351.402	90.94
351.629	103.94
351.856	110.94
352.083	116.94
352.311	115.94
352.538	108.94
352.765	104.94
352.992	103.94
353.22	107.94
353.447	113.94
353.674	105.94
353.901	92.94
354.128	92.94
354.355	101.94
354.583	103.94
354.81	97.94
355.037	102.94
355.264	87.94
355.491	97.94
355.718	101.94
355.945	105.94
356.172	97.94
356.399	99.94
356.626	99.94
356.853	101.94
357.08	113.94
357.307	105.94
357.534	103.94
357.761	103.94
357.988	112.94
358.215	104.94
358.441	110.94
358.668	103.94
358.895	99.94
359.122	120.94
359.349	120.94
359.576	113.94
359.802	102.94
360.029	126.94
360.256	121.94
360.483	111.94
360.709	116.94
360.936	109.94
361.163	119.94
361.39	105.94
361.616	97.94
361.843	119.94
362.07	116.94
362.296	98.94
362.523	96.94
362.749	100.94
362.976	99.94
363.203	97.94
363.429	114.94
363.656	102.94
363.882	108.94
364.109	111.94
364.335	113.94
364.562	96.94
364.788	94.94
365.015	90.94
365.241	120.94
365.468	183.94
365.694	243.94
365.92	218.94
366.147	112.94
366.373	100.94
366.599	101.94
366.826	100.94
367.052	101.94
367.278	96.94
367.505	111.94
367.731	99.94
367.957	109.94
368.184	113.94
368.41	119.94
368.636	120.94
368.862	116.94
369.089	106.94
369.315	107.94
369.541	103.94
369.767	106.94
369.993	121.94
370.219	102.94
370.445	94.94
370.672	104.94
370.898	110.94
371.124	98.94
371.35	108.94
371.576	93.94
371.802	117.94
372.028	117.94
372.254	117.94
372.48	111.94
372.706	120.94
372.932	113.94
373.158	93.94
373.384	119.94
373.61	115.94
373.835	121.94
374.061	107.94
374.287	106.94
374.513	110.94
374.739	110.94
374.965	113.94
375.191	92.94
375.416	102.94
375.642	98.94
375.868	105.94
376.094	108.94
376.319	101.94
376.545	102.94
376.771	103.94
376.997	89.94
377.222	96.94
377.448	108.94
377.674	96.94
377.899	104.94
378.125	114.94
378.35	118.94
378.576	102.94
378.802	119.94
379.027	105.94
379.253	126.94
379.478	175.94
379.704	295.94
379.929	720.94
380.155	1479.94
380.38	1550.94
380.606	516.94
380.831	172.94
381.057	124.94
381.282	106.94
381.507	96.94
381.733	97.94
381.958	96.94
382.184	106.94
382.409	112.94
382.634	108.94
382.86	96.94
383.085	100.94
383.31	114.94
383.535	102.94
383.761	107.94
383.986	105.94
384.211	114.94
384.436	100.94
384.662	95.94
384.887	95.94
385.112	114.94
385.337	97.94
385.562	99.94
385.787	105.94
386.013	103.94
386.238	99.94
386.463	106.94
386.688	96.94
386.913	96.94
387.138	106.94
387.363	83.94
387.588	102.94
387.813	112.94
388.038	102.94
388.263	112.94
388.488	108.94
388.713	102.94
388.938	94.94
389.163	88.94
389.387	89.94
389.612	94.94
389.837	109.94
390.062	90.94
390.287	94.94
390.512	94.94
390.736	94.94
390.961	85.94
391.186	94.94
391.411	82.94
391.636	102.94
391.86	105.94
392.085	88.94
392.31	91.94
392.534	96.94
392.759	113.94
392.984	91.94
393.208	108.94
393.433	137.94
393.658	132.94
393.882	114.94
394.107	99.94
394.331	108.94
394.556	94.94
394.78	87.94
395.005	72.94
395.229	95.94
395.454	102.94
395.678	90.94
395.903	100.94
396.127	91.94
396.352	95.94
396.576	92.94
396.801	124.94
397.025	137.94
397.249	118.94
397.474	88.94
397.698	93.94
397.922	92.94
398.147	96.94
398.371	93.94
398.595	100.94
398.82	102.94
399.044	78.94
399.268	84.94
399.492	97.94
399.717	100.94
399.941	94.94
400.165	88.94
400.389	91.94
400.613	98.94
400.837	91.94
401.062	97.94
401.286	95.94
401.51	91.94
401.734	84.94
401.958	95.94
402.182	104.94
402.406	96.94
402.63	87.94
402.854	104.94
403.078	99.94
403.302	87.94
403.526	98.94
403.75	79.94
403.974	94.94
404.198	102.94
404.422	87.94
404.645	102.94
404.869	94.94
405.093	96.94
405.317	88.94
405.541	97.94
405.765	126.94
405.988	130.94
406.212	114.94
406.436	90.94
406.66	90.94
406.883	99.94
407.107	93.94
407.331	96.94
407.555	104.94
407.778	104.94
408.002	89.94
408.226	97.94
408.449	114.94
408.673	106.94
408.896	96.94
409.12	102.94
409.344	88.94
409.567	96.94
409.791	102.94
410.014	96.94
410.238	97.94
410.461	100.94
410.685	96.94
410.908	87.94
411.132	87.94
411.355	95.94
411.578	85.94
411.802	97.94
412.025	111.94
412.249	101.94
412.472	86.94
412.695	83.94
412.919	98.94
413.142	92.94
413.365	106.94
413.589	110.94
413.812	104.94
414.035	98.94
414.258	110.94
414.482	95.94
414.705	86.94
414.928	95.94
415.151	91.94
415.374	99.94
415.597	90.94
415.821	113.94
416.044	103.94
416.267	89.94
416.49	95.94
416.713	87.94
416.936	114.94
417.159	80.94
417.382	95.94
417.605	89.94
417.828	88.94
418.051	77.94
418.274	83.94
418.497	98.94
418.72	100.94
418.943	89.94
419.166	102.94
419.389	112.94
419.611	113.94
419.834	93.94
420.057	111.94
420.28	89.94
420.503	96.94
420.726	101.94
420.948	80.94
421.171	98.94
421.394	96.94
421.617	81.94
421.839	81.94
422.062	101.94
422.285	98.94
422.507	98.94
422.73	114.94
422.953	130.94
423.175	106.94
423.398	87.94
423.621	93.94
423.843	88.94
424.066	103.94
424.288	95.94
424.511	94.94
424.733	85.94
424.956	94.94
425.178	106.94
425.401	102.94
425.623	100.94
425.846	79.94
426.068	100.94
426.291	93.94
426.513	94.94
426.735	97.94
426.958	88.94
427.18	89.94
427.402	93.94
427.625	93.94
427.847	109.94
428.069	92.94
428.292	112.94
428.514	90.94
428.736	96.94
428.958	92.94
429.181	92.94
429.403	103.94
429.625	91.94
429.847	90.94
430.069	108.94
430.292	106.94
430.514	93.94
430.736	72.94
430.958	88.94
431.18	95.94
431.402	74.94
431.624	99.94
431.846	104.94
432.068	80.94
432.29	90.94
432.512	104.94
432.734	90.94
432.956	85.94
433.178	88.94
433.4	85.94
433.622	76.94
433.844	96.94
434.066	77.94
434.287	89.94
434.509	88.94
434.731	80.94
434.953	94.94
435.175	86.94
435.397	90.94
435.618	97.94
435.84	97.94
436.062	89.94
436.284	83.94
436.505	93.94
436.727	68.94
436.949	95.94
437.17	89.94
437.392	100.94
437.614	84.94
437.835	96.94
438.057	98.94
438.278	86.94
438.5	81.94
438.721	87.94
438.943	107.94
439.165	104.94
439.386	109.94
439.608	105.94
439.829	124.94
440.05	120.94
440.272	123.94
440.493	99.94
440.715	90.94
440.936	77.94
441.158	89.94
441.379	101.94
441.6	96.94
441.822	112.94
442.043	117.94
442.264	109.94
442.486	100.94
442.707	101.94
442.928	89.94
443.149	97.94
443.371	91.94
443.592	96.94
443.813	83.94
444.034	88.94
444.255	78.94
444.476	96.94
444.698	88.94
444.919	78.94
445.14	200.94
445.361	148.94
445.582	100.94
445.803	93.94
446.024	99.94
446.245	106.94
446.466	105.94
446.687	97.94
446.908	98.94
447.129	99.94
447.35	84.94
447.571	99.94
447.792	83.94
448.013	83.94
448.234	99.94
448.455	93.94
448.675	90.94
448.896	98.94
449.117	106.94
449.338	115.94
449.559	137.94
449.779	107.94
450	102.94
450.221	99.94
450.442	100.94
450.662	96.94
450.883	111.94
451.104	120.94
451.324	118.94
451.545	99.94
451.766	116.94
451.986	134.94
452.207	205.94
452.428	534.94
452.648	1294.94
452.869	730.94
453.089	196.94
453.31	124.94
453.53	113.94
453.751	139.94
453.971	147.94
454.192	148.94
454.412	116.94
454.633	92.94
454.853	90.94
455.073	80.94
455.294	96.94
455.514	84.94
455.734	96.94
455.955	97.94
456.175	96.94
456.395	88.94
456.616	97.94
456.836	95.94
457.056	94.94
457.276	95.94
457.497	107.94
457.717	120.94
457.937	104.94
458.157	84.94
458.377	81.94
458.598	80.94
458.818	95.94
459.038	96.94
459.258	94.94
459.478	90.94
459.698	81.94
459.918	86.94
460.138	72.94
460.358	81.94
460.578	92.94
460.798	91.94
461.018	91.94
461.238	82.94
461.458	109.94
461.678	85.94
461.898	84.94
462.118	70.94
462.338	96.94
462.558	82.94
462.777	81.94
462.997	91.94
463.217	94.94
463.437	117.94
463.657	174.94
463.876	177.94
464.096	131.94
464.316	90.94
464.536	101.94
464.755	84.94
464.975	106.94
465.195	94.94
465.414	92.94
465.634	89.94
465.854	84.94
466.073	92.94
466.293	91.94
466.512	110.94
466.732	98.94
466.951	105.94
467.171	125.94
467.391	138.94
467.61	89.94
467.829	95.94
468.049	85.94
468.268	108.94
468.488	88.94
468.707	98.94
468.927	99.94
469.146	94.94
469.365	95.94
469.585	92.94
469.804	112.94
470.023	101.94
470.243	97.94
470.462	103.94
470.681	112.94
470.901	137.94
471.12	176.94
471.339	195.94
471.558	128.94
471.777	106.94
471.997	101.94
472.216	106.94
472.435	92.94
472.654	92.94
472.873	85.94
473.092	98.94
473.311	87.94
473.53	88.94
473.749	111.94
473.968	96.94
474.187	79.94
474.406	87.94
474.625	89.94
474.844	95.94
475.063	89.94
475.282	95.94
475.501	84.94
475.72	106.94
475.939	99.94
476.158	104.94
476.377	114.94
476.596	103.94
476.814	92.94
477.033	99.94
477.252	87.94
477.471	84.94
477.69	95.94
477.908	89.94
478.127	101.94
478.346	95.94
478.564	76.94
478.783	98.94
479.002	94.94
479.22	96.94
479.439	93.94
479.658	100.94
479.876	92.94
480.095	88.94
480.313	88.94
480.532	88.94
480.751	83.94
480.969	88.94
481.188	86.94
481.406	84.94
481.624	98.94
481.843	121.94
482.061	92.94
482.28	93.94
482.498	92.94
482.717	86.94
482.935	97.94
483.153	89.94
483.372	86.94
483.59	91.94
483.808	88.94
484.027	100.94
484.245	121.94
484.463	166.94
484.681	213.94
484.9	143.94
485.118	122.94
485.336	99.94
485.554	104.94
485.772	121.94
485.99	185.94
486.209	231.94
486.427	158.94
486.645	125.94
486.863	116.94
487.081	103.94
487.299	97.94
487.517	100.94
487.735	98.94
487.953	102.94
488.171	104.94
488.389	107.94
488.607	94.94
488.825	88.94
489.043	81.94
489.261	98.94
489.479	101.94
489.696	92.94
489.914	107.94
490.132	97.94
490.35	115.94
490.568	104.94
490.786	96.94
491.003	100.94
491.221	102.94
491.439	120.94
491.657	111.94
491.874	115.94
492.092	97.94
492.31	116.94
492.527	92.94
492.745	102.94
492.963	99.94
493.18	102.94
493.398	108.94
493.615	87.94
493.833	108.94
494.05	88.94
494.268	102.94
494.485	100.94
494.703	105.94
494.92	92.94
495.138	99.94
495.355	103.94
495.573	113.94
495.79	98.94
496.008	92.94
496.225	99.94
496.442	114.94
496.66	118.94
496.877	162.94
497.094	150.94
497.312	101.94
497.529	105.94
497.746	108.94
497.963	93.94
498.181	103.94
498.398	114.94
498.615	100.94
498.832	93.94
499.049	99.94
499.267	132.94
499.484	147.94
499.701	115.94
499.918	97.94
500.135	82.94
500.352	89.94
500.569	89.94
500.786	104.94
501.003	89.94
501.22	83.94
501.437	94.94
501.654	100.94
501.871	96.94
502.088	90.94
502.305	110.94
502.522	82.94
502.739	108.94
502.956	97.94
503.172	92.94
503.389	96.94
503.606	91.94
503.823	91.94
504.04	87.94
504.256	108.94
504.473	97.94
504.69	102.94
504.907	118.94
505.123	122.94
505.34	109.94
505.557	101.94
505.773	92.94
505.99	100.94
506.207	98.94
506.423	114.94
506.64	101.94
506.856	99.94
507.073	99.94
507.289	95.94
507.506	106.94
507.722	88.94
507.939	96.94
508.155	93.94
508.372	92.94
508.588	98.94
508.805	77.94
509.021	104.94
509.238	102.94
509.454	135.94
509.67	150.94
509.887	111.94
510.103	98.94
