Data from SnStandardFlinnAPT0064_LampEnergy5.5_LIBS07252019.E.O._I.C._HRD10591_15-16-44-491.txt Node
Date: Thu Jul 25 15:16:44 EDT 2019
User: cochatt
Spectrometer: HR+D1059
Trigger mode: 1
Integration Time (sec): 1.000000E-1
Scans to average: 1
Electric dark correction enabled: true
Nonlinearity correction enabled: false
Boxcar width: 0
XAxis mode: Wavelengths
Number of Pixels in Spectrum: 2048
>>>>>Begin Spectral Data<<<<<
223.165	-16.88
223.4	-16.88
223.635	-16.88
223.869	-19.88
224.104	-15.88
224.338	-27.88
224.573	-1.88
224.808	-13.88
225.042	-9.88
225.277	-8.88
225.511	4.12
225.746	6.12
225.98	13.12
226.215	5.12
226.449	5.12
226.683	28.12
226.918	33.12
227.152	20.12
227.387	34.12
227.621	45.12
227.856	43.12
228.09	55.12
228.324	47.12
228.559	58.12
228.793	82.12
229.027	151.12
229.262	174.12
229.496	159.12
229.73	144.12
229.964	158.12
230.199	166.12
230.433	177.12
230.667	173.12
230.901	175.12
231.136	186.12
231.37	190.12
231.604	200.12
231.838	208.12
232.072	239.12
232.306	268.12
232.541	219.12
232.775	198.12
233.009	210.12
233.243	199.12
233.477	222.12
233.711	261.12
233.945	267.12
234.179	237.12
234.413	220.12
234.647	215.12
234.881	223.12
235.115	252.12
235.349	299.12
235.583	359.12
235.817	459.12
236.051	444.12
236.285	309.12
236.519	242.12
236.753	243.12
236.987	232.12
237.221	265.12
237.455	245.12
237.689	234.12
237.922	218.12
238.156	222.12
238.39	220.12
238.624	220.12
238.858	219.12
239.091	240.12
239.325	239.12
239.559	244.12
239.793	246.12
240.027	253.12
240.26	258.12
240.494	268.12
240.728	269.12
240.961	284.12
241.195	274.12
241.429	304.12
241.662	312.12
241.896	348.12
242.13	401.12
242.363	557.12
242.597	683.12
242.83	658.12
243.064	662.12
243.298	773.12
243.531	638.12
243.765	420.12
243.998	334.12
244.232	317.12
244.465	299.12
244.699	309.12
244.932	311.12
245.166	309.12
245.399	292.12
245.633	316.12
245.866	306.12
246.099	322.12
246.333	322.12
246.566	286.12
246.8	316.12
247.033	300.12
247.266	302.12
247.5	307.12
247.733	317.12
247.966	307.12
248.2	335.12
248.433	366.12
248.666	417.12
248.899	418.12
249.133	363.12
249.366	388.12
249.599	427.12
249.832	465.12
250.066	470.12
250.299	382.12
250.532	348.12
250.765	338.12
250.998	318.12
251.231	345.12
251.465	340.12
251.698	323.12
251.931	355.12
252.164	343.12
252.397	349.12
252.63	357.12
252.863	362.12
253.096	348.12
253.329	382.12
253.562	364.12
253.795	355.12
254.028	357.12
254.261	372.12
254.494	383.12
254.727	441.12
254.96	548.12
255.193	516.12
255.426	429.12
255.659	390.12
255.892	382.12
256.124	387.12
256.357	388.12
256.59	410.12
256.823	434.12
257.056	460.12
257.289	567.12
257.521	586.12
257.754	515.12
257.987	406.12
258.22	407.12
258.452	414.12
258.685	437.12
258.918	416.12
259.151	416.12
259.383	493.12
259.616	491.12
259.849	549.12
260.081	476.12
260.314	420.12
260.547	425.12
260.779	442.12
261.012	422.12
261.244	419.12
261.477	440.12
261.71	428.12
261.942	448.12
262.175	455.12
262.407	469.12
262.64	471.12
262.872	490.12
263.105	502.12
263.337	535.12
263.57	568.12
263.802	579.12
264.035	573.12
264.267	586.12
264.499	603.12
264.732	623.12
264.964	654.12
265.197	608.12
265.429	617.12
265.661	631.12
265.894	673.12
266.126	754.12
266.358	827.12
266.591	820.12
266.823	726.12
267.055	650.12
267.287	621.12
267.52	593.12
267.752	586.12
267.984	560.12
268.216	556.12
268.448	557.12
268.681	574.12
268.913	559.12
269.145	566.12
269.377	540.12
269.609	558.12
269.841	559.12
270.073	612.12
270.306	687.12
270.538	919.12
270.77	1348.12
271.002	1648.12
271.234	1154.12
271.466	769.12
271.698	606.12
271.93	590.12
272.162	577.12
272.394	543.12
272.626	559.12
272.858	576.12
273.09	540.12
273.322	535.12
273.553	548.12
273.785	527.12
274.017	533.12
274.249	530.12
274.481	549.12
274.713	537.12
274.945	531.12
275.176	525.12
275.408	544.12
275.64	554.12
275.872	539.12
276.104	548.12
276.335	553.12
276.567	544.12
276.799	558.12
277.031	567.12
277.262	580.12
277.494	602.12
277.726	656.12
277.957	726.12
278.189	841.12
278.421	784.12
278.652	718.12
278.884	672.12
279.115	626.12
279.347	590.12
279.579	600.12
279.81	606.12
280.042	594.12
280.273	616.12
280.505	593.12
280.736	634.12
280.968	687.12
281.199	717.12
281.431	819.12
281.662	826.12
281.894	704.12
282.125	685.12
282.356	690.12
282.588	706.12
282.819	685.12
283.051	740.12
283.282	839.12
283.513	1018.12
283.745	1452.12
283.976	2355.12
284.207	3340.12
284.439	2942.12
284.67	1701.12
284.901	1399.12
285.132	1362.12
285.364	1348.12
285.595	1060.12
285.826	970.12
286.057	1157.12
286.288	1591.12
286.52	2100.12
286.751	1933.12
286.982	1198.12
287.213	916.12
287.444	818.12
287.675	750.12
287.906	743.12
288.138	735.12
288.369	713.12
288.6	716.12
288.831	712.12
289.062	701.12
289.293	714.12
289.524	714.12
289.755	707.12
289.986	729.12
290.217	720.12
290.448	716.12
290.679	717.12
290.91	732.12
291.141	748.12
291.371	829.12
291.602	829.12
291.833	783.12
292.064	744.12
292.295	720.12
292.526	715.12
292.757	692.12
292.987	682.12
293.218	691.12
293.449	666.12
293.68	685.12
293.91	660.12
294.141	684.12
294.372	653.12
294.603	691.12
294.833	702.12
295.064	670.12
295.295	647.12
295.525	688.12
295.756	669.12
295.987	663.12
296.217	691.12
296.448	673.12
296.679	684.12
296.909	668.12
297.14	687.12
297.37	702.12
297.601	695.12
297.831	702.12
298.062	708.12
298.292	704.12
298.523	701.12
298.753	710.12
298.984	738.12
299.214	712.12
299.445	749.12
299.675	750.12
299.905	761.12
300.136	822.12
300.366	898.12
300.597	1152.12
300.827	1591.12
301.057	2095.12
301.288	2078.12
301.518	1319.12
301.748	1044.12
301.979	908.12
302.209	929.12
302.439	942.12
302.669	982.12
302.9	1189.12
303.13	1650.12
303.36	2468.12
303.59	3230.12
303.82	2814.12
304.051	1618.12
304.281	1164.12
304.511	954.12
304.741	923.12
304.971	880.12
305.201	860.12
305.431	821.12
305.661	819.12
305.891	804.12
306.121	799.12
306.352	777.12
306.582	770.12
306.812	779.12
307.042	804.12
307.272	806.12
307.502	793.12
307.731	790.12
307.961	776.12
308.191	763.12
308.421	782.12
308.651	752.12
308.881	763.12
309.111	782.12
309.341	792.12
309.571	791.12
309.8	803.12
310.03	807.12
310.26	805.12
310.49	799.12
310.72	802.12
310.949	802.12
311.179	822.12
311.409	804.12
311.639	826.12
311.868	821.12
312.098	819.12
312.328	805.12
312.557	840.12
312.787	800.12
313.017	858.12
313.246	864.12
313.476	848.12
313.706	861.12
313.935	934.12
314.165	940.12
314.394	1030.12
314.624	944.12
314.853	897.12
315.083	892.12
315.312	895.12
315.542	906.12
315.771	902.12
316.001	935.12
316.23	934.12
316.46	1027.12
316.689	1080.12
316.919	1284.12
317.148	1893.12
317.377	2890.12
317.607	4350.12
317.836	4383.12
318.065	2548.12
318.295	1638.12
318.524	1357.12
318.753	1174.12
318.983	1116.12
319.212	1058.12
319.441	1006.12
319.67	992.12
319.9	968.12
320.129	993.12
320.358	987.12
320.587	985.12
320.816	966.12
321.046	971.12
321.275	959.12
321.504	978.12
321.733	984.12
321.962	1061.12
322.191	1028.12
322.42	1034.12
322.649	1026.12
322.878	1046.12
323.108	1018.12
323.337	1069.12
323.566	1055.12
323.795	1086.12
324.024	1132.12
324.253	1131.12
324.482	1150.12
324.71	1238.12
324.939	1256.12
325.168	1301.12
325.397	1338.12
325.626	1611.12
325.855	2242.12
326.084	3492.12
326.313	5336.12
326.542	5572.12
326.77	3458.12
326.999	2276.12
327.228	1870.12
327.457	1814.12
327.686	1789.12
327.914	1923.12
328.143	2196.12
328.372	2634.12
328.6	2764.12
328.829	2555.12
329.058	2250.12
329.287	2010.12
329.515	1795.12
329.744	1706.12
329.972	1632.12
330.201	1531.12
330.43	1500.12
330.658	1444.12
330.887	1430.12
331.115	1418.12
331.344	1403.12
331.572	1422.12
331.801	1431.12
332.03	1394.12
332.258	1420.12
332.486	1493.12
332.715	1703.12
332.943	2078.12
333.172	2541.12
333.4	2502.12
333.629	1919.12
333.857	1762.12
334.085	1745.12
334.314	1829.12
334.542	2038.12
334.771	2341.12
334.999	2779.12
335.227	3360.12
335.455	3784.12
335.684	3472.12
335.912	2990.12
336.14	2520.12
336.369	2228.12
336.597	2062.12
336.825	1888.12
337.053	1815.12
337.281	1668.12
337.51	1638.12
337.738	1589.12
337.966	1516.12
338.194	1488.12
338.422	1416.12
338.65	1415.12
338.878	1376.12
339.106	1358.12
339.334	1333.12
339.562	1300.12
339.79	1298.12
340.018	1239.12
340.246	1241.12
340.474	1270.12
340.702	1266.12
340.93	1253.12
341.158	1259.12
341.386	1272.12
341.614	1241.12
341.842	1212.12
342.07	1206.12
342.298	1197.12
342.526	1182.12
342.754	1166.12
342.981	1149.12
343.209	1143.12
343.437	1163.12
343.665	1180.12
343.893	1205.12
344.12	1174.12
344.348	1164.12
344.576	1158.12
344.804	1146.12
345.031	1114.12
345.259	1066.12
345.487	1094.12
345.714	1067.12
345.942	1046.12
346.17	1105.12
346.397	1071.12
346.625	1071.12
346.853	1069.12
347.08	1050.12
347.308	1050.12
347.535	1074.12
347.763	1088.12
347.99	1049.12
348.218	1032.12
348.445	1028.12
348.673	1055.12
348.9	1021.12
349.128	1039.12
349.355	1015.12
349.583	1049.12
349.81	1034.12
350.037	1026.12
350.265	1021.12
350.492	1010.12
350.72	1053.12
350.947	1052.12
351.174	1017.12
351.402	1026.12
351.629	1019.12
351.856	1004.12
352.083	1021.12
352.311	1011.12
352.538	1004.12
352.765	1032.12
352.992	1015.12
353.22	1007.12
353.447	982.12
353.674	1023.12
353.901	1042.12
354.128	1007.12
354.355	1013.12
354.583	1026.12
354.81	1010.12
355.037	1038.12
355.264	1043.12
355.491	1046.12
355.718	1047.12
355.945	1044.12
356.172	1049.12
356.399	1068.12
356.626	1080.12
356.853	1083.12
357.08	1055.12
357.307	1084.12
357.534	1108.12
357.761	1085.12
357.988	1098.12
358.215	1097.12
358.441	1087.12
358.668	1064.12
358.895	1066.12
359.122	1074.12
359.349	1064.12
359.576	1071.12
359.802	1046.12
360.029	1083.12
360.256	1082.12
360.483	1068.12
360.709	1076.12
360.936	1101.12
361.163	1118.12
361.39	1100.12
361.616	1099.12
361.843	1054.12
362.07	1103.12
362.296	1112.12
362.523	1086.12
362.749	1115.12
362.976	1112.12
363.203	1078.12
363.429	1071.12
363.656	1061.12
363.882	1076.12
364.109	1084.12
364.335	1087.12
364.562	1064.12
364.788	1062.12
365.015	1075.12
365.241	1104.12
365.468	1182.12
365.694	1164.12
365.92	1178.12
366.147	1096.12
366.373	1082.12
366.599	1128.12
366.826	1120.12
367.052	1122.12
367.278	1123.12
367.505	1105.12
367.731	1093.12
367.957	1115.12
368.184	1112.12
368.41	1151.12
368.636	1128.12
368.862	1150.12
369.089	1128.12
369.315	1146.12
369.541	1133.12
369.767	1114.12
369.993	1086.12
370.219	1115.12
370.445	1114.12
370.672	1146.12
370.898	1124.12
371.124	1146.12
371.35	1158.12
371.576	1155.12
371.802	1136.12
372.028	1136.12
372.254	1154.12
372.48	1147.12
372.706	1166.12
372.932	1199.12
373.158	1206.12
373.384	1210.12
373.61	1185.12
373.835	1175.12
374.061	1184.12
374.287	1205.12
374.513	1188.12
374.739	1204.12
374.965	1240.12
375.191	1227.12
375.416	1231.12
375.642	1222.12
375.868	1232.12
376.094	1207.12
376.319	1164.12
376.545	1177.12
376.771	1175.12
376.997	1202.12
377.222	1189.12
377.448	1144.12
377.674	1172.12
377.899	1170.12
378.125	1154.12
378.35	1156.12
378.576	1165.12
378.802	1182.12
379.027	1195.12
379.253	1217.12
379.478	1273.12
379.704	1463.12
379.929	2046.12
380.155	3148.12
380.38	3337.12
380.606	2048.12
380.831	1477.12
381.057	1314.12
381.282	1212.12
381.507	1199.12
381.733	1176.12
381.958	1166.12
382.184	1157.12
382.409	1166.12
382.634	1144.12
382.86	1149.12
383.085	1154.12
383.31	1176.12
383.535	1149.12
383.761	1148.12
383.986	1185.12
384.211	1132.12
384.436	1196.12
384.662	1156.12
384.887	1190.12
385.112	1191.12
385.337	1189.12
385.562	1198.12
385.787	1191.12
386.013	1225.12
386.238	1209.12
386.463	1224.12
386.688	1215.12
386.913	1175.12
387.138	1165.12
387.363	1184.12
387.588	1161.12
387.813	1203.12
388.038	1200.12
388.263	1210.12
388.488	1185.12
388.713	1198.12
388.938	1208.12
389.163	1197.12
389.387	1214.12
389.612	1172.12
389.837	1189.12
390.062	1182.12
390.287	1183.12
390.512	1186.12
390.736	1203.12
390.961	1220.12
391.186	1242.12
391.411	1255.12
391.636	1245.12
391.86	1239.12
392.085	1272.12
392.31	1240.12
392.534	1242.12
392.759	1232.12
392.984	1259.12
393.208	1271.12
393.433	1253.12
393.658	1234.12
393.882	1190.12
394.107	1221.12
394.331	1182.12
394.556	1252.12
394.78	1221.12
395.005	1231.12
395.229	1215.12
395.454	1271.12
395.678	1256.12
395.903	1268.12
396.127	1224.12
396.352	1240.12
396.576	1237.12
396.801	1262.12
397.025	1243.12
397.249	1276.12
397.474	1256.12
397.698	1248.12
397.922	1236.12
398.147	1245.12
398.371	1323.12
398.595	1309.12
398.82	1325.12
399.044	1385.12
399.268	1455.12
399.492	1502.12
399.717	1598.12
399.941	1570.12
400.165	1505.12
400.389	1453.12
400.613	1394.12
400.837	1400.12
401.062	1356.12
401.286	1333.12
401.51	1342.12
401.734	1327.12
401.958	1334.12
402.182	1307.12
402.406	1318.12
402.63	1333.12
402.854	1365.12
403.078	1349.12
403.302	1349.12
403.526	1351.12
403.75	1384.12
403.974	1414.12
404.198	1378.12
404.422	1364.12
404.645	1408.12
404.869	1359.12
405.093	1378.12
405.317	1350.12
405.541	1355.12
405.765	1391.12
405.988	1414.12
406.212	1390.12
406.436	1383.12
406.66	1423.12
406.883	1380.12
407.107	1466.12
407.331	1466.12
407.555	1494.12
407.778	1498.12
408.002	1482.12
408.226	1442.12
408.449	1444.12
408.673	1463.12
408.896	1416.12
409.12	1395.12
409.344	1382.12
409.567	1359.12
409.791	1347.12
410.014	1347.12
410.238	1369.12
410.461	1366.12
410.685	1373.12
410.908	1322.12
411.132	1325.12
411.355	1300.12
411.578	1333.12
411.802	1303.12
412.025	1318.12
412.249	1338.12
412.472	1368.12
412.695	1307.12
412.919	1301.12
413.142	1312.12
413.365	1278.12
413.589	1287.12
413.812	1302.12
414.035	1310.12
414.258	1330.12
414.482	1308.12
414.705	1291.12
414.928	1286.12
415.151	1294.12
415.374	1275.12
415.597	1298.12
415.821	1254.12
416.044	1249.12
416.267	1222.12
416.49	1254.12
416.713	1237.12
416.936	1263.12
417.159	1236.12
417.382	1246.12
417.605	1260.12
417.828	1211.12
418.051	1261.12
418.274	1271.12
418.497	1266.12
418.72	1282.12
418.943	1277.12
419.166	1322.12
419.389	1399.12
419.611	1391.12
419.834	1362.12
420.057	1304.12
420.28	1273.12
420.503	1237.12
420.726	1220.12
420.948	1239.12
421.171	1231.12
421.394	1255.12
421.617	1293.12
421.839	1262.12
422.062	1287.12
422.285	1237.12
422.507	1271.12
422.73	1285.12
422.953	1275.12
423.175	1305.12
423.398	1262.12
423.621	1259.12
423.843	1279.12
424.066	1296.12
424.288	1240.12
424.511	1258.12
424.733	1270.12
424.956	1238.12
425.178	1211.12
425.401	1227.12
425.623	1247.12
425.846	1224.12
426.068	1235.12
426.291	1202.12
426.513	1220.12
426.735	1192.12
426.958	1226.12
427.18	1196.12
427.402	1197.12
427.625	1194.12
427.847	1169.12
428.069	1176.12
428.292	1166.12
428.514	1172.12
428.736	1174.12
428.958	1197.12
429.181	1145.12
429.403	1173.12
429.625	1156.12
429.847	1168.12
430.069	1154.12
430.292	1192.12
430.514	1228.12
430.736	1268.12
430.958	1179.12
431.18	1180.12
431.402	1160.12
431.624	1146.12
431.846	1151.12
432.068	1142.12
432.29	1134.12
432.512	1138.12
432.734	1124.12
432.956	1156.12
433.178	1174.12
433.4	1172.12
433.622	1153.12
433.844	1146.12
434.066	1184.12
434.287	1142.12
434.509	1177.12
434.731	1159.12
434.953	1166.12
435.175	1213.12
435.397	1212.12
435.618	1198.12
435.84	1137.12
436.062	1136.12
436.284	1142.12
436.505	1140.12
436.727	1181.12
436.949	1124.12
437.17	1143.12
437.392	1138.12
437.614	1086.12
437.835	1104.12
438.057	1083.12
438.278	1108.12
438.5	1118.12
438.721	1134.12
438.943	1150.12
439.165	1178.12
439.386	1191.12
439.608	1224.12
439.829	1210.12
440.05	1224.12
440.272	1287.12
440.493	1173.12
440.715	1244.12
440.936	1220.12
441.158	1217.12
441.379	1204.12
441.6	1283.12
441.822	1306.12
442.043	1344.12
442.264	1394.12
442.486	1318.12
442.707	1286.12
442.928	1274.12
443.149	1211.12
443.371	1230.12
443.592	1244.12
443.813	1229.12
444.034	1274.12
444.255	1285.12
444.476	1316.12
444.698	1336.12
444.919	1331.12
445.14	1423.12
445.361	1319.12
445.582	1314.12
445.803	1244.12
446.024	1222.12
446.245	1206.12
446.466	1198.12
446.687	1225.12
446.908	1226.12
447.129	1190.12
447.35	1172.12
447.571	1154.12
447.792	1174.12
448.013	1152.12
448.234	1150.12
448.455	1130.12
448.675	1150.12
448.896	1158.12
449.117	1193.12
449.338	1295.12
449.559	1351.12
449.779	1216.12
450	1132.12
450.221	1130.12
450.442	1113.12
450.662	1092.12
450.883	1084.12
451.104	1111.12
451.324	1105.12
451.545	1084.12
451.766	1071.12
451.986	1114.12
452.207	1180.12
452.428	1478.12
452.648	2050.12
452.869	1723.12
453.089	1267.12
453.31	1217.12
453.53	1213.12
453.751	1249.12
453.971	1370.12
454.192	1331.12
454.412	1190.12
454.633	1139.12
454.853	1109.12
455.073	1081.12
455.294	1069.12
455.514	1056.12
455.734	1051.12
455.955	1033.12
456.175	1051.12
456.395	1064.12
456.616	1040.12
456.836	1064.12
457.056	1066.12
457.276	1066.12
457.497	1105.12
457.717	1140.12
457.937	1122.12
458.157	1097.12
458.377	1132.12
458.598	1121.12
458.818	1134.12
459.038	1110.12
459.258	1103.12
459.478	1140.12
459.698	1174.12
459.918	1183.12
460.138	1192.12
460.358	1225.12
460.578	1270.12
460.798	1232.12
461.018	1260.12
461.238	1267.12
461.458	1302.12
461.678	1269.12
461.898	1312.12
462.118	1309.12
462.338	1302.12
462.558	1312.12
462.777	1362.12
462.997	1401.12
463.217	1444.12
463.437	1475.12
463.657	1523.12
463.876	1480.12
464.096	1448.12
464.316	1355.12
464.536	1339.12
464.755	1339.12
464.975	1296.12
465.195	1296.12
465.414	1220.12
465.634	1183.12
465.854	1173.12
466.073	1189.12
466.293	1162.12
466.512	1146.12
466.732	1196.12
466.951	1206.12
467.171	1287.12
467.391	1297.12
467.61	1184.12
467.829	1138.12
468.049	1145.12
468.268	1131.12
468.488	1129.12
468.707	1122.12
468.927	1103.12
469.146	1122.12
469.365	1141.12
469.585	1158.12
469.804	1144.12
470.023	1198.12
470.243	1226.12
470.462	1255.12
470.681	1270.12
470.901	1379.12
471.12	1626.12
471.339	1625.12
471.558	1362.12
471.777	1247.12
471.997	1198.12
472.216	1186.12
472.435	1154.12
472.654	1115.12
472.873	1121.12
473.092	1122.12
473.311	1118.12
473.53	1129.12
473.749	1159.12
473.968	1206.12
474.187	1173.12
474.406	1127.12
474.625	1132.12
474.844	1144.12
475.063	1149.12
475.282	1137.12
475.501	1159.12
475.72	1163.12
475.939	1151.12
476.158	1158.12
476.377	1203.12
476.596	1202.12
476.814	1161.12
477.033	1204.12
477.252	1223.12
477.471	1222.12
477.69	1231.12
477.908	1276.12
478.127	1308.12
478.346	1303.12
478.564	1344.12
478.783	1333.12
479.002	1342.12
479.22	1347.12
479.439	1350.12
479.658	1339.12
479.876	1343.12
480.095	1331.12
480.313	1372.12
480.532	1380.12
480.751	1378.12
480.969	1358.12
481.188	1352.12
481.406	1308.12
481.624	1328.12
481.843	1351.12
482.061	1351.12
482.28	1370.12
482.498	1346.12
482.717	1336.12
482.935	1356.12
483.153	1383.12
483.372	1390.12
483.59	1443.12
483.808	1442.12
484.027	1438.12
484.245	1531.12
484.463	1736.12
484.681	1912.12
484.9	1706.12
485.118	1588.12
485.336	1598.12
485.554	1582.12
485.772	1652.12
485.99	1908.12
486.209	2081.12
486.427	1747.12
486.645	1552.12
486.863	1514.12
487.081	1492.12
487.299	1449.12
487.517	1505.12
487.735	1495.12
487.953	1436.12
488.171	1490.12
488.389	1458.12
488.607	1451.12
488.825	1425.12
489.043	1412.12
489.261	1408.12
489.479	1357.12
489.696	1392.12
489.914	1396.12
490.132	1400.12
490.35	1417.12
490.568	1396.12
490.786	1455.12
491.003	1494.12
