Data from SnStandardFlinnAPT0064_QswitchEnergy10_LIBS07252019.E.O._I.C._HRD10591_15-28-37-974.txt Node
Date: Thu Jul 25 15:28:37 EDT 2019
User: cochatt
Spectrometer: HR+D1059
Trigger mode: 1
Integration Time (sec): 1.000000E-1
Scans to average: 1
Electric dark correction enabled: true
Nonlinearity correction enabled: false
Boxcar width: 0
XAxis mode: Wavelengths
Number of Pixels in Spectrum: 2048
>>>>>Begin Spectral Data<<<<<
223.165	-4.31
223.4	-4.31
223.635	-4.31
223.869	-22.31
224.104	-20.31
224.338	-13.31
224.573	-5.31
224.808	-6.31
225.042	5.69
225.277	-11.31
225.511	-0.31
225.746	-4.31
225.98	2.69
226.215	7.69
226.449	12.69
226.683	16.69
226.918	15.69
227.152	26.69
227.387	38.69
227.621	41.69
227.856	36.69
228.09	63.69
228.324	47.69
228.559	61.69
228.793	59.69
229.027	62.69
229.262	79.69
229.496	64.69
229.73	66.69
229.964	56.69
230.199	71.69
230.433	71.69
230.667	76.69
230.901	77.69
231.136	78.69
231.37	90.69
231.604	88.69
231.838	98.69
232.072	108.69
232.306	127.69
232.541	94.69
232.775	95.69
233.009	80.69
233.243	94.69
233.477	105.69
233.711	92.69
233.945	97.69
234.179	90.69
234.413	80.69
234.647	61.69
234.881	88.69
235.115	87.69
235.349	99.69
235.583	103.69
235.817	126.69
236.051	137.69
236.285	101.69
236.519	70.69
236.753	73.69
236.987	97.69
237.221	72.69
237.455	66.69
237.689	79.69
237.922	65.69
238.156	69.69
238.39	84.69
238.624	85.69
238.858	79.69
239.091	75.69
239.325	70.69
239.559	71.69
239.793	79.69
240.027	90.69
240.26	84.69
240.494	69.69
240.728	79.69
240.961	83.69
241.195	85.69
241.429	76.69
241.662	78.69
241.896	87.69
242.13	90.69
242.363	115.69
242.597	183.69
242.83	137.69
243.064	145.69
243.298	166.69
243.531	167.69
243.765	97.69
243.998	79.69
244.232	79.69
244.465	82.69
244.699	83.69
244.932	54.69
245.166	78.69
245.399	87.69
245.633	82.69
245.866	81.69
246.099	78.69
246.333	86.69
246.566	77.69
246.8	85.69
247.033	65.69
247.266	80.69
247.5	80.69
247.733	88.69
247.966	73.69
248.2	101.69
248.433	119.69
248.666	117.69
248.899	115.69
249.133	94.69
249.366	102.69
249.599	111.69
249.832	131.69
250.066	143.69
250.299	81.69
250.532	80.69
250.765	88.69
250.998	87.69
251.231	70.69
251.465	70.69
251.698	87.69
251.931	72.69
252.164	87.69
252.397	87.69
252.63	104.69
252.863	103.69
253.096	94.69
253.329	91.69
253.562	96.69
253.795	79.69
254.028	80.69
254.261	79.69
254.494	107.69
254.727	129.69
254.96	149.69
255.193	115.69
255.426	86.69
255.659	85.69
255.892	98.69
256.124	94.69
256.357	82.69
256.59	88.69
256.823	98.69
257.056	106.69
257.289	156.69
257.521	193.69
257.754	136.69
257.987	98.69
258.22	84.69
258.452	74.69
258.685	87.69
258.918	73.69
259.151	104.69
259.383	106.69
259.616	139.69
259.849	161.69
260.081	123.69
260.314	77.69
260.547	70.69
260.779	70.69
261.012	81.69
261.244	77.69
261.477	88.69
261.71	89.69
261.942	86.69
262.175	91.69
262.407	91.69
262.64	71.69
262.872	68.69
263.105	84.69
263.337	94.69
263.57	82.69
263.802	85.69
264.035	81.69
264.267	69.69
264.499	69.69
264.732	70.69
264.964	59.69
265.197	76.69
265.429	70.69
265.661	74.69
265.894	100.69
266.126	120.69
266.358	170.69
266.591	148.69
266.823	99.69
267.055	79.69
267.287	87.69
267.52	77.69
267.752	96.69
267.984	82.69
268.216	80.69
268.448	100.69
268.681	93.69
268.913	83.69
269.145	71.69
269.377	97.69
269.609	94.69
269.841	90.69
270.073	100.69
270.306	130.69
270.538	220.69
270.77	344.69
271.002	410.69
271.234	225.69
271.466	111.69
271.698	98.69
271.93	87.69
272.162	86.69
272.394	95.69
272.626	93.69
272.858	77.69
273.09	80.69
273.322	80.69
273.553	90.69
273.785	94.69
274.017	80.69
274.249	102.69
274.481	80.69
274.713	81.69
274.945	88.69
275.176	83.69
275.408	83.69
275.64	86.69
275.872	93.69
276.104	109.69
276.335	102.69
276.567	95.69
276.799	74.69
277.031	87.69
277.262	100.69
277.494	92.69
277.726	128.69
277.957	199.69
278.189	273.69
278.421	270.69
278.652	220.69
278.884	220.69
279.115	145.69
279.347	108.69
279.579	94.69
279.81	93.69
280.042	98.69
280.273	96.69
280.505	104.69
280.736	103.69
280.968	134.69
281.199	200.69
281.431	283.69
281.662	297.69
281.894	166.69
282.125	117.69
282.356	104.69
282.588	106.69
282.819	109.69
283.051	127.69
283.282	152.69
283.513	211.69
283.745	350.69
283.976	646.69
284.207	883.69
284.439	689.69
284.67	307.69
284.901	303.69
285.132	414.69
285.364	449.69
285.595	233.69
285.826	187.69
286.057	282.69
286.288	472.69
286.52	698.69
286.751	577.69
286.982	214.69
287.213	121.69
287.444	123.69
287.675	111.69
287.906	105.69
288.138	103.69
288.369	87.69
288.6	102.69
288.831	97.69
289.062	109.69
289.293	91.69
289.524	105.69
289.755	87.69
289.986	109.69
290.217	86.69
290.448	109.69
290.679	90.69
290.91	137.69
291.141	180.69
291.371	286.69
291.602	338.69
291.833	230.69
292.064	115.69
292.295	116.69
292.526	89.69
292.757	108.69
292.987	95.69
293.218	114.69
293.449	83.69
293.68	85.69
293.91	83.69
294.141	92.69
294.372	94.69
294.603	96.69
294.833	97.69
295.064	92.69
295.295	89.69
295.525	83.69
295.756	102.69
295.987	111.69
296.217	86.69
296.448	81.69
296.679	97.69
296.909	105.69
297.14	105.69
297.37	101.69
297.601	98.69
297.831	96.69
298.062	107.69
298.292	100.69
298.523	105.69
298.753	91.69
298.984	110.69
299.214	95.69
299.445	117.69
299.675	113.69
299.905	112.69
300.136	134.69
300.366	191.69
300.597	287.69
300.827	520.69
301.057	795.69
301.288	725.69
301.518	287.69
301.748	153.69
301.979	130.69
302.209	137.69
302.439	145.69
302.669	183.69
302.9	329.69
303.13	583.69
303.36	1030.69
303.59	1440.69
303.82	970.69
304.051	327.69
304.281	162.69
304.511	127.69
304.741	123.69
304.971	115.69
305.201	126.69
305.431	112.69
305.661	115.69
305.891	107.69
306.121	101.69
306.352	109.69
306.582	108.69
306.812	121.69
307.042	111.69
307.272	121.69
307.502	106.69
307.731	117.69
307.961	115.69
308.191	107.69
308.421	94.69
308.651	96.69
308.881	106.69
309.111	113.69
309.341	87.69
309.571	109.69
309.8	120.69
310.03	115.69
310.26	112.69
310.49	115.69
310.72	101.69
310.949	101.69
311.179	104.69
311.409	122.69
311.639	109.69
311.868	107.69
312.098	116.69
312.328	112.69
312.557	116.69
312.787	121.69
313.017	105.69
313.246	127.69
313.476	111.69
313.706	142.69
313.935	174.69
314.165	219.69
314.394	266.69
314.624	194.69
314.853	132.69
315.083	141.69
315.312	141.69
315.542	134.69
315.771	116.69
316.001	146.69
316.23	155.69
316.46	150.69
316.689	187.69
316.919	293.69
317.148	571.69
317.377	1070.69
317.607	1741.69
317.836	1629.69
318.065	629.69
318.295	265.69
318.524	179.69
318.753	137.69
318.983	143.69
319.212	118.69
319.441	125.69
319.67	128.69
319.9	116.69
320.129	119.69
320.358	112.69
320.587	132.69
320.816	135.69
321.046	121.69
321.275	115.69
321.504	132.69
321.733	166.69
321.962	180.69
322.191	183.69
322.42	144.69
322.649	127.69
322.878	133.69
323.108	131.69
323.337	128.69
323.566	110.69
323.795	135.69
324.024	152.69
324.253	126.69
324.482	184.69
324.71	243.69
324.939	311.69
325.168	273.69
325.397	205.69
325.626	285.69
325.855	590.69
326.084	1093.69
326.313	1846.69
326.542	1789.69
326.77	692.69
326.999	276.69
327.228	228.69
327.457	274.69
327.686	255.69
327.914	157.69
328.143	146.69
328.372	124.69
328.6	141.69
328.829	134.69
329.058	128.69
329.287	126.69
329.515	127.69
329.744	127.69
329.972	124.69
330.201	120.69
330.43	114.69
330.658	125.69
330.887	116.69
331.115	103.69
331.344	128.69
331.572	119.69
331.801	125.69
332.03	125.69
332.258	141.69
332.486	197.69
332.715	334.69
332.943	582.69
333.172	901.69
333.4	744.69
333.629	272.69
333.857	164.69
334.085	144.69
334.314	138.69
334.542	138.69
334.771	135.69
334.999	136.69
335.227	118.69
335.455	121.69
335.684	124.69
335.912	114.69
336.14	110.69
336.369	120.69
336.597	117.69
336.825	114.69
337.053	108.69
337.281	109.69
337.51	119.69
337.738	117.69
337.966	109.69
338.194	119.69
338.422	125.69
338.65	116.69
338.878	113.69
339.106	131.69
339.334	141.69
339.562	124.69
339.79	115.69
340.018	115.69
340.246	118.69
340.474	110.69
340.702	125.69
340.93	132.69
341.158	127.69
341.386	120.69
341.614	122.69
341.842	113.69
342.07	113.69
342.298	136.69
342.526	118.69
342.754	118.69
342.981	125.69
343.209	113.69
343.437	113.69
343.665	116.69
343.893	123.69
344.12	128.69
344.348	130.69
344.576	117.69
344.804	112.69
345.031	126.69
345.259	116.69
345.487	125.69
345.714	119.69
345.942	118.69
346.17	96.69
346.397	127.69
346.625	115.69
346.853	92.69
347.08	110.69
347.308	121.69
347.535	111.69
347.763	117.69
347.99	102.69
348.218	111.69
348.445	119.69
348.673	118.69
348.9	126.69
349.128	136.69
349.355	123.69
349.583	116.69
349.81	125.69
350.037	117.69
350.265	117.69
350.492	118.69
350.72	107.69
350.947	122.69
351.174	117.69
351.402	109.69
351.629	116.69
351.856	125.69
352.083	112.69
352.311	111.69
352.538	123.69
352.765	109.69
352.992	89.69
353.22	103.69
353.447	92.69
353.674	104.69
353.901	108.69
354.128	104.69
354.355	104.69
354.583	111.69
354.81	107.69
355.037	112.69
355.264	108.69
355.491	120.69
355.718	110.69
355.945	109.69
356.172	108.69
356.399	115.69
356.626	111.69
356.853	124.69
357.08	104.69
357.307	119.69
357.534	125.69
357.761	100.69
357.988	123.69
358.215	112.69
358.441	113.69
358.668	137.69
358.895	117.69
359.122	120.69
359.349	111.69
359.576	110.69
359.802	123.69
360.029	112.69
360.256	125.69
360.483	109.69
360.709	104.69
360.936	118.69
361.163	115.69
361.39	111.69
361.616	121.69
361.843	119.69
362.07	119.69
362.296	118.69
362.523	105.69
362.749	108.69
362.976	113.69
363.203	107.69
363.429	118.69
363.656	125.69
363.882	114.69
364.109	113.69
364.335	117.69
364.562	104.69
364.788	100.69
365.015	121.69
365.241	148.69
365.468	218.69
365.694	310.69
365.92	241.69
366.147	141.69
366.373	103.69
366.599	117.69
366.826	97.69
367.052	104.69
367.278	101.69
367.505	97.69
367.731	114.69
367.957	91.69
368.184	116.69
368.41	126.69
368.636	127.69
368.862	104.69
369.089	105.69
369.315	103.69
369.541	102.69
369.767	115.69
369.993	110.69
370.219	123.69
370.445	109.69
370.672	103.69
370.898	115.69
371.124	113.69
371.35	98.69
371.576	109.69
371.802	111.69
372.028	107.69
372.254	121.69
372.48	121.69
372.706	113.69
372.932	122.69
373.158	115.69
373.384	109.69
373.61	121.69
373.835	121.69
374.061	108.69
374.287	116.69
374.513	116.69
374.739	130.69
374.965	126.69
375.191	111.69
375.416	119.69
375.642	115.69
375.868	124.69
376.094	114.69
376.319	98.69
376.545	113.69
376.771	109.69
376.997	119.69
377.222	111.69
377.448	105.69
377.674	115.69
377.899	114.69
378.125	103.69
378.35	118.69
378.576	123.69
378.802	139.69
379.027	122.69
379.253	141.69
379.478	200.69
379.704	351.69
379.929	882.69
380.155	1891.69
380.38	1917.69
380.606	584.69
380.831	203.69
381.057	145.69
381.282	119.69
381.507	117.69
381.733	105.69
381.958	115.69
382.184	120.69
382.409	114.69
382.634	120.69
382.86	115.69
383.085	111.69
383.31	116.69
383.535	119.69
383.761	116.69
383.986	111.69
384.211	111.69
384.436	103.69
384.662	115.69
384.887	100.69
385.112	109.69
385.337	104.69
385.562	99.69
385.787	111.69
386.013	112.69
386.238	114.69
386.463	96.69
386.688	96.69
386.913	115.69
387.138	96.69
387.363	111.69
387.588	106.69
387.813	115.69
388.038	98.69
388.263	98.69
388.488	115.69
388.713	97.69
388.938	100.69
389.163	95.69
389.387	103.69
389.612	107.69
389.837	90.69
390.062	103.69
390.287	101.69
390.512	98.69
390.736	104.69
390.961	95.69
391.186	97.69
391.411	117.69
391.636	111.69
391.86	115.69
392.085	90.69
392.31	93.69
392.534	100.69
392.759	114.69
392.984	104.69
393.208	112.69
393.433	139.69
393.658	137.69
393.882	111.69
394.107	100.69
394.331	111.69
394.556	102.69
394.78	104.69
395.005	99.69
395.229	94.69
395.454	79.69
395.678	99.69
395.903	108.69
396.127	99.69
396.352	100.69
396.576	108.69
396.801	121.69
397.025	129.69
397.249	120.69
397.474	99.69
397.698	93.69
397.922	92.69
398.147	103.69
398.371	100.69
398.595	108.69
398.82	104.69
399.044	94.69
399.268	98.69
399.492	93.69
399.717	88.69
399.941	90.69
400.165	97.69
400.389	111.69
400.613	93.69
400.837	90.69
401.062	94.69
401.286	100.69
401.51	120.69
401.734	91.69
401.958	94.69
402.182	88.69
402.406	108.69
402.63	110.69
402.854	96.69
403.078	107.69
403.302	81.69
403.526	89.69
403.75	94.69
403.974	111.69
404.198	112.69
404.422	96.69
404.645	103.69
404.869	93.69
405.093	109.69
405.317	103.69
405.541	118.69
405.765	134.69
405.988	159.69
406.212	119.69
406.436	90.69
406.66	109.69
406.883	88.69
407.107	109.69
407.331	99.69
407.555	92.69
407.778	99.69
408.002	93.69
408.226	111.69
408.449	99.69
408.673	111.69
408.896	96.69
409.12	96.69
409.344	93.69
409.567	84.69
409.791	94.69
410.014	113.69
410.238	101.69
410.461	105.69
410.685	105.69
410.908	100.69
411.132	104.69
411.355	98.69
411.578	100.69
411.802	106.69
412.025	99.69
412.249	108.69
412.472	91.69
412.695	101.69
412.919	109.69
413.142	104.69
413.365	107.69
413.589	96.69
413.812	115.69
414.035	104.69
414.258	100.69
414.482	107.69
414.705	118.69
414.928	105.69
415.151	92.69
415.374	95.69
415.597	108.69
415.821	99.69
416.044	99.69
416.267	96.69
416.49	95.69
416.713	98.69
416.936	100.69
417.159	107.69
417.382	94.69
417.605	83.69
417.828	92.69
418.051	100.69
418.274	98.69
418.497	113.69
418.72	96.69
418.943	96.69
419.166	119.69
419.389	110.69
419.611	107.69
419.834	95.69
420.057	93.69
420.28	89.69
420.503	112.69
420.726	112.69
420.948	96.69
421.171	90.69
421.394	100.69
421.617	95.69
421.839	114.69
422.062	102.69
422.285	81.69
422.507	105.69
422.73	133.69
422.953	146.69
423.175	126.69
423.398	101.69
423.621	91.69
423.843	79.69
424.066	95.69
424.288	89.69
424.511	94.69
424.733	103.69
424.956	91.69
425.178	88.69
425.401	107.69
425.623	91.69
425.846	94.69
426.068	96.69
426.291	103.69
426.513	99.69
426.735	85.69
426.958	88.69
427.18	104.69
427.402	102.69
427.625	94.69
427.847	99.69
428.069	92.69
428.292	96.69
428.514	107.69
428.736	96.69
428.958	101.69
429.181	94.69
429.403	88.69
429.625	90.69
429.847	109.69
430.069	109.69
430.292	102.69
430.514	103.69
430.736	101.69
430.958	110.69
431.18	86.69
431.402	89.69
431.624	103.69
431.846	89.69
432.068	95.69
432.29	107.69
432.512	95.69
432.734	97.69
432.956	99.69
433.178	96.69
433.4	88.69
433.622	91.69
433.844	91.69
434.066	91.69
434.287	98.69
434.509	96.69
434.731	104.69
434.953	101.69
435.175	89.69
435.397	102.69
435.618	91.69
435.84	89.69
436.062	71.69
436.284	90.69
436.505	91.69
436.727	101.69
436.949	98.69
437.17	91.69
437.392	99.69
437.614	84.69
437.835	93.69
438.057	100.69
438.278	99.69
438.5	91.69
438.721	100.69
438.943	89.69
439.165	118.69
439.386	117.69
439.608	114.69
439.829	83.69
440.05	113.69
440.272	129.69
440.493	104.69
440.715	100.69
440.936	100.69
441.158	96.69
441.379	90.69
441.6	85.69
441.822	100.69
442.043	120.69
442.264	130.69
442.486	111.69
442.707	112.69
442.928	95.69
443.149	95.69
443.371	98.69
443.592	97.69
443.813	93.69
444.034	100.69
444.255	99.69
444.476	90.69
444.698	88.69
444.919	72.69
445.14	191.69
445.361	143.69
445.582	107.69
445.803	84.69
446.024	95.69
446.245	99.69
446.466	101.69
446.687	112.69
446.908	87.69
447.129	96.69
447.35	99.69
447.571	97.69
447.792	94.69
448.013	102.69
448.234	103.69
448.455	93.69
448.675	96.69
448.896	103.69
449.117	108.69
449.338	134.69
449.559	160.69
449.779	137.69
450	108.69
450.221	113.69
450.442	119.69
450.662	109.69
450.883	110.69
451.104	108.69
451.324	115.69
451.545	111.69
451.766	120.69
451.986	151.69
452.207	229.69
452.428	649.69
452.648	1614.69
452.869	905.69
453.089	229.69
453.31	115.69
453.53	138.69
453.751	165.69
453.971	171.69
454.192	154.69
454.412	104.69
454.633	84.69
454.853	113.69
455.073	98.69
455.294	97.69
455.514	99.69
455.734	102.69
455.955	93.69
456.175	98.69
456.395	99.69
456.616	95.69
456.836	96.69
457.056	102.69
457.276	99.69
457.497	118.69
457.717	123.69
457.937	107.69
458.157	89.69
458.377	94.69
458.598	83.69
458.818	91.69
459.038	86.69
459.258	80.69
459.478	99.69
459.698	89.69
459.918	92.69
460.138	89.69
460.358	78.69
460.578	82.69
460.798	100.69
461.018	98.69
461.238	95.69
461.458	87.69
461.678	91.69
461.898	92.69
462.118	100.69
462.338	82.69
462.558	80.69
462.777	86.69
462.997	101.69
463.217	95.69
463.437	143.69
463.657	205.69
463.876	189.69
464.096	129.69
464.316	101.69
464.536	108.69
464.755	100.69
464.975	99.69
465.195	102.69
465.414	97.69
465.634	96.69
465.854	111.69
466.073	95.69
466.293	98.69
466.512	78.69
466.732	95.69
466.951	113.69
467.171	148.69
467.391	148.69
467.61	104.69
467.829	99.69
468.049	107.69
468.268	117.69
468.488	104.69
468.707	90.69
468.927	92.69
469.146	98.69
469.365	108.69
469.585	101.69
469.804	98.69
470.023	93.69
470.243	94.69
470.462	118.69
470.681	107.69
470.901	145.69
471.12	198.69
471.339	229.69
471.558	149.69
471.777	121.69
471.997	106.69
472.216	95.69
472.435	96.69
472.654	91.69
472.873	87.69
473.092	90.69
473.311	102.69
473.53	76.69
473.749	97.69
473.968	101.69
474.187	71.69
474.406	98.69
474.625	94.69
474.844	101.69
475.063	95.69
475.282	99.69
475.501	105.69
475.72	99.69
475.939	103.69
476.158	99.69
476.377	116.69
476.596	99.69
476.814	108.69
477.033	82.69
477.252	104.69
477.471	94.69
477.69	87.69
477.908	103.69
478.127	99.69
478.346	102.69
478.564	102.69
478.783	105.69
479.002	98.69
479.22	97.69
479.439	96.69
479.658	81.69
479.876	110.69
480.095	89.69
480.313	90.69
480.532	92.69
480.751	114.69
480.969	110.69
481.188	110.69
481.406	97.69
481.624	112.69
481.843	121.69
482.061	127.69
482.28	92.69
482.498	102.69
482.717	108.69
482.935	104.69
483.153	102.69
483.372	95.69
483.59	99.69
483.808	108.69
484.027	105.69
484.245	143.69
484.463	183.69
484.681	251.69
484.9	161.69
485.118	124.69
485.336	131.69
485.554	109.69
485.772	133.69
485.99	199.69
486.209	264.69
486.427	189.69
486.645	122.69
486.863	113.69
487.081	102.69
487.299	96.69
487.517	107.69
487.735	98.69
487.953	95.69
488.171	106.69
488.389	89.69
488.607	90.69
488.825	99.69
489.043	92.69
489.261	93.69
489.479	99.69
489.696	104.69
489.914	98.69
490.132	110.69
490.35	85.69
490.568	90.69
490.786	96.69
491.003	102.69
491.221	112.69
491.439	107.69
491.657	93.69
491.874	101.69
492.092	110.69
492.31	105.69
492.527	93.69
492.745	102.69
492.963	109.69
493.18	107.69
493.398	120.69
493.615	112.69
493.833	109.69
494.05	100.69
494.268	100.69
494.485	101.69
494.703	100.69
494.92	95.69
495.138	100.69
495.355	116.69
495.573	116.69
495.79	108.69
496.008	104.69
496.225	115.69
496.442	109.69
496.66	125.69
496.877	177.69
497.094	148.69
497.312	111.69
497.529	113.69
497.746	104.69
497.963	112.69
498.181	105.69
498.398	109.69
498.615	119.69
498.832	106.69
499.049	109.69
499.267	138.69
499.484	167.69
499.701	115.69
499.918	107.69
500.135	107.69
500.352	107.69
500.569	88.69
500.786	107.69
501.003	109.69
501.22	97.69
501.437	86.69
501.654	108.69
501.871	97.69
502.088	85.69
502.305	87.69
502.522	92.69
502.739	96.69
502.956	110.69
503.172	100.69
503.389	108.69
503.606	101.69
503.823	83.69
504.04	84.69
504.256	96.69
504.473	85.69
504.69	86.69
504.907	116.69
505.123	123.69
505.34	107.69
505.557	93.69
505.773	104.69
505.99	99.69
506.207	99.69
506.423	97.69
506.64	123.69
506.856	120.69
507.073	116.69
507.289	108.69
507.506	99.69
507.722	100.69
507.939	94.69
