Data from SnStandardFlinnAPT0064_QswitchEnergy10_LIBS07252019.E.O._I.C._HRD10591_15-28-56-974.txt Node
Date: Thu Jul 25 15:28:56 EDT 2019
User: cochatt
Spectrometer: HR+D1059
Trigger mode: 1
Integration Time (sec): 1.000000E-1
Scans to average: 1
Electric dark correction enabled: true
Nonlinearity correction enabled: false
Boxcar width: 0
XAxis mode: Wavelengths
Number of Pixels in Spectrum: 2048
>>>>>Begin Spectral Data<<<<<
223.165	-23.25
223.4	-23.25
223.635	-23.25
223.869	-3.25
224.104	-17.25
224.338	-0.25
224.573	-20.25
224.808	-22.25
225.042	-8.25
225.277	-3.25
225.511	-2.25
225.746	3.75
225.98	7.75
226.215	19.75
226.449	20.75
226.683	4.75
226.918	22.75
227.152	20.75
227.387	57.75
227.621	57.75
227.856	37.75
228.09	33.75
228.324	47.75
228.559	47.75
228.793	68.75
229.027	81.75
229.262	81.75
229.496	74.75
229.73	67.75
229.964	56.75
230.199	68.75
230.433	88.75
230.667	79.75
230.901	83.75
231.136	84.75
231.37	71.75
231.604	105.75
231.838	93.75
232.072	120.75
232.306	129.75
232.541	99.75
232.775	93.75
233.009	79.75
233.243	92.75
233.477	92.75
233.711	99.75
233.945	108.75
234.179	83.75
234.413	83.75
234.647	80.75
234.881	90.75
235.115	99.75
235.349	102.75
235.583	99.75
235.817	123.75
236.051	125.75
236.285	74.75
236.519	85.75
236.753	90.75
236.987	82.75
237.221	82.75
237.455	71.75
237.689	83.75
237.922	79.75
238.156	76.75
238.39	78.75
238.624	87.75
238.858	82.75
239.091	74.75
239.325	77.75
239.559	77.75
239.793	97.75
240.027	78.75
240.26	89.75
240.494	81.75
240.728	74.75
240.961	104.75
241.195	112.75
241.429	110.75
241.662	93.75
241.896	90.75
242.13	102.75
242.363	131.75
242.597	170.75
242.83	152.75
243.064	149.75
243.298	177.75
243.531	152.75
243.765	102.75
243.998	82.75
244.232	76.75
244.465	65.75
244.699	89.75
244.932	77.75
245.166	70.75
245.399	79.75
245.633	76.75
245.866	99.75
246.099	92.75
246.333	70.75
246.566	95.75
246.8	72.75
247.033	74.75
247.266	71.75
247.5	86.75
247.733	73.75
247.966	92.75
248.2	103.75
248.433	115.75
248.666	136.75
248.899	134.75
249.133	102.75
249.366	103.75
249.599	111.75
249.832	127.75
250.066	129.75
250.299	92.75
250.532	59.75
250.765	90.75
250.998	82.75
251.231	90.75
251.465	105.75
251.698	84.75
251.931	76.75
252.164	84.75
252.397	86.75
252.63	97.75
252.863	101.75
253.096	89.75
253.329	88.75
253.562	105.75
253.795	91.75
254.028	90.75
254.261	95.75
254.494	97.75
254.727	103.75
254.96	155.75
255.193	132.75
255.426	90.75
255.659	83.75
255.892	103.75
256.124	96.75
256.357	101.75
256.59	90.75
256.823	97.75
257.056	108.75
257.289	150.75
257.521	181.75
257.754	123.75
257.987	87.75
258.22	106.75
258.452	78.75
258.685	95.75
258.918	79.75
259.151	100.75
259.383	105.75
259.616	142.75
259.849	153.75
260.081	109.75
260.314	92.75
260.547	82.75
260.779	89.75
261.012	98.75
261.244	77.75
261.477	102.75
261.71	84.75
261.942	85.75
262.175	75.75
262.407	80.75
262.64	88.75
262.872	87.75
263.105	80.75
263.337	81.75
263.57	91.75
263.802	83.75
264.035	95.75
264.267	95.75
264.499	90.75
264.732	84.75
264.964	75.75
265.197	83.75
265.429	83.75
265.661	102.75
265.894	105.75
266.126	127.75
266.358	177.75
266.591	143.75
266.823	97.75
267.055	87.75
267.287	88.75
267.52	91.75
267.752	104.75
267.984	81.75
268.216	78.75
268.448	93.75
268.681	78.75
268.913	91.75
269.145	90.75
269.377	90.75
269.609	86.75
269.841	110.75
270.073	103.75
270.306	145.75
270.538	199.75
270.77	322.75
271.002	383.75
271.234	210.75
271.466	131.75
271.698	88.75
271.93	89.75
272.162	83.75
272.394	94.75
272.626	104.75
272.858	72.75
273.09	88.75
273.322	95.75
273.553	71.75
273.785	88.75
274.017	86.75
274.249	96.75
274.481	81.75
274.713	91.75
274.945	85.75
275.176	95.75
275.408	95.75
275.64	87.75
275.872	85.75
276.104	110.75
276.335	97.75
276.567	103.75
276.799	99.75
277.031	86.75
277.262	91.75
277.494	100.75
277.726	123.75
277.957	194.75
278.189	276.75
278.421	255.75
278.652	203.75
278.884	184.75
279.115	136.75
279.347	110.75
279.579	92.75
279.81	95.75
280.042	92.75
280.273	101.75
280.505	105.75
280.736	120.75
280.968	125.75
281.199	179.75
281.431	251.75
281.662	293.75
281.894	155.75
282.125	113.75
282.356	105.75
282.588	123.75
282.819	118.75
283.051	120.75
283.282	141.75
283.513	201.75
283.745	345.75
283.976	608.75
284.207	834.75
284.439	658.75
284.67	287.75
284.901	265.75
285.132	367.75
285.364	411.75
285.595	232.75
285.826	183.75
286.057	274.75
286.288	438.75
286.52	650.75
286.751	528.75
286.982	205.75
287.213	120.75
287.444	94.75
287.675	93.75
287.906	92.75
288.138	107.75
288.369	89.75
288.6	99.75
288.831	105.75
289.062	103.75
289.293	81.75
289.524	98.75
289.755	92.75
289.986	98.75
290.217	104.75
290.448	103.75
290.679	94.75
290.91	128.75
291.141	168.75
291.371	257.75
291.602	311.75
291.833	191.75
292.064	119.75
292.295	102.75
292.526	89.75
292.757	102.75
292.987	104.75
293.218	99.75
293.449	98.75
293.68	101.75
293.91	92.75
294.141	93.75
294.372	101.75
294.603	89.75
294.833	91.75
295.064	96.75
295.295	87.75
295.525	88.75
295.756	97.75
295.987	85.75
296.217	102.75
296.448	107.75
296.679	96.75
296.909	92.75
297.14	114.75
297.37	113.75
297.601	94.75
297.831	96.75
298.062	112.75
298.292	98.75
298.523	111.75
298.753	111.75
298.984	111.75
299.214	124.75
299.445	115.75
299.675	125.75
299.905	117.75
300.136	129.75
300.366	162.75
300.597	288.75
300.827	480.75
301.057	736.75
301.288	665.75
301.518	257.75
301.748	157.75
301.979	131.75
302.209	128.75
302.439	151.75
302.669	183.75
302.9	293.75
303.13	569.75
303.36	969.75
303.59	1347.75
303.82	922.75
304.051	315.75
304.281	172.75
304.511	135.75
304.741	121.75
304.971	112.75
305.201	111.75
305.431	111.75
305.661	116.75
305.891	98.75
306.121	96.75
306.352	106.75
306.582	115.75
306.812	121.75
307.042	112.75
307.272	121.75
307.502	127.75
307.731	95.75
307.961	107.75
308.191	107.75
308.421	108.75
308.651	94.75
308.881	100.75
309.111	117.75
309.341	108.75
309.571	108.75
309.8	103.75
310.03	117.75
310.26	119.75
310.49	120.75
310.72	109.75
310.949	113.75
311.179	104.75
311.409	111.75
311.639	106.75
311.868	108.75
312.098	120.75
312.328	96.75
312.557	111.75
312.787	114.75
313.017	96.75
313.246	115.75
313.476	118.75
313.706	136.75
313.935	165.75
314.165	209.75
314.394	275.75
314.624	192.75
314.853	132.75
315.083	132.75
315.312	135.75
315.542	136.75
315.771	126.75
316.001	149.75
316.23	125.75
316.46	149.75
316.689	185.75
316.919	281.75
317.148	553.75
317.377	978.75
317.607	1619.75
317.836	1499.75
318.065	582.75
318.295	227.75
318.524	152.75
318.753	145.75
318.983	140.75
319.212	134.75
319.441	130.75
319.67	127.75
319.9	117.75
320.129	120.75
320.358	132.75
320.587	133.75
320.816	133.75
321.046	125.75
321.275	123.75
321.504	132.75
321.733	151.75
321.962	174.75
322.191	161.75
322.42	149.75
322.649	139.75
322.878	124.75
323.108	123.75
323.337	124.75
323.566	118.75
323.795	141.75
324.024	151.75
324.253	157.75
324.482	197.75
324.71	240.75
324.939	306.75
325.168	237.75
325.397	193.75
325.626	279.75
325.855	509.75
326.084	1011.75
326.313	1740.75
326.542	1695.75
326.77	666.75
326.999	287.75
327.228	210.75
327.457	246.75
327.686	217.75
327.914	167.75
328.143	145.75
328.372	143.75
328.6	134.75
328.829	139.75
329.058	122.75
329.287	134.75
329.515	130.75
329.744	125.75
329.972	124.75
330.201	106.75
330.43	123.75
330.658	116.75
330.887	109.75
331.115	117.75
331.344	123.75
331.572	127.75
331.801	127.75
332.03	124.75
332.258	133.75
332.486	179.75
332.715	321.75
332.943	566.75
333.172	817.75
333.4	695.75
333.629	269.75
333.857	153.75
334.085	153.75
334.314	130.75
334.542	140.75
334.771	120.75
334.999	120.75
335.227	141.75
335.455	131.75
335.684	128.75
335.912	124.75
336.14	115.75
336.369	106.75
336.597	115.75
336.825	109.75
337.053	111.75
337.281	104.75
337.51	88.75
337.738	99.75
337.966	112.75
338.194	111.75
338.422	115.75
338.65	121.75
338.878	113.75
339.106	114.75
339.334	153.75
339.562	118.75
339.79	123.75
340.018	122.75
340.246	106.75
340.474	126.75
340.702	117.75
340.93	127.75
341.158	111.75
341.386	133.75
341.614	126.75
341.842	133.75
342.07	105.75
342.298	129.75
342.526	120.75
342.754	117.75
342.981	116.75
343.209	117.75
343.437	105.75
343.665	114.75
343.893	115.75
344.12	124.75
344.348	116.75
344.576	123.75
344.804	114.75
345.031	116.75
345.259	121.75
345.487	135.75
345.714	113.75
345.942	120.75
346.17	120.75
346.397	115.75
346.625	98.75
346.853	105.75
347.08	113.75
347.308	107.75
347.535	117.75
347.763	113.75
347.99	115.75
348.218	107.75
348.445	103.75
348.673	135.75
348.9	128.75
349.128	149.75
349.355	135.75
349.583	122.75
349.81	114.75
350.037	124.75
350.265	118.75
350.492	112.75
350.72	114.75
350.947	114.75
351.174	132.75
351.402	117.75
351.629	118.75
351.856	104.75
352.083	103.75
352.311	96.75
352.538	116.75
352.765	118.75
352.992	105.75
353.22	107.75
353.447	115.75
353.674	113.75
353.901	121.75
354.128	115.75
354.355	108.75
354.583	124.75
354.81	101.75
355.037	113.75
355.264	113.75
355.491	93.75
355.718	104.75
355.945	93.75
356.172	96.75
356.399	100.75
356.626	103.75
356.853	108.75
357.08	112.75
357.307	116.75
357.534	107.75
357.761	101.75
357.988	108.75
358.215	111.75
358.441	110.75
358.668	117.75
358.895	133.75
359.122	133.75
359.349	117.75
359.576	123.75
359.802	112.75
360.029	121.75
360.256	115.75
360.483	117.75
360.709	115.75
360.936	115.75
361.163	120.75
361.39	120.75
361.616	105.75
361.843	111.75
362.07	123.75
362.296	106.75
362.523	106.75
362.749	101.75
362.976	100.75
363.203	117.75
363.429	99.75
363.656	118.75
363.882	109.75
364.109	119.75
364.335	118.75
364.562	109.75
364.788	100.75
365.015	116.75
365.241	129.75
365.468	204.75
365.694	274.75
365.92	220.75
366.147	120.75
366.373	94.75
366.599	90.75
366.826	107.75
367.052	102.75
367.278	107.75
367.505	113.75
367.731	109.75
367.957	111.75
368.184	106.75
368.41	121.75
368.636	115.75
368.862	113.75
369.089	97.75
369.315	116.75
369.541	103.75
369.767	127.75
369.993	100.75
370.219	124.75
370.445	108.75
370.672	112.75
370.898	116.75
371.124	108.75
371.35	114.75
371.576	120.75
371.802	120.75
372.028	123.75
372.254	113.75
372.48	108.75
372.706	115.75
372.932	121.75
373.158	121.75
373.384	124.75
373.61	123.75
373.835	124.75
374.061	122.75
374.287	111.75
374.513	108.75
374.739	124.75
374.965	102.75
375.191	114.75
375.416	96.75
375.642	111.75
375.868	116.75
376.094	116.75
376.319	106.75
376.545	109.75
376.771	107.75
376.997	119.75
377.222	122.75
377.448	112.75
377.674	116.75
377.899	112.75
378.125	124.75
378.35	121.75
378.576	123.75
378.802	113.75
379.027	127.75
379.253	151.75
379.478	188.75
379.704	343.75
379.929	843.75
380.155	1696.75
380.38	1793.75
380.606	575.75
380.831	211.75
381.057	127.75
381.282	115.75
381.507	125.75
381.733	116.75
381.958	117.75
382.184	101.75
382.409	106.75
382.634	117.75
382.86	103.75
383.085	96.75
383.31	100.75
383.535	109.75
383.761	106.75
383.986	113.75
384.211	103.75
384.436	85.75
384.662	108.75
384.887	101.75
385.112	112.75
385.337	113.75
385.562	118.75
385.787	100.75
386.013	133.75
386.238	101.75
386.463	103.75
386.688	129.75
386.913	129.75
387.138	122.75
387.363	101.75
387.588	104.75
387.813	101.75
388.038	108.75
388.263	93.75
388.488	105.75
388.713	97.75
388.938	126.75
389.163	122.75
389.387	101.75
389.612	105.75
389.837	105.75
390.062	117.75
390.287	115.75
390.512	99.75
390.736	113.75
390.961	120.75
391.186	99.75
391.411	101.75
391.636	104.75
391.86	91.75
392.085	103.75
392.31	109.75
392.534	116.75
392.759	111.75
392.984	116.75
393.208	110.75
393.433	149.75
393.658	145.75
393.882	113.75
394.107	99.75
394.331	102.75
394.556	88.75
394.78	93.75
395.005	103.75
395.229	90.75
395.454	104.75
395.678	113.75
395.903	95.75
396.127	98.75
396.352	117.75
396.576	108.75
396.801	119.75
397.025	142.75
397.249	125.75
397.474	95.75
397.698	95.75
397.922	117.75
398.147	98.75
398.371	83.75
398.595	98.75
398.82	103.75
399.044	107.75
399.268	95.75
399.492	106.75
399.717	92.75
399.941	91.75
400.165	99.75
400.389	94.75
400.613	84.75
400.837	100.75
401.062	100.75
401.286	98.75
401.51	112.75
401.734	113.75
401.958	111.75
402.182	100.75
402.406	109.75
402.63	94.75
402.854	98.75
403.078	83.75
403.302	96.75
403.526	94.75
403.75	116.75
403.974	94.75
404.198	92.75
404.422	114.75
404.645	106.75
404.869	103.75
405.093	106.75
405.317	121.75
405.541	117.75
405.765	133.75
405.988	134.75
406.212	131.75
406.436	103.75
406.66	78.75
406.883	99.75
407.107	89.75
407.331	106.75
407.555	91.75
407.778	108.75
408.002	97.75
408.226	108.75
408.449	103.75
408.673	106.75
408.896	91.75
409.12	104.75
409.344	98.75
409.567	101.75
409.791	106.75
410.014	113.75
410.238	91.75
410.461	114.75
410.685	103.75
410.908	105.75
411.132	114.75
411.355	95.75
411.578	112.75
411.802	105.75
412.025	103.75
412.249	103.75
412.472	112.75
412.695	108.75
412.919	105.75
413.142	96.75
413.365	88.75
413.589	84.75
413.812	97.75
414.035	99.75
414.258	108.75
414.482	111.75
414.705	104.75
414.928	90.75
415.151	119.75
415.374	109.75
415.597	115.75
415.821	103.75
416.044	91.75
416.267	88.75
416.49	105.75
416.713	93.75
416.936	88.75
417.159	90.75
417.382	97.75
417.605	104.75
417.828	98.75
418.051	91.75
418.274	89.75
418.497	98.75
418.72	127.75
418.943	106.75
419.166	98.75
419.389	109.75
419.611	115.75
419.834	105.75
420.057	96.75
420.28	101.75
420.503	108.75
420.726	96.75
420.948	86.75
421.171	100.75
421.394	106.75
421.617	77.75
421.839	91.75
422.062	100.75
422.285	107.75
422.507	112.75
422.73	121.75
422.953	139.75
423.175	111.75
423.398	102.75
423.621	119.75
423.843	98.75
424.066	111.75
424.288	87.75
424.511	105.75
424.733	109.75
424.956	90.75
425.178	99.75
425.401	107.75
425.623	102.75
425.846	101.75
426.068	88.75
426.291	98.75
426.513	101.75
426.735	98.75
426.958	100.75
427.18	88.75
427.402	98.75
427.625	94.75
427.847	106.75
428.069	104.75
428.292	109.75
428.514	90.75
428.736	105.75
428.958	92.75
429.181	107.75
429.403	99.75
429.625	90.75
429.847	117.75
430.069	111.75
430.292	107.75
430.514	112.75
430.736	117.75
430.958	103.75
431.18	111.75
431.402	93.75
431.624	85.75
431.846	87.75
432.068	85.75
432.29	99.75
432.512	94.75
432.734	87.75
432.956	85.75
433.178	101.75
433.4	89.75
433.622	92.75
433.844	92.75
434.066	92.75
434.287	91.75
434.509	99.75
434.731	96.75
434.953	89.75
435.175	106.75
435.397	105.75
435.618	100.75
435.84	93.75
436.062	91.75
436.284	88.75
436.505	89.75
436.727	93.75
436.949	106.75
437.17	116.75
437.392	100.75
437.614	101.75
437.835	83.75
438.057	97.75
438.278	106.75
438.5	104.75
438.721	101.75
438.943	83.75
439.165	115.75
439.386	111.75
439.608	115.75
439.829	107.75
440.05	121.75
440.272	128.75
440.493	104.75
440.715	90.75
440.936	109.75
441.158	86.75
441.379	99.75
441.6	103.75
441.822	99.75
442.043	124.75
442.264	153.75
442.486	131.75
442.707	100.75
442.928	92.75
443.149	93.75
443.371	105.75
443.592	106.75
443.813	95.75
444.034	101.75
444.255	102.75
444.476	101.75
444.698	89.75
444.919	100.75
445.14	193.75
445.361	139.75
445.582	114.75
445.803	103.75
446.024	105.75
446.245	109.75
446.466	114.75
446.687	108.75
446.908	107.75
447.129	107.75
447.35	114.75
447.571	89.75
447.792	96.75
448.013	86.75
448.234	98.75
448.455	96.75
448.675	107.75
448.896	120.75
449.117	106.75
449.338	141.75
449.559	167.75
449.779	123.75
450	95.75
450.221	106.75
450.442	109.75
450.662	115.75
450.883	127.75
451.104	107.75
451.324	120.75
451.545	111.75
451.766	125.75
451.986	147.75
452.207	227.75
452.428	603.75
452.648	1533.75
452.869	837.75
453.089	212.75
453.31	137.75
453.53	120.75
453.751	140.75
453.971	165.75
454.192	169.75
454.412	103.75
454.633	101.75
454.853	111.75
455.073	94.75
455.294	98.75
455.514	92.75
455.734	87.75
455.955	81.75
456.175	90.75
456.395	96.75
456.616	107.75
456.836	117.75
457.056	103.75
457.276	106.75
457.497	128.75
457.717	143.75
457.937	104.75
458.157	95.75
458.377	102.75
458.598	88.75
458.818	84.75
459.038	83.75
459.258	89.75
459.478	95.75
459.698	93.75
459.918	97.75
460.138	109.75
460.358	98.75
460.578	110.75
460.798	87.75
461.018	89.75
461.238	93.75
461.458	96.75
461.678	84.75
461.898	100.75
462.118	101.75
462.338	95.75
462.558	98.75
462.777	92.75
462.997	89.75
463.217	111.75
463.437	148.75
463.657	193.75
463.876	197.75
464.096	135.75
464.316	100.75
464.536	101.75
464.755	108.75
464.975	93.75
465.195	84.75
465.414	106.75
465.634	87.75
465.854	102.75
466.073	88.75
466.293	95.75
466.512	100.75
466.732	107.75
466.951	109.75
467.171	167.75
467.391	141.75
467.61	111.75
467.829	97.75
468.049	102.75
468.268	97.75
468.488	87.75
468.707	108.75
468.927	99.75
469.146	99.75
469.365	90.75
469.585	96.75
469.804	82.75
470.023	114.75
470.243	101.75
470.462	114.75
470.681	100.75
470.901	132.75
471.12	191.75
471.339	231.75
471.558	129.75
471.777	119.75
471.997	121.75
472.216	94.75
472.435	92.75
472.654	101.75
472.873	95.75
473.092	99.75
473.311	90.75
473.53	89.75
473.749	111.75
473.968	101.75
474.187	83.75
474.406	92.75
474.625	95.75
474.844	98.75
475.063	103.75
475.282	111.75
475.501	103.75
475.72	93.75
475.939	95.75
476.158	84.75
476.377	112.75
476.596	104.75
476.814	89.75
477.033	91.75
477.252	112.75
477.471	98.75
477.69	108.75
477.908	91.75
478.127	108.75
478.346	99.75
478.564	102.75
478.783	105.75
479.002	99.75
479.22	105.75
479.439	87.75
479.658	95.75
479.876	85.75
480.095	89.75
480.313	97.75
480.532	106.75
480.751	91.75
480.969	88.75
481.188	83.75
481.406	81.75
481.624	100.75
481.843	112.75
482.061	115.75
482.28	96.75
482.498	100.75
482.717	97.75
482.935	93.75
483.153	98.75
483.372	111.75
483.59	117.75
483.808	116.75
484.027	108.75
484.245	130.75
484.463	187.75
484.681	253.75
484.9	165.75
485.118	113.75
485.336	99.75
485.554	126.75
485.772	132.75
485.99	201.75
486.209	249.75
486.427	174.75
486.645	123.75
486.863	101.75
487.081	97.75
487.299	100.75
487.517	84.75
487.735	100.75
487.953	88.75
488.171	106.75
488.389	92.75
488.607	91.75
488.825	111.75
489.043	103.75
489.261	105.75
489.479	99.75
489.696	92.75
489.914	95.75
490.132	83.75
490.35	104.75
490.568	104.75
490.786	96.75
491.003	115.75
491.221	115.75
491.439	105.75
491.657	102.75
491.874	118.75
492.092	114.75
492.31	111.75
492.527	100.75
492.745	98.75
492.963	113.75
493.18	116.75
493.398	120.75
493.615	109.75
493.833	110.75
494.05	121.75
494.268	103.75
494.485	91.75
494.703	86.75
494.92	103.75
495.138	107.75
495.355	107.75
495.573	112.75
495.79	95.75
496.008	113.75
496.225	104.75
496.442	109.75
496.66	130.75
496.877	168.75
497.094	153.75
497.312	119.75
497.529	105.75
497.746	104.75
497.963	98.75
498.181	120.75
498.398	105.75
498.615	113.75
498.832	103.75
499.049	112.75
499.267	145.75
499.484	165.75
499.701	119.75
499.918	116.75
500.135	102.75
500.352	111.75
500.569	113.75
500.786	106.75
501.003	111.75
501.22	106.75
501.437	99.75
501.654	100.75
501.871	106.75
502.088	105.75
502.305	89.75
502.522	100.75
502.739	104.75
502.956	112.75
503.172	103.75
503.389	103.75
503.606	113.75
503.823	116.75
504.04	112.75
504.256	101.75
504.473	99.75
504.69	109.75
504.907	122.75
505.123	121.75
505.34	95.75
505.557	103.75
505.773	101.75
505.99	100.75
506.207	109.75
506.423	113.75
506.64	111.75
506.856	103.75
507.073	88.75
507.289	113.75
