Data from SnStandardFlinnAPT0064_QswitchEnergy10_LIBS07252019.E.O._I.C._HRD10591_15-26-34-973.txt Node
Date: Thu Jul 25 15:26:34 EDT 2019
User: cochatt
Spectrometer: HR+D1059
Trigger mode: 1
Integration Time (sec): 1.000000E-1
Scans to average: 1
Electric dark correction enabled: true
Nonlinearity correction enabled: false
Boxcar width: 0
XAxis mode: Wavelengths
Number of Pixels in Spectrum: 2048
>>>>>Begin Spectral Data<<<<<
223.165	-1.25
223.4	-1.25
223.635	-1.25
223.869	1.75
224.104	-14.25
224.338	-24.25
224.573	-26.25
224.808	-26.25
225.042	-13.25
225.277	-6.25
225.511	-8.25
225.746	6.75
225.98	10.75
226.215	12.75
226.449	23.75
226.683	19.75
226.918	23.75
227.152	20.75
227.387	45.75
227.621	40.75
227.856	60.75
228.09	44.75
228.324	47.75
228.559	56.75
228.793	57.75
229.027	57.75
229.262	75.75
229.496	69.75
229.73	67.75
229.964	76.75
230.199	79.75
230.433	66.75
230.667	82.75
230.901	73.75
231.136	78.75
231.37	80.75
231.604	90.75
231.838	100.75
232.072	116.75
232.306	127.75
232.541	89.75
232.775	82.75
233.009	94.75
233.243	100.75
233.477	86.75
233.711	97.75
233.945	101.75
234.179	95.75
234.413	99.75
234.647	71.75
234.881	76.75
235.115	96.75
235.349	84.75
235.583	116.75
235.817	119.75
236.051	127.75
236.285	101.75
236.519	87.75
236.753	85.75
236.987	82.75
237.221	79.75
237.455	85.75
237.689	78.75
237.922	78.75
238.156	83.75
238.39	90.75
238.624	85.75
238.858	101.75
239.091	81.75
239.325	82.75
239.559	62.75
239.793	88.75
240.027	78.75
240.26	91.75
240.494	71.75
240.728	76.75
240.961	95.75
241.195	82.75
241.429	92.75
241.662	93.75
241.896	89.75
242.13	96.75
242.363	131.75
242.597	155.75
242.83	134.75
243.064	128.75
243.298	168.75
243.531	150.75
243.765	88.75
243.998	90.75
244.232	94.75
244.465	76.75
244.699	97.75
244.932	97.75
245.166	88.75
245.399	72.75
245.633	87.75
245.866	88.75
246.099	92.75
246.333	81.75
246.566	94.75
246.8	77.75
247.033	93.75
247.266	61.75
247.5	78.75
247.733	88.75
247.966	84.75
248.2	91.75
248.433	110.75
248.666	124.75
248.899	132.75
249.133	92.75
249.366	97.75
249.599	112.75
249.832	127.75
250.066	126.75
250.299	90.75
250.532	82.75
250.765	92.75
250.998	78.75
251.231	89.75
251.465	84.75
251.698	79.75
251.931	97.75
252.164	76.75
252.397	89.75
252.63	85.75
252.863	101.75
253.096	93.75
253.329	98.75
253.562	98.75
253.795	97.75
254.028	84.75
254.261	96.75
254.494	94.75
254.727	114.75
254.96	149.75
255.193	122.75
255.426	88.75
255.659	80.75
255.892	92.75
256.124	98.75
256.357	96.75
256.59	91.75
256.823	91.75
257.056	116.75
257.289	149.75
257.521	168.75
257.754	116.75
257.987	88.75
258.22	91.75
258.452	85.75
258.685	88.75
258.918	87.75
259.151	81.75
259.383	114.75
259.616	136.75
259.849	149.75
260.081	96.75
260.314	99.75
260.547	88.75
260.779	93.75
261.012	91.75
261.244	82.75
261.477	89.75
261.71	107.75
261.942	91.75
262.175	72.75
262.407	88.75
262.64	79.75
262.872	81.75
263.105	90.75
263.337	104.75
263.57	78.75
263.802	87.75
264.035	89.75
264.267	71.75
264.499	88.75
264.732	84.75
264.964	95.75
265.197	94.75
265.429	110.75
265.661	93.75
265.894	105.75
266.126	114.75
266.358	129.75
266.591	145.75
266.823	101.75
267.055	84.75
267.287	94.75
267.52	86.75
267.752	74.75
267.984	82.75
268.216	82.75
268.448	89.75
268.681	98.75
268.913	89.75
269.145	78.75
269.377	89.75
269.609	109.75
269.841	108.75
270.073	102.75
270.306	130.75
270.538	184.75
270.77	293.75
271.002	366.75
271.234	202.75
271.466	122.75
271.698	111.75
271.93	98.75
272.162	94.75
272.394	103.75
272.626	86.75
272.858	84.75
273.09	72.75
273.322	74.75
273.553	90.75
273.785	86.75
274.017	76.75
274.249	95.75
274.481	88.75
274.713	77.75
274.945	94.75
275.176	88.75
275.408	111.75
275.64	88.75
275.872	85.75
276.104	97.75
276.335	101.75
276.567	114.75
276.799	89.75
277.031	95.75
277.262	96.75
277.494	115.75
277.726	123.75
277.957	169.75
278.189	235.75
278.421	223.75
278.652	176.75
278.884	184.75
279.115	134.75
279.347	98.75
279.579	94.75
279.81	97.75
280.042	102.75
280.273	88.75
280.505	84.75
280.736	109.75
280.968	127.75
281.199	158.75
281.431	236.75
281.662	233.75
281.894	145.75
282.125	112.75
282.356	107.75
282.588	101.75
282.819	108.75
283.051	117.75
283.282	146.75
283.513	172.75
283.745	280.75
283.976	502.75
284.207	728.75
284.439	546.75
284.67	246.75
284.901	255.75
285.132	320.75
285.364	362.75
285.595	222.75
285.826	156.75
286.057	230.75
286.288	384.75
286.52	580.75
286.751	448.75
286.982	197.75
287.213	116.75
287.444	93.75
287.675	106.75
287.906	103.75
288.138	112.75
288.369	96.75
288.6	102.75
288.831	102.75
289.062	97.75
289.293	85.75
289.524	78.75
289.755	86.75
289.986	100.75
290.217	89.75
290.448	103.75
290.679	111.75
290.91	126.75
291.141	156.75
291.371	235.75
291.602	287.75
291.833	199.75
292.064	114.75
292.295	99.75
292.526	90.75
292.757	99.75
292.987	110.75
293.218	85.75
293.449	94.75
293.68	92.75
293.91	88.75
294.141	100.75
294.372	100.75
294.603	97.75
294.833	87.75
295.064	91.75
295.295	93.75
295.525	84.75
295.756	92.75
295.987	90.75
296.217	81.75
296.448	101.75
296.679	86.75
296.909	89.75
297.14	85.75
297.37	109.75
297.601	100.75
297.831	104.75
298.062	106.75
298.292	107.75
298.523	105.75
298.753	118.75
298.984	120.75
299.214	103.75
299.445	112.75
299.675	103.75
299.905	124.75
300.136	132.75
300.366	166.75
300.597	250.75
300.827	400.75
301.057	646.75
301.288	582.75
301.518	255.75
301.748	138.75
301.979	137.75
302.209	138.75
302.439	145.75
302.669	162.75
302.9	262.75
303.13	444.75
303.36	816.75
303.59	1132.75
303.82	793.75
304.051	282.75
304.281	152.75
304.511	127.75
304.741	118.75
304.971	123.75
305.201	108.75
305.431	98.75
305.661	102.75
305.891	106.75
306.121	107.75
306.352	108.75
306.582	93.75
306.812	100.75
307.042	108.75
307.272	107.75
307.502	104.75
307.731	99.75
307.961	95.75
308.191	107.75
308.421	108.75
308.651	116.75
308.881	113.75
309.111	105.75
309.341	108.75
309.571	108.75
309.8	94.75
310.03	103.75
310.26	102.75
310.49	122.75
310.72	108.75
310.949	109.75
311.179	98.75
311.409	96.75
311.639	103.75
311.868	113.75
312.098	115.75
312.328	124.75
312.557	107.75
312.787	100.75
313.017	115.75
313.246	122.75
313.476	104.75
313.706	126.75
313.935	140.75
314.165	172.75
314.394	212.75
314.624	172.75
314.853	126.75
315.083	127.75
315.312	122.75
315.542	118.75
315.771	134.75
316.001	129.75
316.23	136.75
316.46	142.75
316.689	163.75
316.919	256.75
317.148	454.75
317.377	855.75
317.607	1360.75
317.836	1302.75
318.065	501.75
318.295	203.75
318.524	136.75
318.753	124.75
318.983	124.75
319.212	109.75
319.441	107.75
319.67	114.75
319.9	112.75
320.129	106.75
320.358	108.75
320.587	117.75
320.816	116.75
321.046	119.75
321.275	139.75
321.504	134.75
321.733	130.75
321.962	148.75
322.191	146.75
322.42	137.75
322.649	113.75
322.878	117.75
323.108	121.75
323.337	126.75
323.566	120.75
323.795	130.75
324.024	132.75
324.253	150.75
324.482	166.75
324.71	218.75
324.939	273.75
325.168	218.75
325.397	186.75
325.626	252.75
325.855	470.75
326.084	837.75
326.313	1482.75
326.542	1468.75
326.77	570.75
326.999	248.75
327.228	208.75
327.457	205.75
327.686	210.75
327.914	152.75
328.143	129.75
328.372	146.75
328.6	140.75
328.829	122.75
329.058	116.75
329.287	128.75
329.515	117.75
329.744	124.75
329.972	110.75
330.201	112.75
330.43	116.75
330.658	110.75
330.887	117.75
331.115	116.75
331.344	118.75
331.572	115.75
331.801	119.75
332.03	125.75
332.258	136.75
332.486	173.75
332.715	293.75
332.943	473.75
333.172	720.75
333.4	616.75
333.629	258.75
333.857	147.75
334.085	140.75
334.314	112.75
334.542	106.75
334.771	118.75
334.999	118.75
335.227	119.75
335.455	114.75
335.684	129.75
335.912	126.75
336.14	117.75
336.369	115.75
336.597	119.75
336.825	96.75
337.053	110.75
337.281	122.75
337.51	96.75
337.738	105.75
337.966	109.75
338.194	124.75
338.422	114.75
338.65	120.75
338.878	110.75
339.106	107.75
339.334	126.75
339.562	118.75
339.79	108.75
340.018	108.75
340.246	108.75
340.474	115.75
340.702	109.75
340.93	132.75
341.158	114.75
341.386	106.75
341.614	121.75
341.842	116.75
342.07	116.75
342.298	113.75
342.526	120.75
342.754	100.75
342.981	112.75
343.209	118.75
343.437	110.75
343.665	120.75
343.893	107.75
344.12	116.75
344.348	117.75
344.576	124.75
344.804	120.75
345.031	112.75
345.259	121.75
345.487	118.75
345.714	107.75
345.942	111.75
346.17	93.75
346.397	114.75
346.625	105.75
346.853	119.75
347.08	112.75
347.308	120.75
347.535	96.75
347.763	102.75
347.99	102.75
348.218	114.75
348.445	98.75
348.673	122.75
348.9	130.75
349.128	136.75
349.355	124.75
349.583	117.75
349.81	122.75
350.037	105.75
350.265	102.75
350.492	103.75
350.72	102.75
350.947	106.75
351.174	103.75
351.402	96.75
351.629	92.75
351.856	116.75
352.083	114.75
352.311	111.75
352.538	111.75
352.765	93.75
352.992	120.75
353.22	108.75
353.447	94.75
353.674	104.75
353.901	109.75
354.128	112.75
354.355	92.75
354.583	107.75
354.81	114.75
355.037	103.75
355.264	101.75
355.491	90.75
355.718	101.75
355.945	100.75
356.172	106.75
356.399	108.75
356.626	108.75
356.853	107.75
357.08	108.75
357.307	121.75
357.534	112.75
357.761	118.75
357.988	104.75
358.215	110.75
358.441	102.75
358.668	117.75
358.895	118.75
359.122	117.75
359.349	124.75
359.576	112.75
359.802	105.75
360.029	124.75
360.256	98.75
360.483	110.75
360.709	112.75
360.936	117.75
361.163	96.75
361.39	114.75
361.616	109.75
361.843	102.75
362.07	110.75
362.296	119.75
362.523	100.75
362.749	113.75
362.976	124.75
363.203	114.75
363.429	98.75
363.656	104.75
363.882	103.75
364.109	111.75
364.335	122.75
364.562	97.75
364.788	103.75
365.015	108.75
365.241	124.75
365.468	171.75
365.694	234.75
365.92	206.75
366.147	101.75
366.373	109.75
366.599	101.75
366.826	108.75
367.052	97.75
367.278	101.75
367.505	97.75
367.731	105.75
367.957	103.75
368.184	107.75
368.41	112.75
368.636	129.75
368.862	109.75
369.089	106.75
369.315	117.75
369.541	116.75
369.767	123.75
369.993	111.75
370.219	114.75
370.445	102.75
370.672	113.75
370.898	109.75
371.124	116.75
371.35	111.75
371.576	109.75
371.802	100.75
372.028	124.75
372.254	100.75
372.48	104.75
372.706	117.75
372.932	122.75
373.158	110.75
373.384	116.75
373.61	122.75
373.835	107.75
374.061	117.75
374.287	105.75
374.513	114.75
374.739	103.75
374.965	115.75
375.191	115.75
375.416	114.75
375.642	119.75
375.868	107.75
376.094	115.75
376.319	106.75
376.545	108.75
376.771	109.75
376.997	96.75
377.222	88.75
377.448	104.75
377.674	97.75
377.899	109.75
378.125	118.75
378.35	109.75
378.576	128.75
378.802	117.75
379.027	128.75
379.253	139.75
379.478	168.75
379.704	276.75
379.929	741.75
380.155	1468.75
380.38	1506.75
380.606	466.75
380.831	178.75
381.057	125.75
381.282	113.75
381.507	109.75
381.733	109.75
381.958	94.75
382.184	117.75
382.409	117.75
382.634	117.75
382.86	106.75
383.085	103.75
383.31	109.75
383.535	101.75
383.761	91.75
383.986	92.75
384.211	102.75
384.436	106.75
384.662	102.75
384.887	109.75
385.112	88.75
385.337	102.75
385.562	107.75
385.787	106.75
386.013	116.75
386.238	124.75
386.463	115.75
386.688	96.75
386.913	116.75
387.138	115.75
387.363	101.75
387.588	114.75
387.813	94.75
388.038	96.75
388.263	98.75
388.488	108.75
388.713	120.75
388.938	97.75
389.163	99.75
389.387	100.75
389.612	79.75
389.837	114.75
390.062	114.75
390.287	120.75
390.512	108.75
390.736	101.75
390.961	93.75
391.186	98.75
391.411	92.75
391.636	85.75
391.86	106.75
392.085	96.75
392.31	101.75
392.534	108.75
392.759	103.75
392.984	106.75
393.208	99.75
393.433	120.75
393.658	146.75
393.882	94.75
394.107	100.75
394.331	113.75
394.556	93.75
394.78	89.75
395.005	100.75
395.229	108.75
395.454	108.75
395.678	116.75
395.903	91.75
396.127	103.75
396.352	101.75
396.576	104.75
396.801	118.75
397.025	136.75
397.249	107.75
397.474	93.75
397.698	91.75
397.922	89.75
398.147	93.75
398.371	96.75
398.595	99.75
398.82	91.75
399.044	98.75
399.268	111.75
399.492	98.75
399.717	104.75
399.941	103.75
400.165	97.75
400.389	88.75
400.613	91.75
400.837	93.75
401.062	106.75
401.286	105.75
401.51	88.75
401.734	93.75
401.958	94.75
402.182	108.75
402.406	99.75
402.63	91.75
402.854	76.75
403.078	92.75
403.302	102.75
403.526	102.75
403.75	107.75
403.974	92.75
404.198	107.75
404.422	94.75
404.645	99.75
404.869	102.75
405.093	118.75
405.317	98.75
405.541	106.75
405.765	105.75
405.988	135.75
406.212	112.75
406.436	99.75
406.66	99.75
406.883	98.75
407.107	89.75
407.331	112.75
407.555	96.75
407.778	84.75
408.002	110.75
408.226	94.75
408.449	101.75
408.673	97.75
408.896	105.75
409.12	107.75
409.344	105.75
409.567	108.75
409.791	115.75
410.014	103.75
410.238	102.75
410.461	119.75
410.685	116.75
410.908	108.75
411.132	117.75
411.355	94.75
411.578	92.75
411.802	97.75
412.025	104.75
412.249	91.75
412.472	92.75
412.695	110.75
412.919	107.75
413.142	103.75
413.365	108.75
413.589	102.75
413.812	107.75
414.035	97.75
414.258	90.75
414.482	97.75
414.705	122.75
414.928	102.75
415.151	108.75
415.374	104.75
415.597	98.75
415.821	96.75
416.044	89.75
416.267	94.75
416.49	86.75
416.713	93.75
416.936	105.75
417.159	100.75
417.382	118.75
417.605	87.75
417.828	90.75
418.051	94.75
418.274	109.75
418.497	100.75
418.72	108.75
418.943	108.75
419.166	115.75
419.389	97.75
419.611	107.75
419.834	106.75
420.057	98.75
420.28	110.75
420.503	116.75
420.726	93.75
420.948	81.75
421.171	88.75
421.394	89.75
421.617	88.75
421.839	93.75
422.062	85.75
422.285	93.75
422.507	112.75
422.73	113.75
422.953	132.75
423.175	116.75
423.398	83.75
423.621	95.75
423.843	95.75
424.066	88.75
424.288	97.75
424.511	106.75
424.733	102.75
424.956	102.75
425.178	101.75
425.401	104.75
425.623	88.75
425.846	94.75
426.068	89.75
426.291	106.75
426.513	97.75
426.735	97.75
426.958	104.75
427.18	98.75
427.402	100.75
427.625	107.75
427.847	90.75
428.069	94.75
428.292	110.75
428.514	94.75
428.736	98.75
428.958	103.75
429.181	85.75
429.403	89.75
429.625	106.75
429.847	98.75
430.069	102.75
430.292	105.75
430.514	109.75
430.736	115.75
430.958	98.75
431.18	96.75
431.402	102.75
431.624	101.75
431.846	84.75
432.068	84.75
432.29	107.75
432.512	92.75
432.734	102.75
432.956	94.75
433.178	91.75
433.4	95.75
433.622	92.75
433.844	96.75
434.066	94.75
434.287	91.75
434.509	94.75
434.731	95.75
434.953	87.75
435.175	96.75
435.397	91.75
435.618	95.75
435.84	89.75
436.062	88.75
436.284	96.75
436.505	87.75
436.727	85.75
436.949	96.75
437.17	89.75
437.392	88.75
437.614	90.75
437.835	101.75
438.057	95.75
438.278	97.75
438.5	85.75
438.721	110.75
438.943	91.75
439.165	107.75
439.386	96.75
439.608	104.75
439.829	100.75
440.05	101.75
440.272	123.75
440.493	88.75
440.715	99.75
440.936	101.75
441.158	98.75
441.379	93.75
441.6	92.75
441.822	101.75
442.043	115.75
442.264	141.75
442.486	116.75
442.707	97.75
442.928	96.75
443.149	90.75
443.371	89.75
443.592	84.75
443.813	96.75
444.034	93.75
444.255	108.75
444.476	102.75
444.698	84.75
444.919	97.75
445.14	195.75
445.361	155.75
445.582	99.75
445.803	86.75
446.024	92.75
446.245	120.75
446.466	100.75
446.687	114.75
446.908	105.75
447.129	92.75
447.35	94.75
447.571	104.75
447.792	104.75
448.013	88.75
448.234	102.75
448.455	93.75
448.675	97.75
448.896	93.75
449.117	110.75
449.338	120.75
449.559	140.75
449.779	115.75
450	118.75
450.221	108.75
450.442	104.75
450.662	120.75
450.883	112.75
451.104	115.75
451.324	117.75
451.545	98.75
451.766	104.75
451.986	116.75
452.207	200.75
452.428	523.75
452.648	1257.75
452.869	717.75
453.089	194.75
453.31	122.75
453.53	125.75
453.751	154.75
453.971	153.75
454.192	153.75
454.412	101.75
454.633	105.75
454.853	91.75
455.073	92.75
455.294	90.75
455.514	93.75
455.734	85.75
455.955	86.75
456.175	84.75
456.395	98.75
456.616	95.75
456.836	104.75
457.056	87.75
457.276	92.75
457.497	104.75
457.717	117.75
457.937	114.75
458.157	89.75
458.377	95.75
458.598	94.75
458.818	96.75
459.038	85.75
459.258	89.75
459.478	88.75
459.698	94.75
459.918	107.75
460.138	103.75
460.358	100.75
460.578	97.75
460.798	99.75
461.018	98.75
461.238	100.75
461.458	97.75
461.678	104.75
461.898	100.75
462.118	92.75
462.338	103.75
462.558	89.75
462.777	97.75
462.997	81.75
463.217	109.75
463.437	124.75
463.657	170.75
463.876	186.75
464.096	117.75
464.316	94.75
464.536	96.75
464.755	92.75
464.975	86.75
465.195	104.75
465.414	108.75
465.634	101.75
465.854	92.75
466.073	91.75
466.293	95.75
466.512	98.75
466.732	89.75
466.951	101.75
467.171	136.75
467.391	146.75
467.61	103.75
467.829	102.75
468.049	92.75
468.268	106.75
468.488	103.75
468.707	99.75
468.927	97.75
469.146	95.75
469.365	101.75
469.585	102.75
469.804	98.75
470.023	90.75
470.243	93.75
470.462	100.75
470.681	108.75
470.901	120.75
471.12	184.75
471.339	200.75
471.558	129.75
471.777	109.75
471.997	112.75
472.216	105.75
472.435	107.75
472.654	101.75
472.873	87.75
473.092	98.75
473.311	99.75
473.53	95.75
473.749	111.75
473.968	99.75
474.187	89.75
474.406	99.75
474.625	97.75
474.844	99.75
475.063	99.75
475.282	91.75
475.501	86.75
475.72	102.75
475.939	106.75
476.158	97.75
476.377	105.75
476.596	96.75
476.814	101.75
477.033	94.75
477.252	98.75
477.471	104.75
477.69	105.75
477.908	100.75
478.127	88.75
478.346	98.75
478.564	95.75
478.783	96.75
479.002	104.75
479.22	99.75
479.439	104.75
479.658	99.75
479.876	93.75
480.095	88.75
480.313	92.75
480.532	70.75
480.751	71.75
480.969	85.75
481.188	88.75
481.406	100.75
481.624	114.75
481.843	107.75
482.061	122.75
482.28	124.75
482.498	90.75
482.717	96.75
482.935	99.75
483.153	104.75
483.372	97.75
483.59	111.75
483.808	107.75
484.027	113.75
484.245	123.75
484.463	158.75
484.681	213.75
484.9	147.75
485.118	128.75
485.336	104.75
485.554	98.75
485.772	116.75
485.99	172.75
486.209	225.75
486.427	140.75
486.645	109.75
486.863	93.75
487.081	117.75
487.299	94.75
487.517	93.75
487.735	101.75
487.953	97.75
488.171	103.75
488.389	98.75
488.607	98.75
488.825	87.75
489.043	106.75
489.261	105.75
489.479	106.75
489.696	101.75
489.914	80.75
490.132	109.75
490.35	84.75
490.568	86.75
490.786	100.75
491.003	99.75
491.221	114.75
491.439	117.75
491.657	98.75
491.874	86.75
492.092	114.75
492.31	109.75
492.527	98.75
492.745	100.75
492.963	102.75
493.18	113.75
493.398	110.75
493.615	115.75
493.833	104.75
494.05	103.75
494.268	113.75
494.485	116.75
494.703	102.75
494.92	99.75
495.138	109.75
495.355	111.75
495.573	104.75
495.79	104.75
496.008	124.75
496.225	96.75
496.442	105.75
496.66	117.75
496.877	142.75
497.094	143.75
497.312	128.75
497.529	108.75
497.746	106.75
497.963	91.75
498.181	103.75
498.398	105.75
498.615	109.75
498.832	95.75
499.049	97.75
499.267	140.75
499.484	155.75
499.701	108.75
499.918	110.75
500.135	117.75
500.352	128.75
500.569	100.75
500.786	102.75
501.003	105.75
501.22	113.75
501.437	102.75
501.654	89.75
501.871	103.75
502.088	87.75
502.305	109.75
502.522	124.75
502.739	116.75
502.956	96.75
503.172	99.75
503.389	79.75
503.606	94.75
503.823	109.75
504.04	108.75
504.256	109.75
504.473	99.75
504.69	88.75
504.907	101.75
505.123	110.75
505.34	106.75
505.557	114.75
505.773	99.75
505.99	96.75
506.207	102.75
506.423	110.75
506.64	123.75
506.856	107.75
507.073	103.75
507.289	97.75
507.506	108.75
507.722	92.75
507.939	95.75
508.155	98.75
