Data from SnStandardFlinnAPT0064_LampEnergy5.5_LIBS07252019.E.O._I.C._HRD10591_15-15-40-494.txt Node
Date: Thu Jul 25 15:15:40 EDT 2019
User: cochatt
Spectrometer: HR+D1059
Trigger mode: 1
Integration Time (sec): 1.000000E-1
Scans to average: 1
Electric dark correction enabled: true
Nonlinearity correction enabled: false
Boxcar width: 0
XAxis mode: Wavelengths
Number of Pixels in Spectrum: 2048
>>>>>Begin Spectral Data<<<<<
223.165	-23.75
223.4	-23.75
223.635	-23.75
223.869	-23.75
224.104	-18.75
224.338	-18.75
224.573	-13.75
224.808	-13.75
225.042	-10.75
225.277	-10.75
225.511	-2.75
225.746	-0.75
225.98	18.25
226.215	19.25
226.449	18.25
226.683	25.25
226.918	30.25
227.152	26.25
227.387	34.25
227.621	41.25
227.856	32.25
228.09	50.25
228.324	41.25
228.559	58.25
228.793	93.25
229.027	140.25
229.262	145.25
229.496	154.25
229.73	161.25
229.964	147.25
230.199	142.25
230.433	157.25
230.667	152.25
230.901	149.25
231.136	142.25
231.37	178.25
231.604	182.25
231.838	182.25
232.072	225.25
232.306	233.25
232.541	213.25
232.775	195.25
233.009	191.25
233.243	196.25
233.477	225.25
233.711	213.25
233.945	242.25
234.179	211.25
234.413	206.25
234.647	211.25
234.881	209.25
235.115	216.25
235.349	273.25
235.583	310.25
235.817	386.25
236.051	395.25
236.285	264.25
236.519	208.25
236.753	237.25
236.987	233.25
237.221	240.25
237.455	222.25
237.689	225.25
237.922	212.25
238.156	207.25
238.39	236.25
238.624	221.25
238.858	228.25
239.091	226.25
239.325	222.25
239.559	225.25
239.793	227.25
240.027	240.25
240.26	224.25
240.494	239.25
240.728	244.25
240.961	260.25
241.195	255.25
241.429	265.25
241.662	304.25
241.896	325.25
242.13	382.25
242.363	457.25
242.597	581.25
242.83	553.25
243.064	558.25
243.298	653.25
243.531	573.25
243.765	388.25
243.998	311.25
244.232	302.25
244.465	306.25
244.699	291.25
244.932	310.25
245.166	292.25
245.399	287.25
245.633	274.25
245.866	301.25
246.099	286.25
246.333	290.25
246.566	294.25
246.8	290.25
247.033	284.25
247.266	280.25
247.5	293.25
247.733	275.25
247.966	317.25
248.2	326.25
248.433	342.25
248.666	364.25
248.899	376.25
249.133	333.25
249.366	346.25
249.599	383.25
249.832	399.25
250.066	413.25
250.299	359.25
250.532	345.25
250.765	328.25
250.998	332.25
251.231	326.25
251.465	321.25
251.698	313.25
251.931	317.25
252.164	312.25
252.397	331.25
252.63	326.25
252.863	343.25
253.096	357.25
253.329	329.25
253.562	349.25
253.795	352.25
254.028	339.25
254.261	340.25
254.494	374.25
254.727	396.25
254.96	480.25
255.193	489.25
255.426	422.25
255.659	371.25
255.892	359.25
256.124	361.25
256.357	374.25
256.59	385.25
256.823	399.25
257.056	428.25
257.289	499.25
257.521	535.25
257.754	459.25
257.987	402.25
258.22	393.25
258.452	392.25
258.685	394.25
258.918	414.25
259.151	421.25
259.383	448.25
259.616	483.25
259.849	501.25
260.081	435.25
260.314	425.25
260.547	424.25
260.779	402.25
261.012	413.25
261.244	438.25
261.477	429.25
261.71	431.25
261.942	440.25
262.175	444.25
262.407	466.25
262.64	447.25
262.872	475.25
263.105	511.25
263.337	521.25
263.57	543.25
263.802	537.25
264.035	520.25
264.267	580.25
264.499	592.25
264.732	587.25
264.964	622.25
265.197	610.25
265.429	634.25
265.661	636.25
265.894	648.25
266.126	715.25
266.358	760.25
266.591	751.25
266.823	645.25
267.055	608.25
267.287	568.25
267.52	570.25
267.752	553.25
267.984	542.25
268.216	523.25
268.448	543.25
268.681	528.25
268.913	515.25
269.145	528.25
269.377	541.25
269.609	535.25
269.841	551.25
270.073	556.25
270.306	617.25
270.538	803.25
270.77	1140.25
271.002	1337.25
271.234	993.25
271.466	736.25
271.698	604.25
271.93	573.25
272.162	543.25
272.394	568.25
272.626	542.25
272.858	542.25
273.09	514.25
273.322	505.25
273.553	512.25
273.785	518.25
274.017	527.25
274.249	526.25
274.481	512.25
274.713	518.25
274.945	515.25
275.176	532.25
275.408	539.25
275.64	530.25
275.872	505.25
276.104	522.25
276.335	519.25
276.567	514.25
276.799	536.25
277.031	561.25
277.262	557.25
277.494	563.25
277.726	616.25
277.957	689.25
278.189	734.25
278.421	689.25
278.652	632.25
278.884	627.25
279.115	589.25
279.347	576.25
279.579	582.25
279.81	567.25
280.042	565.25
280.273	594.25
280.505	581.25
280.736	615.25
280.968	610.25
281.199	661.25
281.431	722.25
281.662	733.25
281.894	703.25
282.125	647.25
282.356	658.25
282.588	678.25
282.819	660.25
283.051	721.25
283.282	745.25
283.513	895.25
283.745	1286.25
283.976	2001.25
284.207	2761.25
284.439	2464.25
284.67	1568.25
284.901	1269.25
285.132	1244.25
285.364	1184.25
285.595	994.25
285.826	885.25
286.057	1061.25
286.288	1370.25
286.52	1778.25
286.751	1655.25
286.982	1100.25
287.213	850.25
287.444	772.25
287.675	735.25
287.906	720.25
288.138	707.25
288.369	676.25
288.6	686.25
288.831	680.25
289.062	710.25
289.293	708.25
289.524	716.25
289.755	661.25
289.986	705.25
290.217	716.25
290.448	704.25
290.679	707.25
290.91	706.25
291.141	717.25
291.371	720.25
291.602	756.25
291.833	734.25
292.064	702.25
292.295	685.25
292.526	668.25
292.757	669.25
292.987	646.25
293.218	669.25
293.449	657.25
293.68	644.25
293.91	658.25
294.141	657.25
294.372	647.25
294.603	659.25
294.833	650.25
295.064	654.25
295.295	637.25
295.525	650.25
295.756	667.25
295.987	651.25
296.217	638.25
296.448	656.25
296.679	650.25
296.909	638.25
297.14	648.25
297.37	671.25
297.601	685.25
297.831	670.25
298.062	666.25
298.292	666.25
298.523	670.25
298.753	692.25
298.984	670.25
299.214	677.25
299.445	693.25
299.675	699.25
299.905	724.25
300.136	760.25
300.366	847.25
300.597	1012.25
300.827	1330.25
301.057	1781.25
301.288	1728.25
301.518	1198.25
301.748	946.25
301.979	897.25
302.209	863.25
302.439	869.25
302.669	912.25
302.9	1065.25
303.13	1417.25
303.36	2032.25
303.59	2638.25
303.82	2367.25
304.051	1432.25
304.281	1087.25
304.511	921.25
304.741	877.25
304.971	853.25
305.201	777.25
305.431	783.25
305.661	766.25
305.891	781.25
306.121	766.25
306.352	748.25
306.582	745.25
306.812	746.25
307.042	753.25
307.272	740.25
307.502	750.25
307.731	743.25
307.961	733.25
308.191	733.25
308.421	764.25
308.651	727.25
308.881	755.25
309.111	736.25
309.341	735.25
309.571	744.25
309.8	767.25
310.03	780.25
310.26	782.25
310.49	764.25
310.72	771.25
310.949	786.25
311.179	766.25
311.409	791.25
311.639	791.25
311.868	794.25
312.098	807.25
312.328	789.25
312.557	808.25
312.787	794.25
313.017	789.25
313.246	828.25
313.476	796.25
313.706	838.25
313.935	863.25
314.165	890.25
314.394	889.25
314.624	894.25
314.853	846.25
315.083	833.25
315.312	890.25
315.542	880.25
315.771	888.25
316.001	900.25
316.23	914.25
316.46	915.25
316.689	1015.25
316.919	1201.25
317.148	1615.25
317.377	2446.25
317.607	3505.25
317.836	3611.25
318.065	2207.25
318.295	1507.25
318.524	1246.25
318.753	1098.25
318.983	1041.25
319.212	975.25
319.441	992.25
319.67	940.25
319.9	913.25
320.129	948.25
320.358	935.25
320.587	929.25
320.816	941.25
321.046	936.25
321.275	925.25
321.504	953.25
321.733	960.25
321.962	983.25
322.191	1010.25
322.42	990.25
322.649	973.25
322.878	987.25
323.108	974.25
323.337	1001.25
323.566	1033.25
323.795	1026.25
324.024	1026.25
324.253	1061.25
324.482	1102.25
324.71	1142.25
324.939	1204.25
325.168	1238.25
325.397	1263.25
325.626	1458.25
325.855	1953.25
326.084	2958.25
326.313	4369.25
326.542	4537.25
326.77	2983.25
326.999	2030.25
327.228	1744.25
327.457	1690.25
327.686	1702.25
327.914	1843.25
328.143	2048.25
328.372	2391.25
328.6	2548.25
328.829	2364.25
329.058	2063.25
329.287	1890.25
329.515	1730.25
329.744	1638.25
329.972	1565.25
330.201	1509.25
330.43	1457.25
330.658	1398.25
330.887	1412.25
331.115	1376.25
331.344	1385.25
331.572	1342.25
331.801	1349.25
332.03	1346.25
332.258	1379.25
332.486	1439.25
332.715	1622.25
332.943	1862.25
333.172	2217.25
333.4	2222.25
333.629	1812.25
333.857	1698.25
334.085	1677.25
334.314	1788.25
334.542	1942.25
334.771	2152.25
334.999	2576.25
335.227	3082.25
335.455	3357.25
335.684	3145.25
335.912	2750.25
336.14	2417.25
336.369	2155.25
336.597	2013.25
336.825	1842.25
337.053	1718.25
337.281	1621.25
337.51	1572.25
337.738	1477.25
337.966	1452.25
338.194	1424.25
338.422	1365.25
338.65	1325.25
338.878	1290.25
339.106	1296.25
339.334	1311.25
339.562	1270.25
339.79	1230.25
340.018	1211.25
340.246	1221.25
340.474	1230.25
340.702	1217.25
340.93	1203.25
341.158	1199.25
341.386	1190.25
341.614	1158.25
341.842	1182.25
342.07	1150.25
342.298	1155.25
342.526	1146.25
342.754	1109.25
342.981	1109.25
343.209	1129.25
343.437	1134.25
343.665	1150.25
343.893	1142.25
344.12	1151.25
344.348	1154.25
344.576	1116.25
344.804	1112.25
345.031	1075.25
345.259	1034.25
345.487	1041.25
345.714	1041.25
345.942	1053.25
346.17	1053.25
346.397	1062.25
346.625	1038.25
346.853	1032.25
347.08	1007.25
347.308	1011.25
347.535	1015.25
347.763	1022.25
347.99	1009.25
348.218	981.25
348.445	1005.25
348.673	1010.25
348.9	989.25
349.128	983.25
349.355	998.25
349.583	984.25
349.81	982.25
350.037	973.25
350.265	999.25
350.492	1001.25
350.72	1020.25
350.947	1004.25
351.174	992.25
351.402	994.25
351.629	1003.25
351.856	973.25
352.083	998.25
352.311	970.25
352.538	969.25
352.765	990.25
352.992	995.25
353.22	944.25
353.447	965.25
353.674	959.25
353.901	993.25
354.128	984.25
354.355	989.25
354.583	973.25
354.81	973.25
355.037	990.25
355.264	1000.25
355.491	991.25
355.718	998.25
355.945	1024.25
356.172	1008.25
356.399	985.25
356.626	997.25
356.853	1004.25
357.08	1024.25
357.307	1028.25
357.534	1005.25
357.761	1069.25
357.988	1037.25
358.215	1035.25
358.441	1069.25
358.668	998.25
358.895	1034.25
359.122	1022.25
359.349	1058.25
359.576	1033.25
359.802	1056.25
360.029	1047.25
360.256	1039.25
360.483	1050.25
360.709	1031.25
360.936	1045.25
361.163	1068.25
361.39	1062.25
361.616	1013.25
361.843	1024.25
362.07	1053.25
362.296	1049.25
362.523	1044.25
362.749	1057.25
362.976	1095.25
363.203	1042.25
363.429	1026.25
363.656	1061.25
363.882	1044.25
364.109	1050.25
364.335	1035.25
364.562	1026.25
364.788	1022.25
365.015	1063.25
365.241	1072.25
365.468	1122.25
365.694	1141.25
365.92	1104.25
366.147	1062.25
366.373	1062.25
366.599	1063.25
366.826	1048.25
367.052	1078.25
367.278	1059.25
367.505	1072.25
367.731	1064.25
367.957	1066.25
368.184	1077.25
368.41	1066.25
368.636	1077.25
368.862	1068.25
369.089	1093.25
369.315	1094.25
369.541	1076.25
369.767	1076.25
369.993	1044.25
370.219	1051.25
370.445	1077.25
370.672	1080.25
370.898	1103.25
371.124	1126.25
371.35	1114.25
371.576	1108.25
371.802	1127.25
372.028	1090.25
372.254	1096.25
372.48	1127.25
372.706	1116.25
372.932	1138.25
373.158	1138.25
373.384	1133.25
373.61	1128.25
373.835	1111.25
374.061	1148.25
374.287	1132.25
374.513	1171.25
374.739	1162.25
374.965	1197.25
375.191	1176.25
375.416	1182.25
375.642	1157.25
375.868	1155.25
376.094	1128.25
376.319	1157.25
376.545	1145.25
376.771	1099.25
376.997	1102.25
377.222	1103.25
377.448	1102.25
377.674	1094.25
377.899	1106.25
378.125	1129.25
378.35	1142.25
378.576	1113.25
378.802	1170.25
379.027	1144.25
379.253	1166.25
379.478	1213.25
379.704	1341.25
379.929	1799.25
380.155	2599.25
380.38	2761.25
380.606	1827.25
380.831	1412.25
381.057	1243.25
381.282	1185.25
381.507	1117.25
381.733	1121.25
381.958	1154.25
382.184	1173.25
382.409	1120.25
382.634	1074.25
382.86	1110.25
383.085	1142.25
383.31	1132.25
383.535	1126.25
383.761	1113.25
383.986	1133.25
384.211	1128.25
384.436	1154.25
384.662	1130.25
384.887	1164.25
385.112	1150.25
385.337	1156.25
385.562	1172.25
385.787	1151.25
386.013	1179.25
386.238	1136.25
386.463	1150.25
386.688	1170.25
386.913	1153.25
387.138	1148.25
387.363	1168.25
387.588	1127.25
387.813	1160.25
388.038	1139.25
388.263	1125.25
388.488	1117.25
388.713	1134.25
388.938	1168.25
389.163	1150.25
389.387	1127.25
389.612	1146.25
389.837	1162.25
390.062	1153.25
390.287	1177.25
390.512	1172.25
390.736	1200.25
390.961	1189.25
391.186	1178.25
391.411	1187.25
391.636	1182.25
391.86	1213.25
392.085	1217.25
392.31	1215.25
392.534	1207.25
392.759	1205.25
392.984	1181.25
393.208	1165.25
393.433	1143.25
393.658	1150.25
393.882	1166.25
394.107	1189.25
394.331	1170.25
394.556	1137.25
394.78	1198.25
395.005	1200.25
395.229	1197.25
395.454	1192.25
395.678	1212.25
395.903	1212.25
396.127	1196.25
396.352	1225.25
396.576	1185.25
396.801	1216.25
397.025	1210.25
397.249	1214.25
397.474	1237.25
397.698	1157.25
397.922	1241.25
398.147	1228.25
398.371	1221.25
398.595	1253.25
398.82	1297.25
399.044	1348.25
399.268	1394.25
399.492	1474.25
399.717	1577.25
399.941	1552.25
400.165	1456.25
400.389	1417.25
400.613	1358.25
400.837	1333.25
401.062	1330.25
401.286	1329.25
401.51	1281.25
401.734	1262.25
401.958	1302.25
402.182	1311.25
402.406	1324.25
402.63	1288.25
402.854	1318.25
403.078	1303.25
403.302	1328.25
403.526	1345.25
403.75	1322.25
403.974	1329.25
404.198	1345.25
404.422	1356.25
404.645	1345.25
404.869	1380.25
405.093	1335.25
405.317	1321.25
405.541	1379.25
405.765	1359.25
405.988	1349.25
406.212	1377.25
406.436	1375.25
406.66	1393.25
406.883	1374.25
407.107	1449.25
407.331	1411.25
407.555	1452.25
407.778	1439.25
408.002	1398.25
408.226	1430.25
408.449	1390.25
408.673	1394.25
408.896	1397.25
409.12	1339.25
409.344	1336.25
409.567	1337.25
409.791	1336.25
410.014	1327.25
410.238	1321.25
410.461	1328.25
410.685	1341.25
410.908	1305.25
411.132	1313.25
411.355	1265.25
411.578	1260.25
411.802	1239.25
412.025	1317.25
412.249	1277.25
412.472	1287.25
412.695	1252.25
412.919	1286.25
413.142	1293.25
413.365	1257.25
413.589	1245.25
413.812	1258.25
414.035	1287.25
414.258	1248.25
414.482	1270.25
414.705	1261.25
414.928	1263.25
415.151	1266.25
415.374	1263.25
415.597	1216.25
415.821	1208.25
416.044	1197.25
416.267	1212.25
416.49	1244.25
416.713	1204.25
416.936	1225.25
417.159	1231.25
417.382	1185.25
417.605	1179.25
417.828	1231.25
418.051	1208.25
418.274	1210.25
418.497	1208.25
418.72	1235.25
418.943	1214.25
419.166	1309.25
419.389	1352.25
419.611	1330.25
419.834	1278.25
420.057	1275.25
420.28	1244.25
420.503	1233.25
420.726	1218.25
420.948	1220.25
421.171	1224.25
421.394	1202.25
421.617	1207.25
421.839	1212.25
422.062	1230.25
422.285	1192.25
422.507	1221.25
422.73	1236.25
422.953	1241.25
423.175	1261.25
423.398	1263.25
423.621	1212.25
423.843	1239.25
424.066	1248.25
424.288	1221.25
424.511	1216.25
424.733	1207.25
424.956	1189.25
425.178	1233.25
425.401	1200.25
425.623	1187.25
425.846	1166.25
426.068	1152.25
426.291	1196.25
426.513	1147.25
426.735	1151.25
426.958	1148.25
427.18	1128.25
427.402	1160.25
427.625	1146.25
427.847	1135.25
428.069	1145.25
428.292	1146.25
428.514	1121.25
428.736	1129.25
428.958	1129.25
429.181	1103.25
429.403	1126.25
429.625	1126.25
429.847	1107.25
430.069	1130.25
430.292	1149.25
430.514	1206.25
430.736	1205.25
430.958	1153.25
431.18	1158.25
431.402	1110.25
431.624	1105.25
431.846	1110.25
432.068	1111.25
432.29	1106.25
432.512	1088.25
432.734	1106.25
432.956	1102.25
433.178	1135.25
433.4	1119.25
433.622	1135.25
433.844	1152.25
434.066	1113.25
434.287	1095.25
434.509	1138.25
434.731	1144.25
434.953	1136.25
435.175	1169.25
435.397	1164.25
435.618	1132.25
435.84	1134.25
436.062	1117.25
436.284	1128.25
436.505	1098.25
436.727	1131.25
436.949	1122.25
437.17	1107.25
437.392	1119.25
437.614	1082.25
437.835	1062.25
438.057	1098.25
438.278	1056.25
438.5	1090.25
438.721	1086.25
438.943	1121.25
439.165	1121.25
439.386	1139.25
439.608	1168.25
439.829	1157.25
440.05	1170.25
440.272	1182.25
440.493	1159.25
440.715	1161.25
440.936	1149.25
441.158	1169.25
441.379	1205.25
441.6	1214.25
441.822	1262.25
442.043	1280.25
442.264	1296.25
442.486	1249.25
442.707	1200.25
442.928	1178.25
443.149	1201.25
443.371	1170.25
443.592	1217.25
443.813	1201.25
444.034	1213.25
444.255	1222.25
444.476	1257.25
444.698	1277.25
444.919	1325.25
445.14	1351.25
445.361	1296.25
445.582	1245.25
445.803	1209.25
446.024	1202.25
446.245	1201.25
446.466	1182.25
446.687	1176.25
446.908	1158.25
447.129	1148.25
447.35	1161.25
447.571	1121.25
447.792	1107.25
448.013	1118.25
448.234	1105.25
448.455	1088.25
448.675	1096.25
448.896	1128.25
449.117	1159.25
449.338	1240.25
449.559	1254.25
449.779	1188.25
450	1120.25
450.221	1063.25
450.442	1070.25
450.662	1093.25
450.883	1057.25
451.104	1063.25
451.324	1060.25
451.545	1070.25
451.766	1066.25
451.986	1076.25
452.207	1118.25
452.428	1320.25
452.648	1799.25
452.869	1544.25
453.089	1188.25
453.31	1166.25
453.53	1152.25
453.751	1192.25
453.971	1229.25
454.192	1236.25
454.412	1082.25
454.633	1066.25
454.853	1053.25
455.073	1028.25
455.294	1044.25
455.514	1018.25
455.734	1032.25
455.955	1004.25
456.175	1019.25
456.395	1044.25
456.616	1022.25
456.836	1019.25
457.056	1051.25
457.276	1049.25
457.497	1083.25
457.717	1102.25
457.937	1076.25
458.157	1082.25
458.377	1071.25
458.598	1074.25
458.818	1084.25
459.038	1080.25
459.258	1091.25
459.478	1106.25
459.698	1143.25
459.918	1144.25
460.138	1181.25
460.358	1151.25
460.578	1187.25
460.798	1234.25
461.018	1225.25
461.238	1232.25
461.458	1227.25
461.678	1231.25
461.898	1272.25
462.118	1248.25
462.338	1276.25
462.558	1293.25
462.777	1308.25
462.997	1352.25
463.217	1408.25
463.437	1440.25
463.657	1390.25
463.876	1434.25
464.096	1360.25
464.316	1304.25
464.536	1297.25
464.755	1300.25
464.975	1272.25
465.195	1217.25
465.414	1224.25
465.634	1168.25
465.854	1143.25
466.073	1128.25
466.293	1116.25
466.512	1133.25
466.732	1156.25
466.951	1163.25
467.171	1206.25
467.391	1204.25
467.61	1149.25
467.829	1122.25
468.049	1142.25
468.268	1121.25
468.488	1104.25
468.707	1100.25
468.927	1087.25
469.146	1089.25
469.365	1138.25
469.585	1119.25
469.804	1148.25
470.023	1167.25
470.243	1180.25
470.462	1177.25
470.681	1222.25
470.901	1328.25
471.12	1497.25
471.339	1483.25
471.558	1287.25
471.777	1190.25
471.997	1174.25
472.216	1126.25
472.435	1108.25
472.654	1070.25
472.873	1109.25
473.092	1068.25
473.311	1096.25
473.53	1109.25
473.749	1138.25
473.968	1181.25
474.187	1103.25
474.406	1100.25
474.625	1129.25
474.844	1107.25
475.063	1098.25
475.282	1119.25
475.501	1088.25
475.72	1115.25
475.939	1121.25
476.158	1145.25
476.377	1152.25
476.596	1162.25
476.814	1138.25
477.033	1151.25
477.252	1168.25
477.471	1177.25
477.69	1231.25
477.908	1236.25
478.127	1241.25
478.346	1270.25
478.564	1254.25
478.783	1294.25
479.002	1307.25
479.22	1292.25
479.439	1333.25
479.658	1296.25
479.876	1308.25
480.095	1332.25
480.313	1330.25
480.532	1375.25
480.751	1342.25
480.969	1332.25
481.188	1299.25
481.406	1321.25
481.624	1282.25
481.843	1316.25
482.061	1298.25
482.28	1314.25
482.498	1290.25
482.717	1292.25
482.935	1319.25
483.153	1368.25
483.372	1370.25
483.59	1397.25
483.808	1381.25
484.027	1393.25
484.245	1428.25
484.463	1616.25
484.681	1752.25
484.9	1607.25
485.118	1528.25
485.336	1533.25
485.554	1502.25
485.772	1605.25
485.99	1763.25
486.209	1895.25
486.427	1641.25
486.645	1501.25
486.863	1467.25
487.081	1448.25
487.299	1396.25
487.517	1402.25
487.735	1412.25
487.953	1443.25
488.171	1417.25
488.389	1421.25
488.607	1410.25
488.825	1357.25
489.043	1363.25
489.261	1394.25
489.479	1316.25
489.696	1384.25
489.914	1382.25
490.132	1386.25
490.35	1398.25
490.568	1415.25
490.786	1414.25
491.003	1473.25
491.221	1433.25
491.439	1446.25
