Data from SnStandardFlinnAPT0064_QswitchEnergy10_LIBS07252019.E.O._I.C._HRD10591_15-27-53-973.txt Node
Date: Thu Jul 25 15:27:53 EDT 2019
User: cochatt
Spectrometer: HR+D1059
Trigger mode: 1
Integration Time (sec): 1.000000E-1
Scans to average: 1
Electric dark correction enabled: true
Nonlinearity correction enabled: false
Boxcar width: 0
XAxis mode: Wavelengths
Number of Pixels in Spectrum: 2048
>>>>>Begin Spectral Data<<<<<
223.165	-12.19
223.4	-12.19
223.635	-12.19
223.869	-9.19
224.104	-25.19
224.338	-15.19
224.573	-26.19
224.808	-14.19
225.042	-20.19
225.277	5.81
225.511	-6.19
225.746	3.81
225.98	4.81
226.215	24.81
226.449	19.81
226.683	22.81
226.918	23.81
227.152	22.81
227.387	28.81
227.621	35.81
227.856	52.81
228.09	41.81
228.324	39.81
228.559	55.81
228.793	57.81
229.027	63.81
229.262	65.81
229.496	64.81
229.73	66.81
229.964	80.81
230.199	64.81
230.433	70.81
230.667	70.81
230.901	84.81
231.136	75.81
231.37	82.81
231.604	95.81
231.838	96.81
232.072	109.81
232.306	119.81
232.541	89.81
232.775	87.81
233.009	76.81
233.243	81.81
233.477	78.81
233.711	88.81
233.945	113.81
234.179	91.81
234.413	90.81
234.647	83.81
234.881	92.81
235.115	88.81
235.349	105.81
235.583	108.81
235.817	129.81
236.051	121.81
236.285	72.81
236.519	81.81
236.753	89.81
236.987	71.81
237.221	70.81
237.455	77.81
237.689	86.81
237.922	84.81
238.156	91.81
238.39	86.81
238.624	78.81
238.858	75.81
239.091	81.81
239.325	91.81
239.559	82.81
239.793	67.81
240.027	80.81
240.26	76.81
240.494	84.81
240.728	76.81
240.961	76.81
241.195	91.81
241.429	92.81
241.662	80.81
241.896	85.81
242.13	94.81
242.363	125.81
242.597	159.81
242.83	144.81
243.064	133.81
243.298	171.81
243.531	151.81
243.765	117.81
243.998	69.81
244.232	83.81
244.465	82.81
244.699	78.81
244.932	74.81
245.166	84.81
245.399	84.81
245.633	96.81
245.866	79.81
246.099	73.81
246.333	66.81
246.566	51.81
246.8	77.81
247.033	87.81
247.266	82.81
247.5	75.81
247.733	81.81
247.966	83.81
248.2	96.81
248.433	109.81
248.666	131.81
248.899	121.81
249.133	87.81
249.366	85.81
249.599	100.81
249.832	113.81
250.066	133.81
250.299	99.81
250.532	84.81
250.765	78.81
250.998	65.81
251.231	64.81
251.465	75.81
251.698	67.81
251.931	72.81
252.164	88.81
252.397	89.81
252.63	100.81
252.863	90.81
253.096	101.81
253.329	78.81
253.562	83.81
253.795	97.81
254.028	89.81
254.261	94.81
254.494	80.81
254.727	105.81
254.96	130.81
255.193	138.81
255.426	92.81
255.659	95.81
255.892	88.81
256.124	78.81
256.357	93.81
256.59	91.81
256.823	87.81
257.056	107.81
257.289	138.81
257.521	179.81
257.754	126.81
257.987	91.81
258.22	91.81
258.452	65.81
258.685	96.81
258.918	79.81
259.151	86.81
259.383	96.81
259.616	124.81
259.849	156.81
260.081	96.81
260.314	93.81
260.547	74.81
260.779	84.81
261.012	83.81
261.244	76.81
261.477	84.81
261.71	76.81
261.942	80.81
262.175	84.81
262.407	78.81
262.64	71.81
262.872	86.81
263.105	90.81
263.337	81.81
263.57	86.81
263.802	88.81
264.035	76.81
264.267	76.81
264.499	83.81
264.732	92.81
264.964	77.81
265.197	74.81
265.429	79.81
265.661	98.81
265.894	97.81
266.126	132.81
266.358	161.81
266.591	133.81
266.823	105.81
267.055	91.81
267.287	86.81
267.52	89.81
267.752	87.81
267.984	75.81
268.216	81.81
268.448	88.81
268.681	80.81
268.913	91.81
269.145	96.81
269.377	88.81
269.609	86.81
269.841	92.81
270.073	95.81
270.306	116.81
270.538	200.81
270.77	340.81
271.002	366.81
271.234	193.81
271.466	107.81
271.698	83.81
271.93	93.81
272.162	93.81
272.394	88.81
272.626	88.81
272.858	98.81
273.09	82.81
273.322	101.81
273.553	72.81
273.785	76.81
274.017	77.81
274.249	82.81
274.481	85.81
274.713	86.81
274.945	93.81
275.176	81.81
275.408	83.81
275.64	74.81
275.872	76.81
276.104	98.81
276.335	117.81
276.567	107.81
276.799	86.81
277.031	92.81
277.262	90.81
277.494	110.81
277.726	116.81
277.957	175.81
278.189	239.81
278.421	224.81
278.652	199.81
278.884	181.81
279.115	128.81
279.347	103.81
279.579	86.81
279.81	76.81
280.042	91.81
280.273	100.81
280.505	90.81
280.736	105.81
280.968	117.81
281.199	158.81
281.431	253.81
281.662	248.81
281.894	167.81
282.125	107.81
282.356	113.81
282.588	112.81
282.819	122.81
283.051	118.81
283.282	123.81
283.513	174.81
283.745	307.81
283.976	547.81
284.207	819.81
284.439	635.81
284.67	265.81
284.901	244.81
285.132	347.81
285.364	383.81
285.595	235.81
285.826	177.81
286.057	243.81
286.288	410.81
286.52	621.81
286.751	515.81
286.982	204.81
287.213	118.81
287.444	115.81
287.675	110.81
287.906	101.81
288.138	84.81
288.369	107.81
288.6	97.81
288.831	90.81
289.062	80.81
289.293	83.81
289.524	92.81
289.755	79.81
289.986	90.81
290.217	93.81
290.448	101.81
290.679	85.81
290.91	115.81
291.141	149.81
291.371	244.81
291.602	271.81
291.833	182.81
292.064	97.81
292.295	113.81
292.526	96.81
292.757	98.81
292.987	88.81
293.218	95.81
293.449	79.81
293.68	95.81
293.91	92.81
294.141	95.81
294.372	85.81
294.603	108.81
294.833	78.81
295.064	87.81
295.295	84.81
295.525	91.81
295.756	115.81
295.987	92.81
296.217	77.81
296.448	92.81
296.679	83.81
296.909	91.81
297.14	108.81
297.37	93.81
297.601	98.81
297.831	85.81
298.062	95.81
298.292	95.81
298.523	89.81
298.753	109.81
298.984	87.81
299.214	96.81
299.445	121.81
299.675	101.81
299.905	107.81
300.136	115.81
300.366	161.81
300.597	266.81
300.827	451.81
301.057	689.81
301.288	623.81
301.518	261.81
301.748	137.81
301.979	133.81
302.209	120.81
302.439	127.81
302.669	146.81
302.9	257.81
303.13	498.81
303.36	884.81
303.59	1222.81
303.82	847.81
304.051	285.81
304.281	143.81
304.511	123.81
304.741	103.81
304.971	116.81
305.201	104.81
305.431	91.81
305.661	88.81
305.891	97.81
306.121	95.81
306.352	97.81
306.582	92.81
306.812	121.81
307.042	107.81
307.272	103.81
307.502	98.81
307.731	110.81
307.961	110.81
308.191	111.81
308.421	95.81
308.651	83.81
308.881	106.81
309.111	93.81
309.341	98.81
309.571	109.81
309.8	104.81
310.03	87.81
310.26	109.81
310.49	105.81
310.72	112.81
310.949	93.81
311.179	103.81
311.409	118.81
311.639	109.81
311.868	109.81
312.098	110.81
312.328	109.81
312.557	95.81
312.787	118.81
313.017	103.81
313.246	107.81
313.476	113.81
313.706	127.81
313.935	150.81
314.165	187.81
314.394	216.81
314.624	179.81
314.853	122.81
315.083	117.81
315.312	127.81
315.542	125.81
315.771	120.81
316.001	112.81
316.23	139.81
316.46	147.81
316.689	161.81
316.919	239.81
317.148	482.81
317.377	893.81
317.607	1498.81
317.836	1381.81
318.065	517.81
318.295	209.81
318.524	137.81
318.753	144.81
318.983	129.81
319.212	118.81
319.441	114.81
319.67	110.81
319.9	126.81
320.129	114.81
320.358	119.81
320.587	115.81
320.816	116.81
321.046	121.81
321.275	132.81
321.504	135.81
321.733	152.81
321.962	168.81
322.191	156.81
322.42	133.81
322.649	134.81
322.878	131.81
323.108	123.81
323.337	118.81
323.566	112.81
323.795	120.81
324.024	122.81
324.253	149.81
324.482	173.81
324.71	225.81
324.939	284.81
325.168	236.81
325.397	179.81
325.626	250.81
325.855	479.81
326.084	925.81
326.313	1596.81
326.542	1566.81
326.77	616.81
326.999	260.81
327.228	209.81
327.457	245.81
327.686	225.81
327.914	168.81
328.143	127.81
328.372	122.81
328.6	122.81
328.829	119.81
329.058	109.81
329.287	109.81
329.515	116.81
329.744	100.81
329.972	102.81
330.201	111.81
330.43	104.81
330.658	111.81
330.887	112.81
331.115	94.81
331.344	114.81
331.572	116.81
331.801	109.81
332.03	109.81
332.258	131.81
332.486	171.81
332.715	301.81
332.943	478.81
333.172	757.81
333.4	659.81
333.629	227.81
333.857	137.81
334.085	118.81
334.314	129.81
334.542	120.81
334.771	123.81
334.999	108.81
335.227	114.81
335.455	118.81
335.684	103.81
335.912	109.81
336.14	111.81
336.369	113.81
336.597	101.81
336.825	103.81
337.053	104.81
337.281	97.81
337.51	114.81
337.738	107.81
337.966	101.81
338.194	95.81
338.422	113.81
338.65	102.81
338.878	121.81
339.106	124.81
339.334	108.81
339.562	123.81
339.79	119.81
340.018	110.81
340.246	108.81
340.474	116.81
340.702	112.81
340.93	97.81
341.158	106.81
341.386	119.81
341.614	114.81
341.842	117.81
342.07	114.81
342.298	108.81
342.526	119.81
342.754	97.81
342.981	103.81
343.209	98.81
343.437	119.81
343.665	101.81
343.893	116.81
344.12	108.81
344.348	98.81
344.576	111.81
344.804	102.81
345.031	109.81
345.259	101.81
345.487	108.81
345.714	100.81
345.942	108.81
346.17	111.81
346.397	104.81
346.625	110.81
346.853	99.81
347.08	100.81
347.308	85.81
347.535	107.81
347.763	100.81
347.99	104.81
348.218	104.81
348.445	100.81
348.673	110.81
348.9	104.81
349.128	118.81
349.355	111.81
349.583	123.81
349.81	131.81
350.037	102.81
350.265	108.81
350.492	110.81
350.72	100.81
350.947	88.81
351.174	111.81
351.402	109.81
351.629	111.81
351.856	103.81
352.083	81.81
352.311	103.81
352.538	104.81
352.765	100.81
352.992	105.81
353.22	102.81
353.447	84.81
353.674	92.81
353.901	117.81
354.128	89.81
354.355	100.81
354.583	93.81
354.81	116.81
355.037	113.81
355.264	98.81
355.491	91.81
355.718	87.81
355.945	95.81
356.172	95.81
356.399	107.81
356.626	113.81
356.853	115.81
357.08	92.81
357.307	113.81
357.534	97.81
357.761	96.81
357.988	110.81
358.215	93.81
358.441	99.81
358.668	103.81
358.895	121.81
359.122	108.81
359.349	125.81
359.576	119.81
359.802	104.81
360.029	92.81
360.256	100.81
360.483	107.81
360.709	102.81
360.936	107.81
361.163	113.81
361.39	106.81
361.616	107.81
361.843	110.81
362.07	119.81
362.296	98.81
362.523	91.81
362.749	96.81
362.976	104.81
363.203	112.81
363.429	112.81
363.656	103.81
363.882	100.81
364.109	107.81
364.335	101.81
364.562	100.81
364.788	108.81
365.015	110.81
365.241	123.81
365.468	174.81
365.694	249.81
365.92	202.81
366.147	102.81
366.373	102.81
366.599	93.81
366.826	96.81
367.052	86.81
367.278	93.81
367.505	97.81
367.731	101.81
367.957	114.81
368.184	101.81
368.41	115.81
368.636	123.81
368.862	112.81
369.089	108.81
369.315	84.81
369.541	110.81
369.767	98.81
369.993	96.81
370.219	93.81
370.445	102.81
370.672	100.81
370.898	101.81
371.124	110.81
371.35	94.81
371.576	102.81
371.802	87.81
372.028	96.81
372.254	110.81
372.48	113.81
372.706	107.81
372.932	103.81
373.158	111.81
373.384	97.81
373.61	108.81
373.835	111.81
374.061	103.81
374.287	110.81
374.513	115.81
374.739	112.81
374.965	108.81
375.191	120.81
375.416	97.81
375.642	111.81
375.868	109.81
376.094	97.81
376.319	98.81
376.545	102.81
376.771	110.81
376.997	95.81
377.222	94.81
377.448	110.81
377.674	116.81
377.899	100.81
378.125	109.81
378.35	109.81
378.576	117.81
378.802	119.81
379.027	102.81
379.253	139.81
379.478	182.81
379.704	301.81
379.929	781.81
380.155	1552.81
380.38	1640.81
380.606	527.81
380.831	172.81
381.057	129.81
381.282	120.81
381.507	103.81
381.733	96.81
381.958	107.81
382.184	109.81
382.409	96.81
382.634	107.81
382.86	95.81
383.085	100.81
383.31	107.81
383.535	95.81
383.761	100.81
383.986	96.81
384.211	94.81
384.436	113.81
384.662	110.81
384.887	102.81
385.112	88.81
385.337	93.81
385.562	107.81
385.787	112.81
386.013	107.81
386.238	114.81
386.463	95.81
386.688	91.81
386.913	86.81
387.138	97.81
387.363	93.81
387.588	97.81
387.813	112.81
388.038	104.81
388.263	107.81
388.488	95.81
388.713	104.81
388.938	113.81
389.163	105.81
389.387	107.81
389.612	95.81
389.837	99.81
390.062	100.81
390.287	88.81
390.512	107.81
390.736	107.81
390.961	95.81
391.186	102.81
391.411	111.81
391.636	101.81
391.86	97.81
392.085	95.81
392.31	95.81
392.534	92.81
392.759	102.81
392.984	110.81
393.208	91.81
393.433	135.81
393.658	135.81
393.882	99.81
394.107	91.81
394.331	81.81
394.556	96.81
394.78	99.81
395.005	99.81
395.229	104.81
395.454	100.81
395.678	101.81
395.903	103.81
396.127	94.81
396.352	103.81
396.576	98.81
396.801	119.81
397.025	115.81
397.249	111.81
397.474	100.81
397.698	105.81
397.922	85.81
398.147	108.81
398.371	88.81
398.595	96.81
398.82	98.81
399.044	85.81
399.268	86.81
399.492	100.81
399.717	105.81
399.941	92.81
400.165	93.81
400.389	91.81
400.613	88.81
400.837	77.81
401.062	97.81
401.286	93.81
401.51	95.81
401.734	85.81
401.958	97.81
402.182	103.81
402.406	112.81
402.63	95.81
402.854	83.81
403.078	87.81
403.302	93.81
403.526	93.81
403.75	91.81
403.974	107.81
404.198	89.81
404.422	96.81
404.645	76.81
404.869	99.81
405.093	91.81
405.317	104.81
405.541	126.81
405.765	139.81
405.988	138.81
406.212	104.81
406.436	90.81
406.66	81.81
406.883	97.81
407.107	98.81
407.331	91.81
407.555	89.81
407.778	85.81
408.002	101.81
408.226	97.81
408.449	107.81
408.673	92.81
408.896	89.81
409.12	101.81
409.344	94.81
409.567	96.81
409.791	104.81
410.014	107.81
410.238	95.81
410.461	100.81
410.685	99.81
410.908	88.81
411.132	92.81
411.355	95.81
411.578	100.81
411.802	95.81
412.025	87.81
412.249	110.81
412.472	97.81
412.695	92.81
412.919	98.81
413.142	100.81
413.365	95.81
413.589	94.81
413.812	97.81
414.035	100.81
414.258	104.81
414.482	101.81
414.705	101.81
414.928	103.81
415.151	96.81
415.374	103.81
415.597	89.81
415.821	92.81
416.044	98.81
416.267	102.81
416.49	94.81
416.713	93.81
416.936	87.81
417.159	92.81
417.382	92.81
417.605	86.81
417.828	103.81
418.051	102.81
418.274	103.81
418.497	102.81
418.72	109.81
418.943	99.81
419.166	98.81
419.389	101.81
419.611	108.81
419.834	89.81
420.057	113.81
420.28	93.81
420.503	101.81
420.726	102.81
420.948	93.81
421.171	92.81
421.394	85.81
421.617	106.81
421.839	111.81
422.062	88.81
422.285	96.81
422.507	95.81
422.73	136.81
422.953	126.81
423.175	112.81
423.398	93.81
423.621	79.81
423.843	83.81
424.066	98.81
424.288	113.81
424.511	85.81
424.733	97.81
424.956	92.81
425.178	104.81
425.401	99.81
425.623	88.81
425.846	92.81
426.068	88.81
426.291	84.81
426.513	99.81
426.735	93.81
426.958	101.81
427.18	93.81
427.402	98.81
427.625	92.81
427.847	101.81
428.069	112.81
428.292	103.81
428.514	114.81
428.736	109.81
428.958	80.81
429.181	101.81
429.403	87.81
429.625	91.81
429.847	111.81
430.069	118.81
430.292	92.81
430.514	103.81
430.736	107.81
430.958	101.81
431.18	100.81
431.402	101.81
431.624	81.81
431.846	111.81
432.068	98.81
432.29	89.81
432.512	112.81
432.734	97.81
432.956	79.81
433.178	95.81
433.4	85.81
433.622	102.81
433.844	97.81
434.066	78.81
434.287	89.81
434.509	103.81
434.731	87.81
434.953	92.81
435.175	87.81
435.397	82.81
435.618	94.81
435.84	80.81
436.062	89.81
436.284	93.81
436.505	79.81
436.727	99.81
436.949	93.81
437.17	81.81
437.392	87.81
437.614	76.81
437.835	88.81
438.057	104.81
438.278	95.81
438.5	93.81
438.721	108.81
438.943	109.81
439.165	112.81
439.386	101.81
439.608	98.81
439.829	94.81
440.05	115.81
440.272	125.81
440.493	92.81
440.715	102.81
440.936	99.81
441.158	96.81
441.379	94.81
441.6	100.81
441.822	111.81
442.043	119.81
442.264	121.81
442.486	110.81
442.707	100.81
442.928	95.81
443.149	91.81
443.371	87.81
443.592	92.81
443.813	99.81
444.034	93.81
444.255	92.81
444.476	82.81
444.698	92.81
444.919	95.81
445.14	184.81
445.361	139.81
445.582	103.81
445.803	87.81
446.024	98.81
446.245	92.81
446.466	108.81
446.687	99.81
446.908	89.81
447.129	96.81
447.35	97.81
447.571	93.81
447.792	108.81
448.013	105.81
448.234	84.81
448.455	94.81
448.675	96.81
448.896	95.81
449.117	116.81
449.338	130.81
449.559	169.81
449.779	112.81
450	109.81
450.221	101.81
450.442	109.81
450.662	100.81
450.883	107.81
451.104	111.81
451.324	115.81
451.545	109.81
451.766	103.81
451.986	140.81
452.207	209.81
452.428	537.81
452.648	1267.81
452.869	756.81
453.089	190.81
453.31	123.81
453.53	130.81
453.751	129.81
453.971	161.81
454.192	143.81
454.412	94.81
454.633	91.81
454.853	95.81
455.073	88.81
455.294	72.81
455.514	98.81
455.734	90.81
455.955	79.81
456.175	99.81
456.395	87.81
456.616	103.81
456.836	84.81
457.056	99.81
457.276	90.81
457.497	102.81
457.717	122.81
457.937	91.81
458.157	100.81
458.377	71.81
458.598	90.81
458.818	78.81
459.038	80.81
459.258	83.81
459.478	100.81
459.698	66.81
459.918	90.81
460.138	92.81
460.358	88.81
460.578	80.81
460.798	91.81
461.018	93.81
461.238	86.81
461.458	96.81
461.678	92.81
461.898	94.81
462.118	94.81
462.338	82.81
462.558	91.81
462.777	91.81
462.997	101.81
463.217	112.81
463.437	124.81
463.657	166.81
463.876	187.81
464.096	121.81
464.316	107.81
464.536	95.81
464.755	101.81
464.975	96.81
465.195	98.81
465.414	88.81
465.634	94.81
465.854	89.81
466.073	91.81
466.293	82.81
466.512	77.81
466.732	95.81
466.951	111.81
467.171	151.81
467.391	141.81
467.61	100.81
467.829	86.81
468.049	99.81
468.268	100.81
468.488	99.81
468.707	93.81
468.927	89.81
469.146	93.81
469.365	86.81
469.585	110.81
469.804	100.81
470.023	98.81
470.243	100.81
470.462	93.81
470.681	106.81
470.901	126.81
471.12	195.81
471.339	231.81
471.558	137.81
471.777	103.81
471.997	95.81
472.216	101.81
472.435	97.81
472.654	109.81
472.873	79.81
473.092	98.81
473.311	102.81
473.53	89.81
473.749	97.81
473.968	118.81
474.187	87.81
474.406	90.81
474.625	97.81
474.844	101.81
475.063	72.81
475.282	99.81
475.501	97.81
475.72	92.81
475.939	93.81
476.158	99.81
476.377	101.81
476.596	102.81
476.814	105.81
477.033	89.81
477.252	104.81
477.471	107.81
477.69	96.81
477.908	98.81
478.127	99.81
478.346	104.81
478.564	94.81
478.783	85.81
479.002	88.81
479.22	88.81
479.439	100.81
479.658	86.81
479.876	93.81
480.095	96.81
480.313	95.81
480.532	88.81
480.751	84.81
480.969	97.81
481.188	84.81
481.406	89.81
481.624	104.81
481.843	112.81
482.061	116.81
482.28	83.81
482.498	85.81
482.717	91.81
482.935	102.81
483.153	96.81
483.372	87.81
483.59	85.81
483.808	103.81
484.027	103.81
484.245	115.81
484.463	187.81
484.681	220.81
484.9	134.81
485.118	115.81
485.336	109.81
485.554	111.81
485.772	131.81
485.99	200.81
486.209	251.81
486.427	175.81
486.645	116.81
486.863	119.81
487.081	103.81
487.299	97.81
487.517	100.81
487.735	88.81
487.953	97.81
488.171	95.81
488.389	94.81
488.607	113.81
488.825	91.81
489.043	75.81
489.261	96.81
489.479	79.81
489.696	99.81
489.914	90.81
490.132	94.81
490.35	94.81
490.568	100.81
490.786	82.81
491.003	91.81
491.221	97.81
491.439	94.81
491.657	100.81
491.874	92.81
492.092	93.81
492.31	95.81
492.527	93.81
492.745	89.81
492.963	104.81
493.18	78.81
493.398	104.81
493.615	90.81
493.833	96.81
494.05	116.81
494.268	107.81
494.485	97.81
494.703	99.81
494.92	110.81
495.138	110.81
495.355	93.81
495.573	98.81
495.79	98.81
496.008	90.81
496.225	100.81
496.442	110.81
496.66	106.81
496.877	157.81
497.094	160.81
497.312	105.81
497.529	104.81
497.746	112.81
497.963	89.81
498.181	96.81
498.398	100.81
498.615	102.81
498.832	97.81
499.049	105.81
499.267	122.81
499.484	168.81
499.701	111.81
499.918	102.81
500.135	99.81
500.352	96.81
500.569	94.81
500.786	98.81
501.003	88.81
501.22	104.81
501.437	103.81
501.654	92.81
501.871	84.81
502.088	107.81
502.305	108.81
502.522	99.81
502.739	105.81
502.956	111.81
503.172	102.81
503.389	93.81
503.606	100.81
503.823	91.81
504.04	101.81
504.256	88.81
504.473	100.81
504.69	84.81
504.907	118.81
505.123	109.81
505.34	107.81
505.557	103.81
505.773	83.81
505.99	108.81
506.207	96.81
506.423	108.81
506.64	99.81
506.856	99.81
507.073	92.81
507.289	96.81
507.506	86.81
507.722	86.81
507.939	99.81
508.155	98.81
508.372	104.81
508.588	98.81
508.805	109.81
509.021	102.81
509.238	96.81
509.454	133.81
509.67	139.81
509.887	103.81
