Data from SnStandardFlinnAPT0064_LampEnergy10_LIBS07252019.E.O._I.C._HRD10591_15-21-50-494.txt Node
Date: Thu Jul 25 15:21:50 EDT 2019
User: cochatt
Spectrometer: HR+D1059
Trigger mode: 1
Integration Time (sec): 1.000000E-1
Scans to average: 1
Electric dark correction enabled: true
Nonlinearity correction enabled: false
Boxcar width: 0
XAxis mode: Wavelengths
Number of Pixels in Spectrum: 2048
>>>>>Begin Spectral Data<<<<<
223.165	-13.31
223.4	-13.31
223.635	-13.31
223.869	-20.31
224.104	-18.31
224.338	-22.31
224.573	-15.31
224.808	-7.31
225.042	-8.31
225.277	-5.31
225.511	-10.31
225.746	5.69
225.98	8.69
226.215	7.69
226.449	17.69
226.683	20.69
226.918	29.69
227.152	30.69
227.387	35.69
227.621	41.69
227.856	46.69
228.09	55.69
228.324	50.69
228.559	40.69
228.793	109.69
229.027	308.69
229.262	331.69
229.496	309.69
229.73	290.69
229.964	297.69
230.199	303.69
230.433	311.69
230.667	308.69
230.901	317.69
231.136	313.69
231.37	333.69
231.604	365.69
231.838	425.69
232.072	514.69
232.306	557.69
232.541	465.69
232.775	417.69
233.009	408.69
233.243	407.69
233.477	441.69
233.711	507.69
233.945	573.69
234.179	466.69
234.413	445.69
234.647	434.69
234.881	454.69
235.115	525.69
235.349	606.69
235.583	739.69
235.817	974.69
236.051	944.69
236.285	636.69
236.519	527.69
236.753	504.69
236.987	497.69
237.221	533.69
237.455	530.69
237.689	466.69
237.922	460.69
238.156	472.69
238.39	481.69
238.624	487.69
238.858	483.69
239.091	480.69
239.325	504.69
239.559	480.69
239.793	492.69
240.027	522.69
240.26	542.69
240.494	537.69
240.728	559.69
240.961	603.69
241.195	631.69
241.429	668.69
241.662	696.69
241.896	778.69
242.13	950.69
242.363	1230.69
242.597	1594.69
242.83	1513.69
243.064	1496.69
243.298	1772.69
243.531	1424.69
243.765	943.69
243.998	787.69
244.232	692.69
244.465	646.69
244.699	668.69
244.932	637.69
245.166	666.69
245.399	680.69
245.633	709.69
245.866	700.69
246.099	674.69
246.333	650.69
246.566	648.69
246.8	641.69
247.033	621.69
247.266	635.69
247.5	664.69
247.733	675.69
247.966	712.69
248.2	766.69
248.433	864.69
248.666	980.69
248.899	925.69
249.133	848.69
249.366	879.69
249.599	953.69
249.832	1051.69
250.066	1068.69
250.299	834.69
250.532	784.69
250.765	751.69
250.998	740.69
251.231	735.69
251.465	746.69
251.698	726.69
251.931	773.69
252.164	777.69
252.397	755.69
252.63	793.69
252.863	789.69
253.096	785.69
253.329	790.69
253.562	771.69
253.795	780.69
254.028	796.69
254.261	814.69
254.494	861.69
254.727	992.69
254.96	1225.69
255.193	1205.69
255.426	978.69
255.659	881.69
255.892	865.69
256.124	884.69
256.357	885.69
256.59	928.69
256.823	990.69
257.056	1101.69
257.289	1326.69
257.521	1464.69
257.754	1192.69
257.987	991.69
258.22	923.69
258.452	921.69
258.685	935.69
258.918	945.69
259.151	989.69
259.383	1098.69
259.616	1215.69
259.849	1290.69
260.081	1094.69
260.314	994.69
260.547	953.69
260.779	972.69
261.012	947.69
261.244	963.69
261.477	990.69
261.71	987.69
261.942	1020.69
262.175	1014.69
262.407	1036.69
262.64	1050.69
262.872	1120.69
263.105	1161.69
263.337	1172.69
263.57	1260.69
263.802	1316.69
264.035	1324.69
264.267	1348.69
264.499	1353.69
264.732	1433.69
264.964	1470.69
265.197	1426.69
265.429	1445.69
265.661	1478.69
265.894	1563.69
266.126	1753.69
266.358	1953.69
266.591	1877.69
266.823	1598.69
267.055	1454.69
267.287	1389.69
267.52	1316.69
267.752	1307.69
267.984	1268.69
268.216	1252.69
268.448	1233.69
268.681	1235.69
268.913	1205.69
269.145	1256.69
269.377	1237.69
269.609	1247.69
269.841	1298.69
270.073	1350.69
270.306	1592.69
270.538	2082.69
270.77	3065.69
271.002	3850.69
271.234	2690.69
271.466	1798.69
271.698	1509.69
271.93	1367.69
272.162	1316.69
272.394	1280.69
272.626	1267.69
272.858	1189.69
273.09	1235.69
273.322	1205.69
273.553	1194.69
273.785	1206.69
274.017	1218.69
274.249	1227.69
274.481	1217.69
274.713	1201.69
274.945	1198.69
275.176	1223.69
275.408	1213.69
275.64	1242.69
275.872	1229.69
276.104	1229.69
276.335	1294.69
276.567	1232.69
276.799	1246.69
277.031	1320.69
277.262	1342.69
277.494	1416.69
277.726	1554.69
277.957	1841.69
278.189	2119.69
278.421	1959.69
278.652	1730.69
278.884	1688.69
279.115	1490.69
279.347	1447.69
279.579	1392.69
279.81	1369.69
280.042	1391.69
280.273	1422.69
280.505	1448.69
280.736	1510.69
280.968	1611.69
281.199	1744.69
281.431	2054.69
281.662	2099.69
281.894	1785.69
282.125	1616.69
282.356	1625.69
282.588	1670.69
282.819	1704.69
283.051	1770.69
283.282	1969.69
283.513	2427.69
283.745	3494.69
283.976	5518.69
284.207	7757.69
284.439	7147.69
284.67	4467.69
284.901	3689.69
285.132	3709.69
285.364	3537.69
285.595	2690.69
285.826	2420.69
286.057	2790.69
286.288	3718.69
286.52	5105.69
286.751	4765.69
286.982	2985.69
287.213	2240.69
287.444	1986.69
287.675	1853.69
287.906	1801.69
288.138	1732.69
288.369	1675.69
288.6	1708.69
288.831	1699.69
289.062	1656.69
289.293	1669.69
289.524	1702.69
289.755	1695.69
289.986	1718.69
290.217	1737.69
290.448	1728.69
290.679	1775.69
290.91	1815.69
291.141	1846.69
291.371	2044.69
291.602	2165.69
291.833	1959.69
292.064	1786.69
292.295	1662.69
292.526	1657.69
292.757	1655.69
292.987	1599.69
293.218	1561.69
293.449	1662.69
293.68	1616.69
293.91	1567.69
294.141	1562.69
294.372	1539.69
294.603	1566.69
294.833	1554.69
295.064	1555.69
295.295	1577.69
295.525	1532.69
295.756	1586.69
295.987	1574.69
296.217	1545.69
296.448	1596.69
296.679	1596.69
296.909	1549.69
297.14	1606.69
297.37	1607.69
297.601	1608.69
297.831	1655.69
298.062	1622.69
298.292	1680.69
298.523	1710.69
298.753	1696.69
298.984	1713.69
299.214	1748.69
299.445	1761.69
299.675	1730.69
299.905	1833.69
300.136	1912.69
300.366	2147.69
300.597	2678.69
300.827	3828.69
301.057	5101.69
301.288	5104.69
301.518	3296.69
301.748	2544.69
301.979	2368.69
302.209	2304.69
302.439	2280.69
302.669	2432.69
302.9	2921.69
303.13	4016.69
303.36	6082.69
303.59	8012.69
303.82	6980.69
304.051	4166.69
304.281	3016.69
304.511	2489.69
304.741	2356.69
304.971	2183.69
305.201	2092.69
305.431	2028.69
305.661	1943.69
305.891	1881.69
306.121	1861.69
306.352	1859.69
306.582	1858.69
306.812	1857.69
307.042	1876.69
307.272	1809.69
307.502	1816.69
307.731	1832.69
307.961	1777.69
308.191	1792.69
308.421	1787.69
308.651	1801.69
308.881	1799.69
309.111	1788.69
309.341	1835.69
309.571	1853.69
309.8	1841.69
310.03	1883.69
310.26	1879.69
310.49	1852.69
310.72	1869.69
310.949	1860.69
311.179	1909.69
311.409	1908.69
311.639	1930.69
311.868	1929.69
312.098	1969.69
312.328	1961.69
312.557	1964.69
312.787	1944.69
313.017	1960.69
313.246	2001.69
313.476	2007.69
313.706	2089.69
313.935	2205.69
314.165	2366.69
314.394	2471.69
314.624	2377.69
314.853	2203.69
315.083	2173.69
315.312	2150.69
315.542	2156.69
315.771	2219.69
316.001	2241.69
316.23	2319.69
316.46	2440.69
316.689	2618.69
316.919	3145.69
317.148	4535.69
317.377	6940.69
317.607	10206.69
317.836	10572.69
318.065	6438.69
318.295	4209.69
318.524	3377.69
318.753	2945.69
318.983	2725.69
319.212	2541.69
319.441	2476.69
319.67	2450.69
319.9	2359.69
320.129	2367.69
320.358	2363.69
320.587	2308.69
320.816	2384.69
321.046	2374.69
321.275	2384.69
321.504	2416.69
321.733	2446.69
321.962	2485.69
322.191	2579.69
322.42	2493.69
322.649	2516.69
322.878	2458.69
323.108	2497.69
323.337	2560.69
323.566	2555.69
323.795	2601.69
324.024	2681.69
324.253	2743.69
324.482	2832.69
324.71	2996.69
324.939	3181.69
325.168	3294.69
325.397	3370.69
325.626	4005.69
325.855	5522.69
326.084	8558.69
326.313	12396.69
326.542	13158.69
326.77	8904.69
326.999	5858.69
327.228	4926.69
327.457	4717.69
327.686	4824.69
327.914	5052.69
328.143	5941.69
328.372	7150.69
328.6	7808.69
328.829	6966.69
329.058	5762.69
329.287	5107.69
329.515	4667.69
329.744	4278.69
329.972	4033.69
330.201	3861.69
330.43	3778.69
330.658	3632.69
330.887	3547.69
331.115	3512.69
331.344	3508.69
331.572	3415.69
331.801	3490.69
332.03	3505.69
332.258	3562.69
332.486	3776.69
332.715	4286.69
332.943	5209.69
333.172	6516.69
333.4	6472.69
333.629	4954.69
333.857	4524.69
334.085	4536.69
334.314	4636.69
334.542	5111.69
334.771	6087.69
334.999	7490.69
335.227	9342.69
335.455	10503.69
335.684	9438.69
335.912	7555.69
336.14	6428.69
336.369	5717.69
336.597	5244.69
336.825	4836.69
337.053	4477.69
337.281	4276.69
337.51	4068.69
337.738	3867.69
337.966	3702.69
338.194	3598.69
338.422	3508.69
338.65	3425.69
338.878	3389.69
339.106	3286.69
339.334	3231.69
339.562	3177.69
339.79	3061.69
340.018	3070.69
340.246	3017.69
340.474	3047.69
340.702	2998.69
340.93	3079.69
341.158	3026.69
341.386	3040.69
341.614	3010.69
341.842	2917.69
342.07	2884.69
342.298	2832.69
342.526	2821.69
342.754	2753.69
342.981	2793.69
343.209	2738.69
343.437	2781.69
343.665	2824.69
343.893	2814.69
344.12	2837.69
344.348	2809.69
344.576	2776.69
344.804	2705.69
345.031	2652.69
345.259	2662.69
345.487	2576.69
345.714	2578.69
345.942	2574.69
346.17	2548.69
346.397	2549.69
346.625	2556.69
346.853	2493.69
347.08	2522.69
347.308	2544.69
347.535	2557.69
347.763	2544.69
347.99	2456.69
348.218	2511.69
348.445	2481.69
348.673	2454.69
348.9	2473.69
349.128	2452.69
349.355	2433.69
349.583	2468.69
349.81	2450.69
350.037	2407.69
350.265	2404.69
350.492	2405.69
350.72	2375.69
350.947	2415.69
351.174	2433.69
351.402	2431.69
351.629	2411.69
351.856	2377.69
352.083	2386.69
352.311	2390.69
352.538	2392.69
352.765	2428.69
352.992	2354.69
353.22	2428.69
353.447	2384.69
353.674	2407.69
353.901	2409.69
354.128	2424.69
354.355	2394.69
354.583	2389.69
354.81	2420.69
355.037	2460.69
355.264	2431.69
355.491	2453.69
355.718	2410.69
355.945	2449.69
356.172	2432.69
356.399	2456.69
356.626	2456.69
356.853	2555.69
357.08	2513.69
357.307	2537.69
357.534	2600.69
357.761	2638.69
357.988	2600.69
358.215	2570.69
358.441	2562.69
358.668	2579.69
358.895	2560.69
359.122	2544.69
359.349	2560.69
359.576	2533.69
359.802	2590.69
360.029	2540.69
360.256	2560.69
360.483	2556.69
360.709	2548.69
360.936	2574.69
361.163	2631.69
361.39	2591.69
361.616	2512.69
361.843	2528.69
362.07	2589.69
362.296	2578.69
362.523	2568.69
362.749	2589.69
362.976	2548.69
363.203	2500.69
363.429	2538.69
363.656	2567.69
363.882	2608.69
364.109	2545.69
364.335	2503.69
364.562	2529.69
364.788	2539.69
365.015	2579.69
365.241	2652.69
365.468	2798.69
365.694	2919.69
365.92	2839.69
366.147	2638.69
366.373	2590.69
366.599	2659.69
366.826	2598.69
367.052	2604.69
367.278	2656.69
367.505	2613.69
367.731	2642.69
367.957	2618.69
368.184	2644.69
368.41	2708.69
368.636	2680.69
368.862	2649.69
369.089	2720.69
369.315	2638.69
369.541	2628.69
369.767	2650.69
369.993	2653.69
370.219	2656.69
370.445	2656.69
370.672	2724.69
370.898	2687.69
371.124	2729.69
371.35	2710.69
371.576	2737.69
371.802	2724.69
372.028	2740.69
372.254	2776.69
372.48	2771.69
372.706	2782.69
372.932	2886.69
373.158	2850.69
373.384	2803.69
373.61	2797.69
373.835	2797.69
374.061	2815.69
374.287	2885.69
374.513	2849.69
374.739	2938.69
374.965	2934.69
375.191	2946.69
375.416	2955.69
375.642	2900.69
375.868	2891.69
376.094	2791.69
376.319	2844.69
376.545	2838.69
376.771	2762.69
376.997	2766.69
377.222	2758.69
377.448	2742.69
377.674	2758.69
377.899	2708.69
378.125	2766.69
378.35	2761.69
378.576	2774.69
378.802	2780.69
379.027	2794.69
379.253	2900.69
379.478	3020.69
379.704	3550.69
379.929	5150.69
380.155	7773.69
380.38	8480.69
380.606	5212.69
380.831	3670.69
381.057	3237.69
381.282	2928.69
381.507	2850.69
381.733	2818.69
381.958	2781.69
382.184	2776.69
382.409	2719.69
382.634	2685.69
382.86	2672.69
383.085	2661.69
383.31	2702.69
383.535	2695.69
383.761	2734.69
383.986	2751.69
384.211	2754.69
384.436	2829.69
384.662	2764.69
384.887	2781.69
385.112	2794.69
385.337	2831.69
385.562	2812.69
385.787	2822.69
386.013	2857.69
386.238	2784.69
386.463	2785.69
386.688	2802.69
386.913	2798.69
387.138	2778.69
387.363	2802.69
387.588	2734.69
387.813	2811.69
388.038	2794.69
388.263	2816.69
388.488	2758.69
388.713	2824.69
388.938	2805.69
389.163	2776.69
389.387	2797.69
389.612	2800.69
389.837	2788.69
390.062	2792.69
390.287	2809.69
390.512	2806.69
390.736	2846.69
390.961	2873.69
391.186	2900.69
391.411	2906.69
391.636	2933.69
391.86	2924.69
392.085	2925.69
392.31	2885.69
392.534	2886.69
392.759	2906.69
392.984	2868.69
393.208	2867.69
393.433	2866.69
393.658	2864.69
393.882	2785.69
394.107	2820.69
394.331	2833.69
394.556	2766.69
394.78	2880.69
395.005	2823.69
395.229	2888.69
395.454	2880.69
395.678	2952.69
395.903	2881.69
396.127	2920.69
396.352	2865.69
396.576	2826.69
396.801	2909.69
397.025	2934.69
397.249	2960.69
397.474	2951.69
397.698	2865.69
397.922	2930.69
398.147	2930.69
398.371	2990.69
398.595	3010.69
398.82	3145.69
399.044	3231.69
399.268	3419.69
399.492	3544.69
399.717	3708.69
399.941	3714.69
400.165	3517.69
400.389	3448.69
400.613	3311.69
400.837	3165.69
401.062	3130.69
401.286	3108.69
401.51	3108.69
401.734	3058.69
401.958	3085.69
402.182	3096.69
402.406	3050.69
402.63	3076.69
402.854	3097.69
403.078	3074.69
403.302	3146.69
403.526	3185.69
403.75	3224.69
403.974	3207.69
404.198	3162.69
404.422	3236.69
404.645	3236.69
404.869	3212.69
405.093	3241.69
405.317	3181.69
405.541	3260.69
405.765	3251.69
405.988	3300.69
406.212	3276.69
406.436	3244.69
406.66	3365.69
406.883	3304.69
407.107	3374.69
407.331	3436.69
407.555	3531.69
407.778	3449.69
408.002	3389.69
408.226	3395.69
408.449	3444.69
408.673	3344.69
408.896	3267.69
409.12	3240.69
409.344	3208.69
409.567	3213.69
409.791	3250.69
410.014	3221.69
410.238	3185.69
410.461	3121.69
410.685	3171.69
410.908	3111.69
411.132	3156.69
411.355	3040.69
411.578	3086.69
411.802	3070.69
412.025	3041.69
412.249	3125.69
412.472	3082.69
412.695	3019.69
412.919	3015.69
413.142	3021.69
413.365	3037.69
413.589	3045.69
413.812	2997.69
414.035	3039.69
414.258	3030.69
414.482	2992.69
414.705	2986.69
414.928	3013.69
415.151	3024.69
415.374	2966.69
415.597	2943.69
415.821	2893.69
416.044	2924.69
416.267	2917.69
416.49	2862.69
416.713	2868.69
416.936	2906.69
417.159	2863.69
417.382	2844.69
417.605	2863.69
417.828	2875.69
418.051	2924.69
418.274	2908.69
418.497	2904.69
418.72	2988.69
418.943	2924.69
419.166	3057.69
419.389	3236.69
419.611	3206.69
419.834	3078.69
420.057	3026.69
420.28	2886.69
420.503	2900.69
420.726	2895.69
420.948	2894.69
421.171	2855.69
421.394	2910.69
421.617	2860.69
421.839	2933.69
422.062	2913.69
422.285	2848.69
422.507	2925.69
422.73	2910.69
422.953	2974.69
423.175	2993.69
423.398	3008.69
423.621	2876.69
423.843	2948.69
424.066	2925.69
424.288	2928.69
424.511	2877.69
424.733	2894.69
424.956	2824.69
425.178	2851.69
425.401	2843.69
425.623	2901.69
425.846	2760.69
426.068	2797.69
426.291	2753.69
426.513	2776.69
426.735	2758.69
426.958	2760.69
427.18	2740.69
427.402	2789.69
427.625	2715.69
427.847	2645.69
428.069	2689.69
428.292	2732.69
428.514	2684.69
428.736	2649.69
428.958	2748.69
429.181	2641.69
429.403	2602.69
429.625	2628.69
429.847	2655.69
430.069	2687.69
430.292	2808.69
430.514	2869.69
430.736	2875.69
430.958	2737.69
431.18	2696.69
431.402	2682.69
431.624	2646.69
431.846	2596.69
432.068	2620.69
432.29	2646.69
432.512	2585.69
432.734	2621.69
432.956	2629.69
433.178	2675.69
433.4	2637.69
433.622	2662.69
433.844	2713.69
434.066	2705.69
434.287	2670.69
434.509	2718.69
434.731	2714.69
434.953	2751.69
435.175	2775.69
435.397	2757.69
435.618	2723.69
435.84	2734.69
436.062	2651.69
436.284	2624.69
436.505	2612.69
436.727	2631.69
436.949	2638.69
437.17	2587.69
437.392	2592.69
437.614	2589.69
437.835	2506.69
438.057	2531.69
438.278	2539.69
438.5	2566.69
438.721	2614.69
438.943	2711.69
439.165	2712.69
439.386	2748.69
439.608	2766.69
439.829	2760.69
440.05	2829.69
440.272	2852.69
440.493	2786.69
440.715	2699.69
440.936	2708.69
441.158	2785.69
441.379	2806.69
441.6	2904.69
441.822	2938.69
442.043	3076.69
442.264	3200.69
442.486	2996.69
442.707	2940.69
442.928	2857.69
443.149	2813.69
443.371	2832.69
443.592	2833.69
443.813	2848.69
444.034	2892.69
444.255	2945.69
444.476	2954.69
444.698	2980.69
444.919	3020.69
445.14	3181.69
445.361	3002.69
445.582	2891.69
445.803	2809.69
446.024	2820.69
446.245	2805.69
446.466	2765.69
446.687	2767.69
446.908	2774.69
447.129	2746.69
447.35	2703.69
447.571	2732.69
447.792	2631.69
448.013	2618.69
448.234	2592.69
448.455	2579.69
448.675	2624.69
448.896	2724.69
449.117	2814.69
449.338	3028.69
449.559	3112.69
449.779	2830.69
450	2601.69
450.221	2610.69
450.442	2571.69
450.662	2577.69
450.883	2543.69
451.104	2570.69
451.324	2553.69
451.545	2543.69
451.766	2576.69
451.986	2577.69
452.207	2819.69
452.428	3611.69
452.648	5433.69
452.869	4564.69
453.089	3112.69
453.31	2937.69
453.53	2934.69
453.751	2998.69
453.971	3200.69
454.192	3068.69
454.412	2662.69
454.633	2573.69
454.853	2548.69
455.073	2488.69
455.294	2471.69
455.514	2419.69
455.734	2403.69
455.955	2388.69
456.175	2461.69
456.395	2408.69
456.616	2466.69
456.836	2506.69
457.056	2484.69
457.276	2470.69
457.497	2629.69
457.717	2641.69
457.937	2579.69
458.157	2578.69
458.377	2600.69
458.598	2652.69
458.818	2616.69
459.038	2634.69
459.258	2617.69
459.478	2654.69
459.698	2710.69
459.918	2699.69
460.138	2805.69
460.358	2846.69
460.578	2806.69
460.798	2858.69
461.018	2906.69
461.238	2919.69
461.458	2844.69
461.678	2926.69
461.898	3079.69
462.118	3056.69
462.338	3074.69
462.558	3139.69
462.777	3154.69
462.997	3301.69
463.217	3364.69
463.437	3485.69
463.657	3534.69
463.876	3532.69
464.096	3310.69
464.316	3201.69
464.536	3111.69
464.755	3103.69
464.975	3078.69
465.195	2942.69
465.414	2890.69
465.634	2754.69
465.854	2757.69
466.073	2677.69
466.293	2686.69
466.512	2670.69
466.732	2684.69
466.951	2857.69
467.171	2973.69
467.391	2920.69
467.61	2708.69
467.829	2657.69
468.049	2657.69
468.268	2615.69
468.488	2588.69
468.707	2538.69
468.927	2577.69
469.146	2579.69
469.365	2670.69
469.585	2652.69
469.804	2660.69
470.023	2725.69
470.243	2798.69
470.462	2842.69
470.681	3002.69
470.901	3327.69
471.12	3737.69
471.339	3716.69
471.558	3113.69
471.777	2842.69
471.997	2807.69
472.216	2694.69
472.435	2717.69
472.654	2614.69
472.873	2601.69
473.092	2626.69
473.311	2639.69
473.53	2682.69
473.749	2693.69
473.968	2782.69
474.187	2681.69
474.406	2618.69
474.625	2660.69
474.844	2589.69
475.063	2599.69
475.282	2587.69
475.501	2648.69
475.72	2672.69
475.939	2698.69
476.158	2706.69
476.377	2800.69
476.596	2710.69
476.814	2750.69
477.033	2786.69
477.252	2792.69
477.471	2838.69
477.69	2858.69
477.908	2917.69
478.127	3015.69
478.346	2952.69
478.564	2958.69
478.783	3073.69
479.002	3056.69
479.22	3091.69
479.439	3137.69
479.658	3143.69
479.876	3123.69
480.095	3125.69
480.313	3229.69
480.532	3248.69
480.751	3179.69
480.969	3203.69
481.188	3204.69
481.406	3142.69
481.624	3146.69
481.843	3208.69
482.061	3211.69
482.28	3250.69
482.498	3172.69
482.717	3173.69
482.935	3205.69
483.153	3205.69
483.372	3288.69
483.59	3326.69
483.808	3331.69
484.027	3442.69
484.245	3628.69
484.463	4057.69
484.681	4435.69
484.9	4134.69
485.118	3822.69
485.336	3745.69
485.554	3731.69
485.772	4016.69
485.99	4513.69
486.209	4752.69
486.427	4119.69
486.645	3653.69
486.863	3513.69
487.081	3439.69
487.299	3425.69
487.517	3424.69
487.735	3357.69
