Data from SnStandardFlinnAPT0064_LampEnergy10_LIBS07252019.E.O._I.C._HRD10591_15-19-28-493.txt Node
Date: Thu Jul 25 15:19:28 EDT 2019
User: cochatt
Spectrometer: HR+D1059
Trigger mode: 1
Integration Time (sec): 1.000000E-1
Scans to average: 1
Electric dark correction enabled: true
Nonlinearity correction enabled: false
Boxcar width: 0
XAxis mode: Wavelengths
Number of Pixels in Spectrum: 2048
>>>>>Begin Spectral Data<<<<<
223.165	-14
223.4	-14
223.635	-14
223.869	-9
224.104	-25
224.338	-22
224.573	-15
224.808	-17
225.042	-19
225.277	-15
225.511	-18
225.746	18
225.98	16
226.215	22
226.449	18
226.683	18
226.918	31
227.152	31
227.387	37
227.621	41
227.856	22
228.09	30
228.324	34
228.559	52
228.793	110
229.027	325
229.262	376
229.496	323
229.73	322
229.964	294
230.199	318
230.433	317
230.667	319
230.901	319
231.136	349
231.37	371
231.604	400
231.838	453
232.072	544
232.306	584
232.541	515
232.775	449
233.009	440
233.243	439
233.477	460
233.711	567
233.945	626
234.179	532
234.413	479
234.647	460
234.881	476
235.115	557
235.349	668
235.583	830
235.817	1052
236.051	1035
236.285	691
236.519	570
236.753	516
236.987	513
237.221	554
237.455	538
237.689	475
237.922	471
238.156	485
238.39	496
238.624	497
238.858	501
239.091	495
239.325	518
239.559	517
239.793	556
240.027	527
240.26	573
240.494	570
240.728	631
240.961	631
241.195	704
241.429	710
241.662	752
241.896	828
242.13	994
242.363	1346
242.597	1696
242.83	1692
243.064	1664
243.298	1909
243.531	1583
243.765	1026
243.998	802
244.232	746
244.465	695
244.699	661
244.932	676
245.166	700
245.399	711
245.633	700
245.866	715
246.099	673
246.333	664
246.566	652
246.8	660
247.033	658
247.266	648
247.5	661
247.733	682
247.966	717
248.2	768
248.433	892
248.666	1012
248.899	991
249.133	879
249.366	899
249.599	1030
249.832	1143
250.066	1104
250.299	910
250.532	791
250.765	783
250.998	759
251.231	740
251.465	750
251.698	763
251.931	775
252.164	742
252.397	764
252.63	819
252.863	830
253.096	826
253.329	803
253.562	815
253.795	758
254.028	812
254.261	840
254.494	906
254.727	1050
254.96	1292
255.193	1284
255.426	1007
255.659	894
255.892	904
256.124	903
256.357	895
256.59	915
256.823	1019
257.056	1150
257.289	1416
257.521	1568
257.754	1251
257.987	1009
258.22	964
258.452	921
258.685	927
258.918	954
259.151	1005
259.383	1123
259.616	1284
259.849	1297
260.081	1125
260.314	1020
260.547	951
260.779	927
261.012	947
261.244	969
261.477	977
261.71	965
261.942	1026
262.175	1021
262.407	1015
262.64	1031
262.872	1050
263.105	1134
263.337	1168
263.57	1218
263.802	1264
264.035	1299
264.267	1322
264.499	1349
264.732	1422
264.964	1404
265.197	1403
265.429	1407
265.661	1445
265.894	1550
266.126	1724
266.358	1964
266.591	1921
266.823	1614
267.055	1408
267.287	1356
267.52	1335
267.752	1267
267.984	1284
268.216	1226
268.448	1225
268.681	1235
268.913	1231
269.145	1247
269.377	1249
269.609	1260
269.841	1297
270.073	1362
270.306	1646
270.538	2261
270.77	3392
271.002	4226
271.234	3020
271.466	2013
271.698	1629
271.93	1454
272.162	1368
272.394	1338
272.626	1250
272.858	1256
273.09	1212
273.322	1258
273.553	1223
273.785	1194
274.017	1215
274.249	1214
274.481	1224
274.713	1196
274.945	1248
275.176	1202
275.408	1214
275.64	1252
275.872	1234
276.104	1251
276.335	1288
276.567	1295
276.799	1276
277.031	1350
277.262	1363
277.494	1423
277.726	1592
277.957	1894
278.189	2206
278.421	2069
278.652	1815
278.884	1713
279.115	1520
279.347	1485
279.579	1470
279.81	1420
280.042	1412
280.273	1440
280.505	1450
280.736	1506
280.968	1635
281.199	1834
281.431	2148
281.662	2193
281.894	1895
282.125	1639
282.356	1697
282.588	1720
282.819	1778
283.051	1863
283.282	2116
283.513	2622
283.745	3842
283.976	5990
284.207	8629
284.439	7978
284.67	5011
284.901	4148
285.132	4115
285.364	3890
285.595	2899
285.826	2603
286.057	3000
286.288	4183
286.52	5622
286.751	5266
286.982	3340
287.213	2501
287.444	2096
287.675	1920
287.906	1858
288.138	1778
288.369	1744
288.6	1717
288.831	1724
289.062	1704
289.293	1715
289.524	1710
289.755	1696
289.986	1709
290.217	1747
290.448	1741
290.679	1778
290.91	1782
291.141	1916
291.371	2040
291.602	2210
291.833	1948
292.064	1786
292.295	1743
292.526	1678
292.757	1666
292.987	1600
293.218	1574
293.449	1628
293.68	1561
293.91	1594
294.141	1577
294.372	1568
294.603	1593
294.833	1562
295.064	1595
295.295	1550
295.525	1586
295.756	1598
295.987	1588
296.217	1594
296.448	1595
296.679	1613
296.909	1573
297.14	1591
297.37	1652
297.601	1644
297.831	1658
298.062	1621
298.292	1657
298.523	1686
298.753	1721
298.984	1732
299.214	1743
299.445	1760
299.675	1795
299.905	1854
300.136	1970
300.366	2235
300.597	2844
300.827	4066
301.057	5589
301.288	5618
301.518	3710
301.748	2741
301.979	2498
302.209	2402
302.439	2417
302.669	2589
302.9	3160
303.13	4382
303.36	6519
303.59	8882
303.82	7708
304.051	4656
304.281	3243
304.511	2674
304.741	2428
304.971	2289
305.201	2132
305.431	2028
305.661	2026
305.891	1908
306.121	1934
306.352	1900
306.582	1927
306.812	1843
307.042	1888
307.272	1867
307.502	1815
307.731	1834
307.961	1823
308.191	1845
308.421	1793
308.651	1804
308.881	1773
309.111	1801
309.341	1789
309.571	1843
309.8	1846
310.03	1858
310.26	1837
310.49	1869
310.72	1848
310.949	1829
311.179	1892
311.409	1890
311.639	1946
311.868	1906
312.098	1939
312.328	1974
312.557	1922
312.787	1992
313.017	1976
313.246	2016
313.476	2024
313.706	2123
313.935	2237
314.165	2461
314.394	2584
314.624	2420
314.853	2194
315.083	2168
315.312	2215
315.542	2236
315.771	2245
316.001	2308
316.23	2388
316.46	2518
316.689	2825
316.919	3378
317.148	4844
317.377	7623
317.607	11160
317.836	11611
318.065	7304
318.295	4734
318.524	3680
318.753	3195
318.983	2865
319.212	2698
319.441	2624
319.67	2494
319.9	2419
320.129	2426
320.358	2384
320.587	2389
320.816	2364
321.046	2348
321.275	2390
321.504	2438
321.733	2501
321.962	2540
322.191	2574
322.42	2574
322.649	2502
322.878	2528
323.108	2546
323.337	2518
323.566	2663
323.795	2636
324.024	2751
324.253	2804
324.482	2965
324.71	3111
324.939	3315
325.168	3414
325.397	3592
325.626	4254
325.855	5901
326.084	9326
326.313	13282
326.542	13954
326.77	9895
326.999	6425
327.228	5370
327.457	5072
327.686	5048
327.914	5296
328.143	6181
328.372	7338
328.6	8058
328.829	7242
329.058	5982
329.287	5231
329.515	4782
329.744	4388
329.972	4182
330.201	3947
330.43	3857
330.658	3654
330.887	3536
331.115	3516
331.344	3482
331.572	3491
331.801	3509
332.03	3527
332.258	3617
332.486	3815
332.715	4408
332.943	5505
333.172	6969
333.4	6896
333.629	5234
333.857	4638
334.085	4660
334.314	4837
334.542	5235
334.771	6192
334.999	7589
335.227	9692
335.455	10709
335.684	9765
335.912	7994
336.14	6556
336.369	5782
336.597	5294
336.825	4890
337.053	4613
337.281	4255
337.51	4030
337.738	3908
337.966	3768
338.194	3638
338.422	3493
338.65	3388
338.878	3331
339.106	3264
339.334	3187
339.562	3055
339.79	3094
340.018	3015
340.246	2986
340.474	2998
340.702	3013
340.93	2995
341.158	3050
341.386	2989
341.614	2993
341.842	2927
342.07	2801
342.298	2805
342.526	2813
342.754	2715
342.981	2708
343.209	2626
343.437	2764
343.665	2789
343.893	2796
344.12	2820
344.348	2794
344.576	2702
344.804	2682
345.031	2580
345.259	2656
345.487	2578
345.714	2540
345.942	2513
346.17	2522
346.397	2527
346.625	2534
346.853	2535
347.08	2469
347.308	2544
347.535	2511
347.763	2529
347.99	2514
348.218	2462
348.445	2446
348.673	2413
348.9	2460
349.128	2440
349.355	2471
349.583	2438
349.81	2458
350.037	2416
350.265	2379
350.492	2395
350.72	2380
350.947	2401
351.174	2417
351.402	2397
351.629	2400
351.856	2369
352.083	2413
352.311	2412
352.538	2379
352.765	2394
352.992	2366
353.22	2352
353.447	2389
353.674	2359
353.901	2403
354.128	2356
354.355	2364
354.583	2387
354.81	2421
355.037	2398
355.264	2404
355.491	2379
355.718	2471
355.945	2460
356.172	2468
356.399	2441
356.626	2482
356.853	2480
357.08	2498
357.307	2594
357.534	2540
357.761	2580
357.988	2554
358.215	2520
358.441	2537
358.668	2520
358.895	2554
359.122	2531
359.349	2556
359.576	2478
359.802	2518
360.029	2519
360.256	2491
360.483	2525
360.709	2512
360.936	2531
361.163	2535
361.39	2530
361.616	2567
361.843	2569
362.07	2606
362.296	2538
362.523	2539
362.749	2528
362.976	2454
363.203	2499
363.429	2471
363.656	2529
363.882	2517
364.109	2502
364.335	2511
364.562	2565
364.788	2535
365.015	2498
365.241	2646
365.468	2826
365.694	2955
365.92	2837
366.147	2658
366.373	2572
366.599	2648
366.826	2572
367.052	2568
367.278	2597
367.505	2567
367.731	2623
367.957	2622
368.184	2602
368.41	2616
368.636	2697
368.862	2628
369.089	2645
369.315	2615
369.541	2658
369.767	2606
369.993	2590
370.219	2579
370.445	2626
370.672	2592
370.898	2630
371.124	2687
371.35	2705
371.576	2675
371.802	2702
372.028	2730
372.254	2757
372.48	2733
372.706	2750
372.932	2804
373.158	2742
373.384	2751
373.61	2726
373.835	2775
374.061	2773
374.287	2786
374.513	2777
374.739	2842
374.965	2896
375.191	2852
375.416	2850
375.642	2820
375.868	2813
376.094	2779
376.319	2739
376.545	2733
376.771	2667
376.997	2690
377.222	2690
377.448	2669
377.674	2691
377.899	2703
378.125	2655
378.35	2698
378.576	2682
378.802	2665
379.027	2845
379.253	2899
379.478	3020
379.704	3648
379.929	5316
380.155	8316
380.38	9128
380.606	5650
380.831	3912
381.057	3369
381.282	2992
381.507	2935
381.733	2837
381.958	2721
382.184	2725
382.409	2699
382.634	2703
382.86	2669
383.085	2658
383.31	2643
383.535	2628
383.761	2658
383.986	2660
384.211	2694
384.436	2736
384.662	2764
384.887	2784
385.112	2743
385.337	2810
385.562	2765
385.787	2778
386.013	2747
386.238	2756
386.463	2763
386.688	2779
386.913	2702
387.138	2721
387.363	2745
387.588	2689
387.813	2753
388.038	2738
388.263	2750
388.488	2753
388.713	2760
388.938	2710
389.163	2689
389.387	2745
389.612	2693
389.837	2735
390.062	2723
390.287	2785
390.512	2795
390.736	2820
390.961	2854
391.186	2783
391.411	2814
391.636	2856
391.86	2873
392.085	2870
392.31	2806
392.534	2851
392.759	2868
392.984	2832
393.208	2831
393.433	2891
393.658	2827
393.882	2754
394.107	2739
394.331	2754
394.556	2832
394.78	2795
395.005	2844
395.229	2795
395.454	2862
395.678	2855
395.903	2850
396.127	2801
396.352	2862
396.576	2846
396.801	2854
397.025	2878
397.249	2866
397.474	2889
397.698	2928
397.922	2924
398.147	2864
398.371	2933
398.595	2975
398.82	3102
399.044	3176
399.268	3309
399.492	3485
399.717	3618
399.941	3600
400.165	3433
400.389	3269
400.613	3222
400.837	3093
401.062	3072
401.286	2981
401.51	3021
401.734	2986
401.958	3023
402.182	3008
402.406	2956
402.63	3032
402.854	3042
403.078	3038
403.302	3027
403.526	3084
403.75	3064
403.974	3158
404.198	3079
404.422	3129
404.645	3142
404.869	3144
405.093	3141
405.317	3115
405.541	3156
405.765	3232
405.988	3267
406.212	3233
406.436	3222
406.66	3283
406.883	3204
407.107	3317
407.331	3311
407.555	3436
407.778	3355
408.002	3378
408.226	3358
408.449	3298
408.673	3278
408.896	3215
409.12	3231
409.344	3206
409.567	3098
409.791	3164
410.014	3072
410.238	3120
410.461	3087
410.685	3090
410.908	3058
411.132	3063
411.355	3022
411.578	2970
411.802	3026
412.025	3007
412.249	3046
412.472	3037
412.695	2970
412.919	2947
413.142	2988
413.365	2997
413.589	3026
413.812	2969
414.035	2924
414.258	2954
414.482	2975
414.705	2959
414.928	3009
415.151	3012
415.374	2966
415.597	2883
415.821	2842
416.044	2867
416.267	2851
416.49	2847
416.713	2819
416.936	2866
417.159	2740
417.382	2764
417.605	2775
417.828	2760
418.051	2899
418.274	2876
418.497	2879
418.72	2926
418.943	2875
419.166	3023
419.389	3175
419.611	3143
419.834	3016
420.057	2964
420.28	2887
420.503	2853
420.726	2798
420.948	2861
421.171	2792
421.394	2851
421.617	2863
421.839	2869
422.062	2863
422.285	2847
422.507	2905
422.73	2915
422.953	2968
423.175	2963
423.398	2962
423.621	2847
423.843	2885
424.066	2876
424.288	2819
424.511	2856
424.733	2824
424.956	2815
425.178	2816
425.401	2809
425.623	2803
425.846	2739
426.068	2750
426.291	2690
426.513	2686
426.735	2780
426.958	2708
427.18	2679
427.402	2693
427.625	2734
427.847	2670
428.069	2654
428.292	2671
428.514	2621
428.736	2658
428.958	2675
429.181	2603
429.403	2592
429.625	2610
429.847	2590
430.069	2709
430.292	2756
430.514	2826
430.736	2863
430.958	2683
431.18	2622
431.402	2619
431.624	2579
431.846	2594
432.068	2644
432.29	2582
432.512	2578
432.734	2636
432.956	2577
433.178	2683
433.4	2618
433.622	2608
433.844	2668
434.066	2606
434.287	2628
434.509	2694
434.731	2686
434.953	2724
435.175	2744
435.397	2714
435.618	2656
435.84	2661
436.062	2624
436.284	2610
436.505	2596
436.727	2615
436.949	2639
437.17	2604
437.392	2568
437.614	2545
437.835	2491
438.057	2538
438.278	2558
438.5	2570
438.721	2597
438.943	2643
439.165	2740
439.386	2774
439.608	2735
439.829	2743
440.05	2841
440.272	2852
440.493	2771
440.715	2723
440.936	2685
441.158	2704
441.379	2817
441.6	2852
441.822	2958
442.043	3075
442.264	3183
442.486	2980
442.707	2853
442.928	2824
443.149	2848
443.371	2747
443.592	2812
443.813	2819
444.034	2841
444.255	2820
444.476	2926
444.698	2977
444.919	2998
445.14	3044
445.361	2918
445.582	2896
445.803	2788
446.024	2755
446.245	2807
446.466	2768
446.687	2765
446.908	2753
447.129	2697
447.35	2672
447.571	2612
447.792	2567
448.013	2594
448.234	2556
448.455	2563
448.675	2617
448.896	2684
449.117	2822
449.338	3026
449.559	3175
449.779	2826
450	2650
450.221	2600
450.442	2562
450.662	2539
450.883	2521
451.104	2559
451.324	2545
451.545	2577
451.766	2586
451.986	2589
452.207	2844
452.428	3712
452.648	5733
452.869	4814
453.089	3325
453.31	3052
453.53	3015
453.751	3096
453.971	3231
454.192	3139
454.412	2752
454.633	2556
454.853	2560
455.073	2459
455.294	2490
455.514	2424
455.734	2410
455.955	2389
456.175	2405
456.395	2401
456.616	2447
456.836	2460
457.056	2484
457.276	2441
457.497	2666
457.717	2677
457.937	2523
458.157	2562
458.377	2588
458.598	2608
458.818	2634
459.038	2597
459.258	2589
459.478	2646
459.698	2659
459.918	2652
460.138	2738
460.358	2790
460.578	2815
460.798	2851
461.018	2876
461.238	2849
461.458	2922
461.678	2890
461.898	2998
462.118	2967
462.338	3001
462.558	3092
462.777	3132
462.997	3234
463.217	3346
463.437	3450
463.657	3562
463.876	3582
464.096	3364
464.316	3201
464.536	3160
464.755	3074
464.975	3052
465.195	2926
465.414	2843
465.634	2714
465.854	2704
466.073	2688
466.293	2672
466.512	2654
466.732	2702
466.951	2816
467.171	3016
467.391	2947
467.61	2679
467.829	2618
468.049	2602
468.268	2615
468.488	2582
468.707	2579
468.927	2622
469.146	2578
469.365	2637
469.585	2597
469.804	2739
470.023	2755
470.243	2770
470.462	2899
470.681	3092
470.901	3384
471.12	3845
471.339	3836
471.558	3187
471.777	2939
471.997	2834
472.216	2672
472.435	2666
472.654	2607
472.873	2574
473.092	2589
473.311	2573
473.53	2683
473.749	2707
473.968	2807
474.187	2690
474.406	2564
474.625	2632
474.844	2598
475.063	2618
475.282	2602
475.501	2572
475.72	2668
475.939	2704
476.158	2721
476.377	2769
476.596	2704
476.814	2719
477.033	2691
477.252	2778
477.471	2830
477.69	2850
477.908	2911
478.127	2962
478.346	2976
478.564	3012
478.783	3000
479.002	3095
479.22	3090
479.439	3131
479.658	3095
479.876	3131
480.095	3098
480.313	3208
480.532	3288
480.751	3192
480.969	3166
481.188	3157
481.406	3166
481.624	3135
481.843	3203
482.061	3219
482.28	3167
482.498	3163
482.717	3123
482.935	3231
483.153	3260
483.372	3262
483.59	3275
483.808	3367
484.027	3432
484.245	3692
484.463	4113
484.681	4538
484.9	4204
485.118	3937
485.336	3802
485.554	3950
485.772	4123
485.99	4674
486.209	4899
486.427	4212
486.645	3735
486.863	3587
487.081	3462
487.299	3396
487.517	3386
487.735	3417
487.953	3415
488.171	3382
488.389	3342
488.607	3320
488.825	3285
489.043	3223
489.261	3202
489.479	3246
489.696	3267
489.914	3283
490.132	3265
490.35	3298
490.568	3278
490.786	3288
491.003	3359
491.221	3410
491.439	3424
491.657	3334
491.874	3444
492.092	3404
492.31	3455
492.527	3425
492.745	3392
492.963	3400
493.18	3443
493.398	3415
493.615	3392
493.833	3399
494.05	3454
494.268	3468
494.485	3453
494.703	3442
494.92	3470
495.138	3436
495.355	3458
495.573	3446
495.79	3486
496.008	3521
496.225	3484
496.442	3586
496.66	3656
496.877	3875
497.094	3887
497.312	3652
497.529	3692
497.746	3754
497.963	3755
498.181	3865
498.398	3937
498.615	4061
498.832	4237
499.049	4433
499.267	4762
499.484	5114
499.701	5050
499.918	5146
500.135	5402
500.352	5661
500.569	5676
500.786	5694
501.003	5515
501.22	5250
501.437	5003
501.654	4769
501.871	4494
502.088	4272
502.305	4189
502.522	4081
502.739	4001
502.956	3854
503.172	3770
503.389	3705
503.606	3646
503.823	3548
504.04	3578
504.256	3566
504.473	3568
504.69	3542
504.907	3534
505.123	3434
505.34	3403
505.557	3266
505.773	3256
505.99	3253
506.207	3182
506.423	3084
506.64	3093
506.856	3106
507.073	3073
507.289	3055
507.506	3012
507.722	2958
507.939	2967
508.155	2966
508.372	2950
508.588	2922
508.805	2944
509.021	2996
509.238	2990
509.454	3151
509.67	3347
509.887	3160
510.103	3074
510.319	2990
510.536	2934
510.752	2955
510.968	2906
511.184	2830
511.401	2831
511.617	2780
511.833	2833
512.049	2824
512.265	2808
512.481	2841
512.698	2786
512.914	2803
513.13	2773
513.346	2840
513.562	2768
513.778	2887
513.994	2931
514.21	3011
514.426	3216
514.642	3304
514.858	3007
515.074	2947
515.29	2878
515.506	2920
515.721	2937
515.937	2897
516.153	2920
516.369	2950
516.585	3010
516.801	3030
517.016	3133
517.232	3086
517.448	3158
517.664	3259
517.879	3202
518.095	3250
518.311	3219
518.527	3136
518.742	3186
518.958	3171
519.173	3304
519.389	3096
519.605	2983
519.82	2915
520.036	2963
520.251	2872
520.467	2848
520.682	2822
520.898	2718
521.113	2736
521.329	2771
521.544	2775
521.76	2779
521.975	2789
522.19	2795
522.406	2802
522.621	2740
522.836	2679
523.052	2736
523.267	2700
523.482	2727
523.698	2697
523.913	2697
524.128	2721
524.343	2670
524.559	2706
524.774	2693
524.989	2682
525.204	2710
525.419	2647
525.634	2693
525.849	2674
526.064	2703
526.28	2743
526.495	2686
526.71	2690
526.925	2711
527.14	2691
527.355	2722
527.57	2696
527.785	2722
527.999	2762
528.214	2802
528.429	2844
528.644	2843
528.859	2901
529.074	2920
529.289	2927
529.503	2956
529.718	2928
529.933	2917
530.148	2838
530.363	2923
530.577	2843
530.792	2934
531.007	2927
531.221	2953
531.436	2937
531.651	3021
531.865	3024
532.08	3111
532.295	3213
532.509	3422
532.724	3453
532.938	3440
533.153	3635
533.367	3862
533.582	4070
533.796	4030
534.011	3846
534.225	3739
534.44	3587
534.654	3492
534.868	3394
535.083	3358
535.297	3215
535.511	3200
535.726	3162
535.94	3154
536.154	3055
536.369	2991
536.583	2965
536.797	2971
537.011	2872
537.225	2854
537.44	2864
537.654	2837
537.868	2806
538.082	2755
538.296	2759
538.51	2699
538.724	2762
538.938	2712
539.153	2669
539.367	2694
539.581	2645
539.795	2629
540.009	2590
540.222	2584
540.436	2681
540.65	2623
540.864	2650
541.078	2728
541.292	2888
541.506	3378
541.72	3607
541.934	3104
542.147	2978
