Data from SnStandardFlinnAPT0064_QswitchEnergy10_LIBS07252019.E.O._I.C._HRD10591_15-26-36-972.txt Node
Date: Thu Jul 25 15:26:36 EDT 2019
User: cochatt
Spectrometer: HR+D1059
Trigger mode: 1
Integration Time (sec): 1.000000E-1
Scans to average: 1
Electric dark correction enabled: true
Nonlinearity correction enabled: false
Boxcar width: 0
XAxis mode: Wavelengths
Number of Pixels in Spectrum: 2048
>>>>>Begin Spectral Data<<<<<
223.165	-10.88
223.4	-10.88
223.635	-10.88
223.869	-18.88
224.104	-15.88
224.338	-19.88
224.573	-11.88
224.808	-20.88
225.042	-4.88
225.277	-10.88
225.511	-0.88
225.746	-0.88
225.98	19.12
226.215	14.12
226.449	15.12
226.683	26.12
226.918	12.12
227.152	29.12
227.387	38.12
227.621	43.12
227.856	39.12
228.09	40.12
228.324	43.12
228.559	50.12
228.793	46.12
229.027	70.12
229.262	63.12
229.496	73.12
229.73	66.12
229.964	66.12
230.199	72.12
230.433	92.12
230.667	89.12
230.901	75.12
231.136	78.12
231.37	74.12
231.604	89.12
231.838	101.12
232.072	111.12
232.306	124.12
232.541	88.12
232.775	91.12
233.009	86.12
233.243	96.12
233.477	91.12
233.711	99.12
233.945	109.12
234.179	98.12
234.413	85.12
234.647	78.12
234.881	74.12
235.115	77.12
235.349	89.12
235.583	106.12
235.817	143.12
236.051	134.12
236.285	94.12
236.519	75.12
236.753	84.12
236.987	75.12
237.221	66.12
237.455	84.12
237.689	88.12
237.922	78.12
238.156	70.12
238.39	82.12
238.624	84.12
238.858	72.12
239.091	78.12
239.325	82.12
239.559	83.12
239.793	76.12
240.027	72.12
240.26	70.12
240.494	71.12
240.728	72.12
240.961	78.12
241.195	91.12
241.429	83.12
241.662	84.12
241.896	88.12
242.13	92.12
242.363	112.12
242.597	169.12
242.83	131.12
243.064	132.12
243.298	164.12
243.531	146.12
243.765	99.12
243.998	86.12
244.232	73.12
244.465	101.12
244.699	83.12
244.932	83.12
245.166	78.12
245.399	70.12
245.633	74.12
245.866	84.12
246.099	93.12
246.333	73.12
246.566	75.12
246.8	69.12
247.033	87.12
247.266	84.12
247.5	74.12
247.733	79.12
247.966	99.12
248.2	86.12
248.433	117.12
248.666	116.12
248.899	112.12
249.133	86.12
249.366	101.12
249.599	97.12
249.832	124.12
250.066	130.12
250.299	80.12
250.532	82.12
250.765	77.12
250.998	68.12
251.231	76.12
251.465	92.12
251.698	78.12
251.931	72.12
252.164	84.12
252.397	78.12
252.63	95.12
252.863	97.12
253.096	88.12
253.329	80.12
253.562	90.12
253.795	83.12
254.028	89.12
254.261	87.12
254.494	98.12
254.727	119.12
254.96	138.12
255.193	120.12
255.426	95.12
255.659	88.12
255.892	86.12
256.124	88.12
256.357	75.12
256.59	92.12
256.823	102.12
257.056	104.12
257.289	138.12
257.521	168.12
257.754	120.12
257.987	91.12
258.22	98.12
258.452	79.12
258.685	85.12
258.918	80.12
259.151	95.12
259.383	93.12
259.616	146.12
259.849	155.12
260.081	99.12
260.314	91.12
260.547	82.12
260.779	76.12
261.012	83.12
261.244	82.12
261.477	87.12
261.71	85.12
261.942	75.12
262.175	79.12
262.407	80.12
262.64	76.12
262.872	83.12
263.105	80.12
263.337	67.12
263.57	64.12
263.802	98.12
264.035	92.12
264.267	74.12
264.499	84.12
264.732	71.12
264.964	98.12
265.197	94.12
265.429	91.12
265.661	83.12
265.894	106.12
266.126	112.12
266.358	150.12
266.591	133.12
266.823	90.12
267.055	90.12
267.287	80.12
267.52	90.12
267.752	82.12
267.984	90.12
268.216	89.12
268.448	85.12
268.681	84.12
268.913	76.12
269.145	92.12
269.377	97.12
269.609	100.12
269.841	89.12
270.073	85.12
270.306	107.12
270.538	192.12
270.77	306.12
271.002	334.12
271.234	203.12
271.466	102.12
271.698	99.12
271.93	84.12
272.162	73.12
272.394	96.12
272.626	99.12
272.858	75.12
273.09	92.12
273.322	79.12
273.553	92.12
273.785	94.12
274.017	103.12
274.249	92.12
274.481	84.12
274.713	84.12
274.945	97.12
275.176	94.12
275.408	92.12
275.64	79.12
275.872	84.12
276.104	85.12
276.335	97.12
276.567	87.12
276.799	79.12
277.031	92.12
277.262	89.12
277.494	95.12
277.726	125.12
277.957	168.12
278.189	237.12
278.421	238.12
278.652	193.12
278.884	200.12
279.115	135.12
279.347	105.12
279.579	95.12
279.81	107.12
280.042	88.12
280.273	83.12
280.505	90.12
280.736	91.12
280.968	108.12
281.199	164.12
281.431	230.12
281.662	252.12
281.894	155.12
282.125	114.12
282.356	116.12
282.588	104.12
282.819	97.12
283.051	103.12
283.282	139.12
283.513	177.12
283.745	296.12
283.976	530.12
284.207	705.12
284.439	544.12
284.67	263.12
284.901	246.12
285.132	347.12
285.364	382.12
285.595	204.12
285.826	160.12
286.057	238.12
286.288	361.12
286.52	562.12
286.751	432.12
286.982	184.12
287.213	111.12
287.444	101.12
287.675	94.12
287.906	99.12
288.138	100.12
288.369	101.12
288.6	94.12
288.831	95.12
289.062	76.12
289.293	94.12
289.524	98.12
289.755	96.12
289.986	94.12
290.217	91.12
290.448	112.12
290.679	114.12
290.91	123.12
291.141	160.12
291.371	231.12
291.602	267.12
291.833	194.12
292.064	105.12
292.295	97.12
292.526	87.12
292.757	78.12
292.987	84.12
293.218	86.12
293.449	74.12
293.68	92.12
293.91	75.12
294.141	96.12
294.372	79.12
294.603	88.12
294.833	90.12
295.064	90.12
295.295	89.12
295.525	100.12
295.756	94.12
295.987	108.12
296.217	92.12
296.448	99.12
296.679	98.12
296.909	102.12
297.14	104.12
297.37	106.12
297.601	95.12
297.831	92.12
298.062	93.12
298.292	82.12
298.523	94.12
298.753	96.12
298.984	98.12
299.214	115.12
299.445	103.12
299.675	96.12
299.905	119.12
300.136	105.12
300.366	155.12
300.597	258.12
300.827	415.12
301.057	647.12
301.288	583.12
301.518	222.12
301.748	144.12
301.979	134.12
302.209	120.12
302.439	139.12
302.669	147.12
302.9	235.12
303.13	487.12
303.36	834.12
303.59	1157.12
303.82	776.12
304.051	276.12
304.281	150.12
304.511	112.12
304.741	105.12
304.971	115.12
305.201	107.12
305.431	98.12
305.661	108.12
305.891	98.12
306.121	93.12
306.352	100.12
306.582	108.12
306.812	114.12
307.042	105.12
307.272	107.12
307.502	106.12
307.731	98.12
307.961	99.12
308.191	91.12
308.421	98.12
308.651	98.12
308.881	103.12
309.111	108.12
309.341	104.12
309.571	118.12
309.8	88.12
310.03	114.12
310.26	108.12
310.49	112.12
310.72	95.12
310.949	118.12
311.179	92.12
311.409	96.12
311.639	99.12
311.868	115.12
312.098	112.12
312.328	106.12
312.557	114.12
312.787	104.12
313.017	108.12
313.246	115.12
313.476	106.12
313.706	140.12
313.935	146.12
314.165	176.12
314.394	212.12
314.624	166.12
314.853	118.12
315.083	116.12
315.312	121.12
315.542	114.12
315.771	130.12
316.001	122.12
316.23	141.12
316.46	143.12
316.689	161.12
316.919	241.12
317.148	450.12
317.377	854.12
317.607	1401.12
317.836	1253.12
318.065	492.12
318.295	220.12
318.524	160.12
318.753	122.12
318.983	108.12
319.212	111.12
319.441	114.12
319.67	118.12
319.9	114.12
320.129	119.12
320.358	126.12
320.587	108.12
320.816	126.12
321.046	126.12
321.275	119.12
321.504	126.12
321.733	153.12
321.962	147.12
322.191	156.12
322.42	120.12
322.649	126.12
322.878	115.12
323.108	115.12
323.337	105.12
323.566	121.12
323.795	132.12
324.024	128.12
324.253	143.12
324.482	163.12
324.71	224.12
324.939	254.12
325.168	227.12
325.397	178.12
325.626	229.12
325.855	431.12
326.084	882.12
326.313	1449.12
326.542	1493.12
326.77	573.12
326.999	231.12
327.228	188.12
327.457	221.12
327.686	209.12
327.914	173.12
328.143	139.12
328.372	123.12
328.6	119.12
328.829	117.12
329.058	106.12
329.287	98.12
329.515	94.12
329.744	119.12
329.972	122.12
330.201	108.12
330.43	122.12
330.658	117.12
330.887	108.12
331.115	114.12
331.344	110.12
331.572	111.12
331.801	123.12
332.03	120.12
332.258	154.12
332.486	170.12
332.715	269.12
332.943	470.12
333.172	743.12
333.4	602.12
333.629	234.12
333.857	131.12
334.085	130.12
334.314	117.12
334.542	126.12
334.771	122.12
334.999	115.12
335.227	131.12
335.455	131.12
335.684	114.12
335.912	123.12
336.14	120.12
336.369	117.12
336.597	104.12
336.825	107.12
337.053	104.12
337.281	106.12
337.51	99.12
337.738	116.12
337.966	102.12
338.194	107.12
338.422	106.12
338.65	110.12
338.878	116.12
339.106	117.12
339.334	129.12
339.562	126.12
339.79	120.12
340.018	111.12
340.246	118.12
340.474	111.12
340.702	103.12
340.93	120.12
341.158	110.12
341.386	101.12
341.614	95.12
341.842	115.12
342.07	112.12
342.298	114.12
342.526	116.12
342.754	115.12
342.981	119.12
343.209	113.12
343.437	105.12
343.665	108.12
343.893	116.12
344.12	118.12
344.348	102.12
344.576	103.12
344.804	121.12
345.031	92.12
345.259	101.12
345.487	114.12
345.714	114.12
345.942	116.12
346.17	105.12
346.397	92.12
346.625	104.12
346.853	101.12
347.08	103.12
347.308	94.12
347.535	86.12
347.763	115.12
347.99	116.12
348.218	112.12
348.445	118.12
348.673	118.12
348.9	113.12
349.128	114.12
349.355	120.12
349.583	123.12
349.81	106.12
350.037	108.12
350.265	122.12
350.492	110.12
350.72	109.12
350.947	114.12
351.174	119.12
351.402	118.12
351.629	111.12
351.856	110.12
352.083	105.12
352.311	104.12
352.538	108.12
352.765	104.12
352.992	120.12
353.22	98.12
353.447	107.12
353.674	114.12
353.901	110.12
354.128	99.12
354.355	103.12
354.583	101.12
354.81	108.12
355.037	112.12
355.264	102.12
355.491	110.12
355.718	102.12
355.945	88.12
356.172	102.12
356.399	98.12
356.626	114.12
356.853	102.12
357.08	120.12
357.307	105.12
357.534	99.12
357.761	103.12
357.988	113.12
358.215	101.12
358.441	107.12
358.668	107.12
358.895	113.12
359.122	108.12
359.349	111.12
359.576	101.12
359.802	112.12
360.029	112.12
360.256	104.12
360.483	103.12
360.709	106.12
360.936	110.12
361.163	112.12
361.39	106.12
361.616	95.12
361.843	91.12
362.07	117.12
362.296	120.12
362.523	93.12
362.749	111.12
362.976	114.12
363.203	105.12
363.429	107.12
363.656	104.12
363.882	118.12
364.109	114.12
364.335	111.12
364.562	94.12
364.788	105.12
365.015	116.12
365.241	134.12
365.468	186.12
365.694	249.12
365.92	201.12
366.147	131.12
366.373	100.12
366.599	85.12
366.826	86.12
367.052	103.12
367.278	103.12
367.505	102.12
367.731	95.12
367.957	114.12
368.184	102.12
368.41	116.12
368.636	99.12
368.862	91.12
369.089	96.12
369.315	92.12
369.541	103.12
369.767	119.12
369.993	100.12
370.219	112.12
370.445	107.12
370.672	108.12
370.898	120.12
371.124	106.12
371.35	98.12
371.576	103.12
371.802	113.12
372.028	105.12
372.254	97.12
372.48	111.12
372.706	126.12
372.932	113.12
373.158	111.12
373.384	118.12
373.61	115.12
373.835	116.12
374.061	103.12
374.287	106.12
374.513	126.12
374.739	122.12
374.965	108.12
375.191	97.12
375.416	103.12
375.642	98.12
375.868	91.12
376.094	98.12
376.319	102.12
376.545	112.12
376.771	105.12
376.997	110.12
377.222	105.12
377.448	107.12
377.674	115.12
377.899	105.12
378.125	111.12
378.35	100.12
378.576	117.12
378.802	104.12
379.027	107.12
379.253	123.12
379.478	166.12
379.704	289.12
379.929	712.12
380.155	1460.12
380.38	1520.12
380.606	488.12
380.831	181.12
381.057	126.12
381.282	108.12
381.507	105.12
381.733	119.12
381.958	109.12
382.184	97.12
382.409	106.12
382.634	112.12
382.86	94.12
383.085	112.12
383.31	96.12
383.535	96.12
383.761	103.12
383.986	109.12
384.211	103.12
384.436	116.12
384.662	96.12
384.887	90.12
385.112	106.12
385.337	112.12
385.562	94.12
385.787	111.12
386.013	107.12
386.238	116.12
386.463	90.12
386.688	105.12
386.913	104.12
387.138	97.12
387.363	104.12
387.588	105.12
387.813	96.12
388.038	91.12
388.263	106.12
388.488	104.12
388.713	106.12
388.938	95.12
389.163	96.12
389.387	89.12
389.612	100.12
389.837	94.12
390.062	103.12
390.287	101.12
390.512	90.12
390.736	98.12
390.961	99.12
391.186	96.12
391.411	92.12
391.636	99.12
391.86	100.12
392.085	103.12
392.31	92.12
392.534	97.12
392.759	113.12
392.984	104.12
393.208	113.12
393.433	120.12
393.658	116.12
393.882	108.12
394.107	103.12
394.331	113.12
394.556	102.12
394.78	90.12
395.005	87.12
395.229	93.12
395.454	105.12
395.678	95.12
395.903	94.12
396.127	99.12
396.352	105.12
396.576	105.12
396.801	124.12
397.025	133.12
397.249	101.12
397.474	119.12
397.698	99.12
397.922	94.12
398.147	87.12
398.371	89.12
398.595	83.12
398.82	92.12
399.044	90.12
399.268	82.12
399.492	100.12
399.717	105.12
399.941	99.12
400.165	102.12
400.389	97.12
400.613	87.12
400.837	106.12
401.062	89.12
401.286	88.12
401.51	90.12
401.734	82.12
401.958	93.12
402.182	97.12
402.406	90.12
402.63	91.12
402.854	94.12
403.078	108.12
403.302	104.12
403.526	108.12
403.75	94.12
403.974	96.12
404.198	99.12
404.422	102.12
404.645	94.12
404.869	91.12
405.093	101.12
405.317	85.12
405.541	99.12
405.765	126.12
405.988	150.12
406.212	110.12
406.436	100.12
406.66	102.12
406.883	97.12
407.107	104.12
407.331	96.12
407.555	91.12
407.778	100.12
408.002	99.12
408.226	88.12
408.449	102.12
408.673	110.12
408.896	100.12
409.12	92.12
409.344	114.12
409.567	100.12
409.791	114.12
410.014	95.12
410.238	104.12
410.461	111.12
410.685	88.12
410.908	93.12
411.132	112.12
411.355	91.12
411.578	107.12
411.802	104.12
412.025	97.12
412.249	86.12
412.472	89.12
412.695	93.12
412.919	96.12
413.142	101.12
413.365	93.12
413.589	103.12
413.812	106.12
414.035	109.12
414.258	118.12
414.482	105.12
414.705	91.12
414.928	90.12
415.151	97.12
415.374	96.12
415.597	92.12
415.821	89.12
416.044	98.12
416.267	100.12
416.49	94.12
416.713	93.12
416.936	90.12
417.159	98.12
417.382	97.12
417.605	97.12
417.828	97.12
418.051	87.12
418.274	97.12
418.497	98.12
418.72	111.12
418.943	94.12
419.166	109.12
419.389	98.12
419.611	118.12
419.834	110.12
420.057	101.12
420.28	97.12
420.503	100.12
420.726	92.12
420.948	88.12
421.171	95.12
421.394	90.12
421.617	77.12
421.839	89.12
422.062	93.12
422.285	101.12
422.507	109.12
422.73	116.12
422.953	125.12
423.175	102.12
423.398	99.12
423.621	97.12
423.843	90.12
424.066	97.12
424.288	107.12
424.511	87.12
424.733	102.12
424.956	76.12
425.178	94.12
425.401	103.12
425.623	86.12
425.846	97.12
426.068	103.12
426.291	83.12
426.513	106.12
426.735	103.12
426.958	94.12
427.18	87.12
427.402	93.12
427.625	93.12
427.847	98.12
428.069	98.12
428.292	99.12
428.514	93.12
428.736	91.12
428.958	93.12
429.181	107.12
429.403	90.12
429.625	110.12
429.847	97.12
430.069	102.12
430.292	110.12
430.514	104.12
430.736	92.12
430.958	93.12
431.18	91.12
431.402	92.12
431.624	95.12
431.846	80.12
432.068	91.12
432.29	85.12
432.512	84.12
432.734	99.12
432.956	89.12
433.178	109.12
433.4	95.12
433.622	108.12
433.844	109.12
434.066	95.12
434.287	98.12
434.509	92.12
434.731	105.12
434.953	72.12
435.175	94.12
435.397	86.12
435.618	95.12
435.84	101.12
436.062	97.12
436.284	89.12
436.505	87.12
436.727	98.12
436.949	87.12
437.17	73.12
437.392	99.12
437.614	90.12
437.835	92.12
438.057	82.12
438.278	91.12
438.5	92.12
438.721	87.12
438.943	84.12
439.165	97.12
439.386	101.12
439.608	100.12
439.829	106.12
440.05	121.12
440.272	102.12
440.493	104.12
440.715	89.12
440.936	85.12
441.158	86.12
441.379	82.12
441.6	98.12
441.822	110.12
442.043	107.12
442.264	124.12
442.486	112.12
442.707	101.12
442.928	89.12
443.149	94.12
443.371	90.12
443.592	96.12
443.813	98.12
444.034	93.12
444.255	94.12
444.476	95.12
444.698	93.12
444.919	79.12
445.14	224.12
445.361	147.12
445.582	85.12
445.803	88.12
446.024	106.12
446.245	111.12
446.466	94.12
446.687	96.12
446.908	106.12
447.129	109.12
447.35	98.12
447.571	100.12
447.792	94.12
448.013	92.12
448.234	95.12
448.455	73.12
448.675	86.12
448.896	103.12
449.117	112.12
449.338	128.12
449.559	153.12
449.779	120.12
450	110.12
450.221	110.12
450.442	115.12
450.662	119.12
450.883	103.12
451.104	99.12
451.324	114.12
451.545	108.12
451.766	126.12
451.986	130.12
452.207	192.12
452.428	500.12
452.648	1300.12
452.869	727.12
453.089	195.12
453.31	123.12
453.53	121.12
453.751	134.12
453.971	166.12
454.192	146.12
454.412	105.12
454.633	101.12
454.853	108.12
455.073	84.12
455.294	83.12
455.514	89.12
455.734	109.12
455.955	90.12
456.175	104.12
456.395	87.12
456.616	86.12
456.836	91.12
457.056	97.12
457.276	94.12
457.497	119.12
457.717	121.12
457.937	113.12
458.157	101.12
458.377	86.12
458.598	92.12
458.818	101.12
459.038	87.12
459.258	102.12
459.478	90.12
459.698	95.12
459.918	93.12
460.138	84.12
460.358	81.12
460.578	95.12
460.798	101.12
461.018	80.12
461.238	89.12
461.458	86.12
461.678	86.12
461.898	89.12
462.118	76.12
462.338	88.12
462.558	107.12
462.777	96.12
462.997	91.12
463.217	103.12
463.437	120.12
463.657	170.12
463.876	185.12
464.096	121.12
464.316	91.12
464.536	95.12
464.755	98.12
464.975	92.12
465.195	115.12
465.414	96.12
465.634	85.12
465.854	96.12
466.073	90.12
466.293	102.12
466.512	114.12
466.732	102.12
466.951	108.12
467.171	143.12
467.391	138.12
467.61	90.12
467.829	102.12
468.049	96.12
468.268	90.12
468.488	94.12
468.707	79.12
468.927	102.12
469.146	87.12
469.365	108.12
469.585	94.12
469.804	92.12
470.023	113.12
470.243	98.12
470.462	93.12
470.681	107.12
470.901	133.12
471.12	178.12
471.339	204.12
471.558	135.12
471.777	107.12
471.997	112.12
472.216	87.12
472.435	94.12
472.654	88.12
472.873	92.12
473.092	118.12
473.311	103.12
473.53	95.12
473.749	92.12
473.968	99.12
474.187	95.12
474.406	93.12
474.625	104.12
474.844	95.12
475.063	84.12
475.282	87.12
475.501	96.12
475.72	93.12
475.939	108.12
476.158	103.12
476.377	105.12
476.596	97.12
476.814	95.12
477.033	93.12
477.252	96.12
477.471	94.12
477.69	90.12
477.908	95.12
478.127	87.12
478.346	94.12
478.564	97.12
478.783	92.12
479.002	103.12
479.22	94.12
479.439	75.12
479.658	78.12
479.876	90.12
480.095	90.12
480.313	98.12
480.532	100.12
480.751	101.12
480.969	98.12
481.188	88.12
481.406	85.12
481.624	104.12
481.843	110.12
482.061	112.12
482.28	97.12
482.498	98.12
482.717	103.12
482.935	96.12
483.153	85.12
483.372	102.12
483.59	97.12
483.808	102.12
484.027	119.12
484.245	113.12
484.463	170.12
484.681	216.12
484.9	145.12
485.118	108.12
485.336	112.12
485.554	110.12
485.772	120.12
485.99	178.12
486.209	219.12
486.427	162.12
486.645	114.12
486.863	97.12
487.081	100.12
487.299	108.12
487.517	92.12
487.735	95.12
487.953	84.12
488.171	98.12
488.389	86.12
488.607	94.12
488.825	96.12
489.043	96.12
489.261	90.12
489.479	99.12
489.696	95.12
489.914	97.12
490.132	102.12
490.35	95.12
490.568	112.12
490.786	98.12
491.003	95.12
491.221	103.12
491.439	102.12
491.657	85.12
491.874	95.12
492.092	108.12
492.31	110.12
492.527	97.12
492.745	106.12
492.963	110.12
493.18	92.12
493.398	102.12
493.615	86.12
493.833	101.12
494.05	100.12
494.268	106.12
494.485	97.12
494.703	97.12
494.92	92.12
495.138	100.12
495.355	112.12
495.573	106.12
495.79	110.12
496.008	106.12
496.225	124.12
496.442	103.12
496.66	126.12
496.877	142.12
497.094	149.12
497.312	101.12
497.529	96.12
497.746	110.12
497.963	99.12
498.181	102.12
498.398	81.12
498.615	109.12
498.832	110.12
499.049	96.12
499.267	127.12
499.484	157.12
499.701	113.12
499.918	106.12
500.135	80.12
500.352	94.12
500.569	104.12
500.786	97.12
501.003	102.12
501.22	79.12
501.437	93.12
501.654	98.12
501.871	94.12
502.088	75.12
502.305	95.12
502.522	89.12
502.739	116.12
502.956	86.12
503.172	88.12
503.389	104.12
503.606	100.12
503.823	102.12
504.04	101.12
504.256	93.12
504.473	98.12
504.69	111.12
504.907	124.12
505.123	119.12
505.34	101.12
505.557	101.12
505.773	102.12
505.99	108.12
506.207	104.12
506.423	102.12
506.64	108.12
506.856	96.12
507.073	87.12
507.289	100.12
507.506	86.12
507.722	94.12
507.939	93.12
508.155	97.12
508.372	93.12
508.588	102.12
508.805	103.12
509.021	91.12
509.238	109.12
509.454	126.12
