Data from SnStandardFlinnAPT0064_QswitchEnergy10_LIBS07252019.E.O._I.C._HRD10591_15-26-35-972.txt Node
Date: Thu Jul 25 15:26:35 EDT 2019
User: cochatt
Spectrometer: HR+D1059
Trigger mode: 1
Integration Time (sec): 1.000000E-1
Scans to average: 1
Electric dark correction enabled: true
Nonlinearity correction enabled: false
Boxcar width: 0
XAxis mode: Wavelengths
Number of Pixels in Spectrum: 2048
>>>>>Begin Spectral Data<<<<<
223.165	-16.62
223.4	-16.62
223.635	-16.62
223.869	-17.62
224.104	-25.62
224.338	-16.62
224.573	-10.62
224.808	0.38
225.042	9.38
225.277	-21.62
225.511	-10.62
225.746	1.38
225.98	17.38
226.215	14.38
226.449	6.38
226.683	26.38
226.918	24.38
227.152	19.38
227.387	29.38
227.621	37.38
227.856	36.38
228.09	32.38
228.324	38.38
228.559	46.38
228.793	56.38
229.027	80.38
229.262	69.38
229.496	68.38
229.73	53.38
229.964	58.38
230.199	79.38
230.433	79.38
230.667	89.38
230.901	73.38
231.136	72.38
231.37	87.38
231.604	79.38
231.838	85.38
232.072	118.38
232.306	125.38
232.541	83.38
232.775	94.38
233.009	88.38
233.243	85.38
233.477	68.38
233.711	99.38
233.945	111.38
234.179	92.38
234.413	71.38
234.647	84.38
234.881	70.38
235.115	78.38
235.349	97.38
235.583	93.38
235.817	127.38
236.051	130.38
236.285	109.38
236.519	72.38
236.753	79.38
236.987	83.38
237.221	95.38
237.455	81.38
237.689	84.38
237.922	82.38
238.156	83.38
238.39	89.38
238.624	60.38
238.858	85.38
239.091	71.38
239.325	81.38
239.559	75.38
239.793	78.38
240.027	83.38
240.26	87.38
240.494	89.38
240.728	74.38
240.961	88.38
241.195	94.38
241.429	93.38
241.662	79.38
241.896	86.38
242.13	95.38
242.363	135.38
242.597	157.38
242.83	142.38
243.064	141.38
243.298	167.38
243.531	147.38
243.765	90.38
243.998	76.38
244.232	69.38
244.465	79.38
244.699	85.38
244.932	79.38
245.166	72.38
245.399	83.38
245.633	84.38
245.866	77.38
246.099	78.38
246.333	85.38
246.566	79.38
246.8	78.38
247.033	83.38
247.266	73.38
247.5	86.38
247.733	83.38
247.966	84.38
248.2	75.38
248.433	110.38
248.666	125.38
248.899	117.38
249.133	99.38
249.366	88.38
249.599	98.38
249.832	111.38
250.066	123.38
250.299	82.38
250.532	76.38
250.765	86.38
250.998	72.38
251.231	85.38
251.465	79.38
251.698	83.38
251.931	67.38
252.164	93.38
252.397	74.38
252.63	94.38
252.863	95.38
253.096	88.38
253.329	90.38
253.562	99.38
253.795	98.38
254.028	80.38
254.261	85.38
254.494	106.38
254.727	132.38
254.96	144.38
255.193	128.38
255.426	88.38
255.659	76.38
255.892	85.38
256.124	96.38
256.357	98.38
256.59	100.38
256.823	81.38
257.056	94.38
257.289	149.38
257.521	187.38
257.754	123.38
257.987	90.38
258.22	86.38
258.452	85.38
258.685	92.38
258.918	88.38
259.151	94.38
259.383	115.38
259.616	123.38
259.849	135.38
260.081	98.38
260.314	82.38
260.547	80.38
260.779	68.38
261.012	90.38
261.244	95.38
261.477	98.38
261.71	92.38
261.942	83.38
262.175	87.38
262.407	76.38
262.64	64.38
262.872	86.38
263.105	82.38
263.337	94.38
263.57	73.38
263.802	74.38
264.035	101.38
264.267	87.38
264.499	83.38
264.732	101.38
264.964	74.38
265.197	86.38
265.429	88.38
265.661	82.38
265.894	101.38
266.126	127.38
266.358	151.38
266.591	153.38
266.823	92.38
267.055	89.38
267.287	85.38
267.52	73.38
267.752	72.38
267.984	83.38
268.216	96.38
268.448	102.38
268.681	94.38
268.913	107.38
269.145	73.38
269.377	74.38
269.609	83.38
269.841	88.38
270.073	102.38
270.306	145.38
270.538	186.38
270.77	318.38
271.002	384.38
271.234	203.38
271.466	122.38
271.698	90.38
271.93	76.38
272.162	85.38
272.394	95.38
272.626	94.38
272.858	93.38
273.09	83.38
273.322	75.38
273.553	89.38
273.785	73.38
274.017	86.38
274.249	93.38
274.481	81.38
274.713	80.38
274.945	96.38
275.176	85.38
275.408	99.38
275.64	92.38
275.872	87.38
276.104	86.38
276.335	104.38
276.567	103.38
276.799	99.38
277.031	82.38
277.262	100.38
277.494	98.38
277.726	121.38
277.957	183.38
278.189	253.38
278.421	240.38
278.652	180.38
278.884	175.38
279.115	119.38
279.347	101.38
279.579	90.38
279.81	88.38
280.042	101.38
280.273	88.38
280.505	98.38
280.736	101.38
280.968	118.38
281.199	147.38
281.431	236.38
281.662	245.38
281.894	156.38
282.125	119.38
282.356	112.38
282.588	124.38
282.819	114.38
283.051	116.38
283.282	128.38
283.513	174.38
283.745	287.38
283.976	513.38
284.207	778.38
284.439	588.38
284.67	279.38
284.901	261.38
285.132	341.38
285.364	375.38
285.595	205.38
285.826	174.38
286.057	243.38
286.288	398.38
286.52	605.38
286.751	474.38
286.982	187.38
287.213	121.38
287.444	106.38
287.675	115.38
287.906	91.38
288.138	94.38
288.369	93.38
288.6	97.38
288.831	93.38
289.062	93.38
289.293	87.38
289.524	105.38
289.755	91.38
289.986	105.38
290.217	100.38
290.448	90.38
290.679	93.38
290.91	107.38
291.141	163.38
291.371	236.38
291.602	279.38
291.833	202.38
292.064	118.38
292.295	85.38
292.526	94.38
292.757	97.38
292.987	90.38
293.218	74.38
293.449	107.38
293.68	98.38
293.91	94.38
294.141	90.38
294.372	99.38
294.603	87.38
294.833	81.38
295.064	94.38
295.295	90.38
295.525	97.38
295.756	97.38
295.987	98.38
296.217	98.38
296.448	102.38
296.679	96.38
296.909	104.38
297.14	86.38
297.37	99.38
297.601	93.38
297.831	93.38
298.062	98.38
298.292	95.38
298.523	101.38
298.753	102.38
298.984	105.38
299.214	99.38
299.445	101.38
299.675	121.38
299.905	112.38
300.136	120.38
300.366	166.38
300.597	276.38
300.827	446.38
301.057	700.38
301.288	641.38
301.518	257.38
301.748	149.38
301.979	125.38
302.209	114.38
302.439	139.38
302.669	177.38
302.9	267.38
303.13	485.38
303.36	863.38
303.59	1231.38
303.82	856.38
304.051	291.38
304.281	141.38
304.511	121.38
304.741	125.38
304.971	125.38
305.201	112.38
305.431	99.38
305.661	113.38
305.891	106.38
306.121	117.38
306.352	95.38
306.582	117.38
306.812	113.38
307.042	121.38
307.272	125.38
307.502	94.38
307.731	94.38
307.961	107.38
308.191	111.38
308.421	106.38
308.651	103.38
308.881	89.38
309.111	114.38
309.341	103.38
309.571	94.38
309.8	105.38
310.03	111.38
310.26	101.38
310.49	97.38
310.72	86.38
310.949	109.38
311.179	96.38
311.409	103.38
311.639	120.38
311.868	103.38
312.098	99.38
312.328	119.38
312.557	114.38
312.787	123.38
313.017	118.38
313.246	111.38
313.476	114.38
313.706	129.38
313.935	142.38
314.165	187.38
314.394	230.38
314.624	173.38
314.853	133.38
315.083	133.38
315.312	124.38
315.542	127.38
315.771	124.38
316.001	143.38
316.23	159.38
316.46	147.38
316.689	153.38
316.919	253.38
317.148	493.38
317.377	871.38
317.607	1480.38
317.836	1409.38
318.065	540.38
318.295	222.38
318.524	145.38
318.753	148.38
318.983	137.38
319.212	143.38
319.441	113.38
319.67	111.38
319.9	113.38
320.129	110.38
320.358	123.38
320.587	117.38
320.816	108.38
321.046	102.38
321.275	113.38
321.504	125.38
321.733	144.38
321.962	151.38
322.191	155.38
322.42	132.38
322.649	137.38
322.878	117.38
323.108	117.38
323.337	140.38
323.566	125.38
323.795	117.38
324.024	128.38
324.253	136.38
324.482	175.38
324.71	222.38
324.939	262.38
325.168	225.38
325.397	205.38
325.626	254.38
325.855	483.38
326.084	932.38
326.313	1592.38
326.542	1587.38
326.77	627.38
326.999	267.38
327.228	216.38
327.457	238.38
327.686	235.38
327.914	159.38
328.143	131.38
328.372	137.38
328.6	132.38
328.829	134.38
329.058	122.38
329.287	119.38
329.515	100.38
329.744	115.38
329.972	99.38
330.201	105.38
330.43	118.38
330.658	107.38
330.887	109.38
331.115	118.38
331.344	114.38
331.572	126.38
331.801	113.38
332.03	109.38
332.258	132.38
332.486	159.38
332.715	289.38
332.943	484.38
333.172	781.38
333.4	683.38
333.629	240.38
333.857	151.38
334.085	130.38
334.314	122.38
334.542	116.38
334.771	101.38
334.999	122.38
335.227	106.38
335.455	129.38
335.684	102.38
335.912	109.38
336.14	111.38
336.369	114.38
336.597	119.38
336.825	107.38
337.053	102.38
337.281	89.38
337.51	100.38
337.738	113.38
337.966	106.38
338.194	123.38
338.422	111.38
338.65	110.38
338.878	106.38
339.106	119.38
339.334	102.38
339.562	114.38
339.79	137.38
340.018	128.38
340.246	115.38
340.474	107.38
340.702	117.38
340.93	117.38
341.158	128.38
341.386	121.38
341.614	119.38
341.842	118.38
342.07	113.38
342.298	111.38
342.526	113.38
342.754	112.38
342.981	101.38
343.209	102.38
343.437	116.38
343.665	103.38
343.893	113.38
344.12	114.38
344.348	101.38
344.576	115.38
344.804	112.38
345.031	111.38
345.259	119.38
345.487	101.38
345.714	105.38
345.942	125.38
346.17	112.38
346.397	103.38
346.625	98.38
346.853	102.38
347.08	112.38
347.308	105.38
347.535	111.38
347.763	96.38
347.99	107.38
348.218	100.38
348.445	82.38
348.673	104.38
348.9	114.38
349.128	109.38
349.355	115.38
349.583	123.38
349.81	110.38
350.037	107.38
350.265	113.38
350.492	103.38
350.72	117.38
350.947	106.38
351.174	115.38
351.402	106.38
351.629	116.38
351.856	109.38
352.083	101.38
352.311	105.38
352.538	109.38
352.765	106.38
352.992	94.38
353.22	116.38
353.447	106.38
353.674	100.38
353.901	106.38
354.128	98.38
354.355	106.38
354.583	98.38
354.81	99.38
355.037	105.38
355.264	101.38
355.491	88.38
355.718	109.38
355.945	85.38
356.172	100.38
356.399	95.38
356.626	88.38
356.853	91.38
357.08	101.38
357.307	99.38
357.534	101.38
357.761	112.38
357.988	101.38
358.215	106.38
358.441	109.38
358.668	114.38
358.895	109.38
359.122	110.38
359.349	106.38
359.576	114.38
359.802	111.38
360.029	115.38
360.256	88.38
360.483	100.38
360.709	117.38
360.936	105.38
361.163	106.38
361.39	104.38
361.616	105.38
361.843	113.38
362.07	99.38
362.296	119.38
362.523	103.38
362.749	113.38
362.976	109.38
363.203	103.38
363.429	105.38
363.656	96.38
363.882	106.38
364.109	124.38
364.335	112.38
364.562	107.38
364.788	86.38
365.015	112.38
365.241	121.38
365.468	176.38
365.694	271.38
365.92	210.38
366.147	130.38
366.373	113.38
366.599	97.38
366.826	93.38
367.052	98.38
367.278	106.38
367.505	93.38
367.731	85.38
367.957	107.38
368.184	104.38
368.41	106.38
368.636	122.38
368.862	107.38
369.089	104.38
369.315	98.38
369.541	107.38
369.767	106.38
369.993	110.38
370.219	98.38
370.445	87.38
370.672	102.38
370.898	98.38
371.124	111.38
371.35	100.38
371.576	107.38
371.802	101.38
372.028	106.38
372.254	118.38
372.48	96.38
372.706	110.38
372.932	116.38
373.158	114.38
373.384	110.38
373.61	120.38
373.835	115.38
374.061	98.38
374.287	114.38
374.513	114.38
374.739	95.38
374.965	103.38
375.191	96.38
375.416	112.38
375.642	111.38
375.868	115.38
376.094	96.38
376.319	94.38
376.545	104.38
376.771	109.38
376.997	95.38
377.222	120.38
377.448	109.38
377.674	109.38
377.899	114.38
378.125	111.38
378.35	127.38
378.576	121.38
378.802	109.38
379.027	110.38
379.253	133.38
379.478	169.38
379.704	320.38
379.929	772.38
380.155	1537.38
380.38	1620.38
380.606	533.38
380.831	189.38
381.057	145.38
381.282	124.38
381.507	105.38
381.733	107.38
381.958	97.38
382.184	89.38
382.409	99.38
382.634	93.38
382.86	102.38
383.085	99.38
383.31	113.38
383.535	116.38
383.761	101.38
383.986	96.38
384.211	109.38
384.436	97.38
384.662	114.38
384.887	95.38
385.112	112.38
385.337	95.38
385.562	97.38
385.787	99.38
386.013	112.38
386.238	101.38
386.463	78.38
386.688	106.38
386.913	94.38
387.138	107.38
387.363	93.38
387.588	119.38
387.813	106.38
388.038	90.38
388.263	103.38
388.488	99.38
388.713	89.38
388.938	97.38
389.163	93.38
389.387	94.38
389.612	97.38
389.837	109.38
390.062	94.38
390.287	88.38
390.512	106.38
390.736	85.38
390.961	106.38
391.186	85.38
391.411	95.38
391.636	103.38
391.86	94.38
392.085	101.38
392.31	99.38
392.534	98.38
392.759	95.38
392.984	91.38
393.208	97.38
393.433	119.38
393.658	145.38
393.882	104.38
394.107	99.38
394.331	81.38
394.556	82.38
394.78	100.38
395.005	88.38
395.229	82.38
395.454	94.38
395.678	102.38
395.903	97.38
396.127	97.38
396.352	107.38
396.576	99.38
396.801	114.38
397.025	123.38
397.249	107.38
397.474	91.38
397.698	94.38
397.922	98.38
398.147	105.38
398.371	97.38
398.595	107.38
398.82	89.38
399.044	98.38
399.268	103.38
399.492	96.38
399.717	95.38
399.941	89.38
400.165	91.38
400.389	107.38
400.613	86.38
400.837	91.38
401.062	88.38
401.286	98.38
401.51	95.38
401.734	93.38
401.958	88.38
402.182	99.38
402.406	101.38
402.63	90.38
402.854	91.38
403.078	93.38
403.302	85.38
403.526	100.38
403.75	86.38
403.974	94.38
404.198	75.38
404.422	64.38
404.645	105.38
404.869	88.38
405.093	110.38
405.317	85.38
405.541	102.38
405.765	121.38
405.988	137.38
406.212	118.38
406.436	112.38
406.66	102.38
406.883	101.38
407.107	88.38
407.331	89.38
407.555	108.38
407.778	106.38
408.002	109.38
408.226	109.38
408.449	89.38
408.673	106.38
408.896	94.38
409.12	102.38
409.344	107.38
409.567	93.38
409.791	81.38
410.014	87.38
410.238	104.38
410.461	95.38
410.685	94.38
410.908	94.38
411.132	97.38
411.355	99.38
411.578	94.38
411.802	116.38
412.025	95.38
412.249	104.38
412.472	96.38
412.695	97.38
412.919	92.38
413.142	101.38
413.365	99.38
413.589	90.38
413.812	91.38
414.035	101.38
414.258	109.38
414.482	83.38
414.705	97.38
414.928	99.38
415.151	95.38
415.374	88.38
415.597	81.38
415.821	107.38
416.044	98.38
416.267	98.38
416.49	93.38
416.713	97.38
416.936	88.38
417.159	102.38
417.382	107.38
417.605	103.38
417.828	91.38
418.051	88.38
418.274	101.38
418.497	97.38
418.72	94.38
418.943	105.38
419.166	109.38
419.389	89.38
419.611	127.38
419.834	112.38
420.057	86.38
420.28	102.38
420.503	94.38
420.726	93.38
420.948	83.38
421.171	100.38
421.394	96.38
421.617	99.38
421.839	96.38
422.062	110.38
422.285	97.38
422.507	98.38
422.73	127.38
422.953	132.38
423.175	109.38
423.398	98.38
423.621	107.38
423.843	88.38
424.066	94.38
424.288	103.38
424.511	92.38
424.733	84.38
424.956	88.38
425.178	85.38
425.401	102.38
425.623	106.38
425.846	93.38
426.068	77.38
426.291	103.38
426.513	83.38
426.735	82.38
426.958	83.38
427.18	89.38
427.402	85.38
427.625	102.38
427.847	105.38
428.069	100.38
428.292	91.38
428.514	99.38
428.736	105.38
428.958	89.38
429.181	80.38
429.403	93.38
429.625	88.38
429.847	97.38
430.069	84.38
430.292	81.38
430.514	101.38
430.736	97.38
430.958	89.38
431.18	102.38
431.402	97.38
431.624	83.38
431.846	96.38
432.068	102.38
432.29	102.38
432.512	88.38
432.734	90.38
432.956	91.38
433.178	105.38
433.4	83.38
433.622	93.38
433.844	89.38
434.066	79.38
434.287	88.38
434.509	89.38
434.731	102.38
434.953	97.38
435.175	85.38
435.397	96.38
435.618	91.38
435.84	90.38
436.062	97.38
436.284	98.38
436.505	89.38
436.727	100.38
436.949	98.38
437.17	87.38
437.392	98.38
437.614	95.38
437.835	97.38
438.057	101.38
438.278	93.38
438.5	107.38
438.721	101.38
438.943	112.38
439.165	112.38
439.386	104.38
439.608	111.38
439.829	99.38
440.05	115.38
440.272	124.38
440.493	98.38
440.715	87.38
440.936	93.38
441.158	81.38
441.379	89.38
441.6	91.38
441.822	89.38
442.043	103.38
442.264	133.38
442.486	114.38
442.707	94.38
442.928	102.38
443.149	95.38
443.371	82.38
443.592	94.38
443.813	82.38
444.034	86.38
444.255	91.38
444.476	90.38
444.698	83.38
444.919	86.38
445.14	214.38
445.361	138.38
445.582	98.38
445.803	109.38
446.024	93.38
446.245	107.38
446.466	102.38
446.687	110.38
446.908	90.38
447.129	103.38
447.35	90.38
447.571	100.38
447.792	99.38
448.013	101.38
448.234	92.38
448.455	89.38
448.675	99.38
448.896	96.38
449.117	119.38
449.338	125.38
449.559	154.38
449.779	125.38
450	106.38
450.221	113.38
450.442	119.38
450.662	119.38
450.883	105.38
451.104	110.38
451.324	111.38
451.545	104.38
451.766	123.38
451.986	134.38
452.207	218.38
452.428	541.38
452.648	1316.38
452.869	781.38
453.089	205.38
453.31	131.38
453.53	123.38
453.751	154.38
453.971	152.38
454.192	151.38
454.412	109.38
454.633	110.38
454.853	91.38
455.073	107.38
455.294	97.38
455.514	99.38
455.734	96.38
455.955	86.38
456.175	81.38
456.395	101.38
456.616	103.38
456.836	75.38
457.056	110.38
457.276	101.38
457.497	115.38
457.717	127.38
457.937	89.38
458.157	98.38
458.377	87.38
458.598	93.38
458.818	86.38
459.038	81.38
459.258	89.38
459.478	93.38
459.698	85.38
459.918	82.38
460.138	73.38
460.358	93.38
460.578	89.38
460.798	64.38
461.018	90.38
461.238	81.38
461.458	97.38
461.678	95.38
461.898	97.38
462.118	91.38
462.338	109.38
462.558	88.38
462.777	97.38
462.997	89.38
463.217	99.38
463.437	129.38
463.657	176.38
463.876	173.38
464.096	110.38
464.316	103.38
464.536	98.38
464.755	86.38
464.975	85.38
465.195	97.38
465.414	91.38
465.634	112.38
465.854	86.38
466.073	98.38
466.293	88.38
466.512	79.38
466.732	94.38
466.951	110.38
467.171	145.38
467.391	123.38
467.61	103.38
467.829	96.38
468.049	110.38
468.268	93.38
468.488	96.38
468.707	88.38
468.927	103.38
469.146	103.38
469.365	91.38
469.585	88.38
469.804	93.38
470.023	93.38
470.243	88.38
470.462	104.38
470.681	120.38
470.901	121.38
471.12	200.38
471.339	206.38
471.558	131.38
471.777	104.38
471.997	109.38
472.216	91.38
472.435	96.38
472.654	97.38
472.873	102.38
473.092	92.38
473.311	84.38
473.53	95.38
473.749	105.38
473.968	109.38
474.187	98.38
474.406	90.38
474.625	85.38
474.844	100.38
475.063	81.38
475.282	104.38
475.501	85.38
475.72	95.38
475.939	91.38
476.158	97.38
476.377	114.38
476.596	104.38
476.814	107.38
477.033	95.38
477.252	109.38
477.471	92.38
477.69	95.38
477.908	98.38
478.127	97.38
478.346	94.38
478.564	98.38
478.783	97.38
479.002	90.38
479.22	91.38
479.439	101.38
479.658	91.38
479.876	89.38
480.095	89.38
480.313	98.38
480.532	92.38
480.751	96.38
480.969	90.38
481.188	84.38
481.406	98.38
481.624	96.38
481.843	113.38
482.061	106.38
482.28	113.38
482.498	90.38
482.717	96.38
482.935	103.38
483.153	97.38
483.372	98.38
483.59	94.38
483.808	102.38
484.027	101.38
484.245	121.38
484.463	188.38
484.681	237.38
484.9	157.38
485.118	101.38
485.336	112.38
485.554	114.38
485.772	132.38
485.99	187.38
486.209	256.38
486.427	163.38
486.645	113.38
486.863	106.38
487.081	103.38
487.299	97.38
487.517	85.38
487.735	98.38
487.953	112.38
488.171	111.38
488.389	110.38
488.607	89.38
488.825	92.38
489.043	97.38
489.261	103.38
489.479	88.38
489.696	115.38
489.914	82.38
490.132	91.38
490.35	98.38
490.568	110.38
490.786	97.38
491.003	111.38
491.221	97.38
491.439	122.38
491.657	93.38
491.874	98.38
492.092	115.38
492.31	102.38
492.527	88.38
492.745	112.38
492.963	96.38
493.18	105.38
493.398	99.38
493.615	98.38
493.833	95.38
494.05	95.38
494.268	107.38
494.485	100.38
494.703	99.38
494.92	102.38
495.138	108.38
495.355	105.38
495.573	97.38
495.79	101.38
496.008	114.38
496.225	106.38
496.442	94.38
496.66	127.38
496.877	159.38
497.094	153.38
497.312	113.38
497.529	114.38
497.746	107.38
497.963	109.38
498.181	107.38
498.398	101.38
498.615	113.38
498.832	108.38
499.049	96.38
499.267	137.38
499.484	157.38
499.701	123.38
499.918	116.38
500.135	96.38
500.352	99.38
500.569	97.38
500.786	106.38
501.003	97.38
501.22	106.38
501.437	100.38
501.654	89.38
501.871	88.38
502.088	86.38
502.305	91.38
502.522	95.38
502.739	101.38
502.956	98.38
503.172	91.38
503.389	91.38
503.606	95.38
503.823	102.38
504.04	100.38
504.256	85.38
504.473	102.38
504.69	102.38
504.907	113.38
505.123	117.38
505.34	100.38
505.557	94.38
505.773	85.38
505.99	93.38
506.207	97.38
506.423	91.38
506.64	100.38
506.856	93.38
507.073	113.38
507.289	90.38
507.506	91.38
507.722	103.38
507.939	93.38
508.155	95.38
508.372	83.38
508.588	88.38
508.805	82.38
509.021	93.38
509.238	98.38
509.454	135.38
509.67	160.38
