Data from SnStandardFlinnAPT0064_QswitchEnergy10_LIBS07252019.E.O._I.C._HRD10591_15-26-52-973.txt Node
Date: Thu Jul 25 15:26:52 EDT 2019
User: cochatt
Spectrometer: HR+D1059
Trigger mode: 1
Integration Time (sec): 1.000000E-1
Scans to average: 1
Electric dark correction enabled: true
Nonlinearity correction enabled: false
Boxcar width: 0
XAxis mode: Wavelengths
Number of Pixels in Spectrum: 2048
>>>>>Begin Spectral Data<<<<<
223.165	-20.5
223.4	-20.5
223.635	-20.5
223.869	-13.5
224.104	-24.5
224.338	-9.5
224.573	-24.5
224.808	-2.5
225.042	-14.5
225.277	7.5
225.511	11.5
225.746	2.5
225.98	-5.5
226.215	7.5
226.449	11.5
226.683	-0.5
226.918	19.5
227.152	55.5
227.387	36.5
227.621	28.5
227.856	43.5
228.09	45.5
228.324	50.5
228.559	58.5
228.793	56.5
229.027	69.5
229.262	76.5
229.496	93.5
229.73	66.5
229.964	87.5
230.199	73.5
230.433	93.5
230.667	81.5
230.901	88.5
231.136	79.5
231.37	88.5
231.604	86.5
231.838	102.5
232.072	114.5
232.306	122.5
232.541	98.5
232.775	86.5
233.009	84.5
233.243	91.5
233.477	85.5
233.711	89.5
233.945	114.5
234.179	87.5
234.413	86.5
234.647	97.5
234.881	68.5
235.115	90.5
235.349	84.5
235.583	99.5
235.817	138.5
236.051	132.5
236.285	98.5
236.519	93.5
236.753	83.5
236.987	85.5
237.221	71.5
237.455	96.5
237.689	77.5
237.922	95.5
238.156	83.5
238.39	86.5
238.624	84.5
238.858	76.5
239.091	81.5
239.325	88.5
239.559	89.5
239.793	67.5
240.027	85.5
240.26	81.5
240.494	79.5
240.728	82.5
240.961	77.5
241.195	98.5
241.429	74.5
241.662	87.5
241.896	94.5
242.13	100.5
242.363	116.5
242.597	153.5
242.83	140.5
243.064	132.5
243.298	175.5
243.531	163.5
243.765	108.5
243.998	83.5
244.232	88.5
244.465	94.5
244.699	75.5
244.932	83.5
245.166	82.5
245.399	85.5
245.633	75.5
245.866	88.5
246.099	85.5
246.333	86.5
246.566	75.5
246.8	74.5
247.033	77.5
247.266	78.5
247.5	74.5
247.733	102.5
247.966	88.5
248.2	95.5
248.433	115.5
248.666	130.5
248.899	106.5
249.133	91.5
249.366	101.5
249.599	99.5
249.832	122.5
250.066	125.5
250.299	94.5
250.532	79.5
250.765	87.5
250.998	70.5
251.231	90.5
251.465	83.5
251.698	60.5
251.931	80.5
252.164	79.5
252.397	86.5
252.63	100.5
252.863	115.5
253.096	79.5
253.329	98.5
253.562	91.5
253.795	83.5
254.028	85.5
254.261	89.5
254.494	97.5
254.727	122.5
254.96	131.5
255.193	138.5
255.426	107.5
255.659	88.5
255.892	99.5
256.124	103.5
256.357	91.5
256.59	90.5
256.823	85.5
257.056	106.5
257.289	154.5
257.521	187.5
257.754	121.5
257.987	105.5
258.22	95.5
258.452	96.5
258.685	81.5
258.918	93.5
259.151	98.5
259.383	118.5
259.616	149.5
259.849	155.5
260.081	101.5
260.314	85.5
260.547	81.5
260.779	87.5
261.012	78.5
261.244	86.5
261.477	81.5
261.71	83.5
261.942	90.5
262.175	98.5
262.407	76.5
262.64	97.5
262.872	80.5
263.105	81.5
263.337	89.5
263.57	82.5
263.802	75.5
264.035	90.5
264.267	85.5
264.499	84.5
264.732	88.5
264.964	75.5
265.197	96.5
265.429	77.5
265.661	85.5
265.894	112.5
266.126	126.5
266.358	140.5
266.591	139.5
266.823	103.5
267.055	75.5
267.287	81.5
267.52	87.5
267.752	90.5
267.984	84.5
268.216	90.5
268.448	80.5
268.681	84.5
268.913	100.5
269.145	86.5
269.377	83.5
269.609	85.5
269.841	87.5
270.073	99.5
270.306	123.5
270.538	203.5
270.77	321.5
271.002	385.5
271.234	191.5
271.466	103.5
271.698	105.5
271.93	104.5
272.162	97.5
272.394	96.5
272.626	79.5
272.858	85.5
273.09	94.5
273.322	97.5
273.553	71.5
273.785	94.5
274.017	81.5
274.249	78.5
274.481	90.5
274.713	77.5
274.945	83.5
275.176	87.5
275.408	84.5
275.64	73.5
275.872	86.5
276.104	102.5
276.335	103.5
276.567	103.5
276.799	103.5
277.031	89.5
277.262	98.5
277.494	117.5
277.726	121.5
277.957	176.5
278.189	261.5
278.421	241.5
278.652	214.5
278.884	175.5
279.115	149.5
279.347	118.5
279.579	91.5
279.81	99.5
280.042	100.5
280.273	87.5
280.505	93.5
280.736	125.5
280.968	119.5
281.199	168.5
281.431	257.5
281.662	250.5
281.894	165.5
282.125	120.5
282.356	113.5
282.588	114.5
282.819	113.5
283.051	120.5
283.282	127.5
283.513	183.5
283.745	309.5
283.976	533.5
284.207	771.5
284.439	623.5
284.67	267.5
284.901	265.5
285.132	351.5
285.364	386.5
285.595	233.5
285.826	175.5
286.057	248.5
286.288	413.5
286.52	615.5
286.751	502.5
286.982	193.5
287.213	123.5
287.444	124.5
287.675	97.5
287.906	89.5
288.138	88.5
288.369	92.5
288.6	92.5
288.831	80.5
289.062	93.5
289.293	102.5
289.524	89.5
289.755	95.5
289.986	94.5
290.217	106.5
290.448	100.5
290.679	95.5
290.91	122.5
291.141	175.5
291.371	242.5
291.602	281.5
291.833	197.5
292.064	131.5
292.295	89.5
292.526	106.5
292.757	94.5
292.987	93.5
293.218	87.5
293.449	94.5
293.68	97.5
293.91	98.5
294.141	84.5
294.372	87.5
294.603	87.5
294.833	101.5
295.064	94.5
295.295	86.5
295.525	92.5
295.756	88.5
295.987	102.5
296.217	111.5
296.448	98.5
296.679	84.5
296.909	79.5
297.14	96.5
297.37	108.5
297.601	100.5
297.831	89.5
298.062	87.5
298.292	107.5
298.523	96.5
298.753	95.5
298.984	104.5
299.214	100.5
299.445	103.5
299.675	121.5
299.905	120.5
300.136	122.5
300.366	175.5
300.597	278.5
300.827	452.5
301.057	673.5
301.288	626.5
301.518	263.5
301.748	158.5
301.979	131.5
302.209	131.5
302.439	140.5
302.669	163.5
302.9	266.5
303.13	522.5
303.36	884.5
303.59	1267.5
303.82	878.5
304.051	298.5
304.281	157.5
304.511	125.5
304.741	122.5
304.971	111.5
305.201	98.5
305.431	113.5
305.661	116.5
305.891	115.5
306.121	112.5
306.352	114.5
306.582	98.5
306.812	107.5
307.042	108.5
307.272	100.5
307.502	94.5
307.731	105.5
307.961	109.5
308.191	112.5
308.421	102.5
308.651	109.5
308.881	112.5
309.111	101.5
309.341	98.5
309.571	109.5
309.8	102.5
310.03	112.5
310.26	97.5
310.49	100.5
310.72	115.5
310.949	100.5
311.179	113.5
311.409	106.5
311.639	107.5
311.868	97.5
312.098	109.5
312.328	107.5
312.557	121.5
312.787	127.5
313.017	115.5
313.246	114.5
313.476	136.5
313.706	123.5
313.935	149.5
314.165	212.5
314.394	245.5
314.624	170.5
314.853	121.5
315.083	119.5
315.312	129.5
315.542	127.5
315.771	134.5
316.001	128.5
316.23	131.5
316.46	148.5
316.689	179.5
316.919	274.5
317.148	480.5
317.377	917.5
317.607	1497.5
317.836	1393.5
318.065	543.5
318.295	224.5
318.524	151.5
318.753	131.5
318.983	126.5
319.212	130.5
319.441	128.5
319.67	119.5
319.9	126.5
320.129	131.5
320.358	125.5
320.587	122.5
320.816	121.5
321.046	129.5
321.275	115.5
321.504	119.5
321.733	142.5
321.962	178.5
322.191	167.5
322.42	147.5
322.649	131.5
322.878	130.5
323.108	111.5
323.337	117.5
323.566	126.5
323.795	127.5
324.024	145.5
324.253	139.5
324.482	176.5
324.71	231.5
324.939	272.5
325.168	217.5
325.397	182.5
325.626	243.5
325.855	502.5
326.084	941.5
326.313	1621.5
326.542	1554.5
326.77	606.5
326.999	262.5
327.228	210.5
327.457	240.5
327.686	228.5
327.914	155.5
328.143	136.5
328.372	137.5
328.6	139.5
328.829	113.5
329.058	116.5
329.287	122.5
329.515	121.5
329.744	108.5
329.972	105.5
330.201	120.5
330.43	114.5
330.658	114.5
330.887	122.5
331.115	117.5
331.344	109.5
331.572	109.5
331.801	113.5
332.03	124.5
332.258	143.5
332.486	170.5
332.715	278.5
332.943	521.5
333.172	766.5
333.4	670.5
333.629	256.5
333.857	150.5
334.085	125.5
334.314	120.5
334.542	123.5
334.771	103.5
334.999	100.5
335.227	111.5
335.455	129.5
335.684	113.5
335.912	121.5
336.14	110.5
336.369	120.5
336.597	107.5
336.825	104.5
337.053	110.5
337.281	125.5
337.51	106.5
337.738	103.5
337.966	96.5
338.194	110.5
338.422	121.5
338.65	105.5
338.878	113.5
339.106	119.5
339.334	123.5
339.562	117.5
339.79	117.5
340.018	117.5
340.246	103.5
340.474	115.5
340.702	117.5
340.93	103.5
341.158	122.5
341.386	114.5
341.614	116.5
341.842	119.5
342.07	122.5
342.298	111.5
342.526	107.5
342.754	123.5
342.981	109.5
343.209	105.5
343.437	123.5
343.665	109.5
343.893	115.5
344.12	113.5
344.348	110.5
344.576	113.5
344.804	120.5
345.031	104.5
345.259	117.5
345.487	111.5
345.714	115.5
345.942	117.5
346.17	112.5
346.397	99.5
346.625	106.5
346.853	106.5
347.08	119.5
347.308	102.5
347.535	102.5
347.763	106.5
347.99	102.5
348.218	111.5
348.445	115.5
348.673	117.5
348.9	127.5
349.128	125.5
349.355	99.5
349.583	100.5
349.81	119.5
350.037	105.5
350.265	116.5
350.492	93.5
350.72	117.5
350.947	115.5
351.174	114.5
351.402	129.5
351.629	113.5
351.856	105.5
352.083	118.5
352.311	110.5
352.538	113.5
352.765	105.5
352.992	87.5
353.22	103.5
353.447	102.5
353.674	104.5
353.901	89.5
354.128	97.5
354.355	107.5
354.583	105.5
354.81	128.5
355.037	107.5
355.264	113.5
355.491	120.5
355.718	91.5
355.945	104.5
356.172	95.5
356.399	102.5
356.626	116.5
356.853	111.5
357.08	100.5
357.307	99.5
357.534	107.5
357.761	101.5
357.988	109.5
358.215	95.5
358.441	110.5
358.668	113.5
358.895	117.5
359.122	115.5
359.349	120.5
359.576	121.5
359.802	111.5
360.029	117.5
360.256	103.5
360.483	109.5
360.709	95.5
360.936	128.5
361.163	116.5
361.39	101.5
361.616	106.5
361.843	112.5
362.07	109.5
362.296	109.5
362.523	122.5
362.749	117.5
362.976	108.5
363.203	111.5
363.429	96.5
363.656	103.5
363.882	119.5
364.109	114.5
364.335	131.5
364.562	104.5
364.788	97.5
365.015	106.5
365.241	147.5
365.468	189.5
365.694	277.5
365.92	222.5
366.147	115.5
366.373	100.5
366.599	106.5
366.826	99.5
367.052	106.5
367.278	95.5
367.505	110.5
367.731	103.5
367.957	121.5
368.184	116.5
368.41	117.5
368.636	131.5
368.862	110.5
369.089	95.5
369.315	111.5
369.541	97.5
369.767	116.5
369.993	102.5
370.219	95.5
370.445	102.5
370.672	102.5
370.898	103.5
371.124	91.5
371.35	96.5
371.576	109.5
371.802	109.5
372.028	118.5
372.254	119.5
372.48	101.5
372.706	120.5
372.932	103.5
373.158	115.5
373.384	123.5
373.61	115.5
373.835	120.5
374.061	123.5
374.287	121.5
374.513	110.5
374.739	128.5
374.965	118.5
375.191	108.5
375.416	107.5
375.642	109.5
375.868	107.5
376.094	98.5
376.319	118.5
376.545	106.5
376.771	125.5
376.997	106.5
377.222	104.5
377.448	105.5
377.674	86.5
377.899	91.5
378.125	105.5
378.35	118.5
378.576	120.5
378.802	113.5
379.027	104.5
379.253	125.5
379.478	180.5
379.704	320.5
379.929	781.5
380.155	1611.5
380.38	1633.5
380.606	549.5
380.831	191.5
381.057	140.5
381.282	118.5
381.507	123.5
381.733	115.5
381.958	115.5
382.184	104.5
382.409	111.5
382.634	103.5
382.86	103.5
383.085	106.5
383.31	91.5
383.535	101.5
383.761	119.5
383.986	117.5
384.211	98.5
384.436	94.5
384.662	97.5
384.887	94.5
385.112	94.5
385.337	116.5
385.562	93.5
385.787	107.5
386.013	106.5
386.238	98.5
386.463	98.5
386.688	114.5
386.913	105.5
387.138	109.5
387.363	107.5
387.588	102.5
387.813	98.5
388.038	122.5
388.263	110.5
388.488	115.5
388.713	96.5
388.938	89.5
389.163	104.5
389.387	111.5
389.612	91.5
389.837	94.5
390.062	100.5
390.287	113.5
390.512	116.5
390.736	109.5
390.961	118.5
391.186	109.5
391.411	98.5
391.636	98.5
391.86	106.5
392.085	103.5
392.31	110.5
392.534	111.5
392.759	88.5
392.984	92.5
393.208	121.5
393.433	140.5
393.658	138.5
393.882	101.5
394.107	103.5
394.331	96.5
394.556	97.5
394.78	104.5
395.005	93.5
395.229	105.5
395.454	83.5
395.678	105.5
395.903	95.5
396.127	108.5
396.352	109.5
396.576	116.5
396.801	122.5
397.025	120.5
397.249	116.5
397.474	102.5
397.698	98.5
397.922	93.5
398.147	99.5
398.371	101.5
398.595	103.5
398.82	109.5
399.044	86.5
399.268	92.5
399.492	99.5
399.717	111.5
399.941	105.5
400.165	98.5
400.389	99.5
400.613	88.5
400.837	102.5
401.062	99.5
401.286	98.5
401.51	83.5
401.734	86.5
401.958	98.5
402.182	91.5
402.406	98.5
402.63	93.5
402.854	96.5
403.078	86.5
403.302	94.5
403.526	111.5
403.75	99.5
403.974	91.5
404.198	99.5
404.422	96.5
404.645	102.5
404.869	105.5
405.093	96.5
405.317	113.5
405.541	93.5
405.765	131.5
405.988	148.5
406.212	121.5
406.436	91.5
406.66	100.5
406.883	94.5
407.107	99.5
407.331	110.5
407.555	99.5
407.778	90.5
408.002	108.5
408.226	105.5
408.449	114.5
408.673	115.5
408.896	99.5
409.12	97.5
409.344	76.5
409.567	100.5
409.791	101.5
410.014	101.5
410.238	107.5
410.461	98.5
410.685	87.5
410.908	85.5
411.132	105.5
411.355	101.5
411.578	89.5
411.802	97.5
412.025	111.5
412.249	101.5
412.472	94.5
412.695	83.5
412.919	84.5
413.142	105.5
413.365	80.5
413.589	87.5
413.812	110.5
414.035	109.5
414.258	107.5
414.482	85.5
414.705	88.5
414.928	104.5
415.151	114.5
415.374	94.5
415.597	95.5
415.821	88.5
416.044	94.5
416.267	95.5
416.49	96.5
416.713	93.5
416.936	113.5
417.159	86.5
417.382	111.5
417.605	95.5
417.828	87.5
418.051	94.5
418.274	89.5
418.497	102.5
418.72	100.5
418.943	106.5
419.166	104.5
419.389	114.5
419.611	105.5
419.834	100.5
420.057	103.5
420.28	97.5
420.503	92.5
420.726	90.5
420.948	93.5
421.171	95.5
421.394	102.5
421.617	96.5
421.839	80.5
422.062	90.5
422.285	102.5
422.507	103.5
422.73	125.5
422.953	141.5
423.175	117.5
423.398	94.5
423.621	98.5
423.843	78.5
424.066	102.5
424.288	96.5
424.511	82.5
424.733	98.5
424.956	94.5
425.178	93.5
425.401	98.5
425.623	88.5
425.846	93.5
426.068	105.5
426.291	84.5
426.513	85.5
426.735	86.5
426.958	82.5
427.18	95.5
427.402	87.5
427.625	108.5
427.847	101.5
428.069	89.5
428.292	98.5
428.514	98.5
428.736	111.5
428.958	103.5
429.181	95.5
429.403	113.5
429.625	94.5
429.847	94.5
430.069	105.5
430.292	124.5
430.514	103.5
430.736	94.5
430.958	95.5
431.18	92.5
431.402	81.5
431.624	99.5
431.846	106.5
432.068	90.5
432.29	92.5
432.512	91.5
432.734	85.5
432.956	97.5
433.178	90.5
433.4	88.5
433.622	97.5
433.844	96.5
434.066	82.5
434.287	82.5
434.509	114.5
434.731	87.5
434.953	75.5
435.175	95.5
435.397	98.5
435.618	102.5
435.84	88.5
436.062	92.5
436.284	88.5
436.505	97.5
436.727	98.5
436.949	96.5
437.17	85.5
437.392	80.5
437.614	98.5
437.835	88.5
438.057	85.5
438.278	104.5
438.5	106.5
438.721	102.5
438.943	95.5
439.165	115.5
439.386	121.5
439.608	99.5
439.829	102.5
440.05	105.5
440.272	122.5
440.493	105.5
440.715	84.5
440.936	88.5
441.158	116.5
441.379	89.5
441.6	92.5
441.822	108.5
442.043	117.5
442.264	138.5
442.486	104.5
442.707	96.5
442.928	105.5
443.149	98.5
443.371	97.5
443.592	90.5
443.813	90.5
444.034	112.5
444.255	87.5
444.476	98.5
444.698	98.5
444.919	88.5
445.14	214.5
445.361	136.5
445.582	99.5
445.803	88.5
446.024	109.5
446.245	93.5
446.466	117.5
446.687	101.5
446.908	103.5
447.129	102.5
447.35	101.5
447.571	94.5
447.792	95.5
448.013	92.5
448.234	92.5
448.455	83.5
448.675	89.5
448.896	107.5
449.117	113.5
449.338	106.5
449.559	171.5
449.779	128.5
450	114.5
450.221	111.5
450.442	125.5
450.662	127.5
450.883	101.5
451.104	119.5
451.324	121.5
451.545	119.5
451.766	120.5
451.986	131.5
452.207	217.5
452.428	552.5
452.648	1389.5
452.869	768.5
453.089	216.5
453.31	128.5
453.53	146.5
453.751	171.5
453.971	161.5
454.192	161.5
454.412	110.5
454.633	105.5
454.853	85.5
455.073	90.5
455.294	102.5
455.514	106.5
455.734	97.5
455.955	90.5
456.175	90.5
456.395	86.5
456.616	80.5
456.836	104.5
457.056	95.5
457.276	107.5
457.497	98.5
457.717	116.5
457.937	97.5
458.157	97.5
458.377	105.5
458.598	86.5
458.818	82.5
459.038	90.5
459.258	88.5
459.478	90.5
459.698	87.5
459.918	81.5
460.138	99.5
460.358	98.5
460.578	94.5
460.798	90.5
461.018	90.5
461.238	90.5
461.458	98.5
461.678	110.5
461.898	94.5
462.118	96.5
462.338	101.5
462.558	80.5
462.777	99.5
462.997	104.5
463.217	111.5
463.437	136.5
463.657	192.5
463.876	202.5
464.096	122.5
464.316	103.5
464.536	89.5
464.755	101.5
464.975	97.5
465.195	97.5
465.414	99.5
465.634	87.5
465.854	98.5
466.073	99.5
466.293	90.5
466.512	96.5
466.732	92.5
466.951	115.5
467.171	140.5
467.391	143.5
467.61	107.5
467.829	98.5
468.049	100.5
468.268	100.5
468.488	89.5
468.707	89.5
468.927	96.5
469.146	96.5
469.365	93.5
469.585	101.5
469.804	91.5
470.023	96.5
470.243	103.5
470.462	95.5
470.681	110.5
470.901	140.5
471.12	193.5
471.339	209.5
471.558	137.5
471.777	126.5
471.997	82.5
472.216	105.5
472.435	98.5
472.654	104.5
472.873	104.5
473.092	101.5
473.311	95.5
473.53	94.5
473.749	98.5
473.968	116.5
474.187	98.5
474.406	95.5
474.625	93.5
474.844	86.5
475.063	106.5
475.282	86.5
475.501	100.5
475.72	87.5
475.939	87.5
476.158	98.5
476.377	106.5
476.596	100.5
476.814	102.5
477.033	104.5
477.252	84.5
477.471	104.5
477.69	101.5
477.908	101.5
478.127	101.5
478.346	92.5
478.564	98.5
478.783	99.5
479.002	106.5
479.22	90.5
479.439	109.5
479.658	97.5
479.876	83.5
480.095	94.5
480.313	85.5
480.532	95.5
480.751	95.5
480.969	95.5
481.188	90.5
481.406	89.5
481.624	95.5
481.843	120.5
482.061	117.5
482.28	88.5
482.498	91.5
482.717	83.5
482.935	94.5
483.153	90.5
483.372	82.5
483.59	100.5
483.808	91.5
484.027	110.5
484.245	131.5
484.463	193.5
484.681	246.5
484.9	173.5
485.118	119.5
485.336	123.5
485.554	116.5
485.772	122.5
485.99	169.5
486.209	256.5
486.427	148.5
486.645	120.5
486.863	105.5
487.081	104.5
487.299	107.5
487.517	93.5
487.735	97.5
487.953	91.5
488.171	101.5
488.389	100.5
488.607	97.5
488.825	92.5
489.043	102.5
489.261	90.5
489.479	84.5
489.696	89.5
489.914	85.5
490.132	97.5
490.35	117.5
490.568	99.5
490.786	109.5
491.003	103.5
491.221	119.5
491.439	115.5
491.657	104.5
491.874	103.5
492.092	130.5
492.31	111.5
492.527	103.5
492.745	101.5
492.963	103.5
493.18	103.5
493.398	100.5
493.615	110.5
493.833	102.5
494.05	98.5
494.268	101.5
494.485	96.5
494.703	112.5
494.92	88.5
495.138	101.5
495.355	119.5
495.573	107.5
495.79	100.5
496.008	98.5
496.225	110.5
496.442	109.5
496.66	117.5
496.877	137.5
497.094	166.5
497.312	105.5
497.529	102.5
497.746	105.5
497.963	114.5
498.181	99.5
498.398	106.5
498.615	104.5
498.832	94.5
499.049	100.5
499.267	123.5
499.484	161.5
499.701	124.5
499.918	114.5
500.135	111.5
500.352	103.5
500.569	113.5
500.786	106.5
501.003	101.5
501.22	113.5
501.437	103.5
501.654	104.5
501.871	110.5
502.088	105.5
502.305	107.5
502.522	111.5
502.739	95.5
502.956	101.5
503.172	90.5
503.389	96.5
503.606	99.5
503.823	109.5
504.04	101.5
504.256	104.5
504.473	105.5
504.69	109.5
504.907	106.5
505.123	114.5
505.34	102.5
505.557	104.5
505.773	99.5
505.99	94.5
506.207	109.5
506.423	96.5
506.64	109.5
506.856	98.5
507.073	103.5
507.289	101.5
507.506	86.5
507.722	92.5
507.939	92.5
508.155	93.5
508.372	92.5
508.588	86.5
508.805	83.5
509.021	104.5
509.238	109.5
509.454	131.5
509.67	164.5
509.887	120.5
510.103	109.5
510.319	88.5
510.536	94.5
510.752	104.5
510.968	113.5
511.184	112.5
511.401	99.5
511.617	101.5
511.833	92.5
512.049	88.5
512.265	86.5
512.481	94.5
512.698	96.5
512.914	105.5
513.13	95.5
513.346	95.5
513.562	105.5
513.778	91.5
513.994	94.5
514.21	111.5
514.426	143.5
514.642	182.5
514.858	110.5
515.074	94.5
515.29	103.5
515.506	94.5
515.721	95.5
515.937	83.5
516.153	90.5
516.369	109.5
516.585	109.5
516.801	100.5
517.016	101.5
517.232	96.5
517.448	100.5
517.664	111.5
517.879	98.5
518.095	114.5
518.311	87.5
518.527	105.5
518.742	102.5
518.958	125.5
519.173	161.5
519.389	125.5
519.605	99.5
519.82	103.5
520.036	91.5
520.251	103.5
520.467	98.5
520.682	96.5
520.898	92.5
521.113	89.5
521.329	99.5
521.544	94.5
521.76	94.5
521.975	103.5
522.19	118.5
522.406	93.5
522.621	97.5
522.836	89.5
523.052	94.5
523.267	106.5
523.482	89.5
523.698	98.5
523.913	102.5
524.128	97.5
524.343	103.5
524.559	95.5
524.774	89.5
524.989	100.5
525.204	99.5
525.419	104.5
525.634	101.5
525.849	99.5
526.064	100.5
526.28	91.5
526.495	85.5
526.71	102.5
526.925	98.5
527.14	100.5
527.355	100.5
527.57	95.5
