Data from SnStandardFlinnAPT0064_LampEnergy10_LIBS07252019.E.O._I.C._HRD10591_15-19-50-493.txt Node
Date: Thu Jul 25 15:19:50 EDT 2019
User: cochatt
Spectrometer: HR+D1059
Trigger mode: 1
Integration Time (sec): 1.000000E-1
Scans to average: 1
Electric dark correction enabled: true
Nonlinearity correction enabled: false
Boxcar width: 0
XAxis mode: Wavelengths
Number of Pixels in Spectrum: 2048
>>>>>Begin Spectral Data<<<<<
223.165	-4.44
223.4	-4.44
223.635	-4.44
223.869	-21.44
224.104	-6.44
224.338	-23.44
224.573	-14.44
224.808	-13.44
225.042	-3.44
225.277	-6.44
225.511	-6.44
225.746	4.56
225.98	0.56
226.215	24.56
226.449	12.56
226.683	8.56
226.918	18.56
227.152	30.56
227.387	19.56
227.621	38.56
227.856	47.56
228.09	32.56
228.324	62.56
228.559	45.56
228.793	121.56
229.027	335.56
229.262	363.56
229.496	321.56
229.73	306.56
229.964	297.56
230.199	301.56
230.433	311.56
230.667	305.56
230.901	326.56
231.136	334.56
231.37	361.56
231.604	410.56
231.838	441.56
232.072	528.56
232.306	557.56
232.541	495.56
232.775	437.56
233.009	455.56
233.243	432.56
233.477	463.56
233.711	557.56
233.945	600.56
234.179	524.56
234.413	489.56
234.647	471.56
234.881	498.56
235.115	556.56
235.349	650.56
235.583	794.56
235.817	1045.56
236.051	1020.56
236.285	684.56
236.519	548.56
236.753	513.56
236.987	535.56
237.221	549.56
237.455	516.56
237.689	470.56
237.922	489.56
238.156	491.56
238.39	481.56
238.624	505.56
238.858	517.56
239.091	502.56
239.325	481.56
239.559	516.56
239.793	522.56
240.027	551.56
240.26	549.56
240.494	583.56
240.728	610.56
240.961	663.56
241.195	654.56
241.429	703.56
241.662	730.56
241.896	833.56
242.13	988.56
242.363	1283.56
242.597	1666.56
242.83	1610.56
243.064	1604.56
243.298	1863.56
243.531	1543.56
243.765	997.56
243.998	815.56
244.232	713.56
244.465	664.56
244.699	669.56
244.932	663.56
245.166	692.56
245.399	705.56
245.633	669.56
245.866	704.56
246.099	674.56
246.333	679.56
246.566	645.56
246.8	668.56
247.033	646.56
247.266	674.56
247.5	678.56
247.733	669.56
247.966	724.56
248.2	767.56
248.433	898.56
248.666	1021.56
248.899	1008.56
249.133	884.56
249.366	886.56
249.599	956.56
249.832	1093.56
250.066	1092.56
250.299	874.56
250.532	784.56
250.765	758.56
250.998	749.56
251.231	759.56
251.465	758.56
251.698	767.56
251.931	748.56
252.164	735.56
252.397	788.56
252.63	802.56
252.863	820.56
253.096	818.56
253.329	802.56
253.562	773.56
253.795	792.56
254.028	792.56
254.261	816.56
254.494	900.56
254.727	1054.56
254.96	1283.56
255.193	1223.56
255.426	1010.56
255.659	901.56
255.892	885.56
256.124	902.56
256.357	911.56
256.59	932.56
256.823	978.56
257.056	1125.56
257.289	1394.56
257.521	1564.56
257.754	1243.56
257.987	1012.56
258.22	960.56
258.452	941.56
258.685	938.56
258.918	939.56
259.151	1024.56
259.383	1101.56
259.616	1246.56
259.849	1310.56
260.081	1114.56
260.314	978.56
260.547	989.56
260.779	953.56
261.012	969.56
261.244	937.56
261.477	961.56
261.71	993.56
261.942	984.56
262.175	988.56
262.407	1042.56
262.64	1088.56
262.872	1132.56
263.105	1140.56
263.337	1198.56
263.57	1278.56
263.802	1278.56
264.035	1282.56
264.267	1327.56
264.499	1367.56
264.732	1411.56
264.964	1426.56
265.197	1423.56
265.429	1460.56
265.661	1463.56
265.894	1557.56
266.126	1749.56
266.358	1957.56
266.591	1918.56
266.823	1610.56
267.055	1510.56
267.287	1364.56
267.52	1340.56
267.752	1310.56
267.984	1286.56
268.216	1232.56
268.448	1231.56
268.681	1268.56
268.913	1217.56
269.145	1207.56
269.377	1231.56
269.609	1254.56
269.841	1265.56
270.073	1425.56
270.306	1676.56
270.538	2221.56
270.77	3321.56
271.002	4091.56
271.234	2919.56
271.466	1956.56
271.698	1576.56
271.93	1465.56
272.162	1326.56
272.394	1296.56
272.626	1261.56
272.858	1230.56
273.09	1248.56
273.322	1246.56
273.553	1209.56
273.785	1207.56
274.017	1184.56
274.249	1195.56
274.481	1180.56
274.713	1196.56
274.945	1229.56
275.176	1238.56
275.408	1222.56
275.64	1206.56
275.872	1245.56
276.104	1262.56
276.335	1276.56
276.567	1296.56
276.799	1270.56
277.031	1298.56
277.262	1305.56
277.494	1435.56
277.726	1614.56
277.957	1913.56
278.189	2181.56
278.421	2061.56
278.652	1821.56
278.884	1745.56
279.115	1518.56
279.347	1450.56
279.579	1412.56
279.81	1405.56
280.042	1413.56
280.273	1467.56
280.505	1460.56
280.736	1505.56
280.968	1622.56
281.199	1848.56
281.431	2153.56
281.662	2158.56
281.894	1874.56
282.125	1648.56
282.356	1697.56
282.588	1709.56
282.819	1735.56
283.051	1885.56
283.282	2066.56
283.513	2593.56
283.745	3762.56
283.976	5816.56
284.207	8356.56
284.439	7648.56
284.67	4805.56
284.901	4012.56
285.132	3996.56
285.364	3796.56
285.595	2840.56
285.826	2567.56
286.057	2943.56
286.288	3977.56
286.52	5442.56
286.751	5073.56
286.982	3229.56
287.213	2404.56
287.444	2065.56
287.675	1904.56
287.906	1813.56
288.138	1774.56
288.369	1734.56
288.6	1748.56
288.831	1735.56
289.062	1717.56
289.293	1696.56
289.524	1676.56
289.755	1709.56
289.986	1706.56
290.217	1748.56
290.448	1733.56
290.679	1743.56
290.91	1825.56
291.141	1878.56
291.371	2068.56
291.602	2179.56
291.833	2010.56
292.064	1785.56
292.295	1696.56
292.526	1694.56
292.757	1649.56
292.987	1651.56
293.218	1590.56
293.449	1610.56
293.68	1600.56
293.91	1595.56
294.141	1594.56
294.372	1576.56
294.603	1588.56
294.833	1606.56
295.064	1593.56
295.295	1601.56
295.525	1561.56
295.756	1558.56
295.987	1594.56
296.217	1590.56
296.448	1582.56
296.679	1605.56
296.909	1607.56
297.14	1633.56
297.37	1659.56
297.601	1616.56
297.831	1644.56
298.062	1674.56
298.292	1669.56
298.523	1685.56
298.753	1720.56
298.984	1726.56
299.214	1720.56
299.445	1772.56
299.675	1810.56
299.905	1905.56
300.136	1976.56
300.366	2179.56
300.597	2846.56
300.827	3991.56
301.057	5473.56
301.288	5497.56
301.518	3580.56
301.748	2694.56
301.979	2439.56
302.209	2316.56
302.439	2385.56
302.669	2540.56
302.9	3046.56
303.13	4322.56
303.36	6360.56
303.59	8510.56
303.82	7536.56
304.051	4512.56
304.281	3237.56
304.511	2665.56
304.741	2442.56
304.971	2265.56
305.201	2151.56
305.431	2023.56
305.661	2011.56
305.891	1944.56
306.121	1887.56
306.352	1923.56
306.582	1865.56
306.812	1824.56
307.042	1872.56
307.272	1851.56
307.502	1856.56
307.731	1857.56
307.961	1860.56
308.191	1827.56
308.421	1822.56
308.651	1869.56
308.881	1795.56
309.111	1813.56
309.341	1837.56
309.571	1830.56
309.8	1855.56
310.03	1874.56
310.26	1893.56
310.49	1850.56
310.72	1871.56
310.949	1880.56
311.179	1914.56
311.409	1900.56
311.639	1920.56
311.868	1930.56
312.098	1982.56
312.328	1972.56
312.557	2001.56
312.787	1970.56
313.017	1952.56
313.246	2012.56
313.476	2022.56
313.706	2075.56
313.935	2208.56
314.165	2400.56
314.394	2520.56
314.624	2377.56
314.853	2197.56
315.083	2186.56
315.312	2164.56
315.542	2233.56
315.771	2288.56
316.001	2284.56
316.23	2326.56
316.46	2472.56
316.689	2729.56
316.919	3349.56
317.148	4759.56
317.377	7372.56
317.607	10808.56
317.836	11238.56
318.065	6996.56
318.295	4507.56
318.524	3584.56
318.753	3102.56
318.983	2890.56
319.212	2614.56
319.441	2569.56
319.67	2521.56
319.9	2484.56
320.129	2427.56
320.358	2413.56
320.587	2390.56
320.816	2376.56
321.046	2372.56
321.275	2420.56
321.504	2422.56
321.733	2521.56
321.962	2541.56
322.191	2568.56
322.42	2532.56
322.649	2513.56
322.878	2500.56
323.108	2451.56
323.337	2512.56
323.566	2568.56
323.795	2618.56
324.024	2697.56
324.253	2781.56
324.482	2888.56
324.71	3074.56
324.939	3288.56
325.168	3390.56
325.397	3476.56
325.626	4212.56
325.855	5872.56
326.084	9072.56
326.313	13110.56
326.542	13832.56
326.77	9609.56
326.999	6303.56
327.228	5258.56
327.457	4974.56
327.686	4965.56
327.914	5262.56
328.143	6074.56
328.372	7361.56
328.6	8104.56
328.829	7202.56
329.058	5985.56
329.287	5224.56
329.515	4734.56
329.744	4406.56
329.972	4167.56
330.201	3926.56
330.43	3838.56
330.658	3644.56
330.887	3612.56
331.115	3584.56
331.344	3509.56
331.572	3490.56
331.801	3505.56
332.03	3561.56
332.258	3567.56
332.486	3766.56
332.715	4396.56
332.943	5417.56
333.172	6852.56
333.4	6760.56
333.629	5176.56
333.857	4582.56
334.085	4622.56
334.314	4812.56
334.542	5185.56
334.771	6192.56
334.999	7529.56
335.227	9564.56
335.455	10685.56
335.684	9651.56
335.912	7888.56
336.14	6641.56
336.369	5791.56
336.597	5420.56
336.825	4922.56
337.053	4512.56
337.281	4323.56
337.51	4044.56
337.738	3924.56
337.966	3808.56
338.194	3657.56
338.422	3528.56
338.65	3362.56
338.878	3304.56
339.106	3220.56
339.334	3165.56
339.562	3146.56
339.79	3037.56
340.018	3086.56
340.246	3061.56
340.474	3007.56
340.702	3016.56
340.93	3058.56
341.158	3068.56
341.386	3023.56
341.614	2987.56
341.842	2914.56
342.07	2868.56
342.298	2827.56
342.526	2750.56
342.754	2769.56
342.981	2740.56
343.209	2724.56
343.437	2728.56
343.665	2788.56
343.893	2816.56
344.12	2794.56
344.348	2739.56
344.576	2710.56
344.804	2744.56
345.031	2628.56
345.259	2643.56
345.487	2592.56
345.714	2550.56
345.942	2520.56
346.17	2599.56
346.397	2563.56
346.625	2540.56
346.853	2533.56
347.08	2530.56
347.308	2540.56
347.535	2521.56
347.763	2524.56
347.99	2517.56
348.218	2523.56
348.445	2513.56
348.673	2492.56
348.9	2477.56
349.128	2460.56
349.355	2430.56
349.583	2411.56
349.81	2452.56
350.037	2417.56
350.265	2375.56
350.492	2394.56
350.72	2422.56
350.947	2440.56
351.174	2417.56
351.402	2431.56
351.629	2386.56
351.856	2399.56
352.083	2414.56
352.311	2375.56
352.538	2354.56
352.765	2372.56
352.992	2365.56
353.22	2369.56
353.447	2396.56
353.674	2320.56
353.901	2360.56
354.128	2428.56
354.355	2359.56
354.583	2404.56
354.81	2358.56
355.037	2402.56
355.264	2439.56
355.491	2428.56
355.718	2442.56
355.945	2426.56
356.172	2461.56
356.399	2476.56
356.626	2471.56
356.853	2497.56
357.08	2503.56
357.307	2490.56
357.534	2612.56
357.761	2551.56
357.988	2560.56
358.215	2556.56
358.441	2505.56
358.668	2531.56
358.895	2511.56
359.122	2517.56
359.349	2589.56
359.576	2537.56
359.802	2569.56
360.029	2528.56
360.256	2558.56
360.483	2563.56
360.709	2570.56
360.936	2568.56
361.163	2583.56
361.39	2571.56
361.616	2548.56
361.843	2583.56
362.07	2608.56
362.296	2551.56
362.523	2541.56
362.749	2553.56
362.976	2512.56
363.203	2567.56
363.429	2497.56
363.656	2509.56
363.882	2560.56
364.109	2510.56
364.335	2556.56
364.562	2505.56
364.788	2542.56
365.015	2560.56
365.241	2652.56
365.468	2800.56
365.694	2968.56
365.92	2832.56
366.147	2620.56
366.373	2580.56
366.599	2596.56
366.826	2590.56
367.052	2586.56
367.278	2630.56
367.505	2659.56
367.731	2590.56
367.957	2560.56
368.184	2641.56
368.41	2692.56
368.636	2696.56
368.862	2676.56
369.089	2637.56
369.315	2648.56
369.541	2669.56
369.767	2606.56
369.993	2564.56
370.219	2616.56
370.445	2660.56
370.672	2692.56
370.898	2643.56
371.124	2680.56
371.35	2674.56
371.576	2655.56
371.802	2729.56
372.028	2734.56
372.254	2738.56
372.48	2717.56
372.706	2781.56
372.932	2746.56
373.158	2787.56
373.384	2748.56
373.61	2738.56
373.835	2804.56
374.061	2765.56
374.287	2804.56
374.513	2833.56
374.739	2882.56
374.965	2894.56
375.191	2870.56
375.416	2896.56
375.642	2801.56
375.868	2818.56
376.094	2830.56
376.319	2773.56
376.545	2791.56
376.771	2747.56
376.997	2774.56
377.222	2690.56
377.448	2720.56
377.674	2720.56
377.899	2712.56
378.125	2738.56
378.35	2738.56
378.576	2764.56
378.802	2747.56
379.027	2821.56
379.253	2880.56
379.478	3060.56
379.704	3590.56
379.929	5248.56
380.155	8147.56
380.38	8940.56
380.606	5510.56
380.831	3772.56
381.057	3281.56
381.282	3024.56
381.507	2894.56
381.733	2844.56
381.958	2774.56
382.184	2702.56
382.409	2721.56
382.634	2677.56
382.86	2680.56
383.085	2670.56
383.31	2669.56
383.535	2673.56
383.761	2703.56
383.986	2725.56
384.211	2749.56
384.436	2764.56
384.662	2787.56
384.887	2738.56
385.112	2720.56
385.337	2785.56
385.562	2822.56
385.787	2722.56
386.013	2793.56
386.238	2739.56
386.463	2787.56
386.688	2770.56
386.913	2711.56
387.138	2801.56
387.363	2761.56
387.588	2777.56
387.813	2740.56
388.038	2734.56
388.263	2743.56
388.488	2726.56
388.713	2762.56
388.938	2723.56
389.163	2750.56
389.387	2775.56
389.612	2742.56
389.837	2760.56
390.062	2756.56
390.287	2787.56
390.512	2727.56
390.736	2826.56
390.961	2821.56
391.186	2838.56
391.411	2909.56
391.636	2900.56
391.86	2884.56
392.085	2915.56
392.31	2889.56
392.534	2821.56
392.759	2841.56
392.984	2817.56
393.208	2841.56
393.433	2837.56
393.658	2848.56
393.882	2829.56
394.107	2768.56
394.331	2781.56
394.556	2819.56
394.78	2798.56
395.005	2822.56
395.229	2837.56
395.454	2852.56
395.678	2909.56
395.903	2873.56
396.127	2849.56
396.352	2856.56
396.576	2880.56
396.801	2868.56
397.025	2900.56
397.249	2903.56
397.474	2900.56
397.698	2889.56
397.922	2955.56
398.147	2935.56
398.371	2981.56
398.595	2978.56
398.82	3061.56
399.044	3185.56
399.268	3295.56
399.492	3507.56
399.717	3650.56
399.941	3625.56
400.165	3489.56
400.389	3359.56
400.613	3209.56
400.837	3120.56
401.062	3093.56
401.286	3061.56
401.51	3024.56
401.734	3039.56
401.958	2984.56
402.182	3042.56
402.406	2991.56
402.63	3036.56
402.854	3077.56
403.078	3060.56
403.302	3105.56
403.526	3123.56
403.75	3130.56
403.974	3152.56
404.198	3125.56
404.422	3148.56
404.645	3137.56
404.869	3161.56
405.093	3199.56
405.317	3114.56
405.541	3220.56
405.765	3236.56
405.988	3280.56
406.212	3277.56
406.436	3213.56
406.66	3274.56
406.883	3228.56
407.107	3355.56
407.331	3378.56
407.555	3416.56
407.778	3454.56
408.002	3411.56
408.226	3395.56
408.449	3393.56
408.673	3269.56
408.896	3237.56
409.12	3189.56
409.344	3256.56
409.567	3174.56
409.791	3138.56
410.014	3183.56
410.238	3116.56
410.461	3148.56
410.685	3165.56
410.908	3106.56
411.132	3129.56
411.355	3053.56
411.578	3045.56
411.802	3071.56
412.025	3003.56
412.249	3029.56
412.472	3074.56
412.695	2952.56
412.919	2987.56
413.142	2979.56
413.365	2970.56
413.589	2994.56
413.812	2993.56
414.035	3012.56
414.258	2988.56
414.482	2963.56
414.705	3022.56
414.928	3010.56
415.151	3014.56
415.374	2986.56
415.597	2988.56
415.821	2898.56
416.044	2868.56
416.267	2815.56
416.49	2868.56
416.713	2847.56
416.936	2862.56
417.159	2789.56
417.382	2824.56
417.605	2837.56
417.828	2820.56
418.051	2831.56
418.274	2844.56
418.497	2889.56
418.72	2944.56
418.943	2872.56
419.166	3032.56
419.389	3205.56
419.611	3177.56
419.834	3029.56
420.057	3033.56
420.28	2933.56
420.503	2858.56
420.726	2855.56
420.948	2879.56
421.171	2844.56
421.394	2888.56
421.617	2846.56
421.839	2908.56
422.062	2909.56
422.285	2838.56
422.507	2900.56
422.73	2960.56
422.953	2944.56
423.175	2994.56
423.398	2913.56
423.621	2868.56
423.843	2889.56
424.066	2864.56
424.288	2874.56
424.511	2845.56
424.733	2837.56
424.956	2856.56
425.178	2785.56
425.401	2785.56
425.623	2809.56
425.846	2761.56
426.068	2791.56
426.291	2740.56
426.513	2710.56
426.735	2748.56
426.958	2770.56
427.18	2663.56
427.402	2725.56
427.625	2743.56
427.847	2656.56
428.069	2608.56
428.292	2711.56
428.514	2666.56
428.736	2633.56
428.958	2642.56
429.181	2618.56
429.403	2676.56
429.625	2665.56
429.847	2670.56
430.069	2736.56
430.292	2749.56
430.514	2889.56
430.736	2873.56
430.958	2703.56
431.18	2651.56
431.402	2663.56
431.624	2570.56
431.846	2578.56
432.068	2590.56
432.29	2628.56
432.512	2645.56
432.734	2653.56
432.956	2627.56
433.178	2662.56
433.4	2629.56
433.622	2608.56
433.844	2675.56
434.066	2674.56
434.287	2642.56
434.509	2711.56
434.731	2723.56
434.953	2766.56
435.175	2776.56
435.397	2767.56
435.618	2685.56
435.84	2694.56
436.062	2672.56
436.284	2595.56
436.505	2614.56
436.727	2639.56
436.949	2653.56
437.17	2608.56
437.392	2550.56
437.614	2562.56
437.835	2541.56
438.057	2522.56
438.278	2548.56
438.5	2561.56
438.721	2613.56
438.943	2675.56
439.165	2785.56
439.386	2752.56
439.608	2717.56
439.829	2738.56
440.05	2856.56
440.272	2900.56
440.493	2740.56
440.715	2716.56
440.936	2772.56
441.158	2761.56
441.379	2754.56
441.6	2863.56
441.822	2928.56
442.043	3075.56
442.264	3152.56
442.486	2925.56
442.707	2835.56
442.928	2852.56
443.149	2838.56
443.371	2787.56
443.592	2772.56
443.813	2851.56
444.034	2838.56
444.255	2876.56
444.476	2956.56
444.698	2988.56
444.919	3029.56
445.14	3052.56
445.361	2944.56
445.582	2836.56
445.803	2837.56
446.024	2827.56
446.245	2858.56
446.466	2799.56
446.687	2769.56
446.908	2720.56
447.129	2682.56
447.35	2659.56
447.571	2648.56
447.792	2609.56
448.013	2583.56
448.234	2560.56
448.455	2622.56
448.675	2692.56
448.896	2744.56
449.117	2804.56
449.338	3046.56
449.559	3084.56
449.779	2784.56
450	2598.56
450.221	2599.56
450.442	2573.56
450.662	2580.56
450.883	2518.56
451.104	2560.56
451.324	2540.56
451.545	2528.56
451.766	2564.56
451.986	2620.56
452.207	2876.56
452.428	3689.56
452.648	5708.56
452.869	4740.56
453.089	3259.56
453.31	2973.56
453.53	3005.56
453.751	3070.56
453.971	3232.56
454.192	3159.56
454.412	2720.56
454.633	2573.56
454.853	2534.56
455.073	2476.56
455.294	2495.56
455.514	2445.56
455.734	2408.56
455.955	2416.56
456.175	2423.56
456.395	2421.56
456.616	2461.56
456.836	2447.56
457.056	2482.56
457.276	2504.56
457.497	2614.56
457.717	2647.56
457.937	2542.56
458.157	2572.56
458.377	2549.56
458.598	2614.56
458.818	2601.56
459.038	2608.56
459.258	2588.56
459.478	2651.56
459.698	2634.56
459.918	2742.56
460.138	2693.56
460.358	2782.56
460.578	2872.56
460.798	2846.56
461.018	2860.56
461.238	2868.56
461.458	2908.56
461.678	2896.56
461.898	2961.56
462.118	3014.56
462.338	3091.56
462.558	3056.56
462.777	3173.56
462.997	3284.56
463.217	3358.56
463.437	3447.56
463.657	3518.56
463.876	3563.56
464.096	3353.56
464.316	3259.56
464.536	3143.56
464.755	3092.56
464.975	3004.56
465.195	2906.56
465.414	2833.56
465.634	2751.56
465.854	2728.56
466.073	2707.56
466.293	2656.56
466.512	2674.56
466.732	2700.56
466.951	2865.56
467.171	3040.56
467.391	3004.56
467.61	2687.56
467.829	2626.56
468.049	2654.56
468.268	2589.56
468.488	2531.56
468.707	2581.56
468.927	2580.56
469.146	2569.56
469.365	2632.56
469.585	2643.56
469.804	2698.56
470.023	2739.56
470.243	2756.56
470.462	2898.56
470.681	2998.56
470.901	3402.56
471.12	3836.56
471.339	3831.56
471.558	3196.56
471.777	2958.56
471.997	2810.56
472.216	2704.56
472.435	2678.56
472.654	2620.56
472.873	2627.56
473.092	2638.56
473.311	2641.56
473.53	2642.56
473.749	2684.56
473.968	2735.56
474.187	2703.56
474.406	2584.56
474.625	2630.56
474.844	2593.56
475.063	2633.56
475.282	2592.56
475.501	2655.56
475.72	2688.56
475.939	2692.56
476.158	2743.56
476.377	2777.56
476.596	2772.56
476.814	2729.56
477.033	2738.56
477.252	2757.56
477.471	2841.56
477.69	2937.56
477.908	2962.56
478.127	2964.56
478.346	2992.56
478.564	3013.56
478.783	3024.56
479.002	3046.56
479.22	3092.56
479.439	3151.56
479.658	3076.56
479.876	3161.56
480.095	3178.56
480.313	3181.56
480.532	3224.56
480.751	3244.56
480.969	3192.56
481.188	3167.56
481.406	3158.56
481.624	3206.56
481.843	3182.56
482.061	3175.56
482.28	3157.56
482.498	3156.56
482.717	3192.56
482.935	3193.56
483.153	3219.56
483.372	3264.56
483.59	3328.56
483.808	3399.56
484.027	3442.56
484.245	3646.56
484.463	4173.56
484.681	4500.56
484.9	4192.56
485.118	3894.56
485.336	3749.56
485.554	3794.56
485.772	4024.56
485.99	4631.56
486.209	4898.56
486.427	4165.56
486.645	3710.56
486.863	3530.56
487.081	3398.56
487.299	3473.56
487.517	3388.56
487.735	3387.56
