Data from SnStandardFlinnAPT0064_LampEnergy5.5_LIBS07252019.E.O._I.C._HRD10591_15-14-47-491.txt Node
Date: Thu Jul 25 15:14:47 EDT 2019
User: cochatt
Spectrometer: HR+D1059
Trigger mode: 1
Integration Time (sec): 1.000000E-1
Scans to average: 1
Electric dark correction enabled: true
Nonlinearity correction enabled: false
Boxcar width: 0
XAxis mode: Wavelengths
Number of Pixels in Spectrum: 2048
>>>>>Begin Spectral Data<<<<<
223.165	0.5
223.4	0.5
223.635	0.5
223.869	-10.5
224.104	-25.5
224.338	-1.5
224.573	-22.5
224.808	-13.5
225.042	-19.5
225.277	-16.5
225.511	-12.5
225.746	-5.5
225.98	-2.5
226.215	15.5
226.449	28.5
226.683	20.5
226.918	27.5
227.152	37.5
227.387	15.5
227.621	33.5
227.856	44.5
228.09	42.5
228.324	44.5
228.559	53.5
228.793	89.5
229.027	129.5
229.262	141.5
229.496	138.5
229.73	138.5
229.964	147.5
230.199	145.5
230.433	143.5
230.667	150.5
230.901	152.5
231.136	153.5
231.37	152.5
231.604	180.5
231.838	209.5
232.072	196.5
232.306	216.5
232.541	191.5
232.775	181.5
233.009	187.5
233.243	186.5
233.477	197.5
233.711	221.5
233.945	236.5
234.179	215.5
234.413	195.5
234.647	201.5
234.881	192.5
235.115	221.5
235.349	248.5
235.583	280.5
235.817	345.5
236.051	344.5
236.285	274.5
236.519	231.5
236.753	214.5
236.987	225.5
237.221	216.5
237.455	219.5
237.689	213.5
237.922	209.5
238.156	209.5
238.39	215.5
238.624	194.5
238.858	209.5
239.091	220.5
239.325	221.5
239.559	205.5
239.793	215.5
240.027	211.5
240.26	234.5
240.494	238.5
240.728	246.5
240.961	256.5
241.195	255.5
241.429	274.5
241.662	263.5
241.896	279.5
242.13	343.5
242.363	438.5
242.597	497.5
242.83	494.5
243.064	475.5
243.298	591.5
243.531	508.5
243.765	341.5
243.998	284.5
244.232	277.5
244.465	277.5
244.699	264.5
244.932	269.5
245.166	256.5
245.399	254.5
245.633	266.5
245.866	292.5
246.099	282.5
246.333	270.5
246.566	272.5
246.8	263.5
247.033	263.5
247.266	262.5
247.5	288.5
247.733	288.5
247.966	277.5
248.2	296.5
248.433	311.5
248.666	362.5
248.899	340.5
249.133	323.5
249.366	340.5
249.599	349.5
249.832	384.5
250.066	406.5
250.299	346.5
250.532	312.5
250.765	292.5
250.998	315.5
251.231	281.5
251.465	304.5
251.698	310.5
251.931	316.5
252.164	306.5
252.397	330.5
252.63	326.5
252.863	328.5
253.096	307.5
253.329	319.5
253.562	293.5
253.795	310.5
254.028	310.5
254.261	326.5
254.494	339.5
254.727	372.5
254.96	446.5
255.193	418.5
255.426	343.5
255.659	343.5
255.892	361.5
256.124	351.5
256.357	374.5
256.59	372.5
256.823	383.5
257.056	400.5
257.289	458.5
257.521	492.5
257.754	454.5
257.987	385.5
258.22	368.5
258.452	383.5
258.685	371.5
258.918	381.5
259.151	400.5
259.383	410.5
259.616	433.5
259.849	443.5
260.081	428.5
260.314	401.5
260.547	376.5
260.779	379.5
261.012	408.5
261.244	404.5
261.477	393.5
261.71	413.5
261.942	401.5
262.175	411.5
262.407	436.5
262.64	441.5
262.872	440.5
263.105	479.5
263.337	503.5
263.57	514.5
263.802	558.5
264.035	508.5
264.267	542.5
264.499	549.5
264.732	602.5
264.964	604.5
265.197	596.5
265.429	568.5
265.661	602.5
265.894	599.5
266.126	682.5
266.358	752.5
266.591	697.5
266.823	620.5
267.055	591.5
267.287	576.5
267.52	550.5
267.752	522.5
267.984	515.5
268.216	510.5
268.448	490.5
268.681	493.5
268.913	486.5
269.145	516.5
269.377	479.5
269.609	506.5
269.841	525.5
270.073	517.5
270.306	599.5
270.538	776.5
270.77	1007.5
271.002	1227.5
271.234	921.5
271.466	680.5
271.698	572.5
271.93	536.5
272.162	497.5
272.394	481.5
272.626	495.5
272.858	492.5
273.09	471.5
273.322	476.5
273.553	497.5
273.785	489.5
274.017	486.5
274.249	487.5
274.481	472.5
274.713	469.5
274.945	470.5
275.176	510.5
275.408	502.5
275.64	490.5
275.872	503.5
276.104	507.5
276.335	501.5
276.567	503.5
276.799	504.5
277.031	529.5
277.262	513.5
277.494	550.5
277.726	556.5
277.957	626.5
278.189	693.5
278.421	624.5
278.652	598.5
278.884	582.5
279.115	568.5
279.347	530.5
279.579	545.5
279.81	542.5
280.042	527.5
280.273	521.5
280.505	550.5
280.736	573.5
280.968	583.5
281.199	615.5
281.431	663.5
281.662	703.5
281.894	609.5
282.125	596.5
282.356	608.5
282.588	624.5
282.819	608.5
283.051	671.5
283.282	701.5
283.513	833.5
283.745	1146.5
283.976	1748.5
284.207	2432.5
284.439	2182.5
284.67	1392.5
284.901	1158.5
285.132	1122.5
285.364	1068.5
285.595	886.5
285.826	831.5
286.057	950.5
286.288	1180.5
286.52	1588.5
286.751	1462.5
286.982	996.5
287.213	786.5
287.444	703.5
287.675	693.5
287.906	646.5
288.138	645.5
288.369	618.5
288.6	652.5
288.831	629.5
289.062	624.5
289.293	642.5
289.524	660.5
289.755	676.5
289.986	657.5
290.217	670.5
290.448	644.5
290.679	658.5
290.91	670.5
291.141	669.5
291.371	698.5
291.602	696.5
291.833	672.5
292.064	656.5
292.295	643.5
292.526	621.5
292.757	637.5
292.987	617.5
293.218	607.5
293.449	615.5
293.68	654.5
293.91	612.5
294.141	621.5
294.372	609.5
294.603	582.5
294.833	601.5
295.064	601.5
295.295	599.5
295.525	608.5
295.756	622.5
295.987	584.5
296.217	592.5
296.448	600.5
296.679	618.5
296.909	628.5
297.14	616.5
297.37	630.5
297.601	609.5
297.831	644.5
298.062	624.5
298.292	612.5
298.523	658.5
298.753	667.5
298.984	632.5
299.214	684.5
299.445	659.5
299.675	653.5
299.905	675.5
300.136	704.5
300.366	764.5
300.597	916.5
300.827	1182.5
301.057	1574.5
301.288	1518.5
301.518	1089.5
301.748	910.5
301.979	833.5
302.209	799.5
302.439	790.5
302.669	853.5
302.9	991.5
303.13	1309.5
303.36	1777.5
303.59	2290.5
303.82	2042.5
304.051	1291.5
304.281	1020.5
304.511	892.5
304.741	814.5
304.971	781.5
305.201	730.5
305.431	724.5
305.661	725.5
305.891	713.5
306.121	703.5
306.352	726.5
306.582	693.5
306.812	725.5
307.042	680.5
307.272	670.5
307.502	702.5
307.731	697.5
307.961	693.5
308.191	690.5
308.421	689.5
308.651	711.5
308.881	684.5
309.111	735.5
309.341	708.5
309.571	725.5
309.8	736.5
310.03	729.5
310.26	710.5
310.49	702.5
310.72	726.5
310.949	753.5
311.179	738.5
311.409	709.5
311.639	763.5
311.868	734.5
312.098	745.5
312.328	751.5
312.557	756.5
312.787	729.5
313.017	758.5
313.246	742.5
313.476	724.5
313.706	758.5
313.935	815.5
314.165	846.5
314.394	880.5
314.624	849.5
314.853	818.5
315.083	804.5
315.312	800.5
315.542	791.5
315.771	782.5
316.001	820.5
316.23	841.5
316.46	881.5
316.689	948.5
316.919	1107.5
317.148	1469.5
317.377	2151.5
317.607	3059.5
317.836	3165.5
318.065	1950.5
318.295	1368.5
318.524	1129.5
318.753	1024.5
318.983	962.5
319.212	922.5
319.441	889.5
319.67	898.5
319.9	892.5
320.129	894.5
320.358	869.5
320.587	869.5
320.816	879.5
321.046	883.5
321.275	886.5
321.504	873.5
321.733	902.5
321.962	945.5
322.191	929.5
322.42	928.5
322.649	924.5
322.878	926.5
323.108	908.5
323.337	967.5
323.566	953.5
323.795	982.5
324.024	988.5
324.253	992.5
324.482	1039.5
324.71	1074.5
324.939	1135.5
325.168	1148.5
325.397	1148.5
325.626	1325.5
325.855	1763.5
326.084	2632.5
326.313	3804.5
326.542	3996.5
326.77	2664.5
326.999	1882.5
327.228	1648.5
327.457	1575.5
327.686	1621.5
327.914	1681.5
328.143	1886.5
328.372	2180.5
328.6	2388.5
328.829	2201.5
329.058	2008.5
329.287	1792.5
329.515	1659.5
329.744	1556.5
329.972	1477.5
330.201	1400.5
330.43	1335.5
330.658	1319.5
330.887	1319.5
331.115	1318.5
331.344	1243.5
331.572	1253.5
331.801	1267.5
332.03	1270.5
332.258	1304.5
332.486	1324.5
332.715	1460.5
332.943	1681.5
333.172	2024.5
333.4	2000.5
333.629	1674.5
333.857	1560.5
334.085	1589.5
334.314	1652.5
334.542	1770.5
334.771	2006.5
334.999	2337.5
335.227	2835.5
335.455	3102.5
335.684	2988.5
335.912	2584.5
336.14	2249.5
336.369	2048.5
336.597	1911.5
336.825	1734.5
337.053	1660.5
337.281	1525.5
337.51	1506.5
337.738	1431.5
337.966	1373.5
338.194	1326.5
338.422	1295.5
338.65	1265.5
338.878	1226.5
339.106	1209.5
339.334	1152.5
339.562	1174.5
339.79	1185.5
340.018	1138.5
340.246	1135.5
340.474	1151.5
340.702	1182.5
340.93	1144.5
341.158	1153.5
341.386	1146.5
341.614	1122.5
341.842	1093.5
342.07	1088.5
342.298	1068.5
342.526	1077.5
342.754	1055.5
342.981	1058.5
343.209	1047.5
343.437	1041.5
343.665	1058.5
343.893	1097.5
344.12	1088.5
344.348	1033.5
344.576	1041.5
344.804	1031.5
345.031	979.5
345.259	1006.5
345.487	990.5
345.714	950.5
345.942	979.5
346.17	952.5
346.397	967.5
346.625	969.5
346.853	976.5
347.08	974.5
347.308	949.5
347.535	952.5
347.763	945.5
347.99	935.5
348.218	956.5
348.445	948.5
348.673	957.5
348.9	944.5
349.128	954.5
349.355	945.5
349.583	940.5
349.81	942.5
350.037	924.5
350.265	944.5
350.492	927.5
350.72	937.5
350.947	925.5
351.174	928.5
351.402	956.5
351.629	925.5
351.856	920.5
352.083	953.5
352.311	914.5
352.538	904.5
352.765	929.5
352.992	889.5
353.22	904.5
353.447	913.5
353.674	904.5
353.901	921.5
354.128	918.5
354.355	895.5
354.583	923.5
354.81	934.5
355.037	940.5
355.264	918.5
355.491	933.5
355.718	924.5
355.945	967.5
356.172	954.5
356.399	949.5
356.626	946.5
356.853	961.5
357.08	956.5
357.307	973.5
357.534	974.5
357.761	969.5
357.988	990.5
358.215	986.5
358.441	962.5
358.668	967.5
358.895	975.5
359.122	993.5
359.349	988.5
359.576	959.5
359.802	979.5
360.029	992.5
360.256	974.5
360.483	981.5
360.709	966.5
360.936	992.5
361.163	977.5
361.39	962.5
361.616	990.5
361.843	981.5
362.07	992.5
362.296	978.5
362.523	982.5
362.749	988.5
362.976	1026.5
363.203	998.5
363.429	971.5
363.656	986.5
363.882	968.5
364.109	988.5
364.335	971.5
364.562	990.5
364.788	978.5
365.015	975.5
365.241	990.5
365.468	1026.5
365.694	1063.5
365.92	1024.5
366.147	1035.5
366.373	1025.5
366.599	999.5
366.826	1016.5
367.052	1008.5
367.278	1032.5
367.505	1038.5
367.731	999.5
367.957	952.5
368.184	1001.5
368.41	1021.5
368.636	1027.5
368.862	1074.5
369.089	1036.5
369.315	1001.5
369.541	1006.5
369.767	1018.5
369.993	1017.5
370.219	1013.5
370.445	1044.5
370.672	1015.5
370.898	1047.5
371.124	1040.5
371.35	1074.5
371.576	1066.5
371.802	1066.5
372.028	1041.5
372.254	1090.5
372.48	1039.5
372.706	1076.5
372.932	1102.5
373.158	1112.5
373.384	1060.5
373.61	1069.5
373.835	1092.5
374.061	1128.5
374.287	1077.5
374.513	1103.5
374.739	1108.5
374.965	1134.5
375.191	1118.5
375.416	1099.5
375.642	1095.5
375.868	1091.5
376.094	1098.5
376.319	1105.5
376.545	1073.5
376.771	1101.5
376.997	1066.5
377.222	1076.5
377.448	1038.5
377.674	1057.5
377.899	1049.5
378.125	1055.5
378.35	1044.5
378.576	1045.5
378.802	1079.5
379.027	1128.5
379.253	1113.5
379.478	1140.5
379.704	1292.5
379.929	1678.5
380.155	2340.5
380.38	2494.5
380.606	1639.5
380.831	1283.5
381.057	1200.5
381.282	1110.5
381.507	1093.5
381.733	1067.5
381.958	1063.5
382.184	1078.5
382.409	1068.5
382.634	1087.5
382.86	1044.5
383.085	1080.5
383.31	1025.5
383.535	1046.5
383.761	1045.5
383.986	1038.5
384.211	1059.5
384.436	1072.5
384.662	1078.5
384.887	1092.5
385.112	1093.5
385.337	1091.5
385.562	1113.5
385.787	1104.5
386.013	1102.5
386.238	1112.5
386.463	1068.5
386.688	1101.5
386.913	1082.5
387.138	1078.5
387.363	1082.5
387.588	1078.5
387.813	1081.5
388.038	1055.5
388.263	1072.5
388.488	1078.5
388.713	1107.5
388.938	1083.5
389.163	1096.5
389.387	1111.5
389.612	1116.5
389.837	1081.5
390.062	1078.5
390.287	1112.5
390.512	1096.5
390.736	1132.5
390.961	1112.5
391.186	1114.5
391.411	1126.5
391.636	1144.5
391.86	1154.5
392.085	1134.5
392.31	1148.5
392.534	1091.5
392.759	1084.5
392.984	1135.5
393.208	1088.5
393.433	1087.5
393.658	1083.5
393.882	1085.5
394.107	1087.5
394.331	1110.5
394.556	1124.5
394.78	1110.5
395.005	1108.5
395.229	1107.5
395.454	1154.5
395.678	1148.5
395.903	1141.5
396.127	1132.5
396.352	1134.5
396.576	1138.5
396.801	1111.5
397.025	1146.5
397.249	1141.5
397.474	1153.5
397.698	1160.5
397.922	1171.5
398.147	1162.5
398.371	1176.5
398.595	1201.5
398.82	1206.5
399.044	1233.5
399.268	1314.5
399.492	1404.5
399.717	1467.5
399.941	1471.5
400.165	1379.5
400.389	1328.5
400.613	1276.5
400.837	1258.5
401.062	1243.5
401.286	1225.5
401.51	1249.5
401.734	1214.5
401.958	1209.5
402.182	1196.5
402.406	1229.5
402.63	1216.5
402.854	1236.5
403.078	1240.5
403.302	1255.5
403.526	1255.5
403.75	1234.5
403.974	1257.5
404.198	1268.5
404.422	1243.5
404.645	1247.5
404.869	1263.5
405.093	1248.5
405.317	1249.5
405.541	1281.5
405.765	1280.5
405.988	1247.5
406.212	1267.5
406.436	1228.5
406.66	1304.5
406.883	1274.5
407.107	1310.5
407.331	1332.5
407.555	1378.5
407.778	1341.5
408.002	1349.5
408.226	1312.5
408.449	1324.5
408.673	1298.5
408.896	1279.5
409.12	1309.5
409.344	1320.5
409.567	1233.5
409.791	1280.5
410.014	1215.5
410.238	1247.5
410.461	1258.5
410.685	1248.5
410.908	1208.5
411.132	1207.5
411.355	1172.5
411.578	1233.5
411.802	1191.5
412.025	1191.5
412.249	1180.5
412.472	1204.5
412.695	1180.5
412.919	1176.5
413.142	1168.5
413.365	1214.5
413.589	1184.5
413.812	1179.5
414.035	1157.5
414.258	1178.5
414.482	1157.5
414.705	1205.5
414.928	1177.5
415.151	1169.5
415.374	1148.5
415.597	1142.5
415.821	1162.5
416.044	1127.5
416.267	1161.5
416.49	1154.5
416.713	1139.5
416.936	1159.5
417.159	1181.5
417.382	1127.5
417.605	1124.5
417.828	1118.5
418.051	1147.5
418.274	1177.5
418.497	1148.5
418.72	1178.5
418.943	1153.5
419.166	1177.5
419.389	1256.5
419.611	1237.5
419.834	1233.5
420.057	1162.5
420.28	1158.5
420.503	1128.5
420.726	1112.5
420.948	1129.5
421.171	1095.5
421.394	1158.5
421.617	1144.5
421.839	1159.5
422.062	1158.5
422.285	1152.5
422.507	1156.5
422.73	1148.5
422.953	1172.5
423.175	1161.5
423.398	1143.5
423.621	1154.5
423.843	1178.5
424.066	1148.5
424.288	1164.5
424.511	1161.5
424.733	1179.5
424.956	1156.5
425.178	1111.5
425.401	1141.5
425.623	1133.5
425.846	1104.5
426.068	1116.5
426.291	1115.5
426.513	1111.5
426.735	1079.5
426.958	1123.5
427.18	1092.5
427.402	1104.5
427.625	1068.5
427.847	1049.5
428.069	1063.5
428.292	1093.5
428.514	1068.5
428.736	1068.5
428.958	1086.5
429.181	1062.5
429.403	1073.5
429.625	1062.5
429.847	1052.5
430.069	1073.5
430.292	1078.5
430.514	1120.5
430.736	1097.5
430.958	1086.5
431.18	1060.5
431.402	1041.5
431.624	1059.5
431.846	1049.5
432.068	1032.5
432.29	1042.5
432.512	1031.5
432.734	1077.5
432.956	1046.5
433.178	1080.5
433.4	1054.5
433.622	1095.5
433.844	1086.5
434.066	1042.5
434.287	1031.5
434.509	1060.5
434.731	1061.5
434.953	1084.5
435.175	1106.5
435.397	1086.5
435.618	1075.5
435.84	1020.5
436.062	1030.5
436.284	1061.5
436.505	1069.5
436.727	1056.5
436.949	1020.5
437.17	1060.5
437.392	1034.5
437.614	1039.5
437.835	1010.5
438.057	1025.5
438.278	983.5
438.5	1023.5
438.721	1020.5
438.943	1049.5
439.165	1075.5
439.386	1104.5
439.608	1050.5
439.829	1085.5
440.05	1113.5
440.272	1132.5
440.493	1102.5
440.715	1089.5
440.936	1109.5
441.158	1117.5
441.379	1122.5
441.6	1149.5
441.822	1187.5
442.043	1178.5
442.264	1205.5
442.486	1167.5
442.707	1148.5
442.928	1129.5
443.149	1144.5
443.371	1133.5
443.592	1145.5
443.813	1181.5
444.034	1185.5
444.255	1165.5
444.476	1180.5
444.698	1230.5
444.919	1210.5
445.14	1290.5
445.361	1238.5
445.582	1184.5
445.803	1160.5
446.024	1149.5
446.245	1150.5
446.466	1108.5
446.687	1098.5
446.908	1097.5
447.129	1101.5
447.35	1054.5
447.571	1067.5
447.792	1036.5
448.013	1032.5
448.234	1020.5
448.455	1041.5
448.675	1031.5
448.896	1052.5
449.117	1101.5
449.338	1114.5
449.559	1188.5
449.779	1094.5
450	1052.5
450.221	1041.5
450.442	1016.5
450.662	1009.5
450.883	1006.5
451.104	1006.5
451.324	996.5
451.545	1007.5
451.766	1000.5
451.986	1020.5
452.207	1074.5
452.428	1254.5
452.648	1626.5
452.869	1416.5
453.089	1144.5
453.31	1094.5
453.53	1068.5
453.751	1104.5
453.971	1141.5
454.192	1150.5
454.412	1057.5
454.633	988.5
454.853	990.5
455.073	1000.5
455.294	980.5
455.514	1001.5
455.734	980.5
455.955	966.5
456.175	941.5
456.395	967.5
456.616	969.5
456.836	959.5
457.056	957.5
457.276	961.5
457.497	1018.5
457.717	1009.5
457.937	1016.5
458.157	987.5
458.377	1016.5
458.598	1054.5
458.818	1040.5
459.038	1009.5
459.258	1001.5
459.478	1044.5
459.698	1055.5
459.918	1058.5
460.138	1084.5
460.358	1124.5
460.578	1136.5
460.798	1123.5
461.018	1157.5
461.238	1127.5
461.458	1166.5
461.678	1152.5
461.898	1166.5
462.118	1169.5
462.338	1215.5
462.558	1236.5
462.777	1220.5
462.997	1253.5
463.217	1318.5
463.437	1352.5
463.657	1368.5
463.876	1338.5
464.096	1261.5
464.316	1238.5
464.536	1237.5
464.755	1210.5
464.975	1162.5
465.195	1158.5
465.414	1111.5
465.634	1105.5
465.854	1065.5
466.073	1110.5
466.293	1056.5
466.512	1061.5
466.732	1072.5
466.951	1094.5
467.171	1153.5
467.391	1098.5
467.61	1048.5
467.829	1067.5
468.049	1037.5
468.268	1053.5
468.488	1030.5
468.707	1042.5
468.927	1038.5
469.146	1009.5
469.365	1062.5
469.585	1056.5
469.804	1084.5
470.023	1093.5
470.243	1111.5
470.462	1126.5
470.681	1154.5
470.901	1240.5
471.12	1372.5
471.339	1328.5
471.558	1214.5
471.777	1115.5
471.997	1090.5
472.216	1057.5
472.435	1072.5
472.654	1030.5
472.873	1008.5
473.092	1010.5
473.311	1018.5
473.53	1049.5
473.749	1068.5
473.968	1095.5
474.187	1047.5
474.406	1041.5
474.625	1060.5
474.844	1044.5
475.063	1070.5
475.282	1065.5
475.501	1042.5
475.72	1056.5
475.939	1061.5
476.158	1042.5
476.377	1074.5
476.596	1071.5
476.814	1070.5
477.033	1068.5
477.252	1090.5
477.471	1138.5
477.69	1164.5
477.908	1168.5
478.127	1167.5
478.346	1177.5
478.564	1196.5
478.783	1204.5
479.002	1220.5
479.22	1238.5
479.439	1243.5
479.658	1236.5
479.876	1201.5
480.095	1224.5
480.313	1296.5
480.532	1250.5
480.751	1271.5
480.969	1245.5
481.188	1214.5
481.406	1229.5
481.624	1204.5
481.843	1231.5
482.061	1227.5
482.28	1209.5
482.498	1212.5
482.717	1206.5
482.935	1278.5
483.153	1259.5
483.372	1293.5
483.59	1297.5
483.808	1284.5
484.027	1322.5
484.245	1362.5
484.463	1474.5
484.681	1616.5
484.9	1527.5
485.118	1442.5
485.336	1437.5
485.554	1458.5
485.772	1493.5
485.99	1617.5
486.209	1739.5
486.427	1510.5
486.645	1389.5
486.863	1388.5
487.081	1347.5
487.299	1318.5
487.517	1284.5
487.735	1329.5
487.953	1335.5
488.171	1344.5
488.389	1333.5
488.607	1334.5
488.825	1269.5
489.043	1269.5
489.261	1259.5
489.479	1301.5
489.696	1304.5
489.914	1282.5
490.132	1296.5
490.35	1309.5
490.568	1369.5
490.786	1363.5
491.003	1333.5
491.221	1363.5
491.439	1355.5
491.657	1381.5
491.874	1385.5
492.092	1398.5
492.31	1418.5
492.527	1431.5
492.745	1408.5
492.963	1414.5
493.18	1418.5
493.398	1368.5
493.615	1397.5
493.833	1355.5
494.05	1372.5
494.268	1419.5
494.485	1346.5
494.703	1388.5
494.92	1390.5
495.138	1397.5
495.355	1369.5
495.573	1411.5
495.79	1376.5
496.008	1411.5
496.225	1414.5
496.442	1417.5
496.66	1480.5
496.877	1486.5
497.094	1502.5
497.312	1470.5
497.529	1492.5
497.746	1468.5
497.963	1486.5
498.181	1544.5
498.398	1560.5
498.615	1596.5
498.832	1673.5
499.049	1768.5
499.267	1861.5
499.484	1953.5
499.701	2012.5
499.918	2088.5
500.135	2222.5
500.352	2320.5
500.569	2365.5
500.786	2353.5
501.003	2237.5
501.22	2168.5
501.437	2001.5
501.654	1922.5
501.871	1802.5
502.088	1731.5
502.305	1678.5
502.522	1645.5
502.739	1583.5
502.956	1545.5
503.172	1494.5
503.389	1466.5
503.606	1437.5
503.823	1418.5
504.04	1395.5
504.256	1427.5
504.473	1429.5
504.69	1424.5
504.907	1423.5
505.123	1360.5
505.34	1320.5
505.557	1320.5
505.773	1273.5
505.99	1268.5
506.207	1274.5
506.423	1244.5
506.64	1224.5
506.856	1205.5
507.073	1206.5
507.289	1243.5
507.506	1194.5
507.722	1229.5
507.939	1214.5
508.155	1161.5
508.372	1172.5
508.588	1140.5
508.805	1166.5
