Data from SnStandardFlinnAPT0064_LampEnergy5.5_LIBS07252019.E.O._I.C._HRD10591_15-17-03-492.txt Node
Date: Thu Jul 25 15:17:03 EDT 2019
User: cochatt
Spectrometer: HR+D1059
Trigger mode: 1
Integration Time (sec): 1.000000E-1
Scans to average: 1
Electric dark correction enabled: true
Nonlinearity correction enabled: false
Boxcar width: 0
XAxis mode: Wavelengths
Number of Pixels in Spectrum: 2048
>>>>>Begin Spectral Data<<<<<
223.165	-17.06
223.4	-17.06
223.635	-17.06
223.869	-23.06
224.104	-20.06
224.338	-9.06
224.573	-12.06
224.808	-22.06
225.042	-21.06
225.277	-8.06
225.511	-1.06
225.746	9.94
225.98	4.94
226.215	19.94
226.449	25.94
226.683	20.94
226.918	24.94
227.152	26.94
227.387	33.94
227.621	36.94
227.856	40.94
228.09	57.94
228.324	59.94
228.559	61.94
228.793	71.94
229.027	142.94
229.262	158.94
229.496	159.94
229.73	152.94
229.964	153.94
230.199	177.94
230.433	162.94
230.667	165.94
230.901	166.94
231.136	171.94
231.37	197.94
231.604	181.94
231.838	199.94
232.072	222.94
232.306	259.94
232.541	226.94
232.775	210.94
233.009	200.94
233.243	220.94
233.477	222.94
233.711	272.94
233.945	279.94
234.179	232.94
234.413	215.94
234.647	212.94
234.881	220.94
235.115	251.94
235.349	278.94
235.583	354.94
235.817	454.94
236.051	438.94
236.285	316.94
236.519	254.94
236.753	228.94
236.987	241.94
237.221	228.94
237.455	231.94
237.689	227.94
237.922	220.94
238.156	216.94
238.39	242.94
238.624	217.94
238.858	226.94
239.091	230.94
239.325	231.94
239.559	249.94
239.793	242.94
240.027	233.94
240.26	254.94
240.494	278.94
240.728	275.94
240.961	270.94
241.195	274.94
241.429	316.94
241.662	314.94
241.896	356.94
242.13	416.94
242.363	534.94
242.597	667.94
242.83	660.94
243.064	635.94
243.298	755.94
243.531	641.94
243.765	425.94
243.998	351.94
244.232	306.94
244.465	303.94
244.699	293.94
244.932	286.94
245.166	297.94
245.399	289.94
245.633	313.94
245.866	302.94
246.099	289.94
246.333	286.94
246.566	290.94
246.8	294.94
247.033	321.94
247.266	305.94
247.5	320.94
247.733	329.94
247.966	305.94
248.2	353.94
248.433	378.94
248.666	430.94
248.899	404.94
249.133	356.94
249.366	372.94
249.599	409.94
249.832	459.94
250.066	444.94
250.299	390.94
250.532	362.94
250.765	347.94
250.998	332.94
251.231	332.94
251.465	311.94
251.698	340.94
251.931	322.94
252.164	330.94
252.397	332.94
252.63	355.94
252.863	357.94
253.096	348.94
253.329	351.94
253.562	345.94
253.795	349.94
254.028	343.94
254.261	373.94
254.494	400.94
254.727	447.94
254.96	529.94
255.193	494.94
255.426	425.94
255.659	378.94
255.892	393.94
256.124	386.94
256.357	401.94
256.59	411.94
256.823	441.94
257.056	469.94
257.289	552.94
257.521	584.94
257.754	511.94
257.987	432.94
258.22	404.94
258.452	410.94
258.685	407.94
258.918	396.94
259.151	452.94
259.383	467.94
259.616	520.94
259.849	531.94
260.081	446.94
260.314	441.94
260.547	432.94
260.779	436.94
261.012	428.94
261.244	441.94
261.477	440.94
261.71	421.94
261.942	456.94
262.175	467.94
262.407	473.94
262.64	479.94
262.872	485.94
263.105	512.94
263.337	518.94
263.57	543.94
263.802	571.94
264.035	570.94
264.267	568.94
264.499	612.94
264.732	629.94
264.964	629.94
265.197	638.94
265.429	631.94
265.661	639.94
265.894	683.94
266.126	754.94
266.358	822.94
266.591	792.94
266.823	684.94
267.055	627.94
267.287	617.94
267.52	590.94
267.752	577.94
267.984	551.94
268.216	564.94
268.448	544.94
268.681	547.94
268.913	519.94
269.145	528.94
269.377	552.94
269.609	544.94
269.841	534.94
270.073	570.94
270.306	675.94
270.538	908.94
270.77	1348.94
271.002	1617.94
271.234	1114.94
271.466	785.94
271.698	651.94
271.93	586.94
272.162	578.94
272.394	561.94
272.626	541.94
272.858	564.94
273.09	515.94
273.322	543.94
273.553	531.94
273.785	513.94
274.017	502.94
274.249	542.94
274.481	506.94
274.713	520.94
274.945	543.94
275.176	528.94
275.408	500.94
275.64	521.94
275.872	540.94
276.104	565.94
276.335	535.94
276.567	544.94
276.799	532.94
277.031	550.94
277.262	580.94
277.494	608.94
277.726	646.94
277.957	726.94
278.189	830.94
278.421	792.94
278.652	690.94
278.884	696.94
279.115	633.94
279.347	587.94
279.579	596.94
279.81	590.94
280.042	595.94
280.273	617.94
280.505	636.94
280.736	620.94
280.968	645.94
281.199	729.94
281.431	803.94
281.662	832.94
281.894	720.94
282.125	680.94
282.356	681.94
282.588	704.94
282.819	718.94
283.051	742.94
283.282	812.94
283.513	1017.94
283.745	1451.94
283.976	2364.94
284.207	3424.94
284.439	3015.94
284.67	1761.94
284.901	1433.94
285.132	1413.94
285.364	1371.94
285.595	1103.94
285.826	945.94
286.057	1150.94
286.288	1588.94
286.52	2154.94
286.751	1959.94
286.982	1204.94
287.213	894.94
287.444	809.94
287.675	736.94
287.906	734.94
288.138	735.94
288.369	738.94
288.6	718.94
288.831	720.94
289.062	700.94
289.293	711.94
289.524	698.94
289.755	716.94
289.986	734.94
290.217	711.94
290.448	714.94
290.679	716.94
290.91	758.94
291.141	745.94
291.371	806.94
291.602	822.94
291.833	780.94
292.064	729.94
292.295	713.94
292.526	691.94
292.757	677.94
292.987	681.94
293.218	687.94
293.449	678.94
293.68	654.94
293.91	687.94
294.141	667.94
294.372	682.94
294.603	672.94
294.833	664.94
295.064	680.94
295.295	664.94
295.525	652.94
295.756	671.94
295.987	666.94
296.217	671.94
296.448	658.94
296.679	662.94
296.909	658.94
297.14	670.94
297.37	692.94
297.601	684.94
297.831	697.94
298.062	716.94
298.292	700.94
298.523	737.94
298.753	731.94
298.984	719.94
299.214	713.94
299.445	734.94
299.675	738.94
299.905	756.94
300.136	822.94
300.366	907.94
300.597	1123.94
300.827	1574.94
301.057	2100.94
301.288	2126.94
301.518	1358.94
301.748	1024.94
301.979	935.94
302.209	925.94
302.439	924.94
302.669	937.94
302.9	1172.94
303.13	1665.94
303.36	2465.94
303.59	3285.94
303.82	2852.94
304.051	1641.94
304.281	1182.94
304.511	1002.94
304.741	948.94
304.971	897.94
305.201	844.94
305.431	846.94
305.661	806.94
305.891	772.94
306.121	787.94
306.352	770.94
306.582	758.94
306.812	746.94
307.042	783.94
307.272	782.94
307.502	751.94
307.731	775.94
307.961	799.94
308.191	785.94
308.421	757.94
308.651	757.94
308.881	776.94
309.111	786.94
309.341	763.94
309.571	799.94
309.8	791.94
310.03	768.94
310.26	790.94
310.49	789.94
310.72	796.94
310.949	796.94
311.179	791.94
311.409	790.94
311.639	815.94
311.868	830.94
312.098	837.94
312.328	830.94
312.557	815.94
312.787	846.94
313.017	836.94
313.246	834.94
313.476	834.94
313.706	862.94
313.935	886.94
314.165	972.94
314.394	972.94
314.624	947.94
314.853	897.94
315.083	924.94
315.312	925.94
315.542	888.94
315.771	924.94
316.001	944.94
316.23	953.94
316.46	999.94
316.689	1102.94
316.919	1320.94
317.148	1849.94
317.377	2950.94
317.607	4366.94
317.836	4455.94
318.065	2512.94
318.295	1617.94
318.524	1323.94
318.753	1163.94
318.983	1120.94
319.212	1040.94
319.441	998.94
319.67	995.94
319.9	982.94
320.129	996.94
320.358	986.94
320.587	944.94
320.816	958.94
321.046	996.94
321.275	963.94
321.504	951.94
321.733	999.94
321.962	1031.94
322.191	1036.94
322.42	1046.94
322.649	1044.94
322.878	1036.94
323.108	1034.94
323.337	1055.94
323.566	1070.94
323.795	1065.94
324.024	1086.94
324.253	1126.94
324.482	1139.94
324.71	1225.94
324.939	1290.94
325.168	1307.94
325.397	1330.94
325.626	1601.94
325.855	2242.94
326.084	3505.94
326.313	5347.94
326.542	5628.94
326.77	3484.94
326.999	2254.94
327.228	1874.94
327.457	1833.94
327.686	1835.94
327.914	1977.94
328.143	2202.94
328.372	2594.94
328.6	2767.94
328.829	2510.94
329.058	2217.94
329.287	1987.94
329.515	1817.94
329.744	1694.94
329.972	1598.94
330.201	1522.94
330.43	1526.94
330.658	1435.94
330.887	1434.94
331.115	1419.94
331.344	1383.94
331.572	1391.94
331.801	1426.94
332.03	1431.94
332.258	1400.94
332.486	1523.94
332.715	1723.94
332.943	2078.94
333.172	2553.94
333.4	2518.94
333.629	1948.94
333.857	1738.94
334.085	1779.94
334.314	1842.94
334.542	1952.94
334.771	2292.94
334.999	2726.94
335.227	3339.94
335.455	3724.94
335.684	3368.94
335.912	2874.94
336.14	2488.94
336.369	2270.94
336.597	2082.94
336.825	1895.94
337.053	1814.94
337.281	1688.94
337.51	1609.94
337.738	1562.94
337.966	1510.94
338.194	1447.94
338.422	1379.94
338.65	1389.94
338.878	1367.94
339.106	1342.94
339.334	1341.94
339.562	1292.94
339.79	1246.94
340.018	1244.94
340.246	1246.94
340.474	1241.94
340.702	1226.94
340.93	1230.94
341.158	1274.94
341.386	1231.94
341.614	1225.94
341.842	1221.94
342.07	1192.94
342.298	1176.94
342.526	1131.94
342.754	1155.94
342.981	1158.94
343.209	1108.94
343.437	1146.94
343.665	1180.94
343.893	1167.94
344.12	1192.94
344.348	1192.94
344.576	1155.94
344.804	1138.94
345.031	1100.94
345.259	1123.94
345.487	1090.94
345.714	1067.94
345.942	1091.94
346.17	1090.94
346.397	1084.94
346.625	1059.94
346.853	1073.94
347.08	1057.94
347.308	1067.94
347.535	1067.94
347.763	1039.94
347.99	1046.94
348.218	1018.94
348.445	1032.94
348.673	1044.94
348.9	1034.94
349.128	1044.94
349.355	1042.94
349.583	1016.94
349.81	1019.94
350.037	1029.94
350.265	1032.94
350.492	1027.94
350.72	1010.94
350.947	1009.94
351.174	1028.94
351.402	1033.94
351.629	1030.94
351.856	996.94
352.083	1008.94
352.311	1035.94
352.538	993.94
352.765	1024.94
352.992	1027.94
353.22	999.94
353.447	1014.94
353.674	1011.94
353.901	992.94
354.128	1026.94
354.355	1008.94
354.583	1009.94
354.81	1007.94
355.037	1032.94
355.264	1004.94
355.491	1028.94
355.718	1019.94
355.945	1044.94
356.172	1034.94
356.399	1050.94
356.626	1045.94
356.853	1044.94
357.08	1070.94
357.307	1051.94
357.534	1070.94
357.761	1091.94
357.988	1086.94
358.215	1081.94
358.441	1071.94
358.668	1066.94
358.895	1064.94
359.122	1046.94
359.349	1050.94
359.576	1047.94
359.802	1099.94
360.029	1083.94
360.256	1083.94
360.483	1071.94
360.709	1067.94
360.936	1080.94
361.163	1068.94
361.39	1074.94
361.616	1090.94
361.843	1099.94
362.07	1067.94
362.296	1090.94
362.523	1094.94
362.749	1085.94
362.976	1072.94
363.203	1075.94
363.429	1065.94
363.656	1076.94
363.882	1087.94
364.109	1063.94
364.335	1050.94
364.562	1071.94
364.788	1062.94
365.015	1114.94
365.241	1106.94
365.468	1157.94
365.694	1192.94
365.92	1160.94
366.147	1119.94
366.373	1120.94
366.599	1102.94
366.826	1090.94
367.052	1099.94
367.278	1100.94
367.505	1126.94
367.731	1122.94
367.957	1093.94
368.184	1082.94
368.41	1136.94
368.636	1144.94
368.862	1093.94
369.089	1128.94
369.315	1114.94
369.541	1125.94
369.767	1094.94
369.993	1093.94
370.219	1098.94
370.445	1115.94
370.672	1125.94
370.898	1121.94
371.124	1143.94
371.35	1134.94
371.576	1178.94
371.802	1169.94
372.028	1159.94
372.254	1140.94
372.48	1207.94
372.706	1205.94
372.932	1193.94
373.158	1185.94
373.384	1166.94
373.61	1195.94
373.835	1193.94
374.061	1214.94
374.287	1208.94
374.513	1235.94
374.739	1182.94
374.965	1218.94
375.191	1221.94
375.416	1250.94
375.642	1211.94
375.868	1195.94
376.094	1199.94
376.319	1157.94
376.545	1155.94
376.771	1173.94
376.997	1190.94
377.222	1199.94
377.448	1158.94
377.674	1163.94
377.899	1178.94
378.125	1167.94
378.35	1155.94
378.576	1148.94
378.802	1160.94
379.027	1204.94
379.253	1236.94
379.478	1282.94
379.704	1519.94
379.929	2081.94
380.155	3182.94
380.38	3387.94
380.606	2078.94
380.831	1477.94
381.057	1325.94
381.282	1237.94
381.507	1183.94
381.733	1207.94
381.958	1157.94
382.184	1152.94
382.409	1158.94
382.634	1158.94
382.86	1170.94
383.085	1193.94
383.31	1166.94
383.535	1134.94
383.761	1137.94
383.986	1155.94
384.211	1176.94
384.436	1176.94
384.662	1178.94
384.887	1217.94
385.112	1170.94
385.337	1173.94
385.562	1198.94
385.787	1163.94
386.013	1170.94
386.238	1157.94
386.463	1187.94
386.688	1208.94
386.913	1159.94
387.138	1195.94
387.363	1209.94
387.588	1186.94
387.813	1209.94
388.038	1162.94
388.263	1186.94
388.488	1178.94
388.713	1170.94
388.938	1190.94
389.163	1174.94
389.387	1178.94
389.612	1179.94
389.837	1191.94
390.062	1192.94
390.287	1183.94
390.512	1215.94
390.736	1263.94
390.961	1247.94
391.186	1224.94
391.411	1260.94
391.636	1266.94
391.86	1242.94
392.085	1266.94
392.31	1246.94
392.534	1222.94
392.759	1248.94
392.984	1217.94
393.208	1214.94
393.433	1239.94
393.658	1237.94
393.882	1216.94
394.107	1216.94
394.331	1197.94
394.556	1217.94
394.78	1223.94
395.005	1235.94
395.229	1218.94
395.454	1216.94
395.678	1233.94
395.903	1239.94
396.127	1243.94
396.352	1226.94
396.576	1258.94
396.801	1265.94
397.025	1273.94
397.249	1241.94
397.474	1285.94
397.698	1271.94
397.922	1284.94
398.147	1234.94
398.371	1264.94
398.595	1306.94
398.82	1358.94
399.044	1366.94
399.268	1449.94
399.492	1521.94
399.717	1559.94
399.941	1589.94
400.165	1514.94
400.389	1463.94
400.613	1411.94
400.837	1343.94
401.062	1319.94
401.286	1326.94
401.51	1341.94
401.734	1288.94
401.958	1310.94
402.182	1318.94
402.406	1317.94
402.63	1356.94
402.854	1346.94
403.078	1361.94
403.302	1356.94
403.526	1367.94
403.75	1370.94
403.974	1374.94
404.198	1365.94
404.422	1403.94
404.645	1377.94
404.869	1359.94
405.093	1358.94
405.317	1314.94
405.541	1397.94
405.765	1364.94
405.988	1398.94
406.212	1395.94
406.436	1333.94
406.66	1413.94
406.883	1403.94
407.107	1442.94
407.331	1479.94
407.555	1502.94
407.778	1454.94
408.002	1463.94
408.226	1469.94
408.449	1439.94
408.673	1422.94
408.896	1392.94
409.12	1391.94
409.344	1390.94
409.567	1342.94
409.791	1346.94
410.014	1343.94
410.238	1392.94
410.461	1362.94
410.685	1378.94
410.908	1358.94
411.132	1337.94
411.355	1307.94
411.578	1329.94
411.802	1330.94
412.025	1325.94
412.249	1323.94
412.472	1321.94
412.695	1288.94
412.919	1288.94
413.142	1287.94
413.365	1265.94
413.589	1303.94
413.812	1319.94
414.035	1269.94
414.258	1298.94
414.482	1327.94
414.705	1302.94
414.928	1275.94
415.151	1272.94
415.374	1291.94
415.597	1306.94
415.821	1264.94
416.044	1237.94
416.267	1209.94
416.49	1242.94
416.713	1227.94
416.936	1252.94
417.159	1256.94
417.382	1220.94
417.605	1257.94
417.828	1232.94
418.051	1232.94
418.274	1236.94
418.497	1221.94
418.72	1299.94
418.943	1290.94
419.166	1313.94
419.389	1387.94
419.611	1350.94
419.834	1311.94
420.057	1280.94
420.28	1276.94
420.503	1227.94
420.726	1212.94
420.948	1243.94
421.171	1206.94
421.394	1252.94
421.617	1303.94
421.839	1257.94
422.062	1258.94
422.285	1244.94
422.507	1257.94
422.73	1280.94
422.953	1288.94
423.175	1277.94
423.398	1313.94
423.621	1279.94
423.843	1272.94
424.066	1280.94
424.288	1255.94
424.511	1243.94
424.733	1266.94
424.956	1242.94
425.178	1233.94
425.401	1235.94
425.623	1210.94
425.846	1215.94
426.068	1224.94
426.291	1193.94
426.513	1204.94
426.735	1199.94
426.958	1203.94
427.18	1176.94
427.402	1205.94
427.625	1208.94
427.847	1177.94
428.069	1168.94
428.292	1174.94
428.514	1152.94
428.736	1150.94
428.958	1142.94
429.181	1149.94
429.403	1146.94
429.625	1155.94
429.847	1164.94
430.069	1171.94
430.292	1194.94
430.514	1240.94
430.736	1210.94
430.958	1202.94
431.18	1171.94
431.402	1140.94
431.624	1126.94
431.846	1137.94
432.068	1108.94
432.29	1126.94
432.512	1091.94
432.734	1187.94
432.956	1123.94
433.178	1168.94
433.4	1146.94
433.622	1148.94
433.844	1168.94
434.066	1174.94
434.287	1155.94
434.509	1170.94
434.731	1176.94
434.953	1211.94
435.175	1174.94
435.397	1185.94
435.618	1181.94
435.84	1190.94
436.062	1130.94
436.284	1164.94
436.505	1162.94
436.727	1150.94
436.949	1149.94
437.17	1124.94
437.392	1136.94
437.614	1108.94
437.835	1100.94
438.057	1122.94
438.278	1088.94
438.5	1082.94
438.721	1139.94
438.943	1165.94
439.165	1220.94
439.386	1208.94
439.608	1189.94
439.829	1189.94
440.05	1235.94
440.272	1271.94
440.493	1191.94
440.715	1192.94
440.936	1206.94
441.158	1208.94
441.379	1249.94
441.6	1264.94
441.822	1281.94
442.043	1350.94
442.264	1391.94
442.486	1291.94
442.707	1224.94
442.928	1253.94
443.149	1234.94
443.371	1185.94
443.592	1254.94
443.813	1220.94
444.034	1234.94
444.255	1292.94
444.476	1314.94
444.698	1302.94
444.919	1332.94
445.14	1434.94
445.361	1338.94
445.582	1258.94
445.803	1249.94
446.024	1246.94
446.245	1272.94
446.466	1230.94
446.687	1210.94
446.908	1212.94
447.129	1174.94
447.35	1190.94
447.571	1188.94
447.792	1153.94
448.013	1166.94
448.234	1144.94
448.455	1129.94
448.675	1139.94
448.896	1165.94
449.117	1155.94
449.338	1307.94
449.559	1339.94
449.779	1232.94
450	1141.94
450.221	1134.94
450.442	1138.94
450.662	1106.94
450.883	1094.94
451.104	1130.94
451.324	1096.94
451.545	1096.94
451.766	1107.94
451.986	1134.94
452.207	1189.94
452.428	1440.94
452.648	2058.94
452.869	1791.94
453.089	1318.94
453.31	1210.94
453.53	1264.94
453.751	1263.94
453.971	1350.94
454.192	1320.94
454.412	1167.94
454.633	1089.94
454.853	1055.94
455.073	1048.94
455.294	1102.94
455.514	1047.94
455.734	1083.94
455.955	1035.94
456.175	1072.94
456.395	1057.94
456.616	1055.94
456.836	1073.94
457.056	1036.94
457.276	1045.94
457.497	1114.94
457.717	1106.94
457.937	1105.94
458.157	1109.94
458.377	1073.94
458.598	1114.94
458.818	1110.94
459.038	1125.94
459.258	1117.94
459.478	1153.94
459.698	1148.94
459.918	1153.94
460.138	1170.94
460.358	1216.94
460.578	1234.94
460.798	1235.94
461.018	1216.94
461.238	1246.94
461.458	1250.94
461.678	1267.94
461.898	1280.94
462.118	1247.94
462.338	1330.94
462.558	1324.94
462.777	1356.94
462.997	1418.94
463.217	1462.94
463.437	1487.94
463.657	1534.94
463.876	1491.94
464.096	1422.94
464.316	1369.94
464.536	1371.94
464.755	1345.94
464.975	1277.94
465.195	1286.94
465.414	1224.94
465.634	1184.94
465.854	1159.94
466.073	1135.94
466.293	1148.94
466.512	1176.94
466.732	1178.94
466.951	1225.94
467.171	1298.94
467.391	1304.94
467.61	1158.94
467.829	1140.94
468.049	1151.94
468.268	1137.94
468.488	1130.94
468.707	1102.94
468.927	1113.94
469.146	1136.94
469.365	1136.94
469.585	1136.94
469.804	1173.94
470.023	1180.94
470.243	1185.94
470.462	1216.94
470.681	1288.94
470.901	1410.94
471.12	1632.94
471.339	1650.94
471.558	1396.94
471.777	1236.94
471.997	1202.94
472.216	1175.94
472.435	1153.94
472.654	1138.94
472.873	1111.94
473.092	1100.94
473.311	1125.94
473.53	1141.94
473.749	1198.94
473.968	1176.94
474.187	1159.94
474.406	1143.94
474.625	1159.94
474.844	1152.94
475.063	1129.94
475.282	1152.94
475.501	1152.94
475.72	1160.94
475.939	1120.94
476.158	1160.94
476.377	1188.94
476.596	1162.94
476.814	1180.94
477.033	1188.94
477.252	1197.94
477.471	1239.94
477.69	1267.94
477.908	1266.94
478.127	1260.94
478.346	1282.94
478.564	1303.94
478.783	1304.94
479.002	1347.94
479.22	1323.94
479.439	1361.94
479.658	1379.94
479.876	1349.94
480.095	1335.94
480.313	1404.94
480.532	1391.94
480.751	1376.94
480.969	1364.94
481.188	1334.94
481.406	1334.94
481.624	1348.94
481.843	1342.94
482.061	1356.94
482.28	1327.94
482.498	1354.94
482.717	1306.94
482.935	1343.94
483.153	1375.94
483.372	1408.94
483.59	1438.94
483.808	1421.94
484.027	1478.94
484.245	1550.94
484.463	1696.94
484.681	1916.94
484.9	1689.94
485.118	1557.94
485.336	1594.94
485.554	1590.94
485.772	1685.94
485.99	1879.94
486.209	2104.94
486.427	1724.94
486.645	1554.94
486.863	1474.94
487.081	1480.94
487.299	1471.94
487.517	1418.94
487.735	1450.94
487.953	1477.94
488.171	1470.94
488.389	1451.94
488.607	1434.94
488.825	1406.94
489.043	1377.94
489.261	1385.94
489.479	1400.94
489.696	1430.94
489.914	1420.94
490.132	1406.94
490.35	1406.94
490.568	1419.94
490.786	1443.94
491.003	1446.94
