Data from SnStandardFlinnAPT0064_LampEnergy10_LIBS07252019.E.O._I.C._HRD10591_15-21-22-494.txt Node
Date: Thu Jul 25 15:21:22 EDT 2019
User: cochatt
Spectrometer: HR+D1059
Trigger mode: 1
Integration Time (sec): 1.000000E-1
Scans to average: 1
Electric dark correction enabled: true
Nonlinearity correction enabled: false
Boxcar width: 0
XAxis mode: Wavelengths
Number of Pixels in Spectrum: 2048
>>>>>Begin Spectral Data<<<<<
223.165	-17.44
223.4	-17.44
223.635	-17.44
223.869	-15.44
224.104	-18.44
224.338	-22.44
224.573	-25.44
224.808	-11.44
225.042	-2.44
225.277	-2.44
225.511	3.56
225.746	-6.44
225.98	3.56
226.215	27.56
226.449	19.56
226.683	9.56
226.918	20.56
227.152	37.56
227.387	34.56
227.621	41.56
227.856	48.56
228.09	51.56
228.324	52.56
228.559	67.56
228.793	130.56
229.027	304.56
229.262	312.56
229.496	314.56
229.73	296.56
229.964	296.56
230.199	278.56
230.433	297.56
230.667	304.56
230.901	323.56
231.136	344.56
231.37	356.56
231.604	379.56
231.838	422.56
232.072	516.56
232.306	545.56
232.541	465.56
232.775	429.56
233.009	412.56
233.243	422.56
233.477	462.56
233.711	502.56
233.945	573.56
234.179	510.56
234.413	427.56
234.647	440.56
234.881	483.56
235.115	534.56
235.349	593.56
235.583	772.56
235.817	973.56
236.051	936.56
236.285	644.56
236.519	518.56
236.753	510.56
236.987	506.56
237.221	538.56
237.455	497.56
237.689	461.56
237.922	449.56
238.156	468.56
238.39	448.56
238.624	477.56
238.858	462.56
239.091	469.56
239.325	483.56
239.559	505.56
239.793	497.56
240.027	509.56
240.26	515.56
240.494	538.56
240.728	555.56
240.961	612.56
241.195	601.56
241.429	665.56
241.662	678.56
241.896	764.56
242.13	924.56
242.363	1210.56
242.597	1552.56
242.83	1482.56
243.064	1478.56
243.298	1674.56
243.531	1428.56
243.765	928.56
243.998	762.56
244.232	694.56
244.465	656.56
244.699	640.56
244.932	639.56
245.166	668.56
245.399	674.56
245.633	689.56
245.866	679.56
246.099	665.56
246.333	627.56
246.566	626.56
246.8	634.56
247.033	633.56
247.266	633.56
247.5	619.56
247.733	681.56
247.966	713.56
248.2	758.56
248.433	864.56
248.666	982.56
248.899	919.56
249.133	838.56
249.366	838.56
249.599	947.56
249.832	1053.56
250.066	1027.56
250.299	850.56
250.532	747.56
250.765	740.56
250.998	733.56
251.231	737.56
251.465	691.56
251.698	725.56
251.931	736.56
252.164	726.56
252.397	746.56
252.63	770.56
252.863	788.56
253.096	772.56
253.329	749.56
253.562	774.56
253.795	780.56
254.028	783.56
254.261	772.56
254.494	869.56
254.727	989.56
254.96	1188.56
255.193	1177.56
255.426	968.56
255.659	858.56
255.892	876.56
256.124	861.56
256.357	877.56
256.59	893.56
256.823	953.56
257.056	1082.56
257.289	1301.56
257.521	1444.56
257.754	1131.56
257.987	969.56
258.22	903.56
258.452	908.56
258.685	903.56
258.918	956.56
259.151	1002.56
259.383	1085.56
259.616	1177.56
259.849	1235.56
260.081	1074.56
260.314	986.56
260.547	946.56
260.779	959.56
261.012	959.56
261.244	931.56
261.477	968.56
261.71	988.56
261.942	1006.56
262.175	1009.56
262.407	1060.56
262.64	1058.56
262.872	1105.56
263.105	1126.56
263.337	1194.56
263.57	1274.56
263.802	1302.56
264.035	1293.56
264.267	1334.56
264.499	1367.56
264.732	1410.56
264.964	1437.56
265.197	1415.56
265.429	1443.56
265.661	1467.56
265.894	1584.56
266.126	1742.56
266.358	1944.56
266.591	1906.56
266.823	1570.56
267.055	1410.56
267.287	1354.56
267.52	1348.56
267.752	1322.56
267.984	1275.56
268.216	1237.56
268.448	1253.56
268.681	1209.56
268.913	1190.56
269.145	1189.56
269.377	1202.56
269.609	1224.56
269.841	1273.56
270.073	1370.56
270.306	1567.56
270.538	2131.56
270.77	3080.56
271.002	3720.56
271.234	2615.56
271.466	1848.56
271.698	1495.56
271.93	1363.56
272.162	1315.56
272.394	1267.56
272.626	1243.56
272.858	1211.56
273.09	1203.56
273.322	1242.56
273.553	1177.56
273.785	1185.56
274.017	1194.56
274.249	1204.56
274.481	1194.56
274.713	1178.56
274.945	1198.56
275.176	1242.56
275.408	1200.56
275.64	1218.56
275.872	1248.56
276.104	1220.56
276.335	1205.56
276.567	1283.56
276.799	1267.56
277.031	1277.56
277.262	1328.56
277.494	1372.56
277.726	1553.56
277.957	1808.56
278.189	2063.56
278.421	1923.56
278.652	1686.56
278.884	1642.56
279.115	1458.56
279.347	1380.56
279.579	1365.56
279.81	1371.56
280.042	1388.56
280.273	1393.56
280.505	1426.56
280.736	1458.56
280.968	1548.56
281.199	1715.56
281.431	1974.56
281.662	2052.56
281.894	1757.56
282.125	1611.56
282.356	1619.56
282.588	1636.56
282.819	1643.56
283.051	1798.56
283.282	1932.56
283.513	2427.56
283.745	3429.56
283.976	5376.56
284.207	7650.56
284.439	7075.56
284.67	4395.56
284.901	3609.56
285.132	3588.56
285.364	3448.56
285.595	2640.56
285.826	2384.56
286.057	2756.56
286.288	3727.56
286.52	4998.56
286.751	4683.56
286.982	2895.56
287.213	2220.56
287.444	1968.56
287.675	1824.56
287.906	1754.56
288.138	1718.56
288.369	1692.56
288.6	1660.56
288.831	1674.56
289.062	1650.56
289.293	1674.56
289.524	1660.56
289.755	1677.56
289.986	1661.56
290.217	1689.56
290.448	1715.56
290.679	1728.56
290.91	1762.56
291.141	1860.56
291.371	2011.56
291.602	2087.56
291.833	1915.56
292.064	1706.56
292.295	1674.56
292.526	1660.56
292.757	1638.56
292.987	1590.56
293.218	1546.56
293.449	1591.56
293.68	1550.56
293.91	1577.56
294.141	1560.56
294.372	1566.56
294.603	1542.56
294.833	1553.56
295.064	1521.56
295.295	1560.56
295.525	1536.56
295.756	1538.56
295.987	1554.56
296.217	1556.56
296.448	1553.56
296.679	1528.56
296.909	1586.56
297.14	1606.56
297.37	1585.56
297.601	1613.56
297.831	1586.56
298.062	1620.56
298.292	1636.56
298.523	1637.56
298.753	1667.56
298.984	1692.56
299.214	1709.56
299.445	1729.56
299.675	1735.56
299.905	1812.56
300.136	1902.56
300.366	2117.56
300.597	2677.56
300.827	3603.56
301.057	5025.56
301.288	5016.56
301.518	3255.56
301.748	2520.56
301.979	2296.56
302.209	2285.56
302.439	2238.56
302.669	2388.56
302.9	2905.56
303.13	3984.56
303.36	5838.56
303.59	7802.56
303.82	6842.56
304.051	4053.56
304.281	2934.56
304.511	2476.56
304.741	2296.56
304.971	2151.56
305.201	2069.56
305.431	1979.56
305.661	1972.56
305.891	1884.56
306.121	1840.56
306.352	1825.56
306.582	1819.56
306.812	1819.56
307.042	1802.56
307.272	1788.56
307.502	1806.56
307.731	1772.56
307.961	1817.56
308.191	1751.56
308.421	1765.56
308.651	1804.56
308.881	1781.56
309.111	1802.56
309.341	1801.56
309.571	1820.56
309.8	1830.56
310.03	1861.56
310.26	1878.56
310.49	1844.56
310.72	1824.56
310.949	1825.56
311.179	1888.56
311.409	1868.56
311.639	1893.56
311.868	1897.56
312.098	1860.56
312.328	1929.56
312.557	1916.56
312.787	1960.56
313.017	1937.56
313.246	1974.56
313.476	1989.56
313.706	2062.56
313.935	2169.56
314.165	2289.56
314.394	2423.56
314.624	2304.56
314.853	2147.56
315.083	2109.56
315.312	2150.56
315.542	2170.56
315.771	2189.56
316.001	2219.56
316.23	2290.56
316.46	2381.56
316.689	2621.56
316.919	3095.56
317.148	4413.56
317.377	6802.56
317.607	9860.56
317.836	10366.56
318.065	6331.56
318.295	4153.56
318.524	3334.56
318.753	2894.56
318.983	2666.56
319.212	2535.56
319.441	2411.56
319.67	2402.56
319.9	2356.56
320.129	2349.56
320.358	2332.56
320.587	2270.56
320.816	2317.56
321.046	2310.56
321.275	2329.56
321.504	2366.56
321.733	2365.56
321.962	2487.56
322.191	2455.56
322.42	2452.56
322.649	2465.56
322.878	2442.56
323.108	2426.56
323.337	2508.56
323.566	2487.56
323.795	2573.56
324.024	2651.56
324.253	2662.56
324.482	2768.56
324.71	2929.56
324.939	3092.56
325.168	3149.56
325.397	3292.56
325.626	3925.56
325.855	5365.56
326.084	8317.56
326.313	12170.56
326.542	12962.56
326.77	8797.56
326.999	5720.56
327.228	4877.56
327.457	4586.56
327.686	4663.56
327.914	5091.56
328.143	5938.56
328.372	7024.56
328.6	7700.56
328.829	6802.56
329.058	5750.56
329.287	5083.56
329.515	4555.56
329.744	4173.56
329.972	3952.56
330.201	3789.56
330.43	3675.56
330.658	3600.56
330.887	3496.56
331.115	3515.56
331.344	3428.56
331.572	3407.56
331.801	3465.56
332.03	3433.56
332.258	3548.56
332.486	3704.56
332.715	4229.56
332.943	5114.56
333.172	6356.56
333.4	6370.56
333.629	4861.56
333.857	4491.56
334.085	4421.56
334.314	4665.56
334.542	5069.56
334.771	6039.56
334.999	7276.56
335.227	9302.56
335.455	10348.56
335.684	9393.56
335.912	7608.56
336.14	6421.56
336.369	5645.56
336.597	5222.56
336.825	4809.56
337.053	4476.56
337.281	4194.56
337.51	3948.56
337.738	3796.56
337.966	3702.56
338.194	3561.56
338.422	3493.56
338.65	3324.56
338.878	3276.56
339.106	3176.56
339.334	3212.56
339.562	3093.56
339.79	3065.56
340.018	3018.56
340.246	2988.56
340.474	3031.56
340.702	3013.56
340.93	2996.56
341.158	2943.56
341.386	2966.56
341.614	2950.56
341.842	2845.56
342.07	2836.56
342.298	2823.56
342.526	2782.56
342.754	2721.56
342.981	2702.56
343.209	2663.56
343.437	2656.56
343.665	2756.56
343.893	2800.56
344.12	2836.56
344.348	2790.56
344.576	2744.56
344.804	2668.56
345.031	2635.56
345.259	2588.56
345.487	2567.56
345.714	2575.56
345.942	2500.56
346.17	2511.56
346.397	2537.56
346.625	2502.56
346.853	2490.56
347.08	2460.56
347.308	2523.56
347.535	2480.56
347.763	2462.56
347.99	2506.56
348.218	2472.56
348.445	2438.56
348.673	2426.56
348.9	2426.56
349.128	2418.56
349.355	2397.56
349.583	2418.56
349.81	2388.56
350.037	2395.56
350.265	2397.56
350.492	2377.56
350.72	2389.56
350.947	2378.56
351.174	2397.56
351.402	2387.56
351.629	2362.56
351.856	2346.56
352.083	2374.56
352.311	2358.56
352.538	2343.56
352.765	2371.56
352.992	2330.56
353.22	2326.56
353.447	2365.56
353.674	2359.56
353.901	2374.56
354.128	2376.56
354.355	2362.56
354.583	2396.56
354.81	2350.56
355.037	2406.56
355.264	2419.56
355.491	2410.56
355.718	2383.56
355.945	2437.56
356.172	2471.56
356.399	2428.56
356.626	2467.56
356.853	2508.56
357.08	2458.56
357.307	2489.56
357.534	2548.56
357.761	2544.56
357.988	2608.56
358.215	2539.56
358.441	2587.56
358.668	2520.56
358.895	2522.56
359.122	2490.56
359.349	2496.56
359.576	2442.56
359.802	2536.56
360.029	2481.56
360.256	2527.56
360.483	2548.56
360.709	2544.56
360.936	2555.56
361.163	2528.56
361.39	2576.56
361.616	2548.56
361.843	2560.56
362.07	2563.56
362.296	2534.56
362.523	2529.56
362.749	2579.56
362.976	2520.56
363.203	2508.56
363.429	2430.56
363.656	2498.56
363.882	2501.56
364.109	2497.56
364.335	2526.56
364.562	2507.56
364.788	2497.56
365.015	2547.56
365.241	2630.56
365.468	2741.56
365.694	2924.56
365.92	2856.56
366.147	2603.56
366.373	2571.56
366.599	2566.56
366.826	2538.56
367.052	2597.56
367.278	2581.56
367.505	2586.56
367.731	2597.56
367.957	2578.56
368.184	2624.56
368.41	2641.56
368.636	2652.56
368.862	2586.56
369.089	2617.56
369.315	2645.56
369.541	2629.56
369.767	2638.56
369.993	2581.56
370.219	2619.56
370.445	2644.56
370.672	2660.56
370.898	2650.56
371.124	2695.56
371.35	2654.56
371.576	2681.56
371.802	2724.56
372.028	2668.56
372.254	2729.56
372.48	2746.56
372.706	2767.56
372.932	2748.56
373.158	2764.56
373.384	2744.56
373.61	2741.56
373.835	2802.56
374.061	2792.56
374.287	2753.56
374.513	2826.56
374.739	2910.56
374.965	2895.56
375.191	2854.56
375.416	2912.56
375.642	2835.56
375.868	2829.56
376.094	2780.56
376.319	2780.56
376.545	2789.56
376.771	2773.56
376.997	2722.56
377.222	2762.56
377.448	2698.56
377.674	2700.56
377.899	2685.56
378.125	2688.56
378.35	2737.56
378.576	2730.56
378.802	2755.56
379.027	2772.56
379.253	2891.56
379.478	2996.56
379.704	3577.56
379.929	4930.56
380.155	7581.56
380.38	8196.56
380.606	5077.56
380.831	3592.56
381.057	3194.56
381.282	2939.56
381.507	2829.56
381.733	2778.56
381.958	2713.56
382.184	2682.56
382.409	2722.56
382.634	2658.56
382.86	2691.56
383.085	2669.56
383.31	2708.56
383.535	2705.56
383.761	2665.56
383.986	2657.56
384.211	2726.56
384.436	2732.56
384.662	2793.56
384.887	2804.56
385.112	2758.56
385.337	2770.56
385.562	2723.56
385.787	2757.56
386.013	2786.56
386.238	2753.56
386.463	2779.56
386.688	2774.56
386.913	2710.56
387.138	2721.56
387.363	2757.56
387.588	2744.56
387.813	2733.56
388.038	2788.56
388.263	2764.56
388.488	2787.56
388.713	2754.56
388.938	2744.56
389.163	2742.56
389.387	2745.56
389.612	2710.56
389.837	2707.56
390.062	2770.56
390.287	2786.56
390.512	2824.56
390.736	2808.56
390.961	2859.56
391.186	2841.56
391.411	2882.56
391.636	2853.56
391.86	2864.56
392.085	2925.56
392.31	2852.56
392.534	2860.56
392.759	2803.56
392.984	2801.56
393.208	2800.56
393.433	2744.56
393.658	2779.56
393.882	2757.56
394.107	2800.56
394.331	2776.56
394.556	2821.56
394.78	2832.56
395.005	2790.56
395.229	2808.56
395.454	2888.56
395.678	2924.56
395.903	2858.56
396.127	2882.56
396.352	2792.56
396.576	2827.56
396.801	2812.56
397.025	2906.56
397.249	2852.56
397.474	2897.56
397.698	2890.56
397.922	2925.56
398.147	2932.56
398.371	2892.56
398.595	3020.56
398.82	3036.56
399.044	3184.56
399.268	3297.56
399.492	3546.56
399.717	3596.56
399.941	3599.56
400.165	3474.56
400.389	3360.56
400.613	3226.56
400.837	3138.56
401.062	3097.56
401.286	3004.56
401.51	3052.56
401.734	3008.56
401.958	3127.56
402.182	3056.56
402.406	3030.56
402.63	3046.56
402.854	3049.56
403.078	3100.56
403.302	3062.56
403.526	3124.56
403.75	3105.56
403.974	3192.56
404.198	3124.56
404.422	3214.56
404.645	3152.56
404.869	3106.56
405.093	3147.56
405.317	3165.56
405.541	3185.56
405.765	3259.56
405.988	3210.56
406.212	3252.56
406.436	3213.56
406.66	3260.56
406.883	3236.56
407.107	3391.56
407.331	3384.56
407.555	3456.56
407.778	3428.56
408.002	3426.56
408.226	3400.56
408.449	3352.56
408.673	3302.56
408.896	3208.56
409.12	3210.56
409.344	3255.56
409.567	3186.56
409.791	3180.56
410.014	3140.56
410.238	3077.56
410.461	3108.56
410.685	3047.56
410.908	3096.56
411.132	3003.56
411.355	2984.56
411.578	3016.56
411.802	2982.56
412.025	2970.56
412.249	2988.56
412.472	3021.56
412.695	2934.56
412.919	2918.56
413.142	2996.56
413.365	2948.56
413.589	2991.56
413.812	2962.56
414.035	2940.56
414.258	2973.56
414.482	2969.56
414.705	3002.56
414.928	2973.56
415.151	2969.56
415.374	2929.56
415.597	2877.56
415.821	2820.56
416.044	2821.56
416.267	2825.56
416.49	2810.56
416.713	2817.56
416.936	2845.56
417.159	2797.56
417.382	2739.56
417.605	2758.56
417.828	2796.56
418.051	2830.56
418.274	2797.56
418.497	2877.56
418.72	2996.56
418.943	2854.56
419.166	2992.56
419.389	3186.56
419.611	3100.56
419.834	3045.56
420.057	2992.56
420.28	2901.56
420.503	2838.56
420.726	2806.56
420.948	2819.56
421.171	2892.56
421.394	2833.56
421.617	2868.56
421.839	2912.56
422.062	2827.56
422.285	2783.56
422.507	2890.56
422.73	2945.56
422.953	2889.56
423.175	2996.56
423.398	2887.56
423.621	2848.56
423.843	2866.56
424.066	2866.56
424.288	2874.56
424.511	2871.56
424.733	2835.56
424.956	2787.56
425.178	2784.56
425.401	2789.56
425.623	2819.56
425.846	2737.56
426.068	2742.56
426.291	2743.56
426.513	2749.56
426.735	2715.56
426.958	2698.56
427.18	2648.56
427.402	2655.56
427.625	2729.56
427.847	2623.56
428.069	2629.56
428.292	2649.56
428.514	2648.56
428.736	2593.56
428.958	2633.56
429.181	2555.56
429.403	2568.56
429.625	2639.56
429.847	2612.56
430.069	2674.56
430.292	2726.56
430.514	2821.56
430.736	2816.56
430.958	2661.56
431.18	2588.56
431.402	2669.56
431.624	2569.56
431.846	2605.56
432.068	2620.56
432.29	2620.56
432.512	2570.56
432.734	2648.56
432.956	2630.56
433.178	2632.56
433.4	2583.56
433.622	2676.56
433.844	2662.56
434.066	2651.56
434.287	2661.56
434.509	2646.56
434.731	2695.56
434.953	2712.56
435.175	2714.56
435.397	2756.56
435.618	2657.56
435.84	2600.56
436.062	2588.56
436.284	2588.56
436.505	2586.56
436.727	2617.56
436.949	2554.56
437.17	2548.56
437.392	2546.56
437.614	2582.56
437.835	2508.56
438.057	2531.56
438.278	2505.56
438.5	2530.56
438.721	2567.56
438.943	2641.56
439.165	2699.56
439.386	2744.56
439.608	2663.56
439.829	2648.56
440.05	2784.56
440.272	2829.56
440.493	2690.56
440.715	2645.56
440.936	2696.56
441.158	2726.56
441.379	2734.56
441.6	2850.56
441.822	2876.56
442.043	3007.56
442.264	3116.56
442.486	2970.56
442.707	2755.56
442.928	2780.56
443.149	2771.56
443.371	2801.56
443.592	2805.56
443.813	2819.56
444.034	2797.56
444.255	2843.56
444.476	2936.56
444.698	2966.56
444.919	3013.56
445.14	3021.56
445.361	2893.56
445.582	2894.56
445.803	2824.56
446.024	2800.56
446.245	2727.56
446.466	2764.56
446.687	2696.56
446.908	2754.56
447.129	2635.56
447.35	2653.56
447.571	2652.56
447.792	2567.56
448.013	2586.56
448.234	2532.56
448.455	2546.56
448.675	2632.56
448.896	2686.56
449.117	2723.56
449.338	3008.56
449.559	3074.56
449.779	2748.56
450	2570.56
450.221	2549.56
450.442	2528.56
450.662	2530.56
450.883	2495.56
451.104	2532.56
451.324	2527.56
451.545	2512.56
451.766	2493.56
451.986	2548.56
452.207	2777.56
452.428	3469.56
452.648	5164.56
452.869	4426.56
453.089	3092.56
453.31	2903.56
453.53	2892.56
453.751	2949.56
453.971	3137.56
454.192	3024.56
454.412	2653.56
454.633	2454.56
454.853	2425.56
455.073	2418.56
455.294	2425.56
455.514	2370.56
455.734	2415.56
455.955	2395.56
456.175	2338.56
456.395	2354.56
456.616	2458.56
456.836	2494.56
457.056	2475.56
457.276	2487.56
457.497	2556.56
457.717	2563.56
457.937	2532.56
458.157	2542.56
458.377	2525.56
458.598	2582.56
458.818	2591.56
459.038	2602.56
459.258	2566.56
459.478	2649.56
459.698	2621.56
459.918	2702.56
460.138	2663.56
460.358	2773.56
460.578	2789.56
460.798	2782.56
461.018	2852.56
461.238	2818.56
461.458	2856.56
461.678	2856.56
461.898	2969.56
462.118	2970.56
462.338	3028.56
462.558	3030.56
462.777	3118.56
462.997	3223.56
463.217	3363.56
463.437	3460.56
463.657	3574.56
463.876	3518.56
464.096	3311.56
464.316	3194.56
464.536	3083.56
464.755	3029.56
464.975	3002.56
465.195	2887.56
465.414	2805.56
465.634	2671.56
465.854	2716.56
466.073	2650.56
466.293	2644.56
466.512	2682.56
466.732	2665.56
466.951	2748.56
467.171	2950.56
467.391	2877.56
467.61	2683.56
467.829	2632.56
468.049	2618.56
468.268	2573.56
468.488	2528.56
468.707	2583.56
468.927	2544.56
469.146	2504.56
469.365	2623.56
469.585	2615.56
469.804	2665.56
470.023	2688.56
470.243	2728.56
470.462	2883.56
470.681	2981.56
470.901	3272.56
471.12	3642.56
471.339	3661.56
471.558	3052.56
471.777	2818.56
471.997	2685.56
472.216	2669.56
472.435	2682.56
472.654	2600.56
472.873	2540.56
473.092	2580.56
473.311	2566.56
473.53	2662.56
473.749	2692.56
473.968	2745.56
474.187	2593.56
474.406	2582.56
474.625	2595.56
474.844	2589.56
475.063	2574.56
475.282	2592.56
475.501	2641.56
475.72	2640.56
475.939	2658.56
476.158	2674.56
476.377	2711.56
476.596	2714.56
476.814	2760.56
477.033	2694.56
477.252	2753.56
477.471	2781.56
477.69	2853.56
477.908	2874.56
478.127	2917.56
478.346	2897.56
478.564	2937.56
478.783	2983.56
479.002	3052.56
479.22	3041.56
479.439	3118.56
479.658	3084.56
479.876	3040.56
480.095	3141.56
480.313	3187.56
480.532	3223.56
480.751	3244.56
480.969	3144.56
481.188	3101.56
481.406	3124.56
481.624	3136.56
481.843	3130.56
482.061	3115.56
482.28	3091.56
482.498	3128.56
482.717	3144.56
482.935	3186.56
483.153	3196.56
483.372	3170.56
483.59	3236.56
483.808	3274.56
484.027	3354.56
484.245	3549.56
484.463	3967.56
484.681	4404.56
484.9	4020.56
485.118	3753.56
485.336	3753.56
485.554	3750.56
485.772	3948.56
485.99	4426.56
486.209	4770.56
486.427	4042.56
486.645	3602.56
486.863	3543.56
487.081	3395.56
487.299	3306.56
487.517	3317.56
487.735	3314.56
