Data from SnStandardFlinnAPT0064_LampEnergy5.5_LIBS07252019.E.O._I.C._HRD10591_15-16-57-492.txt Node
Date: Thu Jul 25 15:16:57 EDT 2019
User: cochatt
Spectrometer: HR+D1059
Trigger mode: 1
Integration Time (sec): 1.000000E-1
Scans to average: 1
Electric dark correction enabled: true
Nonlinearity correction enabled: false
Boxcar width: 0
XAxis mode: Wavelengths
Number of Pixels in Spectrum: 2048
>>>>>Begin Spectral Data<<<<<
223.165	-8.81
223.4	-8.81
223.635	-8.81
223.869	-13.81
224.104	-14.81
224.338	-16.81
224.573	-4.81
224.808	-15.81
225.042	-17.81
225.277	-7.81
225.511	1.19
225.746	-15.81
225.98	5.19
226.215	13.19
226.449	23.19
226.683	20.19
226.918	17.19
227.152	36.19
227.387	34.19
227.621	24.19
227.856	45.19
228.09	56.19
228.324	49.19
228.559	56.19
228.793	80.19
229.027	154.19
229.262	165.19
229.496	137.19
229.73	144.19
229.964	133.19
230.199	171.19
230.433	160.19
230.667	159.19
230.901	166.19
231.136	180.19
231.37	181.19
231.604	213.19
231.838	207.19
232.072	238.19
232.306	265.19
232.541	227.19
232.775	194.19
233.009	204.19
233.243	183.19
233.477	221.19
233.711	248.19
233.945	275.19
234.179	243.19
234.413	227.19
234.647	212.19
234.881	216.19
235.115	245.19
235.349	287.19
235.583	351.19
235.817	460.19
236.051	453.19
236.285	310.19
236.519	230.19
236.753	219.19
236.987	241.19
237.221	252.19
237.455	240.19
237.689	218.19
237.922	238.19
238.156	226.19
238.39	230.19
238.624	226.19
238.858	221.19
239.091	238.19
239.325	227.19
239.559	245.19
239.793	231.19
240.027	253.19
240.26	258.19
240.494	237.19
240.728	257.19
240.961	287.19
241.195	296.19
241.429	310.19
241.662	315.19
241.896	350.19
242.13	408.19
242.363	533.19
242.597	683.19
242.83	661.19
243.064	654.19
243.298	781.19
243.531	660.19
243.765	423.19
243.998	352.19
244.232	323.19
244.465	295.19
244.699	302.19
244.932	279.19
245.166	291.19
245.399	305.19
245.633	296.19
245.866	303.19
246.099	299.19
246.333	300.19
246.566	310.19
246.8	294.19
247.033	298.19
247.266	283.19
247.5	288.19
247.733	304.19
247.966	325.19
248.2	356.19
248.433	373.19
248.666	430.19
248.899	411.19
249.133	355.19
249.366	373.19
249.599	409.19
249.832	435.19
250.066	476.19
250.299	371.19
250.532	337.19
250.765	346.19
250.998	342.19
251.231	319.19
251.465	348.19
251.698	345.19
251.931	323.19
252.164	348.19
252.397	346.19
252.63	352.19
252.863	358.19
253.096	342.19
253.329	341.19
253.562	352.19
253.795	345.19
254.028	369.19
254.261	387.19
254.494	371.19
254.727	443.19
254.96	519.19
255.193	504.19
255.426	426.19
255.659	407.19
255.892	390.19
256.124	393.19
256.357	403.19
256.59	402.19
256.823	428.19
257.056	475.19
257.289	552.19
257.521	607.19
257.754	500.19
257.987	414.19
258.22	398.19
258.452	418.19
258.685	429.19
258.918	423.19
259.151	419.19
259.383	469.19
259.616	521.19
259.849	559.19
260.081	471.19
260.314	440.19
260.547	434.19
260.779	414.19
261.012	446.19
261.244	440.19
261.477	432.19
261.71	437.19
261.942	437.19
262.175	445.19
262.407	472.19
262.64	470.19
262.872	483.19
263.105	509.19
263.337	531.19
263.57	521.19
263.802	559.19
264.035	580.19
264.267	589.19
264.499	599.19
264.732	624.19
264.964	655.19
265.197	625.19
265.429	648.19
265.661	640.19
265.894	679.19
266.126	768.19
266.358	824.19
266.591	838.19
266.823	693.19
267.055	636.19
267.287	585.19
267.52	563.19
267.752	585.19
267.984	548.19
268.216	565.19
268.448	561.19
268.681	560.19
268.913	522.19
269.145	533.19
269.377	555.19
269.609	536.19
269.841	561.19
270.073	588.19
270.306	681.19
270.538	943.19
270.77	1358.19
271.002	1587.19
271.234	1155.19
271.466	754.19
271.698	628.19
271.93	567.19
272.162	567.19
272.394	550.19
272.626	553.19
272.858	538.19
273.09	525.19
273.322	549.19
273.553	531.19
273.785	522.19
274.017	525.19
274.249	538.19
274.481	532.19
274.713	551.19
274.945	552.19
275.176	557.19
275.408	546.19
275.64	533.19
275.872	541.19
276.104	545.19
276.335	561.19
276.567	566.19
276.799	577.19
277.031	572.19
277.262	579.19
277.494	598.19
277.726	671.19
277.957	742.19
278.189	837.19
278.421	822.19
278.652	724.19
278.884	707.19
279.115	616.19
279.347	594.19
279.579	592.19
279.81	570.19
280.042	591.19
280.273	605.19
280.505	601.19
280.736	643.19
280.968	690.19
281.199	698.19
281.431	798.19
281.662	819.19
281.894	749.19
282.125	688.19
282.356	697.19
282.588	673.19
282.819	721.19
283.051	747.19
283.282	805.19
283.513	1031.19
283.745	1509.19
283.976	2371.19
284.207	3389.19
284.439	2962.19
284.67	1795.19
284.901	1423.19
285.132	1404.19
285.364	1323.19
285.595	1051.19
285.826	981.19
286.057	1175.19
286.288	1583.19
286.52	2193.19
286.751	1988.19
286.982	1215.19
287.213	924.19
287.444	814.19
287.675	764.19
287.906	742.19
288.138	747.19
288.369	696.19
288.6	722.19
288.831	722.19
289.062	733.19
289.293	722.19
289.524	714.19
289.755	711.19
289.986	707.19
290.217	692.19
290.448	747.19
290.679	717.19
290.91	751.19
291.141	747.19
291.371	805.19
291.602	865.19
291.833	792.19
292.064	732.19
292.295	740.19
292.526	695.19
292.757	684.19
292.987	688.19
293.218	696.19
293.449	683.19
293.68	689.19
293.91	668.19
294.141	707.19
294.372	646.19
294.603	660.19
294.833	665.19
295.064	661.19
295.295	692.19
295.525	665.19
295.756	678.19
295.987	670.19
296.217	672.19
296.448	660.19
296.679	664.19
296.909	687.19
297.14	691.19
297.37	712.19
297.601	701.19
297.831	708.19
298.062	710.19
298.292	727.19
298.523	718.19
298.753	705.19
298.984	709.19
299.214	702.19
299.445	755.19
299.675	758.19
299.905	764.19
300.136	818.19
300.366	879.19
300.597	1168.19
300.827	1575.19
301.057	2107.19
301.288	2111.19
301.518	1357.19
301.748	1026.19
301.979	948.19
302.209	932.19
302.439	902.19
302.669	1005.19
302.9	1216.19
303.13	1668.19
303.36	2528.19
303.59	3298.19
303.82	2884.19
304.051	1655.19
304.281	1171.19
304.511	996.19
304.741	929.19
304.971	880.19
305.201	864.19
305.431	820.19
305.661	804.19
305.891	797.19
306.121	777.19
306.352	795.19
306.582	787.19
306.812	777.19
307.042	787.19
307.272	759.19
307.502	782.19
307.731	798.19
307.961	792.19
308.191	794.19
308.421	795.19
308.651	807.19
308.881	755.19
309.111	758.19
309.341	784.19
309.571	793.19
309.8	801.19
310.03	770.19
310.26	791.19
310.49	807.19
310.72	813.19
310.949	805.19
311.179	834.19
311.409	821.19
311.639	791.19
311.868	819.19
312.098	819.19
312.328	822.19
312.557	839.19
312.787	824.19
313.017	832.19
313.246	848.19
313.476	863.19
313.706	877.19
313.935	917.19
314.165	969.19
314.394	1026.19
314.624	966.19
314.853	911.19
315.083	893.19
315.312	917.19
315.542	929.19
315.771	923.19
316.001	940.19
316.23	978.19
316.46	977.19
316.689	1110.19
316.919	1316.19
317.148	1883.19
317.377	2961.19
317.607	4413.19
317.836	4459.19
318.065	2579.19
318.295	1643.19
318.524	1323.19
318.753	1158.19
318.983	1083.19
319.212	1056.19
319.441	1009.19
319.67	997.19
319.9	987.19
320.129	1009.19
320.358	961.19
320.587	952.19
320.816	975.19
321.046	989.19
321.275	991.19
321.504	1018.19
321.733	1031.19
321.962	1031.19
322.191	1052.19
322.42	1037.19
322.649	1061.19
322.878	1041.19
323.108	1013.19
323.337	1065.19
323.566	1075.19
323.795	1059.19
324.024	1108.19
324.253	1120.19
324.482	1145.19
324.71	1225.19
324.939	1276.19
325.168	1320.19
325.397	1352.19
325.626	1599.19
325.855	2289.19
326.084	3605.19
326.313	5384.19
326.542	5668.19
326.77	3537.19
326.999	2259.19
327.228	1866.19
327.457	1800.19
327.686	1837.19
327.914	1965.19
328.143	2254.19
328.372	2540.19
328.6	2813.19
328.829	2578.19
329.058	2236.19
329.287	1983.19
329.515	1825.19
329.744	1697.19
329.972	1636.19
330.201	1548.19
330.43	1498.19
330.658	1469.19
330.887	1438.19
331.115	1445.19
331.344	1419.19
331.572	1414.19
331.801	1396.19
332.03	1418.19
332.258	1432.19
332.486	1527.19
332.715	1722.19
332.943	2075.19
333.172	2589.19
333.4	2561.19
333.629	1945.19
333.857	1776.19
334.085	1787.19
334.314	1812.19
334.542	1967.19
334.771	2299.19
334.999	2798.19
335.227	3383.19
335.455	3787.19
335.684	3535.19
335.912	2927.19
336.14	2485.19
336.369	2221.19
336.597	2064.19
336.825	1931.19
337.053	1817.19
337.281	1695.19
337.51	1654.19
337.738	1568.19
337.966	1505.19
338.194	1482.19
338.422	1405.19
338.65	1425.19
338.878	1352.19
339.106	1335.19
339.334	1354.19
339.562	1311.19
339.79	1255.19
340.018	1280.19
340.246	1256.19
340.474	1252.19
340.702	1234.19
340.93	1259.19
341.158	1225.19
341.386	1211.19
341.614	1220.19
341.842	1231.19
342.07	1203.19
342.298	1187.19
342.526	1171.19
342.754	1142.19
342.981	1149.19
343.209	1136.19
343.437	1186.19
343.665	1145.19
343.893	1189.19
344.12	1193.19
344.348	1184.19
344.576	1168.19
344.804	1125.19
345.031	1125.19
345.259	1108.19
345.487	1114.19
345.714	1124.19
345.942	1067.19
346.17	1078.19
346.397	1062.19
346.625	1075.19
346.853	1065.19
347.08	1053.19
347.308	1080.19
347.535	1051.19
347.763	1075.19
347.99	1044.19
348.218	1056.19
348.445	1083.19
348.673	1057.19
348.9	1027.19
349.128	1059.19
349.355	1042.19
349.583	1069.19
349.81	1043.19
350.037	1016.19
350.265	1054.19
350.492	1042.19
350.72	1027.19
350.947	1023.19
351.174	1028.19
351.402	1008.19
351.629	992.19
351.856	1026.19
352.083	1036.19
352.311	1021.19
352.538	997.19
352.765	1021.19
352.992	1024.19
353.22	1019.19
353.447	1005.19
353.674	1042.19
353.901	1039.19
354.128	992.19
354.355	1017.19
354.583	1034.19
354.81	1023.19
355.037	1037.19
355.264	1040.19
355.491	1016.19
355.718	1044.19
355.945	1062.19
356.172	1041.19
356.399	1042.19
356.626	1067.19
356.853	1048.19
357.08	1045.19
357.307	1064.19
357.534	1062.19
357.761	1074.19
357.988	1107.19
358.215	1072.19
358.441	1091.19
358.668	1072.19
358.895	1102.19
359.122	1075.19
359.349	1069.19
359.576	1085.19
359.802	1083.19
360.029	1089.19
360.256	1091.19
360.483	1104.19
360.709	1093.19
360.936	1112.19
361.163	1079.19
361.39	1107.19
361.616	1085.19
361.843	1071.19
362.07	1095.19
362.296	1082.19
362.523	1077.19
362.749	1102.19
362.976	1061.19
363.203	1073.19
363.429	1087.19
363.656	1081.19
363.882	1079.19
364.109	1089.19
364.335	1067.19
364.562	1071.19
364.788	1102.19
365.015	1094.19
365.241	1119.19
365.468	1159.19
365.694	1189.19
365.92	1199.19
366.147	1123.19
366.373	1096.19
366.599	1116.19
366.826	1109.19
367.052	1095.19
367.278	1117.19
367.505	1087.19
367.731	1128.19
367.957	1106.19
368.184	1100.19
368.41	1136.19
368.636	1121.19
368.862	1116.19
369.089	1131.19
369.315	1147.19
369.541	1148.19
369.767	1126.19
369.993	1150.19
370.219	1137.19
370.445	1140.19
370.672	1149.19
370.898	1142.19
371.124	1130.19
371.35	1136.19
371.576	1197.19
371.802	1176.19
372.028	1205.19
372.254	1172.19
372.48	1166.19
372.706	1185.19
372.932	1197.19
373.158	1158.19
373.384	1177.19
373.61	1195.19
373.835	1209.19
374.061	1200.19
374.287	1186.19
374.513	1203.19
374.739	1240.19
374.965	1255.19
375.191	1234.19
375.416	1200.19
375.642	1197.19
375.868	1217.19
376.094	1217.19
376.319	1181.19
376.545	1192.19
376.771	1156.19
376.997	1171.19
377.222	1150.19
377.448	1163.19
377.674	1193.19
377.899	1178.19
378.125	1139.19
378.35	1148.19
378.576	1182.19
378.802	1191.19
379.027	1205.19
379.253	1219.19
379.478	1293.19
379.704	1509.19
379.929	2130.19
380.155	3188.19
380.38	3447.19
380.606	2050.19
380.831	1495.19
381.057	1328.19
381.282	1241.19
381.507	1184.19
381.733	1190.19
381.958	1187.19
382.184	1145.19
382.409	1157.19
382.634	1124.19
382.86	1142.19
383.085	1146.19
383.31	1147.19
383.535	1132.19
383.761	1123.19
383.986	1181.19
384.211	1179.19
384.436	1199.19
384.662	1187.19
384.887	1200.19
385.112	1187.19
385.337	1183.19
385.562	1183.19
385.787	1196.19
386.013	1195.19
386.238	1206.19
386.463	1196.19
386.688	1196.19
386.913	1190.19
387.138	1199.19
387.363	1211.19
387.588	1195.19
387.813	1218.19
388.038	1182.19
388.263	1189.19
388.488	1215.19
388.713	1200.19
388.938	1201.19
389.163	1190.19
389.387	1194.19
389.612	1195.19
389.837	1191.19
390.062	1189.19
390.287	1207.19
390.512	1212.19
390.736	1220.19
390.961	1280.19
391.186	1236.19
391.411	1241.19
391.636	1256.19
391.86	1223.19
392.085	1257.19
392.31	1259.19
392.534	1245.19
392.759	1244.19
392.984	1231.19
393.208	1255.19
393.433	1280.19
393.658	1249.19
393.882	1197.19
394.107	1205.19
394.331	1230.19
394.556	1220.19
394.78	1233.19
395.005	1231.19
395.229	1221.19
395.454	1228.19
395.678	1254.19
395.903	1241.19
396.127	1254.19
396.352	1256.19
396.576	1219.19
396.801	1248.19
397.025	1307.19
397.249	1224.19
397.474	1275.19
397.698	1238.19
397.922	1269.19
398.147	1264.19
398.371	1316.19
398.595	1309.19
398.82	1318.19
399.044	1395.19
399.268	1455.19
399.492	1523.19
399.717	1595.19
399.941	1568.19
400.165	1531.19
400.389	1471.19
400.613	1413.19
400.837	1373.19
401.062	1377.19
401.286	1340.19
401.51	1301.19
401.734	1304.19
401.958	1349.19
402.182	1320.19
402.406	1327.19
402.63	1359.19
402.854	1363.19
403.078	1354.19
403.302	1351.19
403.526	1390.19
403.75	1395.19
403.974	1383.19
404.198	1394.19
404.422	1391.19
404.645	1378.19
404.869	1380.19
405.093	1367.19
405.317	1366.19
405.541	1399.19
405.765	1403.19
405.988	1409.19
406.212	1427.19
406.436	1406.19
406.66	1421.19
406.883	1407.19
407.107	1453.19
407.331	1419.19
407.555	1505.19
407.778	1496.19
408.002	1485.19
408.226	1465.19
408.449	1447.19
408.673	1393.19
408.896	1398.19
409.12	1382.19
409.344	1390.19
409.567	1376.19
409.791	1354.19
410.014	1369.19
410.238	1335.19
410.461	1406.19
410.685	1346.19
410.908	1319.19
411.132	1368.19
411.355	1295.19
411.578	1306.19
411.802	1327.19
412.025	1323.19
412.249	1316.19
412.472	1329.19
412.695	1289.19
412.919	1283.19
413.142	1305.19
413.365	1298.19
413.589	1301.19
413.812	1275.19
414.035	1268.19
414.258	1301.19
414.482	1284.19
414.705	1319.19
414.928	1310.19
415.151	1319.19
415.374	1266.19
415.597	1284.19
415.821	1276.19
416.044	1231.19
416.267	1233.19
416.49	1250.19
416.713	1239.19
416.936	1264.19
417.159	1285.19
417.382	1243.19
417.605	1239.19
417.828	1281.19
418.051	1261.19
418.274	1265.19
418.497	1247.19
418.72	1307.19
418.943	1248.19
419.166	1352.19
419.389	1380.19
419.611	1389.19
419.834	1299.19
420.057	1313.19
420.28	1256.19
420.503	1260.19
420.726	1263.19
420.948	1268.19
421.171	1263.19
421.394	1244.19
421.617	1235.19
421.839	1274.19
422.062	1292.19
422.285	1245.19
422.507	1302.19
422.73	1286.19
422.953	1284.19
423.175	1303.19
423.398	1283.19
423.621	1247.19
423.843	1255.19
424.066	1289.19
424.288	1261.19
424.511	1253.19
424.733	1296.19
424.956	1277.19
425.178	1224.19
425.401	1233.19
425.623	1260.19
425.846	1206.19
426.068	1211.19
426.291	1220.19
426.513	1207.19
426.735	1221.19
426.958	1204.19
427.18	1175.19
427.402	1185.19
427.625	1169.19
427.847	1154.19
428.069	1143.19
428.292	1187.19
428.514	1156.19
428.736	1157.19
428.958	1150.19
429.181	1136.19
429.403	1154.19
429.625	1151.19
429.847	1165.19
430.069	1184.19
430.292	1217.19
430.514	1257.19
430.736	1245.19
430.958	1199.19
431.18	1167.19
431.402	1175.19
431.624	1142.19
431.846	1118.19
432.068	1116.19
432.29	1136.19
432.512	1142.19
432.734	1157.19
432.956	1153.19
433.178	1173.19
433.4	1154.19
433.622	1189.19
433.844	1169.19
434.066	1144.19
434.287	1133.19
434.509	1156.19
434.731	1200.19
434.953	1204.19
435.175	1223.19
435.397	1195.19
435.618	1169.19
435.84	1168.19
436.062	1137.19
436.284	1150.19
436.505	1165.19
436.727	1145.19
436.949	1135.19
437.17	1146.19
437.392	1153.19
437.614	1104.19
437.835	1088.19
438.057	1103.19
438.278	1097.19
438.5	1125.19
438.721	1151.19
438.943	1167.19
439.165	1184.19
439.386	1165.19
439.608	1189.19
439.829	1196.19
440.05	1225.19
440.272	1265.19
440.493	1191.19
440.715	1187.19
440.936	1165.19
441.158	1204.19
441.379	1221.19
441.6	1273.19
441.822	1313.19
442.043	1368.19
442.264	1391.19
442.486	1297.19
442.707	1212.19
442.928	1215.19
443.149	1225.19
443.371	1221.19
443.592	1227.19
443.813	1253.19
444.034	1261.19
444.255	1301.19
444.476	1276.19
444.698	1324.19
444.919	1337.19
445.14	1401.19
445.361	1363.19
445.582	1289.19
445.803	1235.19
446.024	1248.19
446.245	1221.19
446.466	1228.19
446.687	1201.19
446.908	1204.19
447.129	1197.19
447.35	1160.19
447.571	1164.19
447.792	1164.19
448.013	1162.19
448.234	1097.19
448.455	1113.19
448.675	1158.19
448.896	1162.19
449.117	1229.19
449.338	1315.19
449.559	1372.19
449.779	1171.19
450	1147.19
450.221	1123.19
450.442	1102.19
450.662	1109.19
450.883	1092.19
451.104	1096.19
451.324	1106.19
451.545	1120.19
451.766	1094.19
451.986	1143.19
452.207	1179.19
452.428	1448.19
452.648	2083.19
452.869	1784.19
453.089	1293.19
453.31	1227.19
453.53	1203.19
453.751	1234.19
453.971	1346.19
454.192	1331.19
454.412	1162.19
454.633	1111.19
454.853	1097.19
455.073	1064.19
455.294	1082.19
455.514	1061.19
455.734	1068.19
455.955	1058.19
456.175	1076.19
456.395	1056.19
456.616	1021.19
456.836	1063.19
457.056	1061.19
457.276	1060.19
457.497	1152.19
457.717	1148.19
457.937	1133.19
458.157	1122.19
458.377	1128.19
458.598	1148.19
458.818	1103.19
459.038	1141.19
459.258	1115.19
459.478	1151.19
459.698	1162.19
459.918	1153.19
460.138	1205.19
460.358	1236.19
460.578	1228.19
460.798	1217.19
461.018	1251.19
461.238	1273.19
461.458	1273.19
461.678	1256.19
461.898	1271.19
462.118	1283.19
462.338	1323.19
462.558	1333.19
462.777	1368.19
462.997	1405.19
463.217	1463.19
463.437	1525.19
463.657	1548.19
463.876	1487.19
464.096	1423.19
464.316	1377.19
464.536	1365.19
464.755	1363.19
464.975	1309.19
465.195	1257.19
465.414	1250.19
465.634	1194.19
465.854	1170.19
466.073	1199.19
466.293	1162.19
466.512	1182.19
466.732	1172.19
466.951	1187.19
467.171	1317.19
467.391	1305.19
467.61	1155.19
467.829	1146.19
468.049	1144.19
468.268	1135.19
468.488	1125.19
468.707	1099.19
468.927	1135.19
469.146	1135.19
469.365	1139.19
469.585	1143.19
469.804	1141.19
470.023	1164.19
470.243	1224.19
470.462	1229.19
470.681	1273.19
470.901	1422.19
471.12	1648.19
471.339	1642.19
471.558	1342.19
471.777	1238.19
471.997	1192.19
472.216	1172.19
472.435	1157.19
472.654	1127.19
472.873	1128.19
473.092	1140.19
473.311	1141.19
473.53	1127.19
473.749	1177.19
473.968	1225.19
474.187	1167.19
474.406	1155.19
474.625	1135.19
474.844	1157.19
475.063	1162.19
475.282	1128.19
475.501	1142.19
475.72	1168.19
475.939	1174.19
476.158	1208.19
476.377	1191.19
476.596	1199.19
476.814	1199.19
477.033	1195.19
477.252	1226.19
477.471	1231.19
477.69	1250.19
477.908	1282.19
478.127	1279.19
478.346	1311.19
478.564	1331.19
478.783	1314.19
479.002	1327.19
479.22	1349.19
479.439	1331.19
479.658	1335.19
479.876	1344.19
480.095	1343.19
480.313	1378.19
480.532	1396.19
480.751	1397.19
480.969	1375.19
481.188	1344.19
481.406	1351.19
481.624	1319.19
481.843	1377.19
482.061	1310.19
482.28	1354.19
482.498	1331.19
482.717	1360.19
482.935	1378.19
483.153	1395.19
483.372	1414.19
483.59	1396.19
483.808	1432.19
484.027	1483.19
484.245	1520.19
484.463	1717.19
484.681	1915.19
484.9	1708.19
485.118	1607.19
485.336	1557.19
485.554	1585.19
485.772	1704.19
485.99	1949.19
486.209	2103.19
486.427	1718.19
486.645	1523.19
486.863	1511.19
487.081	1496.19
487.299	1470.19
487.517	1413.19
487.735	1456.19
487.953	1464.19
488.171	1490.19
488.389	1459.19
488.607	1440.19
488.825	1401.19
489.043	1361.19
489.261	1386.19
489.479	1378.19
489.696	1389.19
489.914	1405.19
490.132	1397.19
490.35	1390.19
490.568	1413.19
490.786	1480.19
