Data from SnStandardFlinnAPT0064_LampEnergy10_LIBS07252019.E.O._I.C._HRD10591_15-22-32-494.txt Node
Date: Thu Jul 25 15:22:32 EDT 2019
User: cochatt
Spectrometer: HR+D1059
Trigger mode: 1
Integration Time (sec): 1.000000E-1
Scans to average: 1
Electric dark correction enabled: true
Nonlinearity correction enabled: false
Boxcar width: 0
XAxis mode: Wavelengths
Number of Pixels in Spectrum: 2048
>>>>>Begin Spectral Data<<<<<
223.165	-5.5
223.4	-5.5
223.635	-5.5
223.869	-11.5
224.104	-18.5
224.338	-13.5
224.573	-23.5
224.808	-16.5
225.042	-11.5
225.277	-17.5
225.511	-13.5
225.746	9.5
225.98	-0.5
226.215	14.5
226.449	6.5
226.683	14.5
226.918	38.5
227.152	48.5
227.387	19.5
227.621	38.5
227.856	47.5
228.09	44.5
228.324	61.5
228.559	58.5
228.793	110.5
229.027	306.5
229.262	324.5
229.496	288.5
229.73	298.5
229.964	292.5
230.199	284.5
230.433	307.5
230.667	306.5
230.901	309.5
231.136	329.5
231.37	368.5
231.604	396.5
231.838	435.5
232.072	517.5
232.306	554.5
232.541	486.5
232.775	421.5
233.009	395.5
233.243	411.5
233.477	465.5
233.711	515.5
233.945	598.5
234.179	488.5
234.413	450.5
234.647	465.5
234.881	462.5
235.115	512.5
235.349	616.5
235.583	774.5
235.817	1005.5
236.051	1002.5
236.285	660.5
236.519	519.5
236.753	493.5
236.987	499.5
237.221	563.5
237.455	523.5
237.689	476.5
237.922	452.5
238.156	469.5
238.39	494.5
238.624	489.5
238.858	465.5
239.091	483.5
239.325	472.5
239.559	481.5
239.793	488.5
240.027	502.5
240.26	541.5
240.494	566.5
240.728	585.5
240.961	607.5
241.195	647.5
241.429	670.5
241.662	683.5
241.896	772.5
242.13	957.5
242.363	1268.5
242.597	1639.5
242.83	1567.5
243.064	1550.5
243.298	1865.5
243.531	1518.5
243.765	946.5
243.998	770.5
244.232	688.5
244.465	660.5
244.699	652.5
244.932	644.5
245.166	661.5
245.399	678.5
245.633	698.5
245.866	662.5
246.099	664.5
246.333	642.5
246.566	647.5
246.8	629.5
247.033	629.5
247.266	630.5
247.5	642.5
247.733	652.5
247.966	698.5
248.2	764.5
248.433	880.5
248.666	981.5
248.899	936.5
249.133	848.5
249.366	868.5
249.599	962.5
249.832	1079.5
250.066	1066.5
250.299	877.5
250.532	784.5
250.765	749.5
250.998	735.5
251.231	716.5
251.465	691.5
251.698	725.5
251.931	749.5
252.164	738.5
252.397	778.5
252.63	766.5
252.863	815.5
253.096	788.5
253.329	752.5
253.562	759.5
253.795	773.5
254.028	796.5
254.261	819.5
254.494	874.5
254.727	1031.5
254.96	1257.5
255.193	1250.5
255.426	959.5
255.659	836.5
255.892	841.5
256.124	856.5
256.357	858.5
256.59	896.5
256.823	965.5
257.056	1125.5
257.289	1362.5
257.521	1510.5
257.754	1186.5
257.987	946.5
258.22	904.5
258.452	914.5
258.685	905.5
258.918	942.5
259.151	965.5
259.383	1125.5
259.616	1231.5
259.849	1250.5
260.081	1076.5
260.314	1000.5
260.547	958.5
260.779	938.5
261.012	950.5
261.244	947.5
261.477	966.5
261.71	987.5
261.942	977.5
262.175	996.5
262.407	1018.5
262.64	1050.5
262.872	1075.5
263.105	1174.5
263.337	1206.5
263.57	1242.5
263.802	1332.5
264.035	1331.5
264.267	1329.5
264.499	1376.5
264.732	1432.5
264.964	1443.5
265.197	1431.5
265.429	1441.5
265.661	1464.5
265.894	1618.5
266.126	1815.5
266.358	1930.5
266.591	1916.5
266.823	1617.5
267.055	1512.5
267.287	1366.5
267.52	1314.5
267.752	1299.5
267.984	1255.5
268.216	1248.5
268.448	1251.5
268.681	1245.5
268.913	1254.5
269.145	1238.5
269.377	1229.5
269.609	1238.5
269.841	1269.5
270.073	1377.5
270.306	1613.5
270.538	2194.5
270.77	3262.5
271.002	4035.5
271.234	2780.5
271.466	1849.5
271.698	1463.5
271.93	1395.5
272.162	1316.5
272.394	1265.5
272.626	1273.5
272.858	1242.5
273.09	1222.5
273.322	1194.5
273.553	1209.5
273.785	1199.5
274.017	1215.5
274.249	1210.5
274.481	1157.5
274.713	1204.5
274.945	1168.5
275.176	1238.5
275.408	1217.5
275.64	1210.5
275.872	1216.5
276.104	1280.5
276.335	1290.5
276.567	1304.5
276.799	1273.5
277.031	1276.5
277.262	1336.5
277.494	1402.5
277.726	1552.5
277.957	1826.5
278.189	2110.5
278.421	1995.5
278.652	1798.5
278.884	1668.5
279.115	1464.5
279.347	1428.5
279.579	1397.5
279.81	1334.5
280.042	1398.5
280.273	1390.5
280.505	1450.5
280.736	1496.5
280.968	1594.5
281.199	1765.5
281.431	2064.5
281.662	2072.5
281.894	1793.5
282.125	1660.5
282.356	1630.5
282.588	1644.5
282.819	1659.5
283.051	1813.5
283.282	1997.5
283.513	2513.5
283.745	3659.5
283.976	5861.5
284.207	8340.5
284.439	7435.5
284.67	4514.5
284.901	3656.5
285.132	3711.5
285.364	3565.5
285.595	2706.5
285.826	2430.5
286.057	2869.5
286.288	3954.5
286.52	5437.5
286.751	4997.5
286.982	3027.5
287.213	2237.5
287.444	1977.5
287.675	1816.5
287.906	1768.5
288.138	1718.5
288.369	1687.5
288.6	1702.5
288.831	1667.5
289.062	1669.5
289.293	1664.5
289.524	1664.5
289.755	1683.5
289.986	1703.5
290.217	1696.5
290.448	1706.5
290.679	1717.5
290.91	1795.5
291.141	1816.5
291.371	2029.5
291.602	2082.5
291.833	1937.5
292.064	1733.5
292.295	1639.5
292.526	1628.5
292.757	1620.5
292.987	1616.5
293.218	1600.5
293.449	1592.5
293.68	1555.5
293.91	1584.5
294.141	1561.5
294.372	1555.5
294.603	1554.5
294.833	1531.5
295.064	1586.5
295.295	1547.5
295.525	1584.5
295.756	1553.5
295.987	1559.5
296.217	1583.5
296.448	1561.5
296.679	1578.5
296.909	1589.5
297.14	1582.5
297.37	1604.5
297.601	1608.5
297.831	1603.5
298.062	1621.5
298.292	1641.5
298.523	1690.5
298.753	1704.5
298.984	1697.5
299.214	1750.5
299.445	1770.5
299.675	1767.5
299.905	1821.5
300.136	1913.5
300.366	2146.5
300.597	2799.5
300.827	3912.5
301.057	5354.5
301.288	5372.5
301.518	3337.5
301.748	2550.5
301.979	2292.5
302.209	2241.5
302.439	2290.5
302.669	2409.5
302.9	2973.5
303.13	4216.5
303.36	6356.5
303.59	8534.5
303.82	7328.5
304.051	4116.5
304.281	3004.5
304.511	2531.5
304.741	2319.5
304.971	2192.5
305.201	2062.5
305.431	1996.5
305.661	1951.5
305.891	1891.5
306.121	1871.5
306.352	1817.5
306.582	1823.5
306.812	1789.5
307.042	1848.5
307.272	1805.5
307.502	1810.5
307.731	1829.5
307.961	1827.5
308.191	1807.5
308.421	1810.5
308.651	1795.5
308.881	1808.5
309.111	1841.5
309.341	1768.5
309.571	1820.5
309.8	1847.5
310.03	1844.5
310.26	1869.5
310.49	1865.5
310.72	1852.5
310.949	1834.5
311.179	1887.5
311.409	1896.5
311.639	1929.5
311.868	1940.5
312.098	1993.5
312.328	1958.5
312.557	1964.5
312.787	1954.5
313.017	1987.5
313.246	2034.5
313.476	2001.5
313.706	2103.5
313.935	2188.5
314.165	2348.5
314.394	2469.5
314.624	2350.5
314.853	2217.5
315.083	2162.5
315.312	2160.5
315.542	2161.5
315.771	2209.5
316.001	2293.5
316.23	2289.5
316.46	2442.5
316.689	2641.5
316.919	3238.5
317.148	4696.5
317.377	7246.5
317.607	10816.5
317.836	11171.5
318.065	6627.5
318.295	4231.5
318.524	3413.5
318.753	2884.5
318.983	2744.5
319.212	2545.5
319.441	2504.5
319.67	2416.5
319.9	2400.5
320.129	2384.5
320.358	2344.5
320.587	2327.5
320.816	2331.5
321.046	2330.5
321.275	2322.5
321.504	2370.5
321.733	2403.5
321.962	2503.5
322.191	2536.5
322.42	2476.5
322.649	2470.5
322.878	2493.5
323.108	2496.5
323.337	2522.5
323.566	2572.5
323.795	2591.5
324.024	2670.5
324.253	2733.5
324.482	2816.5
324.71	2962.5
324.939	3196.5
325.168	3216.5
325.397	3397.5
325.626	3974.5
325.855	5676.5
326.084	8945.5
326.313	13021.5
326.542	13721.5
326.77	9039.5
326.999	5844.5
327.228	4853.5
327.457	4644.5
327.686	4633.5
327.914	4999.5
328.143	5886.5
328.372	7044.5
328.6	7674.5
328.829	6840.5
329.058	5640.5
329.287	4988.5
329.515	4498.5
329.744	4187.5
329.972	4054.5
330.201	3839.5
330.43	3692.5
330.658	3598.5
330.887	3547.5
331.115	3477.5
331.344	3516.5
331.572	3502.5
331.801	3457.5
332.03	3466.5
332.258	3537.5
332.486	3789.5
332.715	4297.5
332.943	5369.5
333.172	6762.5
333.4	6644.5
333.629	4905.5
333.857	4436.5
334.085	4397.5
334.314	4632.5
334.542	5044.5
334.771	5935.5
334.999	7263.5
335.227	9155.5
335.455	10225.5
335.684	9225.5
335.912	7496.5
336.14	6327.5
336.369	5563.5
336.597	5186.5
336.825	4724.5
337.053	4491.5
337.281	4217.5
337.51	4033.5
337.738	3835.5
337.966	3651.5
338.194	3592.5
338.422	3520.5
338.65	3411.5
338.878	3312.5
339.106	3234.5
339.334	3214.5
339.562	3163.5
339.79	3071.5
340.018	3039.5
340.246	3031.5
340.474	3061.5
340.702	3006.5
340.93	3018.5
341.158	3036.5
341.386	3001.5
341.614	2943.5
341.842	2877.5
342.07	2842.5
342.298	2822.5
342.526	2772.5
342.754	2740.5
342.981	2756.5
343.209	2704.5
343.437	2780.5
343.665	2753.5
343.893	2790.5
344.12	2839.5
344.348	2793.5
344.576	2733.5
344.804	2712.5
345.031	2622.5
345.259	2624.5
345.487	2628.5
345.714	2595.5
345.942	2586.5
346.17	2581.5
346.397	2567.5
346.625	2539.5
346.853	2489.5
347.08	2554.5
347.308	2512.5
347.535	2545.5
347.763	2512.5
347.99	2542.5
348.218	2497.5
348.445	2466.5
348.673	2479.5
348.9	2422.5
349.128	2471.5
349.355	2415.5
349.583	2428.5
349.81	2415.5
350.037	2421.5
350.265	2410.5
350.492	2391.5
350.72	2374.5
350.947	2416.5
351.174	2414.5
351.402	2390.5
351.629	2393.5
351.856	2420.5
352.083	2378.5
352.311	2387.5
352.538	2371.5
352.765	2400.5
352.992	2372.5
353.22	2313.5
353.447	2389.5
353.674	2382.5
353.901	2398.5
354.128	2386.5
354.355	2404.5
354.583	2388.5
354.81	2422.5
355.037	2471.5
355.264	2492.5
355.491	2407.5
355.718	2460.5
355.945	2464.5
356.172	2482.5
356.399	2446.5
356.626	2456.5
356.853	2526.5
357.08	2503.5
357.307	2562.5
357.534	2571.5
357.761	2605.5
357.988	2585.5
358.215	2542.5
358.441	2586.5
358.668	2504.5
358.895	2559.5
359.122	2536.5
359.349	2514.5
359.576	2491.5
359.802	2505.5
360.029	2528.5
360.256	2563.5
360.483	2558.5
360.709	2527.5
360.936	2586.5
361.163	2613.5
361.39	2594.5
361.616	2606.5
361.843	2582.5
362.07	2521.5
362.296	2575.5
362.523	2524.5
362.749	2637.5
362.976	2533.5
363.203	2583.5
363.429	2533.5
363.656	2561.5
363.882	2518.5
364.109	2546.5
364.335	2543.5
364.562	2538.5
364.788	2586.5
365.015	2616.5
365.241	2664.5
365.468	2804.5
365.694	2938.5
365.92	2856.5
366.147	2640.5
366.373	2605.5
366.599	2629.5
366.826	2623.5
367.052	2575.5
367.278	2635.5
367.505	2616.5
367.731	2613.5
367.957	2588.5
368.184	2684.5
368.41	2628.5
368.636	2686.5
368.862	2681.5
369.089	2653.5
369.315	2681.5
369.541	2660.5
369.767	2676.5
369.993	2692.5
370.219	2619.5
370.445	2622.5
370.672	2683.5
370.898	2659.5
371.124	2698.5
371.35	2701.5
371.576	2719.5
371.802	2764.5
372.028	2712.5
372.254	2774.5
372.48	2762.5
372.706	2795.5
372.932	2818.5
373.158	2810.5
373.384	2772.5
373.61	2789.5
373.835	2851.5
374.061	2810.5
374.287	2869.5
374.513	2812.5
374.739	2905.5
374.965	2897.5
375.191	2930.5
375.416	2906.5
375.642	2820.5
375.868	2898.5
376.094	2848.5
376.319	2821.5
376.545	2782.5
376.771	2810.5
376.997	2786.5
377.222	2746.5
377.448	2675.5
377.674	2748.5
377.899	2680.5
378.125	2760.5
378.35	2753.5
378.576	2745.5
378.802	2772.5
379.027	2784.5
379.253	2866.5
379.478	3071.5
379.704	3654.5
379.929	5188.5
380.155	8263.5
380.38	8808.5
380.606	5300.5
380.831	3701.5
381.057	3206.5
381.282	2999.5
381.507	2864.5
381.733	2832.5
381.958	2765.5
382.184	2718.5
382.409	2714.5
382.634	2704.5
382.86	2706.5
383.085	2728.5
383.31	2696.5
383.535	2645.5
383.761	2688.5
383.986	2704.5
384.211	2790.5
384.436	2800.5
384.662	2781.5
384.887	2788.5
385.112	2762.5
385.337	2818.5
385.562	2808.5
385.787	2801.5
386.013	2788.5
386.238	2793.5
386.463	2785.5
386.688	2814.5
386.913	2770.5
387.138	2775.5
387.363	2780.5
387.588	2774.5
387.813	2799.5
388.038	2750.5
388.263	2756.5
388.488	2768.5
388.713	2774.5
388.938	2734.5
389.163	2729.5
389.387	2781.5
389.612	2793.5
389.837	2765.5
390.062	2790.5
390.287	2802.5
390.512	2824.5
390.736	2878.5
390.961	2896.5
391.186	2867.5
391.411	2889.5
391.636	2914.5
391.86	2948.5
392.085	2956.5
392.31	2904.5
392.534	2830.5
392.759	2863.5
392.984	2879.5
393.208	2899.5
393.433	2890.5
393.658	2839.5
393.882	2835.5
394.107	2765.5
394.331	2807.5
394.556	2844.5
394.78	2826.5
395.005	2831.5
395.229	2788.5
395.454	2871.5
395.678	2931.5
395.903	2907.5
396.127	2869.5
396.352	2851.5
396.576	2886.5
396.801	2887.5
397.025	2944.5
397.249	2939.5
397.474	2944.5
397.698	2959.5
397.922	2975.5
398.147	2948.5
398.371	2966.5
398.595	3021.5
398.82	3110.5
399.044	3197.5
399.268	3345.5
399.492	3540.5
399.717	3649.5
399.941	3662.5
400.165	3551.5
400.389	3453.5
400.613	3255.5
400.837	3228.5
401.062	3173.5
401.286	3104.5
401.51	3073.5
401.734	3070.5
401.958	3086.5
402.182	3073.5
402.406	3090.5
402.63	3089.5
402.854	3127.5
403.078	3153.5
403.302	3134.5
403.526	3140.5
403.75	3161.5
403.974	3152.5
404.198	3173.5
404.422	3157.5
404.645	3114.5
404.869	3156.5
405.093	3180.5
405.317	3209.5
405.541	3220.5
405.765	3276.5
405.988	3304.5
406.212	3282.5
406.436	3299.5
406.66	3342.5
406.883	3240.5
407.107	3437.5
407.331	3434.5
407.555	3552.5
407.778	3474.5
408.002	3439.5
408.226	3381.5
408.449	3460.5
408.673	3381.5
408.896	3248.5
409.12	3229.5
409.344	3253.5
409.567	3226.5
409.791	3208.5
410.014	3159.5
410.238	3151.5
410.461	3135.5
410.685	3131.5
410.908	3068.5
411.132	3139.5
411.355	3074.5
411.578	3094.5
411.802	3059.5
412.025	3047.5
412.249	3070.5
412.472	3070.5
412.695	3006.5
412.919	2984.5
413.142	2977.5
413.365	3002.5
413.589	2983.5
413.812	3029.5
414.035	3018.5
414.258	2988.5
414.482	3055.5
414.705	3042.5
414.928	3055.5
415.151	2986.5
415.374	3026.5
415.597	2940.5
415.821	2872.5
416.044	2838.5
416.267	2896.5
416.49	2889.5
416.713	2893.5
416.936	2869.5
417.159	2895.5
417.382	2854.5
417.605	2856.5
417.828	2831.5
418.051	2873.5
418.274	2897.5
418.497	2870.5
418.72	2958.5
418.943	2973.5
419.166	3066.5
419.389	3256.5
419.611	3195.5
419.834	3116.5
420.057	2980.5
420.28	2977.5
420.503	2896.5
420.726	2896.5
420.948	2853.5
421.171	2855.5
421.394	2905.5
421.617	2869.5
421.839	2900.5
422.062	2912.5
422.285	2865.5
422.507	2958.5
422.73	2916.5
422.953	2952.5
423.175	3026.5
423.398	2981.5
423.621	2898.5
423.843	2882.5
424.066	2910.5
424.288	2869.5
424.511	2845.5
424.733	2839.5
424.956	2850.5
425.178	2880.5
425.401	2868.5
425.623	2862.5
425.846	2785.5
426.068	2756.5
426.291	2745.5
426.513	2783.5
426.735	2737.5
426.958	2778.5
427.18	2699.5
427.402	2691.5
427.625	2743.5
427.847	2670.5
428.069	2677.5
428.292	2710.5
428.514	2668.5
428.736	2710.5
428.958	2697.5
429.181	2644.5
429.403	2653.5
429.625	2637.5
429.847	2673.5
430.069	2729.5
430.292	2853.5
430.514	2838.5
430.736	2870.5
430.958	2707.5
431.18	2641.5
431.402	2657.5
431.624	2617.5
431.846	2601.5
432.068	2564.5
432.29	2661.5
432.512	2612.5
432.734	2646.5
432.956	2580.5
433.178	2638.5
433.4	2677.5
433.622	2684.5
433.844	2676.5
434.066	2673.5
434.287	2687.5
434.509	2681.5
434.731	2729.5
434.953	2718.5
435.175	2742.5
435.397	2771.5
435.618	2706.5
435.84	2666.5
436.062	2642.5
436.284	2664.5
436.505	2622.5
436.727	2581.5
436.949	2572.5
437.17	2638.5
437.392	2618.5
437.614	2588.5
437.835	2521.5
438.057	2530.5
438.278	2528.5
438.5	2545.5
438.721	2653.5
438.943	2655.5
439.165	2733.5
439.386	2744.5
439.608	2706.5
439.829	2717.5
440.05	2824.5
440.272	2894.5
440.493	2756.5
440.715	2712.5
440.936	2756.5
441.158	2773.5
441.379	2739.5
441.6	2891.5
441.822	2974.5
442.043	3104.5
442.264	3233.5
442.486	2953.5
442.707	2930.5
442.928	2856.5
443.149	2836.5
443.371	2830.5
443.592	2826.5
443.813	2829.5
444.034	2884.5
444.255	2921.5
444.476	2951.5
444.698	2996.5
444.919	3043.5
445.14	3129.5
445.361	2922.5
445.582	2902.5
445.803	2836.5
446.024	2775.5
446.245	2828.5
446.466	2816.5
446.687	2773.5
446.908	2796.5
447.129	2694.5
447.35	2611.5
447.571	2622.5
447.792	2563.5
448.013	2569.5
448.234	2589.5
448.455	2597.5
448.675	2640.5
448.896	2696.5
449.117	2783.5
449.338	3010.5
449.559	3154.5
449.779	2802.5
450	2593.5
450.221	2586.5
450.442	2567.5
450.662	2519.5
450.883	2563.5
451.104	2554.5
451.324	2560.5
451.545	2510.5
451.766	2564.5
451.986	2604.5
452.207	2801.5
452.428	3650.5
452.648	5567.5
452.869	4601.5
453.089	3117.5
453.31	2937.5
453.53	2945.5
453.751	3047.5
453.971	3229.5
454.192	3188.5
454.412	2728.5
454.633	2556.5
454.853	2521.5
455.073	2465.5
455.294	2426.5
455.514	2399.5
455.734	2430.5
455.955	2425.5
456.175	2409.5
456.395	2387.5
456.616	2476.5
456.836	2484.5
457.056	2509.5
457.276	2469.5
457.497	2625.5
457.717	2639.5
457.937	2586.5
458.157	2618.5
458.377	2596.5
458.598	2609.5
458.818	2599.5
459.038	2621.5
459.258	2590.5
459.478	2656.5
459.698	2705.5
459.918	2725.5
460.138	2735.5
460.358	2770.5
460.578	2764.5
460.798	2907.5
461.018	2862.5
461.238	2861.5
461.458	2921.5
461.678	2933.5
461.898	2983.5
462.118	3003.5
462.338	3030.5
462.558	3098.5
462.777	3177.5
462.997	3245.5
463.217	3394.5
463.437	3509.5
463.657	3668.5
463.876	3598.5
464.096	3370.5
464.316	3215.5
464.536	3172.5
464.755	3108.5
464.975	3028.5
465.195	2893.5
465.414	2895.5
465.634	2712.5
465.854	2744.5
466.073	2708.5
466.293	2692.5
466.512	2637.5
466.732	2713.5
466.951	2824.5
467.171	2996.5
467.391	2968.5
467.61	2693.5
467.829	2633.5
468.049	2615.5
468.268	2565.5
468.488	2565.5
468.707	2558.5
468.927	2591.5
469.146	2541.5
469.365	2635.5
469.585	2615.5
469.804	2693.5
470.023	2744.5
470.243	2726.5
470.462	2874.5
470.681	2988.5
470.901	3276.5
471.12	3839.5
471.339	3898.5
471.558	3154.5
471.777	2818.5
471.997	2750.5
472.216	2709.5
472.435	2648.5
472.654	2610.5
472.873	2575.5
473.092	2637.5
473.311	2606.5
473.53	2671.5
473.749	2684.5
473.968	2836.5
474.187	2711.5
474.406	2600.5
474.625	2619.5
474.844	2598.5
475.063	2647.5
475.282	2625.5
475.501	2662.5
475.72	2674.5
475.939	2696.5
476.158	2712.5
476.377	2812.5
476.596	2754.5
476.814	2786.5
477.033	2792.5
477.252	2799.5
477.471	2821.5
477.69	2865.5
477.908	2918.5
478.127	2977.5
478.346	2960.5
478.564	3025.5
478.783	3005.5
479.002	3061.5
479.22	3074.5
479.439	3152.5
479.658	3090.5
479.876	3136.5
480.095	3135.5
480.313	3185.5
480.532	3224.5
480.751	3286.5
480.969	3161.5
481.188	3168.5
481.406	3125.5
481.624	3144.5
481.843	3183.5
482.061	3197.5
482.28	3144.5
482.498	3161.5
482.717	3124.5
482.935	3185.5
483.153	3214.5
483.372	3244.5
483.59	3262.5
483.808	3341.5
484.027	3406.5
484.245	3629.5
484.463	4135.5
484.681	4608.5
484.9	4150.5
485.118	3848.5
485.336	3756.5
485.554	3848.5
485.772	4057.5
485.99	4576.5
486.209	4980.5
486.427	4169.5
486.645	3697.5
486.863	3555.5
487.081	3428.5
487.299	3372.5
487.517	3410.5
487.735	3344.5
487.953	3355.5
488.171	3378.5
488.389	3336.5
488.607	3280.5
488.825	3250.5
489.043	3244.5
489.261	3194.5
489.479	3285.5
489.696	3222.5
489.914	3220.5
490.132	3289.5
490.35	3291.5
490.568	3311.5
490.786	3360.5
491.003	3426.5
491.221	3426.5
491.439	3456.5
491.657	3363.5
491.874	3382.5
492.092	3410.5
492.31	3439.5
492.527	3416.5
492.745	3449.5
492.963	3422.5
493.18	3398.5
493.398	3447.5
493.615	3394.5
493.833	3402.5
494.05	3426.5
494.268	3388.5
494.485	3425.5
494.703	3407.5
494.92	3481.5
495.138	3399.5
495.355	3408.5
495.573	3432.5
495.79	3464.5
496.008	3486.5
496.225	3518.5
496.442	3609.5
496.66	3666.5
496.877	3918.5
497.094	3912.5
497.312	3662.5
497.529	3722.5
497.746	3781.5
497.963	3779.5
498.181	3909.5
498.398	3999.5
498.615	4120.5
498.832	4298.5
499.049	4435.5
499.267	4813.5
499.484	5100.5
499.701	5042.5
499.918	5195.5
500.135	5497.5
500.352	5662.5
500.569	5841.5
500.786	5714.5
501.003	5540.5
501.22	5290.5
501.437	5057.5
501.654	4756.5
501.871	4562.5
502.088	4342.5
502.305	4260.5
502.522	4122.5
502.739	4021.5
502.956	3887.5
503.172	3841.5
503.389	3781.5
503.606	3663.5
503.823	3628.5
