Data from SnStandardFlinnAPT0064_LampEnergy10_LIBS07252019.E.O._I.C._HRD10591_15-19-44-493.txt Node
Date: Thu Jul 25 15:19:44 EDT 2019
User: cochatt
Spectrometer: HR+D1059
Trigger mode: 1
Integration Time (sec): 1.000000E-1
Scans to average: 1
Electric dark correction enabled: true
Nonlinearity correction enabled: false
Boxcar width: 0
XAxis mode: Wavelengths
Number of Pixels in Spectrum: 2048
>>>>>Begin Spectral Data<<<<<
223.165	-7.56
223.4	-7.56
223.635	-7.56
223.869	-14.56
224.104	-17.56
224.338	-19.56
224.573	-16.56
224.808	-9.56
225.042	-15.56
225.277	-0.56
225.511	-10.56
225.746	2.44
225.98	4.44
226.215	12.44
226.449	13.44
226.683	22.44
226.918	34.44
227.152	22.44
227.387	48.44
227.621	24.44
227.856	43.44
228.09	33.44
228.324	52.44
228.559	56.44
228.793	118.44
229.027	331.44
229.262	347.44
229.496	310.44
229.73	309.44
229.964	280.44
230.199	307.44
230.433	310.44
230.667	305.44
230.901	324.44
231.136	331.44
231.37	367.44
231.604	385.44
231.838	438.44
232.072	525.44
232.306	601.44
232.541	471.44
232.775	431.44
233.009	421.44
233.243	427.44
233.477	476.44
233.711	527.44
233.945	595.44
234.179	540.44
234.413	455.44
234.647	467.44
234.881	494.44
235.115	543.44
235.349	634.44
235.583	788.44
235.817	1039.44
236.051	1023.44
236.285	692.44
236.519	563.44
236.753	522.44
236.987	528.44
237.221	534.44
237.455	528.44
237.689	480.44
237.922	495.44
238.156	472.44
238.39	529.44
238.624	511.44
238.858	491.44
239.091	467.44
239.325	516.44
239.559	523.44
239.793	513.44
240.027	544.44
240.26	543.44
240.494	584.44
240.728	627.44
240.961	620.44
241.195	664.44
241.429	684.44
241.662	763.44
241.896	852.44
242.13	972.44
242.363	1299.44
242.597	1695.44
242.83	1617.44
243.064	1575.44
243.298	1904.44
243.531	1573.44
243.765	1005.44
243.998	799.44
244.232	734.44
244.465	704.44
244.699	680.44
244.932	683.44
245.166	665.44
245.399	688.44
245.633	713.44
245.866	711.44
246.099	690.44
246.333	665.44
246.566	649.44
246.8	642.44
247.033	653.44
247.266	635.44
247.5	664.44
247.733	675.44
247.966	713.44
248.2	788.44
248.433	927.44
248.666	1018.44
248.899	961.44
249.133	874.44
249.366	879.44
249.599	968.44
249.832	1135.44
250.066	1112.44
250.299	895.44
250.532	818.44
250.765	761.44
250.998	763.44
251.231	731.44
251.465	765.44
251.698	757.44
251.931	742.44
252.164	761.44
252.397	771.44
252.63	787.44
252.863	818.44
253.096	788.44
253.329	808.44
253.562	792.44
253.795	752.44
254.028	807.44
254.261	845.44
254.494	863.44
254.727	1035.44
254.96	1288.44
255.193	1295.44
255.426	982.44
255.659	893.44
255.892	856.44
256.124	893.44
256.357	899.44
256.59	927.44
256.823	1008.44
257.056	1132.44
257.289	1393.44
257.521	1582.44
257.754	1228.44
257.987	1003.44
258.22	916.44
258.452	933.44
258.685	943.44
258.918	915.44
259.151	974.44
259.383	1081.44
259.616	1256.44
259.849	1319.44
260.081	1107.44
260.314	1004.44
260.547	957.44
260.779	936.44
261.012	960.44
261.244	984.44
261.477	996.44
261.71	980.44
261.942	1014.44
262.175	985.44
262.407	996.44
262.64	1006.44
262.872	1079.44
263.105	1126.44
263.337	1180.44
263.57	1252.44
263.802	1275.44
264.035	1292.44
264.267	1344.44
264.499	1371.44
264.732	1400.44
264.964	1415.44
265.197	1401.44
265.429	1412.44
265.661	1412.44
265.894	1549.44
266.126	1739.44
266.358	1953.44
266.591	1915.44
266.823	1597.44
267.055	1436.44
267.287	1371.44
267.52	1299.44
267.752	1275.44
267.984	1275.44
268.216	1256.44
268.448	1239.44
268.681	1264.44
268.913	1218.44
269.145	1220.44
269.377	1264.44
269.609	1255.44
269.841	1321.44
270.073	1398.44
270.306	1599.44
270.538	2246.44
270.77	3350.44
271.002	4148.44
271.234	2898.44
271.466	1974.44
271.698	1581.44
271.93	1422.44
272.162	1358.44
272.394	1304.44
272.626	1254.44
272.858	1233.44
273.09	1222.44
273.322	1246.44
273.553	1208.44
273.785	1190.44
274.017	1203.44
274.249	1220.44
274.481	1199.44
274.713	1213.44
274.945	1228.44
275.176	1227.44
275.408	1214.44
275.64	1250.44
275.872	1248.44
276.104	1229.44
276.335	1311.44
276.567	1294.44
276.799	1279.44
277.031	1311.44
277.262	1341.44
277.494	1442.44
277.726	1579.44
277.957	1887.44
278.189	2192.44
278.421	2027.44
278.652	1807.44
278.884	1707.44
279.115	1505.44
279.347	1451.44
279.579	1414.44
279.81	1410.44
280.042	1447.44
280.273	1436.44
280.505	1471.44
280.736	1508.44
280.968	1609.44
281.199	1821.44
281.431	2146.44
281.662	2129.44
281.894	1823.44
282.125	1688.44
282.356	1668.44
282.588	1693.44
282.819	1743.44
283.051	1859.44
283.282	2038.44
283.513	2559.44
283.745	3759.44
283.976	5875.44
284.207	8326.44
284.439	7661.44
284.67	4790.44
284.901	4034.44
285.132	4019.44
285.364	3789.44
285.595	2855.44
285.826	2575.44
286.057	2980.44
286.288	4043.44
286.52	5464.44
286.751	5075.44
286.982	3215.44
287.213	2413.44
287.444	2051.44
287.675	1901.44
287.906	1801.44
288.138	1761.44
288.369	1719.44
288.6	1712.44
288.831	1755.44
289.062	1682.44
289.293	1677.44
289.524	1698.44
289.755	1718.44
289.986	1715.44
290.217	1737.44
290.448	1730.44
290.679	1745.44
290.91	1803.44
291.141	1905.44
291.371	2066.44
291.602	2139.44
291.833	1994.44
292.064	1763.44
292.295	1667.44
292.526	1677.44
292.757	1644.44
292.987	1616.44
293.218	1604.44
293.449	1566.44
293.68	1580.44
293.91	1616.44
294.141	1612.44
294.372	1594.44
294.603	1577.44
294.833	1560.44
295.064	1566.44
295.295	1587.44
295.525	1559.44
295.756	1553.44
295.987	1538.44
296.217	1598.44
296.448	1575.44
296.679	1592.44
296.909	1584.44
297.14	1600.44
297.37	1627.44
297.601	1633.44
297.831	1617.44
298.062	1625.44
298.292	1632.44
298.523	1676.44
298.753	1716.44
298.984	1700.44
299.214	1753.44
299.445	1764.44
299.675	1795.44
299.905	1890.44
300.136	1949.44
300.366	2161.44
300.597	2819.44
300.827	4004.44
301.057	5433.44
301.288	5517.44
301.518	3571.44
301.748	2673.44
301.979	2445.44
302.209	2324.44
302.439	2384.44
302.669	2543.44
302.9	3104.44
303.13	4345.44
303.36	6370.44
303.59	8530.44
303.82	7469.44
304.051	4502.44
304.281	3223.44
304.511	2613.44
304.741	2427.44
304.971	2234.44
305.201	2097.44
305.431	2015.44
305.661	1999.44
305.891	1914.44
306.121	1914.44
306.352	1906.44
306.582	1855.44
306.812	1813.44
307.042	1839.44
307.272	1849.44
307.502	1849.44
307.731	1831.44
307.961	1799.44
308.191	1812.44
308.421	1846.44
308.651	1856.44
308.881	1812.44
309.111	1799.44
309.341	1806.44
309.571	1831.44
309.8	1843.44
310.03	1857.44
310.26	1842.44
310.49	1835.44
310.72	1878.44
310.949	1856.44
311.179	1922.44
311.409	1901.44
311.639	1953.44
311.868	1954.44
312.098	1904.44
312.328	1934.44
312.557	1978.44
312.787	1940.44
313.017	1957.44
313.246	2020.44
313.476	1991.44
313.706	2081.44
313.935	2247.44
314.165	2391.44
314.394	2512.44
314.624	2423.44
314.853	2146.44
315.083	2122.44
315.312	2203.44
315.542	2159.44
315.771	2235.44
316.001	2245.44
316.23	2349.44
316.46	2487.44
316.689	2733.44
316.919	3295.44
317.148	4776.44
317.377	7448.44
317.607	10815.44
317.836	11375.44
318.065	7009.44
318.295	4469.44
318.524	3588.44
318.753	3073.44
318.983	2837.44
319.212	2619.44
319.441	2529.44
319.67	2526.44
319.9	2429.44
320.129	2379.44
320.358	2338.44
320.587	2366.44
320.816	2390.44
321.046	2356.44
321.275	2430.44
321.504	2403.44
321.733	2459.44
321.962	2526.44
322.191	2563.44
322.42	2554.44
322.649	2491.44
322.878	2451.44
323.108	2460.44
323.337	2525.44
323.566	2589.44
323.795	2657.44
324.024	2696.44
324.253	2767.44
324.482	2872.44
324.71	3090.44
324.939	3229.44
325.168	3311.44
325.397	3503.44
325.626	4207.44
325.855	5804.44
326.084	9082.44
326.313	13056.44
326.542	13824.44
326.77	9586.44
326.999	6275.44
327.228	5215.44
327.457	4925.44
327.686	4979.44
327.914	5300.44
328.143	6244.44
328.372	7355.44
328.6	8044.44
328.829	7139.44
329.058	6013.44
329.287	5206.44
329.515	4719.44
329.744	4361.44
329.972	4114.44
330.201	3891.44
330.43	3705.44
330.658	3585.44
330.887	3567.44
331.115	3515.44
331.344	3476.44
331.572	3496.44
331.801	3478.44
332.03	3495.44
332.258	3579.44
332.486	3782.44
332.715	4316.44
332.943	5419.44
333.172	6834.44
333.4	6801.44
333.629	5084.44
333.857	4556.44
334.085	4530.44
334.314	4789.44
334.542	5169.44
334.771	6206.44
334.999	7621.44
335.227	9592.44
335.455	10791.44
335.684	9643.44
335.912	7931.44
336.14	6633.44
336.369	5876.44
336.597	5306.44
336.825	4843.44
337.053	4563.44
337.281	4233.44
337.51	4077.44
337.738	3857.44
337.966	3664.44
338.194	3566.44
338.422	3477.44
338.65	3380.44
338.878	3331.44
339.106	3234.44
339.334	3197.44
339.562	3131.44
339.79	3103.44
340.018	3035.44
340.246	3009.44
340.474	3043.44
340.702	3048.44
340.93	3074.44
341.158	2994.44
341.386	3000.44
341.614	2979.44
341.842	2911.44
342.07	2809.44
342.298	2791.44
342.526	2715.44
342.754	2711.44
342.981	2669.44
343.209	2663.44
343.437	2726.44
343.665	2760.44
343.893	2799.44
344.12	2780.44
344.348	2702.44
344.576	2651.44
344.804	2691.44
345.031	2608.44
345.259	2621.44
345.487	2577.44
345.714	2538.44
345.942	2521.44
346.17	2567.44
346.397	2480.44
346.625	2483.44
346.853	2478.44
347.08	2515.44
347.308	2491.44
347.535	2492.44
347.763	2506.44
347.99	2460.44
348.218	2459.44
348.445	2455.44
348.673	2500.44
348.9	2449.44
349.128	2433.44
349.355	2423.44
349.583	2471.44
349.81	2382.44
350.037	2400.44
350.265	2410.44
350.492	2389.44
350.72	2385.44
350.947	2381.44
351.174	2417.44
351.402	2389.44
351.629	2389.44
351.856	2406.44
352.083	2383.44
352.311	2339.44
352.538	2347.44
352.765	2349.44
352.992	2370.44
353.22	2353.44
353.447	2355.44
353.674	2335.44
353.901	2390.44
354.128	2406.44
354.355	2343.44
354.583	2363.44
354.81	2392.44
355.037	2397.44
355.264	2419.44
355.491	2425.44
355.718	2389.44
355.945	2398.44
356.172	2435.44
356.399	2418.44
356.626	2462.44
356.853	2502.44
357.08	2480.44
357.307	2531.44
357.534	2605.44
357.761	2579.44
357.988	2532.44
358.215	2525.44
358.441	2559.44
358.668	2533.44
358.895	2563.44
359.122	2525.44
359.349	2530.44
359.576	2517.44
359.802	2587.44
360.029	2533.44
360.256	2533.44
360.483	2510.44
360.709	2551.44
360.936	2574.44
361.163	2512.44
361.39	2504.44
361.616	2582.44
361.843	2562.44
362.07	2516.44
362.296	2553.44
362.523	2528.44
362.749	2521.44
362.976	2500.44
363.203	2530.44
363.429	2525.44
363.656	2556.44
363.882	2536.44
364.109	2497.44
364.335	2527.44
364.562	2484.44
364.788	2493.44
365.015	2566.44
365.241	2630.44
365.468	2793.44
365.694	2892.44
365.92	2833.44
366.147	2612.44
366.373	2565.44
366.599	2595.44
366.826	2562.44
367.052	2600.44
367.278	2626.44
367.505	2597.44
367.731	2571.44
367.957	2584.44
368.184	2605.44
368.41	2632.44
368.636	2672.44
368.862	2649.44
369.089	2605.44
369.315	2639.44
369.541	2637.44
369.767	2609.44
369.993	2615.44
370.219	2558.44
370.445	2652.44
370.672	2641.44
370.898	2673.44
371.124	2685.44
371.35	2706.44
371.576	2617.44
371.802	2708.44
372.028	2679.44
372.254	2745.44
372.48	2723.44
372.706	2689.44
372.932	2753.44
373.158	2773.44
373.384	2758.44
373.61	2695.44
373.835	2753.44
374.061	2764.44
374.287	2785.44
374.513	2828.44
374.739	2835.44
374.965	2871.44
375.191	2897.44
375.416	2907.44
375.642	2800.44
375.868	2739.44
376.094	2788.44
376.319	2735.44
376.545	2740.44
376.771	2694.44
376.997	2709.44
377.222	2663.44
377.448	2676.44
377.674	2727.44
377.899	2709.44
378.125	2687.44
378.35	2715.44
378.576	2721.44
378.802	2755.44
379.027	2841.44
379.253	2912.44
379.478	3005.44
379.704	3635.44
379.929	5206.44
380.155	8152.44
380.38	9000.44
380.606	5535.44
380.831	3842.44
381.057	3259.44
381.282	3021.44
381.507	2863.44
381.733	2852.44
381.958	2747.44
382.184	2739.44
382.409	2732.44
382.634	2675.44
382.86	2651.44
383.085	2622.44
383.31	2644.44
383.535	2685.44
383.761	2695.44
383.986	2713.44
384.211	2743.44
384.436	2731.44
384.662	2770.44
384.887	2788.44
385.112	2688.44
385.337	2741.44
385.562	2709.44
385.787	2789.44
386.013	2766.44
386.238	2804.44
386.463	2733.44
386.688	2742.44
386.913	2685.44
387.138	2695.44
387.363	2739.44
387.588	2697.44
387.813	2689.44
388.038	2733.44
388.263	2686.44
388.488	2719.44
388.713	2778.44
388.938	2691.44
389.163	2694.44
389.387	2773.44
389.612	2703.44
389.837	2765.44
390.062	2706.44
390.287	2745.44
390.512	2787.44
390.736	2772.44
390.961	2848.44
391.186	2804.44
391.411	2855.44
391.636	2863.44
391.86	2865.44
392.085	2880.44
392.31	2876.44
392.534	2855.44
392.759	2803.44
392.984	2743.44
393.208	2783.44
393.433	2833.44
393.658	2823.44
393.882	2793.44
394.107	2795.44
394.331	2817.44
394.556	2788.44
394.78	2802.44
395.005	2826.44
395.229	2824.44
395.454	2855.44
395.678	2866.44
395.903	2827.44
396.127	2845.44
396.352	2884.44
396.576	2832.44
396.801	2835.44
397.025	2909.44
397.249	2965.44
397.474	2905.44
397.698	2875.44
397.922	2935.44
398.147	2901.44
398.371	2957.44
398.595	3009.44
398.82	3047.44
399.044	3131.44
399.268	3312.44
399.492	3505.44
399.717	3591.44
399.941	3557.44
400.165	3471.44
400.389	3321.44
400.613	3215.44
400.837	3106.44
401.062	3084.44
401.286	3004.44
401.51	2994.44
401.734	2963.44
401.958	3013.44
402.182	3010.44
402.406	3011.44
402.63	3038.44
402.854	3066.44
403.078	3033.44
403.302	3104.44
403.526	3170.44
403.75	3087.44
403.974	3146.44
404.198	3142.44
404.422	3144.44
404.645	3117.44
404.869	3071.44
405.093	3145.44
405.317	3144.44
405.541	3216.44
405.765	3199.44
405.988	3268.44
406.212	3253.44
406.436	3201.44
406.66	3272.44
406.883	3199.44
407.107	3277.44
407.331	3301.44
407.555	3456.44
407.778	3355.44
408.002	3414.44
408.226	3393.44
408.449	3404.44
408.673	3258.44
408.896	3233.44
409.12	3185.44
409.344	3207.44
409.567	3117.44
409.791	3191.44
410.014	3101.44
410.238	3112.44
410.461	3101.44
410.685	3102.44
410.908	3070.44
411.132	3035.44
411.355	3001.44
411.578	3041.44
411.802	3003.44
412.025	3009.44
412.249	3036.44
412.472	2989.44
412.695	2980.44
412.919	2918.44
413.142	2974.44
413.365	2980.44
413.589	2974.44
413.812	2911.44
414.035	2978.44
414.258	2985.44
414.482	2992.44
414.705	2950.44
414.928	2948.44
415.151	2974.44
415.374	2887.44
415.597	2882.44
415.821	2876.44
416.044	2848.44
416.267	2855.44
416.49	2845.44
416.713	2832.44
416.936	2867.44
417.159	2801.44
417.382	2811.44
417.605	2740.44
417.828	2809.44
418.051	2885.44
418.274	2903.44
418.497	2826.44
418.72	2940.44
418.943	2864.44
419.166	3026.44
419.389	3170.44
419.611	3093.44
419.834	3012.44
420.057	2976.44
420.28	2892.44
420.503	2827.44
420.726	2861.44
420.948	2860.44
421.171	2823.44
421.394	2832.44
421.617	2832.44
421.839	2869.44
422.062	2893.44
422.285	2836.44
422.507	2888.44
422.73	2928.44
422.953	2941.44
423.175	2955.44
423.398	2939.44
423.621	2895.44
423.843	2913.44
424.066	2891.44
424.288	2850.44
424.511	2836.44
424.733	2824.44
424.956	2811.44
425.178	2801.44
425.401	2795.44
425.623	2806.44
425.846	2767.44
426.068	2755.44
426.291	2774.44
426.513	2752.44
426.735	2709.44
426.958	2683.44
427.18	2737.44
427.402	2720.44
427.625	2699.44
427.847	2600.44
428.069	2673.44
428.292	2647.44
428.514	2597.44
428.736	2665.44
428.958	2658.44
429.181	2620.44
429.403	2565.44
429.625	2599.44
429.847	2603.44
430.069	2647.44
430.292	2771.44
430.514	2893.44
430.736	2868.44
430.958	2660.44
431.18	2595.44
431.402	2628.44
431.624	2628.44
431.846	2591.44
432.068	2596.44
432.29	2620.44
432.512	2583.44
432.734	2641.44
432.956	2616.44
433.178	2643.44
433.4	2599.44
433.622	2619.44
433.844	2631.44
434.066	2613.44
434.287	2604.44
434.509	2615.44
434.731	2673.44
434.953	2677.44
435.175	2725.44
435.397	2735.44
435.618	2669.44
435.84	2659.44
436.062	2637.44
436.284	2586.44
436.505	2621.44
436.727	2575.44
436.949	2571.44
437.17	2606.44
437.392	2551.44
437.614	2605.44
437.835	2477.44
438.057	2502.44
438.278	2496.44
438.5	2551.44
438.721	2598.44
438.943	2692.44
439.165	2713.44
439.386	2756.44
439.608	2731.44
439.829	2692.44
440.05	2799.44
440.272	2861.44
440.493	2781.44
440.715	2668.44
440.936	2685.44
441.158	2712.44
441.379	2748.44
441.6	2857.44
441.822	2930.44
442.043	3093.44
442.264	3159.44
442.486	2958.44
442.707	2846.44
442.928	2825.44
443.149	2783.44
443.371	2722.44
443.592	2824.44
443.813	2811.44
444.034	2788.44
444.255	2840.44
444.476	2897.44
444.698	2904.44
444.919	2989.44
445.14	3053.44
445.361	2900.44
445.582	2867.44
445.803	2784.44
446.024	2740.44
446.245	2765.44
446.466	2763.44
446.687	2727.44
446.908	2722.44
447.129	2679.44
447.35	2620.44
447.571	2607.44
447.792	2567.44
448.013	2595.44
448.234	2586.44
448.455	2540.44
448.675	2646.44
448.896	2677.44
449.117	2785.44
449.338	3035.44
449.559	3108.44
449.779	2862.44
450	2630.44
450.221	2541.44
450.442	2541.44
450.662	2530.44
450.883	2506.44
451.104	2514.44
451.324	2523.44
451.545	2510.44
451.766	2531.44
451.986	2575.44
452.207	2833.44
452.428	3683.44
452.648	5721.44
452.869	4827.44
453.089	3263.44
453.31	3008.44
453.53	2967.44
453.751	3097.44
453.971	3153.44
454.192	3148.44
454.412	2706.44
454.633	2543.44
454.853	2456.44
455.073	2473.44
455.294	2435.44
455.514	2400.44
455.734	2349.44
455.955	2381.44
456.175	2370.44
456.395	2405.44
456.616	2456.44
456.836	2464.44
457.056	2495.44
457.276	2456.44
457.497	2607.44
457.717	2663.44
457.937	2579.44
458.157	2511.44
458.377	2535.44
458.598	2567.44
458.818	2567.44
459.038	2627.44
459.258	2600.44
459.478	2652.44
459.698	2623.44
459.918	2641.44
460.138	2728.44
460.358	2801.44
460.578	2784.44
460.798	2867.44
461.018	2877.44
461.238	2850.44
461.458	2889.44
461.678	2936.44
461.898	2979.44
462.118	2991.44
462.338	3016.44
462.558	3041.44
462.777	3085.44
462.997	3223.44
463.217	3375.44
463.437	3477.44
463.657	3561.44
463.876	3526.44
464.096	3365.44
464.316	3207.44
464.536	3166.44
464.755	3039.44
464.975	2931.44
465.195	2891.44
465.414	2836.44
465.634	2739.44
465.854	2702.44
466.073	2673.44
466.293	2663.44
466.512	2660.44
466.732	2696.44
466.951	2808.44
467.171	3005.44
467.391	2969.44
467.61	2712.44
467.829	2598.44
468.049	2609.44
468.268	2588.44
468.488	2564.44
468.707	2500.44
468.927	2567.44
469.146	2561.44
469.365	2625.44
469.585	2633.44
469.804	2658.44
470.023	2752.44
470.243	2769.44
470.462	2881.44
470.681	3031.44
470.901	3371.44
471.12	3768.44
471.339	3753.44
471.558	3228.44
471.777	2867.44
471.997	2728.44
472.216	2719.44
472.435	2664.44
472.654	2613.44
472.873	2548.44
473.092	2578.44
473.311	2624.44
473.53	2635.44
473.749	2709.44
473.968	2793.44
474.187	2620.44
474.406	2577.44
474.625	2611.44
474.844	2609.44
475.063	2598.44
475.282	2624.44
475.501	2566.44
475.72	2638.44
475.939	2635.44
476.158	2723.44
476.377	2817.44
476.596	2742.44
476.814	2759.44
477.033	2707.44
477.252	2768.44
477.471	2814.44
477.69	2861.44
477.908	2883.44
478.127	2937.44
478.346	2943.44
478.564	3021.44
478.783	2997.44
479.002	3078.44
479.22	3090.44
479.439	3138.44
479.658	3071.44
479.876	3142.44
480.095	3151.44
480.313	3172.44
480.532	3263.44
480.751	3227.44
480.969	3166.44
481.188	3194.44
481.406	3148.44
481.624	3082.44
481.843	3183.44
482.061	3218.44
482.28	3165.44
482.498	3117.44
482.717	3111.44
482.935	3209.44
483.153	3225.44
483.372	3268.44
483.59	3327.44
483.808	3356.44
484.027	3487.44
484.245	3595.44
484.463	4081.44
484.681	4464.44
484.9	4177.44
485.118	3891.44
485.336	3779.44
485.554	3823.44
485.772	4036.44
485.99	4603.44
486.209	4950.44
486.427	4160.44
486.645	3711.44
486.863	3519.44
487.081	3465.44
487.299	3382.44
487.517	3406.44
487.735	3356.44
