Data from SnStandardFlinnAPT0064_QswitchEnergy10_LIBS07252019.E.O._I.C._HRD10591_15-27-50-973.txt Node
Date: Thu Jul 25 15:27:50 EDT 2019
User: cochatt
Spectrometer: HR+D1059
Trigger mode: 1
Integration Time (sec): 1.000000E-1
Scans to average: 1
Electric dark correction enabled: true
Nonlinearity correction enabled: false
Boxcar width: 0
XAxis mode: Wavelengths
Number of Pixels in Spectrum: 2048
>>>>>Begin Spectral Data<<<<<
223.165	-12.19
223.4	-12.19
223.635	-12.19
223.869	-13.19
224.104	-19.19
224.338	-3.19
224.573	-25.19
224.808	-15.19
225.042	0.81
225.277	-15.19
225.511	-13.19
225.746	15.81
225.98	-0.19
226.215	9.81
226.449	27.81
226.683	16.81
226.918	15.81
227.152	29.81
227.387	36.81
227.621	48.81
227.856	46.81
228.09	46.81
228.324	40.81
228.559	48.81
228.793	44.81
229.027	63.81
229.262	70.81
229.496	61.81
229.73	66.81
229.964	59.81
230.199	62.81
230.433	75.81
230.667	79.81
230.901	63.81
231.136	55.81
231.37	82.81
231.604	82.81
231.838	87.81
232.072	98.81
232.306	109.81
232.541	76.81
232.775	74.81
233.009	78.81
233.243	67.81
233.477	92.81
233.711	84.81
233.945	112.81
234.179	82.81
234.413	88.81
234.647	81.81
234.881	86.81
235.115	94.81
235.349	80.81
235.583	92.81
235.817	105.81
236.051	124.81
236.285	84.81
236.519	77.81
236.753	89.81
236.987	82.81
237.221	75.81
237.455	71.81
237.689	78.81
237.922	77.81
238.156	73.81
238.39	106.81
238.624	76.81
238.858	77.81
239.091	71.81
239.325	69.81
239.559	71.81
239.793	70.81
240.027	91.81
240.26	65.81
240.494	78.81
240.728	90.81
240.961	78.81
241.195	84.81
241.429	87.81
241.662	74.81
241.896	77.81
242.13	98.81
242.363	112.81
242.597	139.81
242.83	122.81
243.064	131.81
243.298	172.81
243.531	131.81
243.765	111.81
243.998	77.81
244.232	90.81
244.465	72.81
244.699	70.81
244.932	70.81
245.166	63.81
245.399	78.81
245.633	90.81
245.866	89.81
246.099	83.81
246.333	69.81
246.566	78.81
246.8	68.81
247.033	68.81
247.266	71.81
247.5	88.81
247.733	73.81
247.966	75.81
248.2	71.81
248.433	111.81
248.666	119.81
248.899	105.81
249.133	89.81
249.366	88.81
249.599	101.81
249.832	115.81
250.066	114.81
250.299	88.81
250.532	91.81
250.765	89.81
250.998	75.81
251.231	78.81
251.465	70.81
251.698	87.81
251.931	94.81
252.164	79.81
252.397	78.81
252.63	88.81
252.863	100.81
253.096	85.81
253.329	86.81
253.562	98.81
253.795	82.81
254.028	77.81
254.261	86.81
254.494	84.81
254.727	95.81
254.96	128.81
255.193	119.81
255.426	89.81
255.659	79.81
255.892	86.81
256.124	85.81
256.357	88.81
256.59	77.81
256.823	101.81
257.056	101.81
257.289	133.81
257.521	160.81
257.754	126.81
257.987	92.81
258.22	72.81
258.452	73.81
258.685	82.81
258.918	85.81
259.151	93.81
259.383	103.81
259.616	134.81
259.849	135.81
260.081	88.81
260.314	72.81
260.547	79.81
260.779	79.81
261.012	90.81
261.244	92.81
261.477	78.81
261.71	92.81
261.942	85.81
262.175	77.81
262.407	81.81
262.64	71.81
262.872	80.81
263.105	72.81
263.337	81.81
263.57	83.81
263.802	89.81
264.035	72.81
264.267	80.81
264.499	81.81
264.732	89.81
264.964	78.81
265.197	80.81
265.429	89.81
265.661	87.81
265.894	85.81
266.126	123.81
266.358	126.81
266.591	138.81
266.823	87.81
267.055	85.81
267.287	93.81
267.52	96.81
267.752	92.81
267.984	82.81
268.216	94.81
268.448	89.81
268.681	80.81
268.913	79.81
269.145	91.81
269.377	87.81
269.609	84.81
269.841	84.81
270.073	97.81
270.306	122.81
270.538	172.81
270.77	294.81
271.002	348.81
271.234	176.81
271.466	102.81
271.698	77.81
271.93	80.81
272.162	81.81
272.394	78.81
272.626	62.81
272.858	89.81
273.09	94.81
273.322	86.81
273.553	78.81
273.785	90.81
274.017	78.81
274.249	89.81
274.481	82.81
274.713	93.81
274.945	86.81
275.176	78.81
275.408	82.81
275.64	84.81
275.872	79.81
276.104	87.81
276.335	86.81
276.567	96.81
276.799	83.81
277.031	86.81
277.262	82.81
277.494	95.81
277.726	116.81
277.957	158.81
278.189	229.81
278.421	217.81
278.652	170.81
278.884	175.81
279.115	122.81
279.347	111.81
279.579	104.81
279.81	88.81
280.042	98.81
280.273	87.81
280.505	95.81
280.736	105.81
280.968	112.81
281.199	157.81
281.431	213.81
281.662	236.81
281.894	134.81
282.125	117.81
282.356	110.81
282.588	91.81
282.819	115.81
283.051	108.81
283.282	115.81
283.513	170.81
283.745	268.81
283.976	474.81
284.207	724.81
284.439	557.81
284.67	260.81
284.901	223.81
285.132	303.81
285.364	368.81
285.595	221.81
285.826	153.81
286.057	219.81
286.288	377.81
286.52	585.81
286.751	456.81
286.982	185.81
287.213	112.81
287.444	107.81
287.675	104.81
287.906	86.81
288.138	88.81
288.369	84.81
288.6	86.81
288.831	93.81
289.062	93.81
289.293	91.81
289.524	80.81
289.755	92.81
289.986	83.81
290.217	85.81
290.448	93.81
290.679	83.81
290.91	111.81
291.141	150.81
291.371	202.81
291.602	249.81
291.833	178.81
292.064	119.81
292.295	82.81
292.526	81.81
292.757	74.81
292.987	81.81
293.218	89.81
293.449	93.81
293.68	93.81
293.91	78.81
294.141	93.81
294.372	98.81
294.603	96.81
294.833	86.81
295.064	90.81
295.295	94.81
295.525	81.81
295.756	95.81
295.987	93.81
296.217	76.81
296.448	86.81
296.679	92.81
296.909	109.81
297.14	82.81
297.37	81.81
297.601	97.81
297.831	85.81
298.062	98.81
298.292	99.81
298.523	99.81
298.753	96.81
298.984	100.81
299.214	92.81
299.445	108.81
299.675	101.81
299.905	111.81
300.136	121.81
300.366	160.81
300.597	240.81
300.827	410.81
301.057	635.81
301.288	590.81
301.518	236.81
301.748	125.81
301.979	117.81
302.209	117.81
302.439	137.81
302.669	158.81
302.9	241.81
303.13	463.81
303.36	776.81
303.59	1152.81
303.82	803.81
304.051	252.81
304.281	145.81
304.511	132.81
304.741	89.81
304.971	96.81
305.201	92.81
305.431	95.81
305.661	111.81
305.891	102.81
306.121	92.81
306.352	98.81
306.582	93.81
306.812	99.81
307.042	108.81
307.272	97.81
307.502	80.81
307.731	109.81
307.961	111.81
308.191	92.81
308.421	101.81
308.651	101.81
308.881	92.81
309.111	93.81
309.341	93.81
309.571	89.81
309.8	108.81
310.03	99.81
310.26	97.81
310.49	107.81
310.72	95.81
310.949	97.81
311.179	86.81
311.409	99.81
311.639	101.81
311.868	91.81
312.098	108.81
312.328	94.81
312.557	112.81
312.787	110.81
313.017	101.81
313.246	121.81
313.476	102.81
313.706	109.81
313.935	129.81
314.165	180.81
314.394	184.81
314.624	159.81
314.853	111.81
315.083	129.81
315.312	135.81
315.542	120.81
315.771	127.81
316.001	116.81
316.23	134.81
316.46	131.81
316.689	170.81
316.919	244.81
317.148	449.81
317.377	833.81
317.607	1371.81
317.836	1278.81
318.065	504.81
318.295	201.81
318.524	144.81
318.753	115.81
318.983	113.81
319.212	114.81
319.441	104.81
319.67	111.81
319.9	109.81
320.129	114.81
320.358	98.81
320.587	110.81
320.816	115.81
321.046	113.81
321.275	128.81
321.504	133.81
321.733	127.81
321.962	145.81
322.191	147.81
322.42	118.81
322.649	125.81
322.878	105.81
323.108	130.81
323.337	109.81
323.566	113.81
323.795	109.81
324.024	126.81
324.253	131.81
324.482	163.81
324.71	207.81
324.939	259.81
325.168	214.81
325.397	160.81
325.626	225.81
325.855	441.81
326.084	874.81
326.313	1492.81
326.542	1497.81
326.77	570.81
326.999	237.81
327.228	188.81
327.457	219.81
327.686	209.81
327.914	153.81
328.143	122.81
328.372	127.81
328.6	116.81
328.829	115.81
329.058	120.81
329.287	113.81
329.515	106.81
329.744	102.81
329.972	85.81
330.201	117.81
330.43	103.81
330.658	121.81
330.887	113.81
331.115	113.81
331.344	107.81
331.572	130.81
331.801	103.81
332.03	116.81
332.258	116.81
332.486	135.81
332.715	246.81
332.943	459.81
333.172	703.81
333.4	628.81
333.629	246.81
333.857	133.81
334.085	119.81
334.314	116.81
334.542	116.81
334.771	100.81
334.999	116.81
335.227	119.81
335.455	115.81
335.684	112.81
335.912	113.81
336.14	113.81
336.369	111.81
336.597	100.81
336.825	112.81
337.053	106.81
337.281	112.81
337.51	99.81
337.738	100.81
337.966	87.81
338.194	100.81
338.422	107.81
338.65	101.81
338.878	105.81
339.106	93.81
339.334	108.81
339.562	104.81
339.79	122.81
340.018	102.81
340.246	107.81
340.474	104.81
340.702	97.81
340.93	106.81
341.158	112.81
341.386	109.81
341.614	101.81
341.842	114.81
342.07	118.81
342.298	109.81
342.526	117.81
342.754	104.81
342.981	105.81
343.209	111.81
343.437	108.81
343.665	105.81
343.893	98.81
344.12	108.81
344.348	101.81
344.576	104.81
344.804	108.81
345.031	105.81
345.259	98.81
345.487	100.81
345.714	108.81
345.942	99.81
346.17	109.81
346.397	98.81
346.625	76.81
346.853	99.81
347.08	95.81
347.308	98.81
347.535	88.81
347.763	88.81
347.99	105.81
348.218	92.81
348.445	94.81
348.673	104.81
348.9	110.81
349.128	123.81
349.355	106.81
349.583	93.81
349.81	100.81
350.037	114.81
350.265	95.81
350.492	108.81
350.72	118.81
350.947	106.81
351.174	108.81
351.402	104.81
351.629	95.81
351.856	102.81
352.083	89.81
352.311	106.81
352.538	97.81
352.765	112.81
352.992	106.81
353.22	96.81
353.447	102.81
353.674	109.81
353.901	92.81
354.128	101.81
354.355	107.81
354.583	93.81
354.81	105.81
355.037	106.81
355.264	82.81
355.491	81.81
355.718	97.81
355.945	93.81
356.172	108.81
356.399	108.81
356.626	92.81
356.853	112.81
357.08	83.81
357.307	106.81
357.534	93.81
357.761	85.81
357.988	103.81
358.215	88.81
358.441	100.81
358.668	111.81
358.895	106.81
359.122	97.81
359.349	104.81
359.576	106.81
359.802	111.81
360.029	100.81
360.256	89.81
360.483	111.81
360.709	97.81
360.936	113.81
361.163	104.81
361.39	99.81
361.616	120.81
361.843	104.81
362.07	94.81
362.296	95.81
362.523	88.81
362.749	100.81
362.976	98.81
363.203	104.81
363.429	94.81
363.656	93.81
363.882	112.81
364.109	104.81
364.335	107.81
364.562	103.81
364.788	108.81
365.015	113.81
365.241	120.81
365.468	172.81
365.694	220.81
365.92	180.81
366.147	115.81
366.373	88.81
366.599	99.81
366.826	92.81
367.052	84.81
367.278	96.81
367.505	104.81
367.731	107.81
367.957	100.81
368.184	87.81
368.41	114.81
368.636	108.81
368.862	96.81
369.089	102.81
369.315	99.81
369.541	108.81
369.767	88.81
369.993	96.81
370.219	93.81
370.445	85.81
370.672	101.81
370.898	89.81
371.124	98.81
371.35	96.81
371.576	87.81
371.802	93.81
372.028	106.81
372.254	105.81
372.48	118.81
372.706	91.81
372.932	103.81
373.158	115.81
373.384	116.81
373.61	106.81
373.835	113.81
374.061	106.81
374.287	88.81
374.513	115.81
374.739	91.81
374.965	81.81
375.191	89.81
375.416	95.81
375.642	108.81
375.868	93.81
376.094	104.81
376.319	93.81
376.545	98.81
376.771	77.81
376.997	95.81
377.222	118.81
377.448	96.81
377.674	106.81
377.899	87.81
378.125	105.81
378.35	98.81
378.576	114.81
378.802	116.81
379.027	101.81
379.253	140.81
379.478	151.81
379.704	272.81
379.929	689.81
380.155	1449.81
380.38	1533.81
380.606	492.81
380.831	176.81
381.057	127.81
381.282	110.81
381.507	116.81
381.733	101.81
381.958	105.81
382.184	101.81
382.409	97.81
382.634	104.81
382.86	92.81
383.085	102.81
383.31	91.81
383.535	97.81
383.761	95.81
383.986	85.81
384.211	92.81
384.436	99.81
384.662	94.81
384.887	120.81
385.112	89.81
385.337	100.81
385.562	102.81
385.787	93.81
386.013	100.81
386.238	87.81
386.463	89.81
386.688	101.81
386.913	102.81
387.138	106.81
387.363	94.81
387.588	102.81
387.813	99.81
388.038	99.81
388.263	97.81
388.488	105.81
388.713	79.81
388.938	100.81
389.163	116.81
389.387	93.81
389.612	98.81
389.837	101.81
390.062	99.81
390.287	86.81
390.512	101.81
390.736	99.81
390.961	90.81
391.186	92.81
391.411	86.81
391.636	92.81
391.86	104.81
392.085	96.81
392.31	89.81
392.534	79.81
392.759	88.81
392.984	88.81
393.208	108.81
393.433	113.81
393.658	126.81
393.882	93.81
394.107	88.81
394.331	94.81
394.556	90.81
394.78	100.81
395.005	94.81
395.229	88.81
395.454	86.81
395.678	81.81
395.903	91.81
396.127	94.81
396.352	95.81
396.576	103.81
396.801	117.81
397.025	113.81
397.249	110.81
397.474	76.81
397.698	84.81
397.922	92.81
398.147	96.81
398.371	96.81
398.595	88.81
398.82	95.81
399.044	95.81
399.268	96.81
399.492	105.81
399.717	104.81
399.941	88.81
400.165	94.81
400.389	99.81
400.613	82.81
400.837	79.81
401.062	89.81
401.286	98.81
401.51	85.81
401.734	93.81
401.958	97.81
402.182	94.81
402.406	91.81
402.63	93.81
402.854	96.81
403.078	89.81
403.302	88.81
403.526	91.81
403.75	82.81
403.974	90.81
404.198	84.81
404.422	105.81
404.645	90.81
404.869	80.81
405.093	100.81
405.317	85.81
405.541	120.81
405.765	116.81
405.988	128.81
406.212	107.81
406.436	86.81
406.66	102.81
406.883	93.81
407.107	78.81
407.331	88.81
407.555	89.81
407.778	96.81
408.002	80.81
408.226	89.81
408.449	89.81
408.673	101.81
408.896	98.81
409.12	93.81
409.344	88.81
409.567	101.81
409.791	81.81
410.014	89.81
410.238	82.81
410.461	93.81
410.685	97.81
410.908	92.81
411.132	101.81
411.355	101.81
411.578	100.81
411.802	83.81
412.025	85.81
412.249	76.81
412.472	83.81
412.695	93.81
412.919	86.81
413.142	88.81
413.365	94.81
413.589	101.81
413.812	94.81
414.035	113.81
414.258	93.81
414.482	97.81
414.705	108.81
414.928	105.81
415.151	94.81
415.374	90.81
415.597	87.81
415.821	83.81
416.044	95.81
416.267	99.81
416.49	96.81
416.713	88.81
416.936	88.81
417.159	78.81
417.382	91.81
417.605	92.81
417.828	83.81
418.051	86.81
418.274	100.81
418.497	88.81
418.72	96.81
418.943	98.81
419.166	104.81
419.389	104.81
419.611	93.81
419.834	76.81
420.057	96.81
420.28	88.81
420.503	86.81
420.726	93.81
420.948	87.81
421.171	88.81
421.394	82.81
421.617	77.81
421.839	97.81
422.062	71.81
422.285	101.81
422.507	100.81
422.73	110.81
422.953	100.81
423.175	110.81
423.398	84.81
423.621	89.81
423.843	84.81
424.066	95.81
424.288	89.81
424.511	107.81
424.733	94.81
424.956	85.81
425.178	89.81
425.401	96.81
425.623	94.81
425.846	81.81
426.068	96.81
426.291	90.81
426.513	102.81
426.735	89.81
426.958	90.81
427.18	87.81
427.402	99.81
427.625	86.81
427.847	89.81
428.069	84.81
428.292	78.81
428.514	102.81
428.736	96.81
428.958	94.81
429.181	83.81
429.403	87.81
429.625	80.81
429.847	93.81
430.069	106.81
430.292	102.81
430.514	86.81
430.736	95.81
430.958	88.81
431.18	85.81
431.402	81.81
431.624	102.81
431.846	85.81
432.068	92.81
432.29	84.81
432.512	96.81
432.734	93.81
432.956	89.81
433.178	77.81
433.4	82.81
433.622	82.81
433.844	85.81
434.066	73.81
434.287	86.81
434.509	90.81
434.731	101.81
434.953	94.81
435.175	84.81
435.397	102.81
435.618	75.81
435.84	81.81
436.062	82.81
436.284	97.81
436.505	73.81
436.727	105.81
436.949	92.81
437.17	94.81
437.392	81.81
437.614	80.81
437.835	78.81
438.057	88.81
438.278	81.81
438.5	102.81
438.721	83.81
438.943	113.81
439.165	90.81
439.386	98.81
439.608	93.81
439.829	105.81
440.05	116.81
440.272	116.81
440.493	90.81
440.715	101.81
440.936	102.81
441.158	78.81
441.379	71.81
441.6	94.81
441.822	93.81
442.043	104.81
442.264	127.81
442.486	119.81
442.707	94.81
442.928	85.81
443.149	87.81
443.371	78.81
443.592	86.81
443.813	88.81
444.034	100.81
444.255	78.81
444.476	89.81
444.698	99.81
444.919	83.81
445.14	188.81
445.361	114.81
445.582	85.81
445.803	98.81
446.024	92.81
446.245	95.81
446.466	104.81
446.687	95.81
446.908	94.81
447.129	93.81
447.35	96.81
447.571	91.81
447.792	89.81
448.013	79.81
448.234	86.81
448.455	99.81
448.675	80.81
448.896	93.81
449.117	117.81
449.338	120.81
449.559	134.81
449.779	114.81
450	99.81
450.221	90.81
450.442	95.81
450.662	109.81
450.883	76.81
451.104	97.81
451.324	109.81
451.545	97.81
451.766	115.81
451.986	142.81
452.207	187.81
452.428	495.81
452.648	1207.81
452.869	694.81
453.089	180.81
453.31	118.81
453.53	100.81
453.751	124.81
453.971	145.81
454.192	143.81
454.412	105.81
454.633	101.81
454.853	100.81
455.073	76.81
455.294	84.81
455.514	78.81
455.734	88.81
455.955	84.81
456.175	95.81
456.395	84.81
456.616	85.81
456.836	78.81
457.056	74.81
457.276	93.81
457.497	96.81
457.717	108.81
457.937	70.81
458.157	93.81
458.377	95.81
458.598	90.81
458.818	82.81
459.038	82.81
459.258	86.81
459.478	91.81
459.698	70.81
459.918	81.81
460.138	82.81
460.358	80.81
460.578	89.81
460.798	79.81
461.018	77.81
461.238	80.81
461.458	95.81
461.678	106.81
461.898	94.81
462.118	95.81
462.338	99.81
462.558	94.81
462.777	100.81
462.997	92.81
463.217	87.81
463.437	119.81
463.657	179.81
463.876	161.81
464.096	117.81
464.316	106.81
464.536	88.81
464.755	98.81
464.975	101.81
465.195	94.81
465.414	78.81
465.634	88.81
465.854	89.81
466.073	87.81
466.293	94.81
466.512	93.81
466.732	88.81
466.951	112.81
467.171	146.81
467.391	134.81
467.61	94.81
467.829	90.81
468.049	76.81
468.268	83.81
468.488	94.81
468.707	80.81
468.927	82.81
469.146	97.81
469.365	91.81
469.585	94.81
469.804	91.81
470.023	89.81
470.243	99.81
470.462	93.81
470.681	104.81
470.901	118.81
471.12	175.81
471.339	197.81
471.558	131.81
471.777	98.81
471.997	97.81
472.216	93.81
472.435	93.81
472.654	76.81
472.873	99.81
473.092	81.81
473.311	105.81
473.53	82.81
473.749	85.81
473.968	100.81
474.187	85.81
474.406	89.81
474.625	62.81
474.844	93.81
475.063	81.81
475.282	93.81
475.501	78.81
475.72	81.81
475.939	88.81
476.158	99.81
476.377	114.81
476.596	93.81
476.814	89.81
477.033	91.81
477.252	95.81
477.471	76.81
477.69	84.81
477.908	100.81
478.127	101.81
478.346	75.81
478.564	85.81
478.783	81.81
479.002	93.81
479.22	88.81
479.439	104.81
479.658	107.81
479.876	82.81
480.095	88.81
480.313	80.81
480.532	83.81
480.751	93.81
480.969	93.81
481.188	77.81
481.406	88.81
481.624	96.81
481.843	114.81
482.061	100.81
482.28	79.81
482.498	91.81
482.717	101.81
482.935	96.81
483.153	92.81
483.372	78.81
483.59	101.81
483.808	97.81
484.027	101.81
484.245	94.81
484.463	160.81
484.681	195.81
484.9	146.81
485.118	112.81
485.336	94.81
485.554	101.81
485.772	125.81
485.99	160.81
486.209	252.81
486.427	148.81
486.645	113.81
486.863	99.81
487.081	110.81
487.299	90.81
487.517	86.81
487.735	96.81
487.953	106.81
488.171	100.81
488.389	96.81
488.607	85.81
488.825	99.81
489.043	102.81
489.261	90.81
489.479	89.81
489.696	89.81
489.914	83.81
490.132	82.81
490.35	91.81
490.568	98.81
490.786	96.81
491.003	104.81
491.221	95.81
491.439	104.81
491.657	94.81
491.874	88.81
492.092	87.81
492.31	90.81
492.527	98.81
492.745	91.81
492.963	102.81
493.18	92.81
493.398	103.81
493.615	91.81
493.833	97.81
494.05	90.81
494.268	94.81
494.485	109.81
494.703	104.81
494.92	104.81
495.138	93.81
495.355	95.81
495.573	103.81
495.79	88.81
496.008	101.81
496.225	92.81
496.442	95.81
496.66	102.81
496.877	144.81
497.094	131.81
497.312	91.81
497.529	88.81
497.746	82.81
497.963	93.81
498.181	97.81
498.398	85.81
498.615	99.81
498.832	99.81
499.049	91.81
499.267	122.81
499.484	151.81
499.701	110.81
499.918	106.81
500.135	93.81
500.352	104.81
500.569	88.81
500.786	98.81
501.003	81.81
501.22	82.81
501.437	100.81
501.654	79.81
501.871	96.81
502.088	91.81
502.305	97.81
502.522	100.81
502.739	90.81
502.956	89.81
503.172	93.81
503.389	91.81
503.606	89.81
503.823	90.81
504.04	100.81
504.256	96.81
504.473	109.81
504.69	97.81
504.907	97.81
505.123	106.81
505.34	84.81
505.557	85.81
505.773	104.81
505.99	98.81
506.207	92.81
506.423	96.81
506.64	111.81
506.856	101.81
507.073	97.81
507.289	100.81
507.506	86.81
507.722	97.81
507.939	76.81
508.155	89.81
508.372	99.81
508.588	99.81
508.805	76.81
509.021	93.81
509.238	111.81
509.454	126.81
509.67	149.81
509.887	97.81
510.103	95.81
510.319	99.81
510.536	94.81
510.752	116.81
510.968	92.81
511.184	93.81
511.401	81.81
511.617	90.81
511.833	83.81
