Data from SnStandardFlinnAPT0064_QswitchEnergy10_LIBS07252019.E.O._I.C._HRD10591_15-25-53-973.txt Node
Date: Thu Jul 25 15:25:53 EDT 2019
User: cochatt
Spectrometer: HR+D1059
Trigger mode: 1
Integration Time (sec): 1.000000E-1
Scans to average: 1
Electric dark correction enabled: true
Nonlinearity correction enabled: false
Boxcar width: 0
XAxis mode: Wavelengths
Number of Pixels in Spectrum: 2048
>>>>>Begin Spectral Data<<<<<
223.165	-13.44
223.4	-13.44
223.635	-13.44
223.869	-19.44
224.104	-7.44
224.338	-11.44
224.573	-23.44
224.808	-25.44
225.042	-13.44
225.277	-14.44
225.511	-4.44
225.746	13.56
225.98	13.56
226.215	18.56
226.449	26.56
226.683	13.56
226.918	16.56
227.152	30.56
227.387	20.56
227.621	44.56
227.856	31.56
228.09	47.56
228.324	44.56
228.559	32.56
228.793	59.56
229.027	60.56
229.262	54.56
229.496	75.56
229.73	64.56
229.964	66.56
230.199	66.56
230.433	93.56
230.667	88.56
230.901	78.56
231.136	81.56
231.37	90.56
231.604	100.56
231.838	92.56
232.072	93.56
232.306	111.56
232.541	98.56
232.775	94.56
233.009	81.56
233.243	84.56
233.477	73.56
233.711	82.56
233.945	84.56
234.179	90.56
234.413	99.56
234.647	94.56
234.881	85.56
235.115	82.56
235.349	100.56
235.583	100.56
235.817	114.56
236.051	129.56
236.285	91.56
236.519	86.56
236.753	91.56
236.987	85.56
237.221	72.56
237.455	74.56
237.689	64.56
237.922	79.56
238.156	79.56
238.39	86.56
238.624	76.56
238.858	92.56
239.091	78.56
239.325	83.56
239.559	67.56
239.793	77.56
240.027	85.56
240.26	86.56
240.494	89.56
240.728	76.56
240.961	70.56
241.195	86.56
241.429	98.56
241.662	92.56
241.896	78.56
242.13	81.56
242.363	114.56
242.597	166.56
242.83	130.56
243.064	128.56
243.298	171.56
243.531	138.56
243.765	97.56
243.998	78.56
244.232	81.56
244.465	77.56
244.699	78.56
244.932	81.56
245.166	68.56
245.399	80.56
245.633	71.56
245.866	74.56
246.099	87.56
246.333	86.56
246.566	71.56
246.8	71.56
247.033	82.56
247.266	80.56
247.5	80.56
247.733	78.56
247.966	91.56
248.2	93.56
248.433	98.56
248.666	120.56
248.899	114.56
249.133	88.56
249.366	98.56
249.599	100.56
249.832	120.56
250.066	124.56
250.299	86.56
250.532	81.56
250.765	82.56
250.998	71.56
251.231	82.56
251.465	80.56
251.698	75.56
251.931	70.56
252.164	96.56
252.397	79.56
252.63	94.56
252.863	101.56
253.096	101.56
253.329	92.56
253.562	86.56
253.795	89.56
254.028	90.56
254.261	88.56
254.494	96.56
254.727	112.56
254.96	128.56
255.193	138.56
255.426	84.56
255.659	88.56
255.892	88.56
256.124	88.56
256.357	89.56
256.59	97.56
256.823	86.56
257.056	112.56
257.289	144.56
257.521	153.56
257.754	126.56
257.987	89.56
258.22	80.56
258.452	88.56
258.685	85.56
258.918	94.56
259.151	80.56
259.383	103.56
259.616	133.56
259.849	124.56
260.081	101.56
260.314	74.56
260.547	94.56
260.779	92.56
261.012	86.56
261.244	78.56
261.477	97.56
261.71	86.56
261.942	81.56
262.175	92.56
262.407	89.56
262.64	80.56
262.872	69.56
263.105	75.56
263.337	83.56
263.57	91.56
263.802	87.56
264.035	78.56
264.267	94.56
264.499	69.56
264.732	80.56
264.964	74.56
265.197	78.56
265.429	84.56
265.661	103.56
265.894	84.56
266.126	101.56
266.358	150.56
266.591	130.56
266.823	103.56
267.055	87.56
267.287	92.56
267.52	92.56
267.752	106.56
267.984	86.56
268.216	96.56
268.448	94.56
268.681	93.56
268.913	85.56
269.145	88.56
269.377	97.56
269.609	81.56
269.841	95.56
270.073	90.56
270.306	118.56
270.538	184.56
270.77	272.56
271.002	337.56
271.234	189.56
271.466	113.56
271.698	92.56
271.93	91.56
272.162	101.56
272.394	78.56
272.626	89.56
272.858	100.56
273.09	72.56
273.322	78.56
273.553	87.56
273.785	95.56
274.017	98.56
274.249	96.56
274.481	90.56
274.713	81.56
274.945	87.56
275.176	92.56
275.408	88.56
275.64	81.56
275.872	95.56
276.104	79.56
276.335	94.56
276.567	97.56
276.799	83.56
277.031	94.56
277.262	78.56
277.494	104.56
277.726	129.56
277.957	158.56
278.189	215.56
278.421	212.56
278.652	173.56
278.884	175.56
279.115	124.56
279.347	99.56
279.579	93.56
279.81	83.56
280.042	90.56
280.273	93.56
280.505	102.56
280.736	108.56
280.968	130.56
281.199	170.56
281.431	228.56
281.662	242.56
281.894	139.56
282.125	96.56
282.356	112.56
282.588	110.56
282.819	92.56
283.051	129.56
283.282	120.56
283.513	177.56
283.745	290.56
283.976	493.56
284.207	688.56
284.439	528.56
284.67	238.56
284.901	230.56
285.132	312.56
285.364	330.56
285.595	214.56
285.826	161.56
286.057	239.56
286.288	373.56
286.52	544.56
286.751	423.56
286.982	181.56
287.213	120.56
287.444	97.56
287.675	92.56
287.906	88.56
288.138	102.56
288.369	81.56
288.6	88.56
288.831	90.56
289.062	89.56
289.293	110.56
289.524	87.56
289.755	90.56
289.986	91.56
290.217	95.56
290.448	92.56
290.679	89.56
290.91	116.56
291.141	140.56
291.371	220.56
291.602	256.56
291.833	172.56
292.064	111.56
292.295	87.56
292.526	104.56
292.757	88.56
292.987	95.56
293.218	103.56
293.449	109.56
293.68	98.56
293.91	80.56
294.141	75.56
294.372	88.56
294.603	108.56
294.833	96.56
295.064	88.56
295.295	113.56
295.525	87.56
295.756	108.56
295.987	101.56
296.217	92.56
296.448	85.56
296.679	88.56
296.909	97.56
297.14	88.56
297.37	90.56
297.601	87.56
297.831	90.56
298.062	94.56
298.292	88.56
298.523	98.56
298.753	101.56
298.984	101.56
299.214	109.56
299.445	103.56
299.675	113.56
299.905	117.56
300.136	120.56
300.366	149.56
300.597	258.56
300.827	401.56
301.057	607.56
301.288	582.56
301.518	229.56
301.748	140.56
301.979	133.56
302.209	130.56
302.439	122.56
302.669	153.56
302.9	230.56
303.13	434.56
303.36	784.56
303.59	1043.56
303.82	756.56
304.051	253.56
304.281	152.56
304.511	130.56
304.741	123.56
304.971	90.56
305.201	100.56
305.431	106.56
305.661	94.56
305.891	92.56
306.121	95.56
306.352	92.56
306.582	108.56
306.812	96.56
307.042	97.56
307.272	105.56
307.502	102.56
307.731	97.56
307.961	112.56
308.191	94.56
308.421	87.56
308.651	93.56
308.881	94.56
309.111	104.56
309.341	93.56
309.571	114.56
309.8	106.56
310.03	103.56
310.26	113.56
310.49	106.56
310.72	99.56
310.949	109.56
311.179	99.56
311.409	101.56
311.639	114.56
311.868	102.56
312.098	108.56
312.328	109.56
312.557	99.56
312.787	120.56
313.017	112.56
313.246	119.56
313.476	91.56
313.706	122.56
313.935	144.56
314.165	183.56
314.394	210.56
314.624	167.56
314.853	131.56
315.083	126.56
315.312	127.56
315.542	101.56
315.771	120.56
316.001	144.56
316.23	134.56
316.46	129.56
316.689	144.56
316.919	230.56
317.148	435.56
317.377	793.56
317.607	1293.56
317.836	1213.56
318.065	460.56
318.295	199.56
318.524	128.56
318.753	136.56
318.983	132.56
319.212	119.56
319.441	101.56
319.67	89.56
319.9	114.56
320.129	96.56
320.358	116.56
320.587	109.56
320.816	111.56
321.046	119.56
321.275	109.56
321.504	132.56
321.733	124.56
321.962	158.56
322.191	145.56
322.42	132.56
322.649	126.56
322.878	121.56
323.108	114.56
323.337	122.56
323.566	121.56
323.795	118.56
324.024	135.56
324.253	135.56
324.482	165.56
324.71	201.56
324.939	264.56
325.168	225.56
325.397	183.56
325.626	224.56
325.855	424.56
326.084	838.56
326.313	1414.56
326.542	1383.56
326.77	566.56
326.999	257.56
327.228	197.56
327.457	216.56
327.686	208.56
327.914	149.56
328.143	130.56
328.372	133.56
328.6	128.56
328.829	99.56
329.058	112.56
329.287	119.56
329.515	99.56
329.744	104.56
329.972	109.56
330.201	110.56
330.43	114.56
330.658	102.56
330.887	120.56
331.115	103.56
331.344	114.56
331.572	115.56
331.801	111.56
332.03	128.56
332.258	129.56
332.486	173.56
332.715	272.56
332.943	436.56
333.172	684.56
333.4	581.56
333.629	224.56
333.857	134.56
334.085	112.56
334.314	135.56
334.542	121.56
334.771	114.56
334.999	113.56
335.227	125.56
335.455	132.56
335.684	105.56
335.912	118.56
336.14	103.56
336.369	101.56
336.597	93.56
336.825	110.56
337.053	109.56
337.281	105.56
337.51	120.56
337.738	98.56
337.966	108.56
338.194	109.56
338.422	95.56
338.65	113.56
338.878	113.56
339.106	113.56
339.334	104.56
339.562	119.56
339.79	116.56
340.018	105.56
340.246	112.56
340.474	117.56
340.702	113.56
340.93	112.56
341.158	103.56
341.386	112.56
341.614	112.56
341.842	101.56
342.07	109.56
342.298	114.56
342.526	110.56
342.754	118.56
342.981	105.56
343.209	105.56
343.437	108.56
343.665	91.56
343.893	96.56
344.12	122.56
344.348	96.56
344.576	97.56
344.804	104.56
345.031	111.56
345.259	100.56
345.487	92.56
345.714	102.56
345.942	100.56
346.17	110.56
346.397	104.56
346.625	89.56
346.853	99.56
347.08	96.56
347.308	90.56
347.535	98.56
347.763	95.56
347.99	102.56
348.218	84.56
348.445	98.56
348.673	98.56
348.9	116.56
349.128	105.56
349.355	119.56
349.583	123.56
349.81	115.56
350.037	94.56
350.265	105.56
350.492	107.56
350.72	100.56
350.947	108.56
351.174	108.56
351.402	109.56
351.629	102.56
351.856	97.56
352.083	99.56
352.311	110.56
352.538	123.56
352.765	117.56
352.992	109.56
353.22	102.56
353.447	98.56
353.674	114.56
353.901	102.56
354.128	99.56
354.355	111.56
354.583	100.56
354.81	109.56
355.037	92.56
355.264	97.56
355.491	104.56
355.718	93.56
355.945	92.56
356.172	88.56
356.399	93.56
356.626	105.56
356.853	106.56
357.08	98.56
357.307	101.56
357.534	84.56
357.761	96.56
357.988	114.56
358.215	106.56
358.441	109.56
358.668	104.56
358.895	98.56
359.122	112.56
359.349	119.56
359.576	115.56
359.802	102.56
360.029	117.56
360.256	106.56
360.483	108.56
360.709	100.56
360.936	101.56
361.163	100.56
361.39	108.56
361.616	90.56
361.843	100.56
362.07	114.56
362.296	101.56
362.523	91.56
362.749	80.56
362.976	100.56
363.203	88.56
363.429	100.56
363.656	92.56
363.882	105.56
364.109	113.56
364.335	103.56
364.562	104.56
364.788	106.56
365.015	94.56
365.241	123.56
365.468	188.56
365.694	237.56
365.92	211.56
366.147	112.56
366.373	96.56
366.599	88.56
366.826	95.56
367.052	90.56
367.278	83.56
367.505	92.56
367.731	92.56
367.957	85.56
368.184	108.56
368.41	103.56
368.636	111.56
368.862	98.56
369.089	99.56
369.315	113.56
369.541	106.56
369.767	104.56
369.993	112.56
370.219	106.56
370.445	104.56
370.672	115.56
370.898	101.56
371.124	90.56
371.35	94.56
371.576	111.56
371.802	100.56
372.028	122.56
372.254	108.56
372.48	103.56
372.706	112.56
372.932	120.56
373.158	117.56
373.384	126.56
373.61	114.56
373.835	114.56
374.061	112.56
374.287	111.56
374.513	86.56
374.739	101.56
374.965	97.56
375.191	100.56
375.416	101.56
375.642	100.56
375.868	120.56
376.094	92.56
376.319	97.56
376.545	92.56
376.771	107.56
376.997	92.56
377.222	102.56
377.448	105.56
377.674	114.56
377.899	104.56
378.125	92.56
378.35	124.56
378.576	99.56
378.802	107.56
379.027	114.56
379.253	138.56
379.478	143.56
379.704	284.56
379.929	698.56
380.155	1340.56
380.38	1440.56
380.606	467.56
380.831	178.56
381.057	124.56
381.282	112.56
381.507	102.56
381.733	96.56
381.958	103.56
382.184	92.56
382.409	102.56
382.634	98.56
382.86	96.56
383.085	97.56
383.31	93.56
383.535	101.56
383.761	100.56
383.986	99.56
384.211	105.56
384.436	87.56
384.662	92.56
384.887	96.56
385.112	92.56
385.337	100.56
385.562	99.56
385.787	92.56
386.013	103.56
386.238	99.56
386.463	115.56
386.688	110.56
386.913	99.56
387.138	98.56
387.363	105.56
387.588	94.56
387.813	101.56
388.038	96.56
388.263	116.56
388.488	98.56
388.713	93.56
388.938	90.56
389.163	87.56
389.387	100.56
389.612	95.56
389.837	104.56
390.062	97.56
390.287	106.56
390.512	93.56
390.736	103.56
390.961	100.56
391.186	102.56
391.411	88.56
391.636	101.56
391.86	87.56
392.085	103.56
392.31	109.56
392.534	92.56
392.759	97.56
392.984	94.56
393.208	106.56
393.433	122.56
393.658	130.56
393.882	107.56
394.107	92.56
394.331	106.56
394.556	94.56
394.78	93.56
395.005	107.56
395.229	106.56
395.454	97.56
395.678	93.56
395.903	92.56
396.127	104.56
396.352	103.56
396.576	93.56
396.801	100.56
397.025	116.56
397.249	111.56
397.474	102.56
397.698	85.56
397.922	91.56
398.147	85.56
398.371	101.56
398.595	113.56
398.82	84.56
399.044	86.56
399.268	107.56
399.492	111.56
399.717	92.56
399.941	87.56
400.165	92.56
400.389	93.56
400.613	97.56
400.837	89.56
401.062	99.56
401.286	92.56
401.51	81.56
401.734	90.56
401.958	105.56
402.182	86.56
402.406	111.56
402.63	85.56
402.854	93.56
403.078	89.56
403.302	92.56
403.526	92.56
403.75	103.56
403.974	97.56
404.198	92.56
404.422	82.56
404.645	78.56
404.869	93.56
405.093	94.56
405.317	97.56
405.541	115.56
405.765	134.56
405.988	142.56
406.212	108.56
406.436	110.56
406.66	98.56
406.883	93.56
407.107	87.56
407.331	77.56
407.555	81.56
407.778	94.56
408.002	90.56
408.226	87.56
408.449	97.56
408.673	101.56
408.896	99.56
409.12	101.56
409.344	93.56
409.567	87.56
409.791	80.56
410.014	105.56
410.238	97.56
410.461	96.56
410.685	84.56
410.908	102.56
411.132	102.56
411.355	105.56
411.578	80.56
411.802	85.56
412.025	96.56
412.249	92.56
412.472	95.56
412.695	94.56
412.919	79.56
413.142	116.56
413.365	86.56
413.589	77.56
413.812	91.56
414.035	114.56
414.258	99.56
414.482	97.56
414.705	90.56
414.928	103.56
415.151	100.56
415.374	95.56
415.597	96.56
415.821	85.56
416.044	89.56
416.267	93.56
416.49	96.56
416.713	96.56
416.936	97.56
417.159	92.56
417.382	86.56
417.605	91.56
417.828	97.56
418.051	91.56
418.274	85.56
418.497	90.56
418.72	99.56
418.943	89.56
419.166	112.56
419.389	98.56
419.611	97.56
419.834	90.56
420.057	113.56
420.28	84.56
420.503	99.56
420.726	94.56
420.948	91.56
421.171	93.56
421.394	73.56
421.617	83.56
421.839	96.56
422.062	94.56
422.285	87.56
422.507	87.56
422.73	114.56
422.953	136.56
423.175	115.56
423.398	94.56
423.621	99.56
423.843	89.56
424.066	92.56
424.288	77.56
424.511	85.56
424.733	111.56
424.956	94.56
425.178	97.56
425.401	103.56
425.623	80.56
425.846	74.56
426.068	82.56
426.291	96.56
426.513	96.56
426.735	91.56
426.958	92.56
427.18	79.56
427.402	90.56
427.625	90.56
427.847	102.56
428.069	100.56
428.292	94.56
428.514	99.56
428.736	93.56
428.958	92.56
429.181	81.56
429.403	78.56
429.625	82.56
429.847	100.56
430.069	108.56
430.292	80.56
430.514	93.56
430.736	96.56
430.958	85.56
431.18	105.56
431.402	94.56
431.624	79.56
431.846	89.56
432.068	83.56
432.29	86.56
432.512	87.56
432.734	78.56
432.956	96.56
433.178	96.56
433.4	85.56
433.622	101.56
433.844	84.56
434.066	77.56
434.287	87.56
434.509	96.56
434.731	89.56
434.953	102.56
435.175	103.56
435.397	99.56
435.618	80.56
435.84	87.56
436.062	87.56
436.284	95.56
436.505	110.56
436.727	92.56
436.949	86.56
437.17	82.56
437.392	83.56
437.614	75.56
437.835	99.56
438.057	85.56
438.278	85.56
438.5	90.56
438.721	91.56
438.943	102.56
439.165	108.56
439.386	108.56
439.608	82.56
439.829	90.56
440.05	107.56
440.272	121.56
440.493	95.56
440.715	96.56
440.936	87.56
441.158	82.56
441.379	95.56
441.6	74.56
441.822	100.56
442.043	116.56
442.264	132.56
442.486	111.56
442.707	117.56
442.928	96.56
443.149	107.56
443.371	94.56
443.592	91.56
443.813	96.56
444.034	91.56
444.255	106.56
444.476	87.56
444.698	82.56
444.919	75.56
445.14	237.56
445.361	149.56
445.582	97.56
445.803	102.56
446.024	90.56
446.245	119.56
446.466	90.56
446.687	113.56
446.908	102.56
447.129	93.56
447.35	84.56
447.571	110.56
447.792	80.56
448.013	80.56
448.234	94.56
448.455	104.56
448.675	96.56
448.896	97.56
449.117	89.56
449.338	120.56
449.559	145.56
449.779	105.56
450	101.56
450.221	114.56
450.442	105.56
450.662	111.56
450.883	100.56
451.104	104.56
451.324	129.56
451.545	115.56
451.766	116.56
451.986	122.56
452.207	205.56
452.428	515.56
452.648	1231.56
452.869	652.56
453.089	180.56
453.31	118.56
453.53	118.56
453.751	141.56
453.971	148.56
454.192	146.56
454.412	106.56
454.633	115.56
454.853	94.56
455.073	81.56
455.294	104.56
455.514	85.56
455.734	92.56
455.955	88.56
456.175	83.56
456.395	80.56
456.616	102.56
456.836	90.56
457.056	92.56
457.276	95.56
457.497	93.56
457.717	120.56
457.937	106.56
458.157	94.56
458.377	96.56
458.598	92.56
458.818	89.56
459.038	84.56
459.258	78.56
459.478	99.56
459.698	84.56
459.918	95.56
460.138	94.56
460.358	70.56
460.578	84.56
460.798	99.56
461.018	95.56
461.238	82.56
461.458	93.56
461.678	98.56
461.898	104.56
462.118	82.56
462.338	88.56
462.558	101.56
462.777	98.56
462.997	97.56
463.217	99.56
463.437	123.56
463.657	166.56
463.876	184.56
464.096	128.56
464.316	90.56
464.536	99.56
464.755	90.56
464.975	101.56
465.195	83.56
465.414	83.56
465.634	102.56
465.854	81.56
466.073	89.56
466.293	90.56
466.512	99.56
466.732	100.56
466.951	99.56
467.171	118.56
467.391	135.56
467.61	105.56
467.829	97.56
468.049	110.56
468.268	93.56
468.488	94.56
468.707	96.56
468.927	105.56
469.146	97.56
469.365	80.56
469.585	98.56
469.804	89.56
470.023	73.56
470.243	87.56
470.462	92.56
470.681	104.56
470.901	125.56
471.12	175.56
471.339	179.56
471.558	130.56
471.777	106.56
471.997	97.56
472.216	93.56
472.435	101.56
472.654	96.56
472.873	75.56
473.092	100.56
473.311	84.56
473.53	100.56
473.749	92.56
473.968	89.56
474.187	95.56
474.406	92.56
474.625	87.56
474.844	93.56
475.063	91.56
475.282	100.56
475.501	94.56
475.72	101.56
475.939	98.56
476.158	86.56
476.377	104.56
476.596	109.56
476.814	86.56
477.033	102.56
477.252	95.56
477.471	84.56
477.69	80.56
477.908	94.56
478.127	98.56
478.346	91.56
478.564	88.56
478.783	102.56
479.002	96.56
479.22	92.56
479.439	93.56
479.658	93.56
479.876	103.56
480.095	94.56
480.313	96.56
480.532	100.56
480.751	93.56
480.969	99.56
481.188	92.56
481.406	86.56
481.624	90.56
481.843	117.56
482.061	115.56
482.28	73.56
482.498	101.56
482.717	90.56
482.935	93.56
483.153	100.56
483.372	106.56
483.59	104.56
483.808	99.56
484.027	106.56
484.245	113.56
484.463	166.56
484.681	215.56
484.9	159.56
485.118	101.56
485.336	112.56
485.554	119.56
485.772	113.56
485.99	178.56
486.209	251.56
486.427	154.56
486.645	109.56
486.863	99.56
487.081	105.56
487.299	87.56
487.517	113.56
487.735	116.56
487.953	102.56
488.171	85.56
488.389	96.56
488.607	93.56
488.825	78.56
489.043	86.56
489.261	100.56
489.479	85.56
489.696	93.56
489.914	105.56
490.132	108.56
490.35	94.56
490.568	113.56
490.786	94.56
491.003	94.56
491.221	120.56
491.439	100.56
491.657	101.56
491.874	93.56
492.092	99.56
492.31	112.56
492.527	103.56
492.745	88.56
492.963	95.56
493.18	98.56
493.398	100.56
493.615	99.56
493.833	96.56
494.05	95.56
494.268	94.56
494.485	101.56
494.703	113.56
494.92	89.56
495.138	107.56
495.355	115.56
495.573	110.56
495.79	89.56
496.008	93.56
496.225	90.56
496.442	110.56
496.66	118.56
496.877	135.56
497.094	136.56
497.312	111.56
497.529	103.56
497.746	90.56
497.963	99.56
498.181	105.56
498.398	97.56
498.615	94.56
498.832	105.56
499.049	116.56
499.267	134.56
499.484	147.56
499.701	118.56
499.918	95.56
500.135	88.56
500.352	88.56
500.569	85.56
500.786	109.56
501.003	86.56
501.22	97.56
501.437	79.56
501.654	96.56
501.871	96.56
502.088	92.56
502.305	85.56
502.522	97.56
502.739	81.56
502.956	93.56
503.172	97.56
503.389	102.56
503.606	103.56
503.823	100.56
504.04	90.56
504.256	101.56
504.473	92.56
504.69	101.56
504.907	112.56
505.123	113.56
505.34	96.56
505.557	106.56
505.773	96.56
505.99	102.56
506.207	101.56
506.423	104.56
506.64	108.56
506.856	108.56
507.073	96.56
507.289	98.56
507.506	95.56
507.722	85.56
507.939	82.56
508.155	99.56
508.372	98.56
508.588	96.56
508.805	110.56
509.021	92.56
509.238	99.56
509.454	137.56
509.67	160.56
509.887	106.56
510.103	92.56
510.319	84.56
510.536	110.56
