Data from SnStandardFlinnAPT0064_LampEnergy10_LIBS07252019.E.O._I.C._HRD10591_15-19-41-493.txt Node
Date: Thu Jul 25 15:19:41 EDT 2019
User: cochatt
Spectrometer: HR+D1059
Trigger mode: 1
Integration Time (sec): 1.000000E-1
Scans to average: 1
Electric dark correction enabled: true
Nonlinearity correction enabled: false
Boxcar width: 0
XAxis mode: Wavelengths
Number of Pixels in Spectrum: 2048
>>>>>Begin Spectral Data<<<<<
223.165	-12.81
223.4	-12.81
223.635	-12.81
223.869	-26.81
224.104	-20.81
224.338	-3.81
224.573	-20.81
224.808	-2.81
225.042	-9.81
225.277	3.19
225.511	-6.81
225.746	9.19
225.98	3.19
226.215	11.19
226.449	7.19
226.683	9.19
226.918	24.19
227.152	37.19
227.387	31.19
227.621	38.19
227.856	47.19
228.09	43.19
228.324	51.19
228.559	59.19
228.793	121.19
229.027	310.19
229.262	359.19
229.496	309.19
229.73	297.19
229.964	293.19
230.199	298.19
230.433	312.19
230.667	324.19
230.901	326.19
231.136	349.19
231.37	359.19
231.604	403.19
231.838	451.19
232.072	546.19
232.306	595.19
232.541	503.19
232.775	434.19
233.009	420.19
233.243	442.19
233.477	469.19
233.711	532.19
233.945	597.19
234.179	547.19
234.413	481.19
234.647	471.19
234.881	495.19
235.115	559.19
235.349	640.19
235.583	831.19
235.817	1051.19
236.051	1045.19
236.285	710.19
236.519	569.19
236.753	507.19
236.987	505.19
237.221	549.19
237.455	547.19
237.689	499.19
237.922	464.19
238.156	482.19
238.39	503.19
238.624	506.19
238.858	497.19
239.091	499.19
239.325	497.19
239.559	513.19
239.793	512.19
240.027	548.19
240.26	577.19
240.494	571.19
240.728	599.19
240.961	624.19
241.195	674.19
241.429	707.19
241.662	736.19
241.896	822.19
242.13	1019.19
242.363	1329.19
242.597	1730.19
242.83	1629.19
243.064	1640.19
243.298	1929.19
243.531	1571.19
243.765	1025.19
243.998	800.19
244.232	713.19
244.465	691.19
244.699	658.19
244.932	676.19
245.166	669.19
245.399	682.19
245.633	683.19
245.866	712.19
246.099	692.19
246.333	684.19
246.566	671.19
246.8	666.19
247.033	633.19
247.266	644.19
247.5	671.19
247.733	684.19
247.966	729.19
248.2	803.19
248.433	918.19
248.666	1054.19
248.899	968.19
249.133	865.19
249.366	877.19
249.599	981.19
249.832	1149.19
250.066	1135.19
250.299	903.19
250.532	800.19
250.765	770.19
250.998	748.19
251.231	742.19
251.465	717.19
251.698	744.19
251.931	736.19
252.164	752.19
252.397	775.19
252.63	824.19
252.863	818.19
253.096	781.19
253.329	799.19
253.562	789.19
253.795	751.19
254.028	812.19
254.261	838.19
254.494	907.19
254.727	1060.19
254.96	1296.19
255.193	1279.19
255.426	989.19
255.659	919.19
255.892	891.19
256.124	897.19
256.357	890.19
256.59	945.19
256.823	981.19
257.056	1142.19
257.289	1409.19
257.521	1596.19
257.754	1248.19
257.987	997.19
258.22	936.19
258.452	910.19
258.685	951.19
258.918	938.19
259.151	994.19
259.383	1127.19
259.616	1259.19
259.849	1322.19
260.081	1124.19
260.314	1028.19
260.547	967.19
260.779	959.19
261.012	951.19
261.244	963.19
261.477	964.19
261.71	975.19
261.942	1014.19
262.175	1013.19
262.407	1027.19
262.64	1049.19
262.872	1083.19
263.105	1130.19
263.337	1175.19
263.57	1251.19
263.802	1286.19
264.035	1298.19
264.267	1343.19
264.499	1315.19
264.732	1428.19
264.964	1409.19
265.197	1403.19
265.429	1407.19
265.661	1427.19
265.894	1579.19
266.126	1749.19
266.358	1969.19
266.591	1960.19
266.823	1616.19
267.055	1470.19
267.287	1378.19
267.52	1316.19
267.752	1323.19
267.984	1241.19
268.216	1268.19
268.448	1246.19
268.681	1240.19
268.913	1230.19
269.145	1212.19
269.377	1250.19
269.609	1281.19
269.841	1317.19
270.073	1403.19
270.306	1649.19
270.538	2305.19
270.77	3396.19
271.002	4156.19
271.234	2895.19
271.466	1948.19
271.698	1597.19
271.93	1453.19
272.162	1334.19
272.394	1307.19
272.626	1297.19
272.858	1255.19
273.09	1244.19
273.322	1237.19
273.553	1226.19
273.785	1212.19
274.017	1210.19
274.249	1203.19
274.481	1189.19
274.713	1207.19
274.945	1207.19
275.176	1202.19
275.408	1207.19
275.64	1272.19
275.872	1218.19
276.104	1256.19
276.335	1304.19
276.567	1280.19
276.799	1285.19
277.031	1300.19
277.262	1348.19
277.494	1419.19
277.726	1589.19
277.957	1906.19
278.189	2178.19
278.421	2060.19
278.652	1757.19
278.884	1725.19
279.115	1532.19
279.347	1466.19
279.579	1429.19
279.81	1413.19
280.042	1431.19
280.273	1440.19
280.505	1495.19
280.736	1548.19
280.968	1619.19
281.199	1823.19
281.431	2098.19
281.662	2129.19
281.894	1827.19
282.125	1703.19
282.356	1683.19
282.588	1724.19
282.819	1745.19
283.051	1861.19
283.282	2069.19
283.513	2604.19
283.745	3745.19
283.976	5963.19
284.207	8538.19
284.439	7827.19
284.67	4874.19
284.901	3980.19
285.132	4039.19
285.364	3775.19
285.595	2885.19
285.826	2536.19
286.057	2967.19
286.288	4108.19
286.52	5552.19
286.751	5208.19
286.982	3201.19
287.213	2449.19
287.444	2085.19
287.675	1900.19
287.906	1825.19
288.138	1752.19
288.369	1698.19
288.6	1712.19
288.831	1691.19
289.062	1675.19
289.293	1694.19
289.524	1728.19
289.755	1707.19
289.986	1736.19
290.217	1713.19
290.448	1739.19
290.679	1767.19
290.91	1777.19
291.141	1886.19
291.371	2055.19
291.602	2145.19
291.833	1935.19
292.064	1800.19
292.295	1691.19
292.526	1683.19
292.757	1624.19
292.987	1629.19
293.218	1596.19
293.449	1616.19
293.68	1585.19
293.91	1600.19
294.141	1603.19
294.372	1558.19
294.603	1581.19
294.833	1573.19
295.064	1568.19
295.295	1533.19
295.525	1545.19
295.756	1532.19
295.987	1564.19
296.217	1586.19
296.448	1540.19
296.679	1592.19
296.909	1599.19
297.14	1576.19
297.37	1645.19
297.601	1640.19
297.831	1630.19
298.062	1646.19
298.292	1645.19
298.523	1685.19
298.753	1691.19
298.984	1701.19
299.214	1753.19
299.445	1753.19
299.675	1813.19
299.905	1850.19
300.136	1925.19
300.366	2193.19
300.597	2816.19
300.827	4053.19
301.057	5516.19
301.288	5627.19
301.518	3580.19
301.748	2709.19
301.979	2480.19
302.209	2355.19
302.439	2378.19
302.669	2513.19
302.9	3011.19
303.13	4392.19
303.36	6537.19
303.59	8780.19
303.82	7704.19
304.051	4529.19
304.281	3158.19
304.511	2637.19
304.741	2385.19
304.971	2285.19
305.201	2173.19
305.431	2057.19
305.661	1999.19
305.891	1932.19
306.121	1874.19
306.352	1875.19
306.582	1860.19
306.812	1837.19
307.042	1890.19
307.272	1810.19
307.502	1815.19
307.731	1821.19
307.961	1844.19
308.191	1784.19
308.421	1786.19
308.651	1839.19
308.881	1788.19
309.111	1856.19
309.341	1841.19
309.571	1830.19
309.8	1875.19
310.03	1847.19
310.26	1887.19
310.49	1870.19
310.72	1879.19
310.949	1910.19
311.179	1908.19
311.409	1907.19
311.639	1998.19
311.868	1952.19
312.098	1959.19
312.328	1937.19
312.557	1973.19
312.787	1967.19
313.017	1999.19
313.246	1967.19
313.476	2029.19
313.706	2110.19
313.935	2168.19
314.165	2396.19
314.394	2497.19
314.624	2369.19
314.853	2175.19
315.083	2165.19
315.312	2188.19
315.542	2218.19
315.771	2233.19
316.001	2345.19
316.23	2389.19
316.46	2479.19
316.689	2735.19
316.919	3345.19
317.148	4796.19
317.377	7535.19
317.607	11099.19
317.836	11568.19
318.065	7123.19
318.295	4568.19
318.524	3610.19
318.753	3155.19
318.983	2843.19
319.212	2663.19
319.441	2527.19
319.67	2503.19
319.9	2449.19
320.129	2439.19
320.358	2371.19
320.587	2389.19
320.816	2371.19
321.046	2375.19
321.275	2380.19
321.504	2382.19
321.733	2423.19
321.962	2487.19
322.191	2540.19
322.42	2519.19
322.649	2475.19
322.878	2481.19
323.108	2547.19
323.337	2540.19
323.566	2559.19
323.795	2658.19
324.024	2674.19
324.253	2783.19
324.482	2853.19
324.71	3063.19
324.939	3274.19
325.168	3383.19
325.397	3473.19
325.626	4155.19
325.855	5911.19
326.084	9258.19
326.313	13265.19
326.542	13988.19
326.77	9703.19
326.999	6201.19
327.228	5185.19
327.457	4929.19
327.686	5033.19
327.914	5205.19
328.143	6135.19
328.372	7435.19
328.6	8076.19
328.829	7219.19
329.058	5964.19
329.287	5236.19
329.515	4683.19
329.744	4390.19
329.972	4161.19
330.201	3945.19
330.43	3769.19
330.658	3627.19
330.887	3568.19
331.115	3538.19
331.344	3492.19
331.572	3446.19
331.801	3507.19
332.03	3499.19
332.258	3606.19
332.486	3817.19
332.715	4399.19
332.943	5458.19
333.172	6957.19
333.4	6841.19
333.629	5141.19
333.857	4603.19
334.085	4567.19
334.314	4823.19
334.542	5221.19
334.771	6135.19
334.999	7594.19
335.227	9572.19
335.455	10727.19
335.684	9721.19
335.912	7841.19
336.14	6685.19
336.369	5834.19
336.597	5285.19
336.825	4848.19
337.053	4605.19
337.281	4333.19
337.51	4119.19
337.738	3919.19
337.966	3715.19
338.194	3646.19
338.422	3481.19
338.65	3378.19
338.878	3337.19
339.106	3264.19
339.334	3263.19
339.562	3142.19
339.79	3116.19
340.018	3075.19
340.246	3021.19
340.474	2987.19
340.702	3009.19
340.93	3044.19
341.158	3025.19
341.386	3043.19
341.614	2971.19
341.842	2875.19
342.07	2807.19
342.298	2802.19
342.526	2727.19
342.754	2713.19
342.981	2709.19
343.209	2659.19
343.437	2762.19
343.665	2741.19
343.893	2806.19
344.12	2827.19
344.348	2726.19
344.576	2677.19
344.804	2695.19
345.031	2665.19
345.259	2589.19
345.487	2572.19
345.714	2555.19
345.942	2542.19
346.17	2532.19
346.397	2528.19
346.625	2537.19
346.853	2525.19
347.08	2488.19
347.308	2514.19
347.535	2561.19
347.763	2511.19
347.99	2490.19
348.218	2461.19
348.445	2464.19
348.673	2493.19
348.9	2440.19
349.128	2430.19
349.355	2418.19
349.583	2463.19
349.81	2415.19
350.037	2405.19
350.265	2408.19
350.492	2447.19
350.72	2417.19
350.947	2398.19
351.174	2337.19
351.402	2413.19
351.629	2425.19
351.856	2408.19
352.083	2416.19
352.311	2386.19
352.538	2349.19
352.765	2341.19
352.992	2360.19
353.22	2348.19
353.447	2380.19
353.674	2397.19
353.901	2414.19
354.128	2423.19
354.355	2367.19
354.583	2408.19
354.81	2433.19
355.037	2427.19
355.264	2403.19
355.491	2441.19
355.718	2435.19
355.945	2420.19
356.172	2431.19
356.399	2424.19
356.626	2489.19
356.853	2517.19
357.08	2524.19
357.307	2543.19
357.534	2547.19
357.761	2555.19
357.988	2569.19
358.215	2570.19
358.441	2633.19
358.668	2555.19
358.895	2551.19
359.122	2481.19
359.349	2605.19
359.576	2548.19
359.802	2525.19
360.029	2490.19
360.256	2510.19
360.483	2490.19
360.709	2544.19
360.936	2573.19
361.163	2540.19
361.39	2532.19
361.616	2567.19
361.843	2579.19
362.07	2558.19
362.296	2562.19
362.523	2577.19
362.749	2571.19
362.976	2543.19
363.203	2536.19
363.429	2473.19
363.656	2513.19
363.882	2528.19
364.109	2527.19
364.335	2541.19
364.562	2521.19
364.788	2579.19
365.015	2585.19
365.241	2647.19
365.468	2779.19
365.694	2944.19
365.92	2887.19
366.147	2617.19
366.373	2596.19
366.599	2609.19
366.826	2577.19
367.052	2612.19
367.278	2632.19
367.505	2604.19
367.731	2604.19
367.957	2571.19
368.184	2605.19
368.41	2650.19
368.636	2616.19
368.862	2592.19
369.089	2650.19
369.315	2629.19
369.541	2650.19
369.767	2607.19
369.993	2624.19
370.219	2606.19
370.445	2663.19
370.672	2684.19
370.898	2629.19
371.124	2630.19
371.35	2678.19
371.576	2679.19
371.802	2705.19
372.028	2719.19
372.254	2726.19
372.48	2721.19
372.706	2790.19
372.932	2742.19
373.158	2733.19
373.384	2765.19
373.61	2728.19
373.835	2756.19
374.061	2783.19
374.287	2825.19
374.513	2813.19
374.739	2860.19
374.965	2822.19
375.191	2916.19
375.416	2872.19
375.642	2823.19
375.868	2781.19
376.094	2767.19
376.319	2763.19
376.545	2759.19
376.771	2747.19
376.997	2711.19
377.222	2719.19
377.448	2658.19
377.674	2713.19
377.899	2698.19
378.125	2693.19
378.35	2675.19
378.576	2703.19
378.802	2678.19
379.027	2794.19
379.253	2875.19
379.478	3093.19
379.704	3546.19
379.929	5301.19
380.155	8288.19
380.38	9126.19
380.606	5491.19
380.831	3843.19
381.057	3305.19
381.282	2991.19
381.507	2912.19
381.733	2827.19
381.958	2751.19
382.184	2752.19
382.409	2692.19
382.634	2675.19
382.86	2687.19
383.085	2636.19
383.31	2686.19
383.535	2679.19
383.761	2686.19
383.986	2715.19
384.211	2723.19
384.436	2748.19
384.662	2723.19
384.887	2772.19
385.112	2703.19
385.337	2765.19
385.562	2784.19
385.787	2796.19
386.013	2771.19
386.238	2765.19
386.463	2806.19
386.688	2780.19
386.913	2701.19
387.138	2741.19
387.363	2747.19
387.588	2769.19
387.813	2706.19
388.038	2719.19
388.263	2779.19
388.488	2747.19
388.713	2733.19
388.938	2724.19
389.163	2722.19
389.387	2726.19
389.612	2731.19
389.837	2794.19
390.062	2681.19
390.287	2793.19
390.512	2774.19
390.736	2817.19
390.961	2835.19
391.186	2837.19
391.411	2816.19
391.636	2875.19
391.86	2907.19
392.085	2919.19
392.31	2836.19
392.534	2817.19
392.759	2791.19
392.984	2785.19
393.208	2792.19
393.433	2821.19
393.658	2842.19
393.882	2791.19
394.107	2745.19
394.331	2791.19
394.556	2764.19
394.78	2803.19
395.005	2769.19
395.229	2805.19
395.454	2839.19
395.678	2877.19
395.903	2876.19
396.127	2835.19
396.352	2812.19
396.576	2791.19
396.801	2823.19
397.025	2862.19
397.249	2849.19
397.474	2853.19
397.698	2844.19
397.922	2955.19
398.147	2943.19
398.371	2935.19
398.595	3013.19
398.82	3073.19
399.044	3155.19
399.268	3303.19
399.492	3525.19
399.717	3612.19
399.941	3626.19
400.165	3454.19
400.389	3280.19
400.613	3247.19
400.837	3090.19
401.062	3045.19
401.286	3096.19
401.51	2997.19
401.734	3027.19
401.958	3028.19
402.182	3051.19
402.406	3008.19
402.63	3057.19
402.854	3035.19
403.078	3066.19
403.302	3070.19
403.526	3123.19
403.75	3075.19
403.974	3162.19
404.198	3094.19
404.422	3128.19
404.645	3110.19
404.869	3067.19
405.093	3192.19
405.317	3132.19
405.541	3152.19
405.765	3243.19
405.988	3287.19
406.212	3177.19
406.436	3193.19
406.66	3293.19
406.883	3209.19
407.107	3372.19
407.331	3395.19
407.555	3433.19
407.778	3446.19
408.002	3341.19
408.226	3338.19
408.449	3344.19
408.673	3293.19
408.896	3228.19
409.12	3184.19
409.344	3213.19
409.567	3152.19
409.791	3153.19
410.014	3132.19
410.238	3121.19
410.461	3162.19
410.685	3058.19
410.908	3035.19
411.132	3133.19
411.355	3024.19
411.578	3080.19
411.802	2985.19
412.025	3021.19
412.249	3020.19
412.472	3044.19
412.695	2981.19
412.919	2951.19
413.142	2993.19
413.365	2950.19
413.589	2976.19
413.812	2948.19
414.035	2978.19
414.258	3040.19
414.482	2978.19
414.705	2955.19
414.928	2928.19
415.151	2954.19
415.374	2913.19
415.597	2884.19
415.821	2876.19
416.044	2865.19
416.267	2882.19
416.49	2861.19
416.713	2818.19
416.936	2844.19
417.159	2836.19
417.382	2858.19
417.605	2765.19
417.828	2804.19
418.051	2860.19
418.274	2876.19
418.497	2883.19
418.72	2952.19
418.943	2888.19
419.166	3000.19
419.389	3151.19
419.611	3196.19
419.834	3042.19
420.057	2975.19
420.28	2880.19
420.503	2867.19
420.726	2802.19
420.948	2802.19
421.171	2864.19
421.394	2844.19
421.617	2857.19
421.839	2869.19
422.062	2881.19
422.285	2858.19
422.507	2923.19
422.73	2920.19
422.953	2924.19
423.175	2953.19
423.398	2954.19
423.621	2868.19
423.843	2825.19
424.066	2900.19
424.288	2827.19
424.511	2839.19
424.733	2859.19
424.956	2827.19
425.178	2819.19
425.401	2780.19
425.623	2823.19
425.846	2723.19
426.068	2744.19
426.291	2731.19
426.513	2708.19
426.735	2624.19
426.958	2684.19
427.18	2685.19
427.402	2699.19
427.625	2691.19
427.847	2668.19
428.069	2589.19
428.292	2691.19
428.514	2624.19
428.736	2626.19
428.958	2690.19
429.181	2636.19
429.403	2587.19
429.625	2628.19
429.847	2625.19
430.069	2746.19
430.292	2819.19
430.514	2869.19
430.736	2894.19
430.958	2690.19
431.18	2649.19
431.402	2660.19
431.624	2595.19
431.846	2603.19
432.068	2547.19
432.29	2585.19
432.512	2545.19
432.734	2603.19
432.956	2632.19
433.178	2660.19
433.4	2608.19
433.622	2659.19
433.844	2687.19
434.066	2602.19
434.287	2611.19
434.509	2658.19
434.731	2728.19
434.953	2733.19
435.175	2759.19
435.397	2698.19
435.618	2681.19
435.84	2692.19
436.062	2624.19
436.284	2634.19
436.505	2625.19
436.727	2599.19
436.949	2595.19
437.17	2571.19
437.392	2538.19
437.614	2565.19
437.835	2495.19
438.057	2583.19
438.278	2522.19
438.5	2582.19
438.721	2571.19
438.943	2652.19
439.165	2729.19
439.386	2741.19
439.608	2662.19
439.829	2743.19
440.05	2843.19
440.272	2905.19
440.493	2698.19
440.715	2681.19
440.936	2709.19
441.158	2775.19
441.379	2779.19
441.6	2847.19
441.822	2974.19
442.043	3097.19
442.264	3194.19
442.486	2957.19
442.707	2820.19
442.928	2780.19
443.149	2815.19
443.371	2733.19
443.592	2852.19
443.813	2804.19
444.034	2813.19
444.255	2827.19
444.476	2901.19
444.698	2943.19
444.919	3008.19
445.14	3055.19
445.361	2933.19
445.582	2887.19
445.803	2839.19
446.024	2788.19
446.245	2822.19
446.466	2725.19
446.687	2685.19
446.908	2757.19
447.129	2655.19
447.35	2655.19
447.571	2656.19
447.792	2591.19
448.013	2585.19
448.234	2624.19
448.455	2645.19
448.675	2619.19
448.896	2734.19
449.117	2812.19
449.338	3046.19
449.559	3139.19
449.779	2815.19
450	2624.19
450.221	2556.19
450.442	2492.19
450.662	2516.19
450.883	2524.19
451.104	2569.19
451.324	2495.19
451.545	2529.19
451.766	2543.19
451.986	2596.19
452.207	2839.19
452.428	3697.19
452.648	5721.19
452.869	4779.19
453.089	3257.19
453.31	3018.19
453.53	3075.19
453.751	3059.19
453.971	3236.19
454.192	3174.19
454.412	2756.19
454.633	2592.19
454.853	2557.19
455.073	2451.19
455.294	2467.19
455.514	2449.19
455.734	2426.19
455.955	2387.19
456.175	2373.19
456.395	2393.19
456.616	2427.19
456.836	2451.19
457.056	2465.19
457.276	2463.19
457.497	2615.19
457.717	2630.19
457.937	2538.19
458.157	2532.19
458.377	2532.19
458.598	2596.19
458.818	2552.19
459.038	2571.19
459.258	2547.19
459.478	2645.19
459.698	2692.19
459.918	2723.19
460.138	2712.19
460.358	2770.19
460.578	2756.19
460.798	2851.19
461.018	2840.19
461.238	2900.19
461.458	2908.19
461.678	2880.19
461.898	2969.19
462.118	2957.19
462.338	3044.19
462.558	3081.19
462.777	3107.19
462.997	3274.19
463.217	3300.19
463.437	3480.19
463.657	3585.19
463.876	3553.19
464.096	3326.19
464.316	3189.19
464.536	3112.19
464.755	3145.19
464.975	2989.19
465.195	2877.19
465.414	2841.19
465.634	2784.19
465.854	2697.19
466.073	2675.19
466.293	2658.19
466.512	2655.19
466.732	2702.19
466.951	2809.19
467.171	3100.19
467.391	2922.19
467.61	2689.19
467.829	2614.19
468.049	2638.19
468.268	2595.19
468.488	2540.19
468.707	2580.19
468.927	2631.19
469.146	2577.19
469.365	2629.19
469.585	2579.19
469.804	2657.19
470.023	2717.19
470.243	2761.19
470.462	2863.19
470.681	2960.19
470.901	3407.19
471.12	3866.19
471.339	3875.19
471.558	3245.19
471.777	2932.19
471.997	2825.19
472.216	2682.19
472.435	2633.19
472.654	2637.19
472.873	2615.19
473.092	2595.19
473.311	2593.19
473.53	2671.19
473.749	2689.19
473.968	2773.19
474.187	2687.19
474.406	2603.19
474.625	2619.19
474.844	2596.19
475.063	2572.19
475.282	2605.19
475.501	2620.19
475.72	2633.19
475.939	2697.19
476.158	2668.19
476.377	2755.19
476.596	2743.19
476.814	2771.19
477.033	2747.19
477.252	2764.19
477.471	2778.19
477.69	2874.19
477.908	2883.19
478.127	2932.19
478.346	2939.19
478.564	2986.19
478.783	3011.19
479.002	3064.19
479.22	3064.19
479.439	3130.19
479.658	3089.19
479.876	3109.19
480.095	3144.19
480.313	3223.19
480.532	3212.19
480.751	3215.19
480.969	3195.19
481.188	3194.19
481.406	3146.19
481.624	3159.19
481.843	3177.19
482.061	3210.19
482.28	3168.19
482.498	3127.19
482.717	3170.19
482.935	3167.19
483.153	3265.19
483.372	3276.19
483.59	3334.19
483.808	3381.19
484.027	3432.19
484.245	3621.19
484.463	4121.19
484.681	4637.19
484.9	4186.19
485.118	3869.19
485.336	3753.19
485.554	3860.19
485.772	4093.19
485.99	4652.19
486.209	5011.19
486.427	4233.19
486.645	3729.19
486.863	3561.19
487.081	3454.19
487.299	3379.19
487.517	3372.19
487.735	3318.19
