Data from SnStandardFlinnAPT0064_QswitchEnergy10_LIBS07252019.E.O._I.C._HRD10591_15-28-15-974.txt Node
Date: Thu Jul 25 15:28:15 EDT 2019
User: cochatt
Spectrometer: HR+D1059
Trigger mode: 1
Integration Time (sec): 1.000000E-1
Scans to average: 1
Electric dark correction enabled: true
Nonlinearity correction enabled: false
Boxcar width: 0
XAxis mode: Wavelengths
Number of Pixels in Spectrum: 2048
>>>>>Begin Spectral Data<<<<<
223.165	-16.12
223.4	-16.12
223.635	-16.12
223.869	-20.12
224.104	-13.12
224.338	-18.12
224.573	-19.12
224.808	-11.12
225.042	-11.12
225.277	-15.12
225.511	-8.12
225.746	2.88
225.98	10.88
226.215	20.88
226.449	22.88
226.683	25.88
226.918	23.88
227.152	24.88
227.387	36.88
227.621	42.88
227.856	37.88
228.09	39.88
228.324	54.88
228.559	52.88
228.793	52.88
229.027	61.88
229.262	73.88
229.496	60.88
229.73	88.88
229.964	76.88
230.199	72.88
230.433	71.88
230.667	83.88
230.901	86.88
231.136	76.88
231.37	76.88
231.604	91.88
231.838	100.88
232.072	95.88
232.306	125.88
232.541	95.88
232.775	87.88
233.009	84.88
233.243	102.88
233.477	91.88
233.711	88.88
233.945	103.88
234.179	95.88
234.413	89.88
234.647	96.88
234.881	84.88
235.115	79.88
235.349	90.88
235.583	111.88
235.817	119.88
236.051	126.88
236.285	80.88
236.519	88.88
236.753	82.88
236.987	80.88
237.221	76.88
237.455	92.88
237.689	82.88
237.922	86.88
238.156	71.88
238.39	78.88
238.624	83.88
238.858	92.88
239.091	89.88
239.325	80.88
239.559	82.88
239.793	93.88
240.027	75.88
240.26	84.88
240.494	91.88
240.728	70.88
240.961	76.88
241.195	104.88
241.429	103.88
241.662	88.88
241.896	85.88
242.13	95.88
242.363	140.88
242.597	174.88
242.83	150.88
243.064	134.88
243.298	175.88
243.531	145.88
243.765	102.88
243.998	86.88
244.232	95.88
244.465	80.88
244.699	83.88
244.932	72.88
245.166	90.88
245.399	72.88
245.633	89.88
245.866	91.88
246.099	79.88
246.333	80.88
246.566	74.88
246.8	82.88
247.033	82.88
247.266	82.88
247.5	89.88
247.733	82.88
247.966	87.88
248.2	87.88
248.433	101.88
248.666	138.88
248.899	115.88
249.133	92.88
249.366	97.88
249.599	101.88
249.832	116.88
250.066	135.88
250.299	89.88
250.532	96.88
250.765	74.88
250.998	82.88
251.231	74.88
251.465	87.88
251.698	88.88
251.931	82.88
252.164	82.88
252.397	69.88
252.63	104.88
252.863	107.88
253.096	92.88
253.329	92.88
253.562	91.88
253.795	90.88
254.028	94.88
254.261	92.88
254.494	96.88
254.727	113.88
254.96	152.88
255.193	123.88
255.426	94.88
255.659	84.88
255.892	98.88
256.124	99.88
256.357	84.88
256.59	100.88
256.823	110.88
257.056	101.88
257.289	140.88
257.521	194.88
257.754	136.88
257.987	98.88
258.22	77.88
258.452	96.88
258.685	104.88
258.918	82.88
259.151	84.88
259.383	116.88
259.616	134.88
259.849	142.88
260.081	112.88
260.314	92.88
260.547	71.88
260.779	81.88
261.012	69.88
261.244	83.88
261.477	99.88
261.71	82.88
261.942	81.88
262.175	81.88
262.407	82.88
262.64	83.88
262.872	83.88
263.105	84.88
263.337	74.88
263.57	79.88
263.802	76.88
264.035	87.88
264.267	79.88
264.499	95.88
264.732	81.88
264.964	100.88
265.197	98.88
265.429	89.88
265.661	98.88
265.894	88.88
266.126	135.88
266.358	155.88
266.591	157.88
266.823	96.88
267.055	88.88
267.287	83.88
267.52	75.88
267.752	80.88
267.984	88.88
268.216	89.88
268.448	84.88
268.681	86.88
268.913	85.88
269.145	88.88
269.377	84.88
269.609	98.88
269.841	110.88
270.073	110.88
270.306	116.88
270.538	199.88
270.77	315.88
271.002	395.88
271.234	222.88
271.466	118.88
271.698	88.88
271.93	103.88
272.162	80.88
272.394	85.88
272.626	89.88
272.858	80.88
273.09	91.88
273.322	84.88
273.553	91.88
273.785	89.88
274.017	81.88
274.249	73.88
274.481	93.88
274.713	85.88
274.945	91.88
275.176	91.88
275.408	88.88
275.64	87.88
275.872	88.88
276.104	89.88
276.335	92.88
276.567	95.88
276.799	90.88
277.031	98.88
277.262	90.88
277.494	113.88
277.726	126.88
277.957	184.88
278.189	270.88
278.421	254.88
278.652	200.88
278.884	200.88
279.115	139.88
279.347	117.88
279.579	108.88
279.81	92.88
280.042	109.88
280.273	112.88
280.505	107.88
280.736	103.88
280.968	131.88
281.199	171.88
281.431	260.88
281.662	267.88
281.894	165.88
282.125	105.88
282.356	112.88
282.588	115.88
282.819	114.88
283.051	109.88
283.282	135.88
283.513	196.88
283.745	323.88
283.976	552.88
284.207	804.88
284.439	615.88
284.67	273.88
284.901	276.88
285.132	353.88
285.364	401.88
285.595	233.88
285.826	171.88
286.057	251.88
286.288	430.88
286.52	634.88
286.751	519.88
286.982	212.88
287.213	119.88
287.444	112.88
287.675	104.88
287.906	90.88
288.138	125.88
288.369	96.88
288.6	96.88
288.831	76.88
289.062	86.88
289.293	103.88
289.524	118.88
289.755	103.88
289.986	93.88
290.217	104.88
290.448	106.88
290.679	101.88
290.91	116.88
291.141	166.88
291.371	217.88
291.602	280.88
291.833	198.88
292.064	114.88
292.295	105.88
292.526	104.88
292.757	95.88
292.987	95.88
293.218	100.88
293.449	91.88
293.68	90.88
293.91	100.88
294.141	99.88
294.372	86.88
294.603	88.88
294.833	104.88
295.064	83.88
295.295	98.88
295.525	97.88
295.756	94.88
295.987	97.88
296.217	90.88
296.448	99.88
296.679	118.88
296.909	112.88
297.14	102.88
297.37	101.88
297.601	85.88
297.831	96.88
298.062	94.88
298.292	82.88
298.523	86.88
298.753	107.88
298.984	95.88
299.214	104.88
299.445	106.88
299.675	111.88
299.905	126.88
300.136	125.88
300.366	161.88
300.597	277.88
300.827	483.88
301.057	740.88
301.288	651.88
301.518	277.88
301.748	158.88
301.979	147.88
302.209	134.88
302.439	140.88
302.669	158.88
302.9	283.88
303.13	517.88
303.36	894.88
303.59	1229.88
303.82	872.88
304.051	297.88
304.281	158.88
304.511	140.88
304.741	114.88
304.971	101.88
305.201	103.88
305.431	115.88
305.661	128.88
305.891	101.88
306.121	104.88
306.352	106.88
306.582	116.88
306.812	118.88
307.042	119.88
307.272	106.88
307.502	113.88
307.731	114.88
307.961	107.88
308.191	95.88
308.421	102.88
308.651	124.88
308.881	112.88
309.111	89.88
309.341	115.88
309.571	115.88
309.8	99.88
310.03	118.88
310.26	93.88
310.49	90.88
310.72	114.88
310.949	119.88
311.179	110.88
311.409	104.88
311.639	99.88
311.868	104.88
312.098	103.88
312.328	106.88
312.557	115.88
312.787	126.88
313.017	113.88
313.246	105.88
313.476	110.88
313.706	138.88
313.935	169.88
314.165	206.88
314.394	231.88
314.624	189.88
314.853	136.88
315.083	124.88
315.312	128.88
315.542	132.88
315.771	120.88
316.001	144.88
316.23	134.88
316.46	167.88
316.689	183.88
316.919	272.88
317.148	515.88
317.377	968.88
317.607	1536.88
317.836	1447.88
318.065	563.88
318.295	228.88
318.524	170.88
318.753	130.88
318.983	122.88
319.212	124.88
319.441	124.88
319.67	122.88
319.9	125.88
320.129	116.88
320.358	134.88
320.587	122.88
320.816	122.88
321.046	125.88
321.275	133.88
321.504	139.88
321.733	150.88
321.962	179.88
322.191	184.88
322.42	123.88
322.649	128.88
322.878	127.88
323.108	113.88
323.337	119.88
323.566	133.88
323.795	145.88
324.024	143.88
324.253	152.88
324.482	176.88
324.71	233.88
324.939	310.88
325.168	236.88
325.397	206.88
325.626	259.88
325.855	506.88
326.084	971.88
326.313	1640.88
326.542	1633.88
326.77	627.88
326.999	278.88
327.228	222.88
327.457	249.88
327.686	233.88
327.914	160.88
328.143	140.88
328.372	130.88
328.6	113.88
328.829	130.88
329.058	126.88
329.287	126.88
329.515	127.88
329.744	122.88
329.972	115.88
330.201	114.88
330.43	111.88
330.658	116.88
330.887	117.88
331.115	121.88
331.344	100.88
331.572	116.88
331.801	110.88
332.03	135.88
332.258	138.88
332.486	182.88
332.715	298.88
332.943	510.88
333.172	782.88
333.4	709.88
333.629	261.88
333.857	167.88
334.085	126.88
334.314	138.88
334.542	106.88
334.771	100.88
334.999	126.88
335.227	114.88
335.455	120.88
335.684	117.88
335.912	112.88
336.14	121.88
336.369	137.88
336.597	109.88
336.825	118.88
337.053	99.88
337.281	106.88
337.51	113.88
337.738	106.88
337.966	116.88
338.194	107.88
338.422	117.88
338.65	119.88
338.878	111.88
339.106	108.88
339.334	118.88
339.562	112.88
339.79	98.88
340.018	124.88
340.246	110.88
340.474	115.88
340.702	117.88
340.93	117.88
341.158	98.88
341.386	134.88
341.614	120.88
341.842	124.88
342.07	129.88
342.298	117.88
342.526	96.88
342.754	102.88
342.981	112.88
343.209	113.88
343.437	115.88
343.665	124.88
343.893	104.88
344.12	108.88
344.348	111.88
344.576	113.88
344.804	111.88
345.031	106.88
345.259	104.88
345.487	102.88
345.714	121.88
345.942	110.88
346.17	126.88
346.397	114.88
346.625	116.88
346.853	104.88
347.08	95.88
347.308	107.88
347.535	111.88
347.763	103.88
347.99	120.88
348.218	115.88
348.445	98.88
348.673	122.88
348.9	119.88
349.128	128.88
349.355	118.88
349.583	116.88
349.81	129.88
350.037	114.88
350.265	121.88
350.492	112.88
350.72	111.88
350.947	116.88
351.174	119.88
351.402	115.88
351.629	127.88
351.856	94.88
352.083	100.88
352.311	105.88
352.538	110.88
352.765	104.88
352.992	91.88
353.22	105.88
353.447	112.88
353.674	112.88
353.901	103.88
354.128	114.88
354.355	117.88
354.583	107.88
354.81	105.88
355.037	96.88
355.264	115.88
355.491	108.88
355.718	97.88
355.945	104.88
356.172	99.88
356.399	97.88
356.626	119.88
356.853	106.88
357.08	98.88
357.307	120.88
357.534	99.88
357.761	98.88
357.988	119.88
358.215	110.88
358.441	112.88
358.668	112.88
358.895	122.88
359.122	113.88
359.349	119.88
359.576	100.88
359.802	120.88
360.029	104.88
360.256	123.88
360.483	100.88
360.709	118.88
360.936	116.88
361.163	113.88
361.39	104.88
361.616	112.88
361.843	114.88
362.07	122.88
362.296	105.88
362.523	110.88
362.749	110.88
362.976	114.88
363.203	102.88
363.429	115.88
363.656	118.88
363.882	123.88
364.109	126.88
364.335	120.88
364.562	111.88
364.788	102.88
365.015	110.88
365.241	134.88
365.468	201.88
365.694	256.88
365.92	212.88
366.147	107.88
366.373	97.88
366.599	108.88
366.826	101.88
367.052	99.88
367.278	98.88
367.505	98.88
367.731	95.88
367.957	81.88
368.184	103.88
368.41	115.88
368.636	122.88
368.862	101.88
369.089	107.88
369.315	110.88
369.541	117.88
369.767	110.88
369.993	104.88
370.219	108.88
370.445	115.88
370.672	106.88
370.898	108.88
371.124	106.88
371.35	98.88
371.576	107.88
371.802	118.88
372.028	102.88
372.254	106.88
372.48	121.88
372.706	111.88
372.932	111.88
373.158	115.88
373.384	125.88
373.61	145.88
373.835	119.88
374.061	111.88
374.287	122.88
374.513	113.88
374.739	119.88
374.965	115.88
375.191	120.88
375.416	96.88
375.642	106.88
375.868	107.88
376.094	103.88
376.319	98.88
376.545	113.88
376.771	126.88
376.997	117.88
377.222	123.88
377.448	121.88
377.674	107.88
377.899	105.88
378.125	112.88
378.35	102.88
378.576	111.88
378.802	118.88
379.027	133.88
379.253	146.88
379.478	190.88
379.704	313.88
379.929	818.88
380.155	1648.88
380.38	1695.88
380.606	554.88
380.831	211.88
381.057	138.88
381.282	130.88
381.507	105.88
381.733	113.88
381.958	93.88
382.184	106.88
382.409	102.88
382.634	108.88
382.86	106.88
383.085	111.88
383.31	105.88
383.535	105.88
383.761	115.88
383.986	118.88
384.211	115.88
384.436	105.88
384.662	102.88
384.887	121.88
385.112	107.88
385.337	95.88
385.562	112.88
385.787	105.88
386.013	106.88
386.238	109.88
386.463	100.88
386.688	111.88
386.913	103.88
387.138	122.88
387.363	114.88
387.588	105.88
387.813	118.88
388.038	118.88
388.263	112.88
388.488	102.88
388.713	118.88
388.938	110.88
389.163	101.88
389.387	101.88
389.612	108.88
389.837	102.88
390.062	104.88
390.287	95.88
390.512	97.88
390.736	117.88
390.961	102.88
391.186	100.88
391.411	98.88
391.636	88.88
391.86	104.88
392.085	88.88
392.31	116.88
392.534	96.88
392.759	115.88
392.984	106.88
393.208	114.88
393.433	146.88
393.658	144.88
393.882	96.88
394.107	93.88
394.331	84.88
394.556	92.88
394.78	101.88
395.005	115.88
395.229	104.88
395.454	105.88
395.678	112.88
395.903	93.88
396.127	110.88
396.352	105.88
396.576	112.88
396.801	128.88
397.025	135.88
397.249	113.88
397.474	104.88
397.698	92.88
397.922	105.88
398.147	108.88
398.371	95.88
398.595	116.88
398.82	118.88
399.044	103.88
399.268	103.88
399.492	100.88
399.717	81.88
399.941	97.88
400.165	98.88
400.389	91.88
400.613	97.88
400.837	96.88
401.062	114.88
401.286	84.88
401.51	112.88
401.734	105.88
401.958	88.88
402.182	96.88
402.406	92.88
402.63	103.88
402.854	98.88
403.078	88.88
403.302	103.88
403.526	101.88
403.75	98.88
403.974	90.88
404.198	102.88
404.422	108.88
404.645	111.88
404.869	96.88
405.093	104.88
405.317	87.88
405.541	102.88
405.765	132.88
405.988	138.88
406.212	140.88
406.436	112.88
406.66	109.88
406.883	100.88
407.107	98.88
407.331	102.88
407.555	91.88
407.778	119.88
408.002	100.88
408.226	91.88
408.449	113.88
408.673	102.88
408.896	98.88
409.12	94.88
409.344	96.88
409.567	96.88
409.791	106.88
410.014	108.88
410.238	118.88
410.461	95.88
410.685	102.88
410.908	115.88
411.132	102.88
411.355	96.88
411.578	99.88
411.802	97.88
412.025	97.88
412.249	102.88
412.472	102.88
412.695	97.88
412.919	98.88
413.142	98.88
413.365	93.88
413.589	108.88
413.812	103.88
414.035	103.88
414.258	111.88
414.482	98.88
414.705	119.88
414.928	100.88
415.151	98.88
415.374	106.88
415.597	94.88
415.821	104.88
416.044	96.88
416.267	91.88
416.49	109.88
416.713	87.88
416.936	95.88
417.159	91.88
417.382	102.88
417.605	87.88
417.828	105.88
418.051	114.88
418.274	98.88
418.497	104.88
418.72	102.88
418.943	111.88
419.166	118.88
419.389	105.88
419.611	100.88
419.834	107.88
420.057	102.88
420.28	97.88
420.503	106.88
420.726	91.88
420.948	103.88
421.171	100.88
421.394	93.88
421.617	88.88
421.839	86.88
422.062	95.88
422.285	94.88
422.507	102.88
422.73	126.88
422.953	152.88
423.175	110.88
423.398	94.88
423.621	88.88
423.843	96.88
424.066	105.88
424.288	100.88
424.511	90.88
424.733	103.88
424.956	94.88
425.178	116.88
425.401	94.88
425.623	96.88
425.846	88.88
426.068	104.88
426.291	90.88
426.513	97.88
426.735	99.88
426.958	82.88
427.18	103.88
427.402	93.88
427.625	97.88
427.847	89.88
428.069	85.88
428.292	107.88
428.514	98.88
428.736	81.88
428.958	100.88
429.181	91.88
429.403	100.88
429.625	104.88
429.847	105.88
430.069	105.88
430.292	102.88
430.514	108.88
430.736	96.88
430.958	91.88
431.18	96.88
431.402	104.88
431.624	95.88
431.846	90.88
432.068	101.88
432.29	90.88
432.512	96.88
432.734	99.88
432.956	97.88
433.178	103.88
433.4	98.88
433.622	110.88
433.844	91.88
434.066	94.88
434.287	89.88
434.509	96.88
434.731	88.88
434.953	87.88
435.175	89.88
435.397	92.88
435.618	100.88
435.84	88.88
436.062	93.88
436.284	78.88
436.505	93.88
436.727	94.88
436.949	97.88
437.17	90.88
437.392	82.88
437.614	88.88
437.835	84.88
438.057	90.88
438.278	103.88
438.5	97.88
438.721	103.88
438.943	103.88
439.165	108.88
439.386	110.88
439.608	94.88
439.829	110.88
440.05	117.88
440.272	126.88
440.493	102.88
440.715	110.88
440.936	94.88
441.158	98.88
441.379	99.88
441.6	103.88
441.822	107.88
442.043	123.88
442.264	140.88
442.486	122.88
442.707	101.88
442.928	103.88
443.149	97.88
443.371	100.88
443.592	100.88
443.813	90.88
444.034	82.88
444.255	90.88
444.476	85.88
444.698	95.88
444.919	106.88
445.14	193.88
445.361	134.88
445.582	98.88
445.803	93.88
446.024	114.88
446.245	84.88
446.466	99.88
446.687	107.88
446.908	112.88
447.129	107.88
447.35	106.88
447.571	107.88
447.792	86.88
448.013	101.88
448.234	98.88
448.455	115.88
448.675	91.88
448.896	100.88
449.117	123.88
449.338	134.88
449.559	169.88
449.779	117.88
450	104.88
450.221	116.88
450.442	130.88
450.662	111.88
450.883	99.88
451.104	115.88
451.324	113.88
451.545	121.88
451.766	120.88
451.986	132.88
452.207	222.88
452.428	574.88
452.648	1383.88
452.869	775.88
453.089	210.88
453.31	133.88
453.53	117.88
453.751	139.88
453.971	166.88
454.192	154.88
454.412	110.88
454.633	102.88
454.853	104.88
455.073	117.88
455.294	96.88
455.514	88.88
455.734	88.88
455.955	91.88
456.175	99.88
456.395	91.88
456.616	100.88
456.836	113.88
457.056	95.88
457.276	97.88
457.497	110.88
457.717	131.88
457.937	110.88
458.157	105.88
458.377	77.88
458.598	76.88
458.818	87.88
459.038	98.88
459.258	107.88
459.478	83.88
459.698	91.88
459.918	101.88
460.138	93.88
460.358	81.88
460.578	92.88
460.798	84.88
461.018	111.88
461.238	99.88
461.458	97.88
461.678	107.88
461.898	75.88
462.118	95.88
462.338	71.88
462.558	89.88
462.777	97.88
462.997	106.88
463.217	111.88
463.437	136.88
463.657	182.88
463.876	190.88
464.096	119.88
464.316	117.88
464.536	91.88
464.755	90.88
464.975	83.88
465.195	106.88
465.414	101.88
465.634	99.88
465.854	97.88
466.073	94.88
466.293	111.88
466.512	115.88
466.732	116.88
466.951	119.88
467.171	139.88
467.391	137.88
467.61	118.88
467.829	107.88
468.049	102.88
468.268	87.88
468.488	90.88
468.707	104.88
468.927	108.88
469.146	99.88
469.365	97.88
469.585	115.88
469.804	100.88
470.023	100.88
470.243	102.88
470.462	95.88
470.681	107.88
470.901	134.88
471.12	187.88
471.339	214.88
471.558	159.88
471.777	110.88
471.997	116.88
472.216	103.88
472.435	97.88
472.654	67.88
472.873	98.88
473.092	107.88
473.311	121.88
473.53	102.88
473.749	102.88
473.968	123.88
474.187	102.88
474.406	99.88
474.625	91.88
474.844	86.88
475.063	96.88
475.282	95.88
475.501	96.88
475.72	101.88
475.939	119.88
476.158	111.88
476.377	105.88
476.596	107.88
476.814	102.88
477.033	94.88
477.252	89.88
477.471	107.88
477.69	100.88
477.908	92.88
478.127	108.88
478.346	91.88
478.564	104.88
478.783	95.88
479.002	99.88
479.22	113.88
479.439	89.88
479.658	106.88
479.876	95.88
480.095	96.88
480.313	85.88
480.532	120.88
480.751	100.88
480.969	109.88
481.188	96.88
481.406	99.88
481.624	89.88
481.843	121.88
482.061	110.88
482.28	94.88
482.498	101.88
482.717	105.88
482.935	103.88
483.153	90.88
483.372	92.88
483.59	91.88
483.808	99.88
484.027	95.88
484.245	118.88
484.463	178.88
484.681	252.88
484.9	150.88
485.118	114.88
485.336	104.88
485.554	103.88
485.772	130.88
485.99	208.88
486.209	277.88
486.427	174.88
486.645	112.88
486.863	106.88
487.081	112.88
487.299	96.88
487.517	102.88
487.735	104.88
487.953	96.88
488.171	93.88
488.389	115.88
488.607	106.88
488.825	96.88
489.043	99.88
489.261	99.88
489.479	91.88
489.696	96.88
489.914	90.88
490.132	110.88
490.35	105.88
490.568	100.88
490.786	97.88
491.003	95.88
491.221	113.88
491.439	114.88
491.657	105.88
491.874	112.88
492.092	105.88
492.31	110.88
492.527	104.88
492.745	119.88
492.963	109.88
493.18	102.88
493.398	86.88
493.615	107.88
493.833	98.88
494.05	99.88
494.268	104.88
494.485	103.88
494.703	117.88
494.92	106.88
495.138	98.88
495.355	105.88
495.573	108.88
495.79	106.88
496.008	123.88
496.225	115.88
496.442	92.88
496.66	122.88
496.877	165.88
497.094	152.88
497.312	111.88
497.529	102.88
497.746	104.88
497.963	110.88
498.181	104.88
498.398	124.88
498.615	107.88
498.832	97.88
499.049	104.88
499.267	135.88
499.484	159.88
499.701	115.88
499.918	98.88
500.135	107.88
500.352	101.88
500.569	105.88
500.786	94.88
501.003	114.88
501.22	89.88
501.437	112.88
501.654	96.88
501.871	99.88
502.088	105.88
502.305	104.88
502.522	110.88
502.739	102.88
502.956	105.88
503.172	114.88
503.389	106.88
503.606	97.88
503.823	115.88
504.04	98.88
504.256	100.88
504.473	98.88
504.69	104.88
504.907	111.88
505.123	120.88
505.34	99.88
505.557	93.88
505.773	102.88
505.99	100.88
506.207	103.88
506.423	97.88
506.64	115.88
506.856	119.88
507.073	115.88
507.289	111.88
507.506	89.88
507.722	96.88
