Data from SnStandardFlinnAPT0064_LampEnergy5.5_LIBS07252019.E.O._I.C._HRD10591_15-16-59-492.txt Node
Date: Thu Jul 25 15:16:59 EDT 2019
User: cochatt
Spectrometer: HR+D1059
Trigger mode: 1
Integration Time (sec): 1.000000E-1
Scans to average: 1
Electric dark correction enabled: true
Nonlinearity correction enabled: false
Boxcar width: 0
XAxis mode: Wavelengths
Number of Pixels in Spectrum: 2048
>>>>>Begin Spectral Data<<<<<
223.165	-16.88
223.4	-16.88
223.635	-16.88
223.869	-5.88
224.104	-28.88
224.338	-18.88
224.573	-12.88
224.808	-0.88
225.042	5.12
225.277	-0.88
225.511	14.12
225.746	4.12
225.98	-12.88
226.215	7.12
226.449	15.12
226.683	5.12
226.918	22.12
227.152	25.12
227.387	6.12
227.621	36.12
227.856	35.12
228.09	39.12
228.324	51.12
228.559	52.12
228.793	66.12
229.027	146.12
229.262	160.12
229.496	137.12
229.73	155.12
229.964	145.12
230.199	149.12
230.433	157.12
230.667	155.12
230.901	172.12
231.136	149.12
231.37	159.12
231.604	188.12
231.838	206.12
232.072	243.12
232.306	258.12
232.541	226.12
232.775	219.12
233.009	199.12
233.243	224.12
233.477	219.12
233.711	236.12
233.945	277.12
234.179	238.12
234.413	216.12
234.647	235.12
234.881	223.12
235.115	225.12
235.349	285.12
235.583	347.12
235.817	454.12
236.051	439.12
236.285	287.12
236.519	253.12
236.753	215.12
236.987	223.12
237.221	235.12
237.455	237.12
237.689	216.12
237.922	213.12
238.156	215.12
238.39	222.12
238.624	237.12
238.858	223.12
239.091	217.12
239.325	250.12
239.559	234.12
239.793	233.12
240.027	229.12
240.26	245.12
240.494	267.12
240.728	270.12
240.961	287.12
241.195	276.12
241.429	290.12
241.662	316.12
241.896	349.12
242.13	398.12
242.363	505.12
242.597	647.12
242.83	632.12
243.064	647.12
243.298	740.12
243.531	649.12
243.765	400.12
243.998	324.12
244.232	299.12
244.465	308.12
244.699	293.12
244.932	290.12
245.166	301.12
245.399	301.12
245.633	279.12
245.866	292.12
246.099	293.12
246.333	293.12
246.566	296.12
246.8	301.12
247.033	296.12
247.266	297.12
247.5	300.12
247.733	313.12
247.966	334.12
248.2	336.12
248.433	383.12
248.666	441.12
248.899	387.12
249.133	389.12
249.366	391.12
249.599	415.12
249.832	435.12
250.066	457.12
250.299	372.12
250.532	341.12
250.765	335.12
250.998	320.12
251.231	348.12
251.465	322.12
251.698	332.12
251.931	320.12
252.164	331.12
252.397	333.12
252.63	341.12
252.863	341.12
253.096	361.12
253.329	328.12
253.562	335.12
253.795	361.12
254.028	355.12
254.261	354.12
254.494	387.12
254.727	417.12
254.96	525.12
255.193	517.12
255.426	422.12
255.659	367.12
255.892	369.12
256.124	382.12
256.357	374.12
256.59	401.12
256.823	413.12
257.056	458.12
257.289	546.12
257.521	615.12
257.754	491.12
257.987	410.12
258.22	398.12
258.452	383.12
258.685	402.12
258.918	390.12
259.151	395.12
259.383	448.12
259.616	476.12
259.849	509.12
260.081	488.12
260.314	425.12
260.547	417.12
260.779	412.12
261.012	433.12
261.244	429.12
261.477	447.12
261.71	444.12
261.942	436.12
262.175	463.12
262.407	440.12
262.64	463.12
262.872	485.12
263.105	475.12
263.337	539.12
263.57	565.12
263.802	576.12
264.035	576.12
264.267	585.12
264.499	620.12
264.732	631.12
264.964	616.12
265.197	617.12
265.429	620.12
265.661	629.12
265.894	680.12
266.126	739.12
266.358	829.12
266.591	798.12
266.823	672.12
267.055	632.12
267.287	597.12
267.52	580.12
267.752	579.12
267.984	568.12
268.216	547.12
268.448	552.12
268.681	562.12
268.913	541.12
269.145	533.12
269.377	533.12
269.609	535.12
269.841	538.12
270.073	580.12
270.306	684.12
270.538	878.12
270.77	1313.12
271.002	1628.12
271.234	1091.12
271.466	728.12
271.698	608.12
271.93	567.12
272.162	567.12
272.394	544.12
272.626	555.12
272.858	537.12
273.09	540.12
273.322	527.12
273.553	534.12
273.785	530.12
274.017	520.12
274.249	538.12
274.481	551.12
274.713	524.12
274.945	520.12
275.176	537.12
275.408	524.12
275.64	516.12
275.872	559.12
276.104	548.12
276.335	527.12
276.567	545.12
276.799	541.12
277.031	563.12
277.262	576.12
277.494	582.12
277.726	638.12
277.957	740.12
278.189	813.12
278.421	773.12
278.652	693.12
278.884	679.12
279.115	633.12
279.347	587.12
279.579	594.12
279.81	604.12
280.042	608.12
280.273	622.12
280.505	617.12
280.736	615.12
280.968	674.12
281.199	703.12
281.431	799.12
281.662	815.12
281.894	719.12
282.125	665.12
282.356	669.12
282.588	685.12
282.819	678.12
283.051	729.12
283.282	795.12
283.513	1010.12
283.745	1441.12
283.976	2322.12
284.207	3344.12
284.439	2932.12
284.67	1756.12
284.901	1389.12
285.132	1401.12
285.364	1333.12
285.595	1056.12
285.826	934.12
286.057	1161.12
286.288	1551.12
286.52	2114.12
286.751	1914.12
286.982	1176.12
287.213	880.12
287.444	795.12
287.675	761.12
287.906	722.12
288.138	731.12
288.369	706.12
288.6	724.12
288.831	696.12
289.062	716.12
289.293	701.12
289.524	689.12
289.755	696.12
289.986	717.12
290.217	711.12
290.448	714.12
290.679	721.12
290.91	725.12
291.141	724.12
291.371	790.12
291.602	834.12
291.833	791.12
292.064	729.12
292.295	691.12
292.526	685.12
292.757	660.12
292.987	676.12
293.218	668.12
293.449	663.12
293.68	684.12
293.91	668.12
294.141	660.12
294.372	677.12
294.603	660.12
294.833	673.12
295.064	663.12
295.295	647.12
295.525	649.12
295.756	674.12
295.987	655.12
296.217	641.12
296.448	676.12
296.679	645.12
296.909	672.12
297.14	664.12
297.37	723.12
297.601	661.12
297.831	678.12
298.062	713.12
298.292	705.12
298.523	699.12
298.753	692.12
298.984	706.12
299.214	728.12
299.445	720.12
299.675	736.12
299.905	775.12
300.136	785.12
300.366	876.12
300.597	1134.12
300.827	1517.12
301.057	2099.12
301.288	2092.12
301.518	1337.12
301.748	1003.12
301.979	957.12
302.209	876.12
302.439	935.12
302.669	974.12
302.9	1189.12
303.13	1686.12
303.36	2468.12
303.59	3203.12
303.82	2797.12
304.051	1607.12
304.281	1157.12
304.511	983.12
304.741	910.12
304.971	881.12
305.201	823.12
305.431	820.12
305.661	782.12
305.891	773.12
306.121	787.12
306.352	812.12
306.582	786.12
306.812	789.12
307.042	777.12
307.272	763.12
307.502	733.12
307.731	769.12
307.961	757.12
308.191	766.12
308.421	735.12
308.651	746.12
308.881	762.12
309.111	779.12
309.341	755.12
309.571	769.12
309.8	788.12
310.03	793.12
310.26	789.12
310.49	772.12
310.72	798.12
310.949	793.12
311.179	804.12
311.409	798.12
311.639	829.12
311.868	813.12
312.098	820.12
312.328	813.12
312.557	845.12
312.787	803.12
313.017	830.12
313.246	821.12
313.476	834.12
313.706	868.12
313.935	891.12
314.165	920.12
314.394	964.12
314.624	962.12
314.853	881.12
315.083	871.12
315.312	915.12
315.542	862.12
315.771	900.12
316.001	897.12
316.23	957.12
316.46	996.12
316.689	1095.12
316.919	1284.12
317.148	1872.12
317.377	2953.12
317.607	4300.12
317.836	4317.12
318.065	2514.12
318.295	1605.12
318.524	1308.12
318.753	1127.12
318.983	1120.12
319.212	1035.12
319.441	1007.12
319.67	1016.12
319.9	973.12
320.129	981.12
320.358	961.12
320.587	964.12
320.816	958.12
321.046	980.12
321.275	997.12
321.504	977.12
321.733	997.12
321.962	991.12
322.191	1007.12
322.42	1037.12
322.649	1022.12
322.878	1023.12
323.108	1014.12
323.337	1029.12
323.566	1069.12
323.795	1055.12
324.024	1103.12
324.253	1117.12
324.482	1128.12
324.71	1205.12
324.939	1273.12
325.168	1284.12
325.397	1349.12
325.626	1557.12
325.855	2213.12
326.084	3536.12
326.313	5208.12
326.542	5515.12
326.77	3443.12
326.999	2226.12
327.228	1907.12
327.457	1750.12
327.686	1783.12
327.914	1934.12
328.143	2140.12
328.372	2559.12
328.6	2678.12
328.829	2477.12
329.058	2202.12
329.287	1940.12
329.515	1810.12
329.744	1672.12
329.972	1585.12
330.201	1535.12
330.43	1484.12
330.658	1437.12
330.887	1409.12
331.115	1423.12
331.344	1400.12
331.572	1370.12
331.801	1377.12
332.03	1399.12
332.258	1390.12
332.486	1474.12
332.715	1698.12
332.943	2057.12
333.172	2541.12
333.4	2475.12
333.629	1931.12
333.857	1769.12
334.085	1751.12
334.314	1844.12
334.542	1955.12
334.771	2277.12
334.999	2662.12
335.227	3250.12
335.455	3652.12
335.684	3323.12
335.912	2829.12
336.14	2475.12
336.369	2223.12
336.597	2045.12
336.825	1880.12
337.053	1825.12
337.281	1686.12
337.51	1600.12
337.738	1535.12
337.966	1507.12
338.194	1383.12
338.422	1428.12
338.65	1391.12
338.878	1388.12
339.106	1342.12
339.334	1302.12
339.562	1289.12
339.79	1248.12
340.018	1246.12
340.246	1243.12
340.474	1250.12
340.702	1239.12
340.93	1231.12
341.158	1258.12
341.386	1223.12
341.614	1243.12
341.842	1192.12
342.07	1178.12
342.298	1148.12
342.526	1177.12
342.754	1147.12
342.981	1129.12
343.209	1132.12
343.437	1160.12
343.665	1200.12
343.893	1177.12
344.12	1184.12
344.348	1145.12
344.576	1142.12
344.804	1104.12
345.031	1101.12
345.259	1105.12
345.487	1087.12
345.714	1054.12
345.942	1075.12
346.17	1058.12
346.397	1045.12
346.625	1052.12
346.853	1061.12
347.08	1077.12
347.308	1056.12
347.535	1048.12
347.763	1031.12
347.99	1031.12
348.218	1067.12
348.445	1041.12
348.673	1072.12
348.9	1061.12
349.128	1008.12
349.355	1039.12
349.583	1032.12
349.81	1035.12
350.037	1021.12
350.265	1011.12
350.492	1024.12
350.72	979.12
350.947	1001.12
351.174	1001.12
351.402	1010.12
351.629	992.12
351.856	1000.12
352.083	1027.12
352.311	988.12
352.538	990.12
352.765	993.12
352.992	993.12
353.22	1011.12
353.447	981.12
353.674	1001.12
353.901	1001.12
354.128	995.12
354.355	1038.12
354.583	1006.12
354.81	1009.12
355.037	1019.12
355.264	1045.12
355.491	1015.12
355.718	1023.12
355.945	1025.12
356.172	1038.12
356.399	1018.12
356.626	1040.12
356.853	1047.12
357.08	1070.12
357.307	1069.12
357.534	1101.12
357.761	1052.12
357.988	1088.12
358.215	1075.12
358.441	1087.12
358.668	1053.12
358.895	1067.12
359.122	1065.12
359.349	1042.12
359.576	1077.12
359.802	1061.12
360.029	1082.12
360.256	1067.12
360.483	1068.12
360.709	1072.12
360.936	1048.12
361.163	1094.12
361.39	1074.12
361.616	1080.12
361.843	1078.12
362.07	1093.12
362.296	1079.12
362.523	1063.12
362.749	1105.12
362.976	1056.12
363.203	1075.12
363.429	1045.12
363.656	1085.12
363.882	1070.12
364.109	1103.12
364.335	1060.12
364.562	1086.12
364.788	1052.12
365.015	1064.12
365.241	1092.12
365.468	1129.12
365.694	1168.12
365.92	1123.12
366.147	1092.12
366.373	1110.12
366.599	1099.12
366.826	1081.12
367.052	1098.12
367.278	1114.12
367.505	1091.12
367.731	1116.12
367.957	1093.12
368.184	1062.12
368.41	1109.12
368.636	1115.12
368.862	1106.12
369.089	1113.12
369.315	1094.12
369.541	1112.12
369.767	1149.12
369.993	1089.12
370.219	1094.12
370.445	1134.12
370.672	1126.12
370.898	1135.12
371.124	1151.12
371.35	1127.12
371.576	1142.12
371.802	1151.12
372.028	1171.12
372.254	1163.12
372.48	1181.12
372.706	1154.12
372.932	1200.12
373.158	1177.12
373.384	1170.12
373.61	1163.12
373.835	1187.12
374.061	1180.12
374.287	1197.12
374.513	1207.12
374.739	1186.12
374.965	1232.12
375.191	1237.12
375.416	1227.12
375.642	1208.12
375.868	1203.12
376.094	1196.12
376.319	1159.12
376.545	1207.12
376.771	1146.12
376.997	1166.12
377.222	1182.12
377.448	1164.12
377.674	1168.12
377.899	1170.12
378.125	1168.12
378.35	1169.12
378.576	1144.12
378.802	1171.12
379.027	1174.12
379.253	1220.12
379.478	1252.12
379.704	1474.12
379.929	2050.12
380.155	3119.12
380.38	3338.12
380.606	2043.12
380.831	1459.12
381.057	1299.12
381.282	1211.12
381.507	1184.12
381.733	1148.12
381.958	1156.12
382.184	1159.12
382.409	1151.12
382.634	1156.12
382.86	1142.12
383.085	1151.12
383.31	1133.12
383.535	1151.12
383.761	1157.12
383.986	1175.12
384.211	1171.12
384.436	1180.12
384.662	1153.12
384.887	1200.12
385.112	1168.12
385.337	1153.12
385.562	1149.12
385.787	1198.12
386.013	1171.12
386.238	1192.12
386.463	1197.12
386.688	1183.12
386.913	1153.12
387.138	1185.12
387.363	1192.12
387.588	1158.12
387.813	1200.12
388.038	1165.12
388.263	1159.12
388.488	1174.12
388.713	1178.12
388.938	1203.12
389.163	1173.12
389.387	1210.12
389.612	1151.12
389.837	1152.12
390.062	1184.12
390.287	1195.12
390.512	1170.12
390.736	1224.12
390.961	1243.12
391.186	1220.12
391.411	1222.12
391.636	1252.12
391.86	1248.12
392.085	1238.12
392.31	1237.12
392.534	1247.12
392.759	1182.12
392.984	1202.12
393.208	1223.12
393.433	1226.12
393.658	1250.12
393.882	1223.12
394.107	1171.12
394.331	1180.12
394.556	1185.12
394.78	1205.12
395.005	1221.12
395.229	1240.12
395.454	1211.12
395.678	1219.12
395.903	1241.12
396.127	1219.12
396.352	1229.12
396.576	1216.12
396.801	1250.12
397.025	1234.12
397.249	1216.12
397.474	1243.12
397.698	1222.12
397.922	1269.12
398.147	1245.12
398.371	1280.12
398.595	1317.12
398.82	1319.12
399.044	1370.12
399.268	1430.12
399.492	1514.12
399.717	1581.12
399.941	1573.12
400.165	1523.12
400.389	1457.12
400.613	1368.12
400.837	1342.12
401.062	1351.12
401.286	1308.12
401.51	1296.12
401.734	1270.12
401.958	1299.12
402.182	1298.12
402.406	1311.12
402.63	1293.12
402.854	1341.12
403.078	1303.12
403.302	1325.12
403.526	1366.12
403.75	1339.12
403.974	1374.12
404.198	1357.12
404.422	1377.12
404.645	1345.12
404.869	1371.12
405.093	1351.12
405.317	1341.12
405.541	1369.12
405.765	1359.12
405.988	1406.12
406.212	1373.12
406.436	1339.12
406.66	1375.12
406.883	1385.12
407.107	1425.12
407.331	1446.12
407.555	1465.12
407.778	1470.12
408.002	1432.12
408.226	1427.12
408.449	1456.12
408.673	1405.12
408.896	1369.12
409.12	1381.12
409.344	1363.12
409.567	1351.12
409.791	1358.12
410.014	1345.12
410.238	1331.12
410.461	1349.12
410.685	1317.12
410.908	1323.12
411.132	1321.12
411.355	1283.12
411.578	1325.12
411.802	1262.12
412.025	1302.12
412.249	1310.12
412.472	1292.12
412.695	1263.12
412.919	1279.12
413.142	1292.12
413.365	1291.12
413.589	1302.12
413.812	1291.12
414.035	1251.12
414.258	1300.12
414.482	1287.12
414.705	1281.12
414.928	1267.12
415.151	1283.12
415.374	1267.12
415.597	1269.12
415.821	1253.12
416.044	1233.12
416.267	1232.12
416.49	1245.12
416.713	1254.12
416.936	1231.12
417.159	1231.12
417.382	1196.12
417.605	1229.12
417.828	1200.12
418.051	1233.12
418.274	1237.12
418.497	1247.12
418.72	1267.12
418.943	1238.12
419.166	1288.12
419.389	1393.12
419.611	1382.12
419.834	1316.12
420.057	1268.12
420.28	1278.12
420.503	1259.12
420.726	1216.12
420.948	1227.12
421.171	1240.12
421.394	1251.12
421.617	1249.12
421.839	1294.12
422.062	1229.12
422.285	1243.12
422.507	1246.12
422.73	1293.12
422.953	1289.12
423.175	1263.12
423.398	1266.12
423.621	1253.12
423.843	1254.12
424.066	1242.12
424.288	1233.12
424.511	1255.12
424.733	1229.12
424.956	1223.12
425.178	1238.12
425.401	1225.12
425.623	1215.12
425.846	1181.12
426.068	1189.12
426.291	1170.12
426.513	1169.12
426.735	1205.12
426.958	1186.12
427.18	1151.12
427.402	1181.12
427.625	1203.12
427.847	1146.12
428.069	1127.12
428.292	1199.12
428.514	1147.12
428.736	1131.12
428.958	1154.12
429.181	1139.12
429.403	1120.12
429.625	1151.12
429.847	1153.12
430.069	1157.12
430.292	1164.12
430.514	1199.12
430.736	1191.12
430.958	1152.12
431.18	1141.12
431.402	1183.12
431.624	1157.12
431.846	1122.12
432.068	1094.12
432.29	1125.12
432.512	1127.12
432.734	1134.12
432.956	1118.12
433.178	1134.12
433.4	1137.12
433.622	1169.12
433.844	1141.12
434.066	1138.12
434.287	1144.12
434.509	1148.12
434.731	1196.12
434.953	1177.12
435.175	1152.12
435.397	1188.12
435.618	1151.12
435.84	1158.12
436.062	1118.12
436.284	1156.12
436.505	1113.12
436.727	1149.12
436.949	1140.12
437.17	1141.12
437.392	1116.12
437.614	1091.12
437.835	1038.12
438.057	1092.12
438.278	1082.12
438.5	1094.12
438.721	1126.12
438.943	1178.12
439.165	1180.12
439.386	1169.12
439.608	1180.12
439.829	1206.12
440.05	1207.12
440.272	1220.12
440.493	1199.12
440.715	1192.12
440.936	1164.12
441.158	1184.12
441.379	1187.12
441.6	1256.12
441.822	1271.12
442.043	1335.12
442.264	1357.12
442.486	1277.12
442.707	1207.12
442.928	1193.12
443.149	1231.12
443.371	1252.12
443.592	1236.12
443.813	1235.12
444.034	1224.12
444.255	1250.12
444.476	1301.12
444.698	1304.12
444.919	1314.12
445.14	1401.12
445.361	1307.12
445.582	1266.12
445.803	1245.12
446.024	1237.12
446.245	1242.12
446.466	1243.12
446.687	1214.12
446.908	1212.12
447.129	1193.12
447.35	1169.12
447.571	1156.12
447.792	1101.12
448.013	1149.12
448.234	1129.12
448.455	1135.12
448.675	1141.12
448.896	1175.12
449.117	1187.12
449.338	1286.12
449.559	1359.12
449.779	1205.12
450	1135.12
450.221	1099.12
450.442	1129.12
450.662	1108.12
450.883	1100.12
451.104	1127.12
451.324	1071.12
451.545	1116.12
451.766	1085.12
451.986	1098.12
452.207	1207.12
452.428	1460.12
452.648	2066.12
452.869	1711.12
453.089	1288.12
453.31	1229.12
453.53	1220.12
453.751	1234.12
453.971	1332.12
454.192	1326.12
454.412	1131.12
454.633	1112.12
454.853	1071.12
455.073	1046.12
455.294	1029.12
455.514	1027.12
455.734	1022.12
455.955	1051.12
456.175	1035.12
456.395	1032.12
456.616	1009.12
456.836	1069.12
457.056	1059.12
457.276	1051.12
457.497	1131.12
457.717	1115.12
457.937	1112.12
458.157	1099.12
458.377	1100.12
458.598	1102.12
458.818	1109.12
459.038	1106.12
459.258	1111.12
459.478	1091.12
459.698	1115.12
459.918	1171.12
460.138	1166.12
460.358	1192.12
460.578	1188.12
460.798	1222.12
461.018	1227.12
461.238	1231.12
461.458	1262.12
461.678	1243.12
461.898	1260.12
462.118	1268.12
462.338	1316.12
462.558	1321.12
462.777	1339.12
462.997	1357.12
463.217	1414.12
463.437	1489.12
463.657	1499.12
463.876	1484.12
464.096	1443.12
464.316	1330.12
464.536	1338.12
464.755	1340.12
464.975	1307.12
465.195	1268.12
465.414	1216.12
465.634	1177.12
465.854	1172.12
466.073	1159.12
466.293	1143.12
466.512	1148.12
466.732	1136.12
466.951	1203.12
467.171	1294.12
467.391	1289.12
467.61	1150.12
467.829	1137.12
468.049	1149.12
468.268	1115.12
468.488	1095.12
468.707	1115.12
468.927	1124.12
469.146	1127.12
469.365	1152.12
469.585	1107.12
469.804	1149.12
470.023	1201.12
470.243	1212.12
470.462	1233.12
470.681	1267.12
470.901	1393.12
471.12	1595.12
471.339	1632.12
471.558	1365.12
471.777	1199.12
471.997	1151.12
472.216	1163.12
472.435	1125.12
472.654	1103.12
472.873	1112.12
473.092	1087.12
473.311	1095.12
473.53	1141.12
473.749	1153.12
473.968	1183.12
474.187	1152.12
474.406	1123.12
474.625	1133.12
474.844	1124.12
475.063	1138.12
475.282	1105.12
475.501	1123.12
475.72	1117.12
475.939	1119.12
476.158	1171.12
476.377	1199.12
476.596	1211.12
476.814	1164.12
477.033	1211.12
477.252	1196.12
477.471	1229.12
477.69	1231.12
477.908	1239.12
478.127	1286.12
478.346	1300.12
478.564	1298.12
478.783	1325.12
479.002	1343.12
479.22	1340.12
479.439	1334.12
479.658	1346.12
479.876	1323.12
480.095	1326.12
480.313	1335.12
480.532	1397.12
480.751	1374.12
480.969	1365.12
481.188	1344.12
481.406	1313.12
481.624	1279.12
481.843	1360.12
482.061	1297.12
482.28	1341.12
482.498	1346.12
482.717	1302.12
482.935	1349.12
483.153	1385.12
483.372	1381.12
483.59	1408.12
483.808	1415.12
484.027	1472.12
484.245	1480.12
484.463	1723.12
484.681	1884.12
484.9	1700.12
485.118	1601.12
485.336	1561.12
485.554	1560.12
485.772	1651.12
485.99	1894.12
486.209	2089.12
486.427	1709.12
486.645	1540.12
486.863	1493.12
487.081	1476.12
487.299	1411.12
487.517	1423.12
487.735	1453.12
487.953	1480.12
488.171	1454.12
488.389	1399.12
488.607	1417.12
488.825	1363.12
489.043	1395.12
489.261	1369.12
489.479	1394.12
489.696	1397.12
489.914	1414.12
490.132	1413.12
490.35	1429.12
490.568	1443.12
490.786	1479.12
491.003	1461.12
