Data from SnStandardFlinnAPT0064_LampEnergy5.5_LIBS07252019.E.O._I.C._HRD10591_15-15-04-491.txt Node
Date: Thu Jul 25 15:15:04 EDT 2019
User: cochatt
Spectrometer: HR+D1059
Trigger mode: 1
Integration Time (sec): 1.000000E-1
Scans to average: 1
Electric dark correction enabled: true
Nonlinearity correction enabled: false
Boxcar width: 0
XAxis mode: Wavelengths
Number of Pixels in Spectrum: 2048
>>>>>Begin Spectral Data<<<<<
223.165	-17.56
223.4	-17.56
223.635	-17.56
223.869	-17.56
224.104	-16.56
224.338	-15.56
224.573	-14.56
224.808	-15.56
225.042	-11.56
225.277	-3.56
225.511	-13.56
225.746	8.44
225.98	17.44
226.215	16.44
226.449	15.44
226.683	26.44
226.918	19.44
227.152	22.44
227.387	31.44
227.621	39.44
227.856	63.44
228.09	34.44
228.324	42.44
228.559	42.44
228.793	82.44
229.027	129.44
229.262	159.44
229.496	151.44
229.73	144.44
229.964	144.44
230.199	159.44
230.433	151.44
230.667	158.44
230.901	154.44
231.136	168.44
231.37	178.44
231.604	177.44
231.838	187.44
232.072	197.44
232.306	223.44
232.541	191.44
232.775	199.44
233.009	173.44
233.243	207.44
233.477	207.44
233.711	232.44
233.945	246.44
234.179	227.44
234.413	214.44
234.647	199.44
234.881	222.44
235.115	208.44
235.349	259.44
235.583	316.44
235.817	375.44
236.051	364.44
236.285	278.44
236.519	232.44
236.753	203.44
236.987	221.44
237.221	231.44
237.455	219.44
237.689	225.44
237.922	217.44
238.156	223.44
238.39	213.44
238.624	212.44
238.858	205.44
239.091	228.44
239.325	223.44
239.559	223.44
239.793	238.44
240.027	216.44
240.26	226.44
240.494	261.44
240.728	254.44
240.961	244.44
241.195	267.44
241.429	271.44
241.662	294.44
241.896	292.44
242.13	353.44
242.363	451.44
242.597	544.44
242.83	529.44
243.064	536.44
243.298	626.44
243.531	513.44
243.765	350.44
243.998	321.44
244.232	312.44
244.465	280.44
244.699	276.44
244.932	289.44
245.166	270.44
245.399	273.44
245.633	286.44
245.866	286.44
246.099	287.44
246.333	262.44
246.566	265.44
246.8	264.44
247.033	279.44
247.266	285.44
247.5	272.44
247.733	278.44
247.966	296.44
248.2	301.44
248.433	355.44
248.666	370.44
248.899	363.44
249.133	330.44
249.366	353.44
249.599	359.44
249.832	392.44
250.066	398.44
250.299	356.44
250.532	329.44
250.765	319.44
250.998	323.44
251.231	318.44
251.465	302.44
251.698	305.44
251.931	306.44
252.164	314.44
252.397	323.44
252.63	320.44
252.863	332.44
253.096	311.44
253.329	329.44
253.562	315.44
253.795	325.44
254.028	329.44
254.261	334.44
254.494	347.44
254.727	402.44
254.96	450.44
255.193	446.44
255.426	381.44
255.659	364.44
255.892	368.44
256.124	371.44
256.357	366.44
256.59	370.44
256.823	388.44
257.056	430.44
257.289	472.44
257.521	495.44
257.754	455.44
257.987	396.44
258.22	399.44
258.452	372.44
258.685	391.44
258.918	396.44
259.151	420.44
259.383	422.44
259.616	467.44
259.849	468.44
260.081	434.44
260.314	378.44
260.547	397.44
260.779	390.44
261.012	390.44
261.244	390.44
261.477	425.44
261.71	414.44
261.942	408.44
262.175	446.44
262.407	448.44
262.64	471.44
262.872	463.44
263.105	464.44
263.337	511.44
263.57	547.44
263.802	543.44
264.035	535.44
264.267	563.44
264.499	558.44
264.732	616.44
264.964	624.44
265.197	618.44
265.429	604.44
265.661	632.44
265.894	624.44
266.126	684.44
266.358	770.44
266.591	712.44
266.823	644.44
267.055	619.44
267.287	582.44
267.52	562.44
267.752	538.44
267.984	553.44
268.216	501.44
268.448	517.44
268.681	528.44
268.913	489.44
269.145	516.44
269.377	502.44
269.609	524.44
269.841	520.44
270.073	562.44
270.306	603.44
270.538	772.44
270.77	1085.44
271.002	1280.44
271.234	966.44
271.466	705.44
271.698	586.44
271.93	527.44
272.162	522.44
272.394	503.44
272.626	530.44
272.858	511.44
273.09	500.44
273.322	500.44
273.553	473.44
273.785	493.44
274.017	500.44
274.249	496.44
274.481	480.44
274.713	467.44
274.945	503.44
275.176	499.44
275.408	500.44
275.64	498.44
275.872	512.44
276.104	511.44
276.335	504.44
276.567	528.44
276.799	523.44
277.031	526.44
277.262	540.44
277.494	529.44
277.726	582.44
277.957	646.44
278.189	710.44
278.421	667.44
278.652	622.44
278.884	599.44
279.115	579.44
279.347	544.44
279.579	523.44
279.81	536.44
280.042	555.44
280.273	562.44
280.505	555.44
280.736	566.44
280.968	620.44
281.199	626.44
281.431	691.44
281.662	719.44
281.894	646.44
282.125	626.44
282.356	649.44
282.588	620.44
282.819	634.44
283.051	681.44
283.282	734.44
283.513	853.44
283.745	1205.44
283.976	1875.44
284.207	2594.44
284.439	2317.44
284.67	1464.44
284.901	1224.44
285.132	1170.44
285.364	1127.44
285.595	914.44
285.826	866.44
286.057	978.44
286.288	1273.44
286.52	1634.44
286.751	1588.44
286.982	1039.44
287.213	811.44
287.444	745.44
287.675	719.44
287.906	684.44
288.138	661.44
288.369	666.44
288.6	653.44
288.831	667.44
289.062	653.44
289.293	682.44
289.524	678.44
289.755	640.44
289.986	648.44
290.217	657.44
290.448	660.44
290.679	669.44
290.91	667.44
291.141	712.44
291.371	678.44
291.602	731.44
291.833	691.44
292.064	675.44
292.295	658.44
292.526	610.44
292.757	641.44
292.987	630.44
293.218	646.44
293.449	651.44
293.68	634.44
293.91	623.44
294.141	616.44
294.372	609.44
294.603	612.44
294.833	640.44
295.064	615.44
295.295	626.44
295.525	631.44
295.756	624.44
295.987	629.44
296.217	623.44
296.448	610.44
296.679	626.44
296.909	624.44
297.14	650.44
297.37	644.44
297.601	630.44
297.831	642.44
298.062	649.44
298.292	647.44
298.523	656.44
298.753	654.44
298.984	650.44
299.214	659.44
299.445	688.44
299.675	680.44
299.905	715.44
300.136	741.44
300.366	813.44
300.597	996.44
300.827	1260.44
301.057	1631.44
301.288	1643.44
301.518	1138.44
301.748	912.44
301.979	848.44
302.209	839.44
302.439	838.44
302.669	852.44
302.9	990.44
303.13	1340.44
303.36	1931.44
303.59	2458.44
303.82	2184.44
304.051	1362.44
304.281	1020.44
304.511	936.44
304.741	869.44
304.971	791.44
305.201	787.44
305.431	772.44
305.661	754.44
305.891	731.44
306.121	734.44
306.352	747.44
306.582	707.44
306.812	722.44
307.042	747.44
307.272	715.44
307.502	733.44
307.731	726.44
307.961	692.44
308.191	707.44
308.421	712.44
308.651	744.44
308.881	712.44
309.111	723.44
309.341	740.44
309.571	724.44
309.8	727.44
310.03	723.44
310.26	711.44
310.49	733.44
310.72	735.44
310.949	727.44
311.179	756.44
311.409	739.44
311.639	761.44
311.868	757.44
312.098	776.44
312.328	770.44
312.557	786.44
312.787	772.44
313.017	770.44
313.246	791.44
313.476	780.44
313.706	827.44
313.935	823.44
314.165	856.44
314.394	885.44
314.624	863.44
314.853	810.44
315.083	802.44
315.312	816.44
315.542	830.44
315.771	820.44
316.001	844.44
316.23	871.44
316.46	926.44
316.689	977.44
316.919	1096.44
317.148	1546.44
317.377	2310.44
317.607	3292.44
317.836	3314.44
318.065	2128.44
318.295	1460.44
318.524	1200.44
318.753	1054.44
318.983	1030.44
319.212	977.44
319.441	964.44
319.67	934.44
319.9	898.44
320.129	890.44
320.358	903.44
320.587	912.44
320.816	888.44
321.046	910.44
321.275	912.44
321.504	936.44
321.733	938.44
321.962	952.44
322.191	934.44
322.42	960.44
322.649	963.44
322.878	957.44
323.108	913.44
323.337	965.44
323.566	952.44
323.795	986.44
324.024	1026.44
324.253	1020.44
324.482	1055.44
324.71	1109.44
324.939	1123.44
325.168	1213.44
325.397	1200.44
325.626	1378.44
325.855	1863.44
326.084	2773.44
326.313	4063.44
326.542	4305.44
326.77	2875.44
326.999	2002.44
327.228	1682.44
327.457	1634.44
327.686	1668.44
327.914	1743.44
328.143	1969.44
328.372	2240.44
328.6	2405.44
328.829	2284.44
329.058	2038.44
329.287	1850.44
329.515	1683.44
329.744	1579.44
329.972	1513.44
330.201	1442.44
330.43	1356.44
330.658	1367.44
330.887	1341.44
331.115	1337.44
331.344	1328.44
331.572	1314.44
331.801	1338.44
332.03	1314.44
332.258	1316.44
332.486	1415.44
332.715	1508.44
332.943	1757.44
333.172	2110.44
333.4	2132.44
333.629	1756.44
333.857	1640.44
334.085	1659.44
334.314	1681.44
334.542	1842.44
334.771	2080.44
334.999	2443.44
335.227	2933.44
335.455	3221.44
335.684	3058.44
335.912	2656.44
336.14	2309.44
336.369	2094.44
336.597	1932.44
336.825	1784.44
337.053	1696.44
337.281	1581.44
337.51	1522.44
337.738	1488.44
337.966	1426.44
338.194	1347.44
338.422	1314.44
338.65	1273.44
338.878	1265.44
339.106	1270.44
339.334	1223.44
339.562	1225.44
339.79	1182.44
340.018	1178.44
340.246	1168.44
340.474	1191.44
340.702	1164.44
340.93	1155.44
341.158	1179.44
341.386	1150.44
341.614	1152.44
341.842	1123.44
342.07	1103.44
342.298	1094.44
342.526	1121.44
342.754	1080.44
342.981	1058.44
343.209	1076.44
343.437	1080.44
343.665	1110.44
343.893	1123.44
344.12	1126.44
344.348	1099.44
344.576	1073.44
344.804	1050.44
345.031	1044.44
345.259	1032.44
345.487	1017.44
345.714	1028.44
345.942	1017.44
346.17	1004.44
346.397	995.44
346.625	986.44
346.853	989.44
347.08	1003.44
347.308	979.44
347.535	966.44
347.763	997.44
347.99	978.44
348.218	990.44
348.445	959.44
348.673	958.44
348.9	982.44
349.128	991.44
349.355	927.44
349.583	977.44
349.81	964.44
350.037	936.44
350.265	953.44
350.492	947.44
350.72	964.44
350.947	959.44
351.174	958.44
351.402	961.44
351.629	963.44
351.856	953.44
352.083	964.44
352.311	967.44
352.538	966.44
352.765	935.44
352.992	968.44
353.22	959.44
353.447	937.44
353.674	955.44
353.901	951.44
354.128	977.44
354.355	963.44
354.583	958.44
354.81	968.44
355.037	955.44
355.264	956.44
355.491	965.44
355.718	949.44
355.945	983.44
356.172	999.44
356.399	989.44
356.626	964.44
356.853	1001.44
357.08	984.44
357.307	994.44
357.534	1008.44
357.761	1007.44
357.988	1002.44
358.215	994.44
358.441	1002.44
358.668	1016.44
358.895	978.44
359.122	984.44
359.349	978.44
359.576	1016.44
359.802	994.44
360.029	998.44
360.256	999.44
360.483	1020.44
360.709	1025.44
360.936	997.44
361.163	997.44
361.39	1001.44
361.616	1016.44
361.843	1030.44
362.07	1032.44
362.296	1017.44
362.523	1002.44
362.749	1003.44
362.976	983.44
363.203	1010.44
363.429	971.44
363.656	1000.44
363.882	1003.44
364.109	1012.44
364.335	1003.44
364.562	1029.44
364.788	1031.44
365.015	1044.44
365.241	1038.44
365.468	1031.44
365.694	1127.44
365.92	1092.44
366.147	1008.44
366.373	1018.44
366.599	1034.44
366.826	1036.44
367.052	1025.44
367.278	1030.44
367.505	1040.44
367.731	1064.44
367.957	1035.44
368.184	1028.44
368.41	1074.44
368.636	1055.44
368.862	1042.44
369.089	1063.44
369.315	1063.44
369.541	1051.44
369.767	1074.44
369.993	1090.44
370.219	1062.44
370.445	1040.44
370.672	1066.44
370.898	1095.44
371.124	1048.44
371.35	1089.44
371.576	1112.44
371.802	1109.44
372.028	1100.44
372.254	1115.44
372.48	1083.44
372.706	1121.44
372.932	1122.44
373.158	1108.44
373.384	1119.44
373.61	1119.44
373.835	1092.44
374.061	1102.44
374.287	1139.44
374.513	1134.44
374.739	1132.44
374.965	1149.44
375.191	1154.44
375.416	1157.44
375.642	1150.44
375.868	1138.44
376.094	1131.44
376.319	1108.44
376.545	1118.44
376.771	1084.44
376.997	1100.44
377.222	1122.44
377.448	1099.44
377.674	1105.44
377.899	1098.44
378.125	1094.44
378.35	1101.44
378.576	1095.44
378.802	1089.44
379.027	1093.44
379.253	1127.44
379.478	1163.44
379.704	1332.44
379.929	1724.44
380.155	2471.44
380.38	2623.44
380.606	1756.44
380.831	1307.44
381.057	1206.44
381.282	1174.44
381.507	1148.44
381.733	1092.44
381.958	1112.44
382.184	1070.44
382.409	1071.44
382.634	1081.44
382.86	1097.44
383.085	1091.44
383.31	1079.44
383.535	1084.44
383.761	1089.44
383.986	1077.44
384.211	1091.44
384.436	1111.44
384.662	1125.44
384.887	1089.44
385.112	1103.44
385.337	1130.44
385.562	1078.44
385.787	1106.44
386.013	1143.44
386.238	1093.44
386.463	1103.44
386.688	1098.44
386.913	1081.44
387.138	1128.44
387.363	1118.44
387.588	1094.44
387.813	1079.44
388.038	1113.44
388.263	1096.44
388.488	1120.44
388.713	1106.44
388.938	1115.44
389.163	1075.44
389.387	1106.44
389.612	1108.44
389.837	1127.44
390.062	1139.44
390.287	1134.44
390.512	1109.44
390.736	1127.44
390.961	1169.44
391.186	1144.44
391.411	1177.44
391.636	1188.44
391.86	1162.44
392.085	1184.44
392.31	1179.44
392.534	1154.44
392.759	1141.44
392.984	1131.44
393.208	1125.44
393.433	1135.44
393.658	1131.44
393.882	1173.44
394.107	1129.44
394.331	1118.44
394.556	1128.44
394.78	1154.44
395.005	1136.44
395.229	1130.44
395.454	1175.44
395.678	1173.44
395.903	1167.44
396.127	1173.44
396.352	1140.44
396.576	1145.44
396.801	1110.44
397.025	1178.44
397.249	1182.44
397.474	1196.44
397.698	1162.44
397.922	1190.44
398.147	1185.44
398.371	1190.44
398.595	1232.44
398.82	1267.44
399.044	1321.44
399.268	1352.44
399.492	1426.44
399.717	1460.44
399.941	1500.44
400.165	1421.44
400.389	1346.44
400.613	1329.44
400.837	1284.44
401.062	1239.44
401.286	1236.44
401.51	1251.44
401.734	1227.44
401.958	1224.44
402.182	1258.44
402.406	1249.44
402.63	1217.44
402.854	1247.44
403.078	1251.44
403.302	1236.44
403.526	1280.44
403.75	1283.44
403.974	1271.44
404.198	1306.44
404.422	1296.44
404.645	1273.44
404.869	1246.44
405.093	1302.44
405.317	1295.44
405.541	1273.44
405.765	1273.44
405.988	1298.44
406.212	1346.44
406.436	1305.44
406.66	1330.44
406.883	1305.44
407.107	1358.44
407.331	1371.44
407.555	1376.44
407.778	1386.44
408.002	1337.44
408.226	1340.44
408.449	1321.44
408.673	1310.44
408.896	1302.44
409.12	1297.44
409.344	1328.44
409.567	1279.44
409.791	1263.44
410.014	1303.44
410.238	1250.44
410.461	1251.44
410.685	1278.44
410.908	1235.44
411.132	1232.44
411.355	1237.44
411.578	1230.44
411.802	1220.44
412.025	1228.44
412.249	1236.44
412.472	1228.44
412.695	1211.44
412.919	1211.44
413.142	1201.44
413.365	1230.44
413.589	1201.44
413.812	1177.44
414.035	1207.44
414.258	1223.44
414.482	1209.44
414.705	1254.44
414.928	1198.44
415.151	1191.44
415.374	1194.44
415.597	1176.44
415.821	1196.44
416.044	1166.44
416.267	1158.44
416.49	1179.44
416.713	1189.44
416.936	1188.44
417.159	1170.44
417.382	1123.44
417.605	1155.44
417.828	1170.44
418.051	1178.44
418.274	1191.44
418.497	1195.44
418.72	1196.44
418.943	1186.44
419.166	1245.44
419.389	1269.44
419.611	1264.44
419.834	1252.44
420.057	1232.44
420.28	1167.44
420.503	1156.44
420.726	1135.44
420.948	1156.44
421.171	1162.44
421.394	1194.44
421.617	1190.44
421.839	1174.44
422.062	1165.44
422.285	1153.44
422.507	1192.44
422.73	1180.44
422.953	1155.44
423.175	1171.44
423.398	1183.44
423.621	1175.44
423.843	1191.44
424.066	1198.44
424.288	1191.44
424.511	1199.44
424.733	1186.44
424.956	1186.44
425.178	1200.44
425.401	1164.44
425.623	1160.44
425.846	1111.44
426.068	1141.44
426.291	1134.44
426.513	1129.44
426.735	1150.44
426.958	1138.44
427.18	1102.44
427.402	1099.44
427.625	1123.44
427.847	1075.44
428.069	1098.44
428.292	1100.44
428.514	1082.44
428.736	1066.44
428.958	1087.44
429.181	1094.44
429.403	1082.44
429.625	1072.44
429.847	1072.44
430.069	1115.44
430.292	1142.44
430.514	1146.44
430.736	1152.44
430.958	1119.44
431.18	1079.44
431.402	1070.44
431.624	1083.44
431.846	1058.44
432.068	1027.44
432.29	1036.44
432.512	1054.44
432.734	1096.44
432.956	1095.44
433.178	1084.44
433.4	1096.44
433.622	1121.44
433.844	1088.44
434.066	1095.44
434.287	1095.44
434.509	1108.44
434.731	1083.44
434.953	1111.44
435.175	1107.44
435.397	1140.44
435.618	1121.44
435.84	1078.44
436.062	1087.44
436.284	1109.44
436.505	1086.44
436.727	1083.44
436.949	1070.44
437.17	1074.44
437.392	1056.44
437.614	1058.44
437.835	1042.44
438.057	1031.44
438.278	1011.44
438.5	1045.44
438.721	1056.44
438.943	1091.44
439.165	1065.44
439.386	1094.44
439.608	1096.44
439.829	1126.44
440.05	1152.44
440.272	1172.44
440.493	1111.44
440.715	1108.44
440.936	1144.44
441.158	1170.44
441.379	1127.44
441.6	1178.44
441.822	1201.44
442.043	1269.44
442.264	1282.44
442.486	1186.44
442.707	1156.44
442.928	1186.44
443.149	1141.44
443.371	1178.44
443.592	1155.44
443.813	1150.44
444.034	1196.44
444.255	1202.44
444.476	1220.44
444.698	1265.44
444.919	1264.44
445.14	1302.44
445.361	1239.44
445.582	1195.44
445.803	1170.44
446.024	1160.44
446.245	1167.44
446.466	1156.44
446.687	1120.44
446.908	1132.44
447.129	1112.44
447.35	1105.44
447.571	1134.44
447.792	1055.44
448.013	1102.44
448.234	1088.44
448.455	1077.44
448.675	1092.44
448.896	1097.44
449.117	1138.44
449.338	1164.44
449.559	1188.44
449.779	1119.44
450	1108.44
450.221	1064.44
450.442	1061.44
450.662	1024.44
450.883	1009.44
451.104	1048.44
451.324	1037.44
451.545	1026.44
451.766	1036.44
451.986	1048.44
452.207	1108.44
452.428	1281.44
452.648	1670.44
452.869	1428.44
453.089	1166.44
453.31	1132.44
453.53	1112.44
453.751	1128.44
453.971	1173.44
454.192	1173.44
454.412	1080.44
454.633	1034.44
454.853	1010.44
455.073	983.44
455.294	972.44
455.514	987.44
455.734	983.44
455.955	986.44
456.175	986.44
456.395	966.44
456.616	983.44
456.836	1002.44
457.056	999.44
457.276	1002.44
457.497	1059.44
457.717	1052.44
457.937	1029.44
458.157	1030.44
458.377	1052.44
458.598	1034.44
458.818	1055.44
459.038	1063.44
459.258	1060.44
459.478	1056.44
459.698	1094.44
459.918	1123.44
460.138	1128.44
460.358	1150.44
460.578	1170.44
460.798	1178.44
461.018	1167.44
461.238	1152.44
461.458	1160.44
461.678	1166.44
461.898	1201.44
462.118	1217.44
462.338	1218.44
462.558	1249.44
462.777	1266.44
462.997	1265.44
463.217	1344.44
463.437	1387.44
463.657	1364.44
463.876	1379.44
464.096	1312.44
464.316	1238.44
464.536	1291.44
464.755	1257.44
464.975	1249.44
465.195	1140.44
465.414	1152.44
465.634	1127.44
465.854	1128.44
466.073	1101.44
466.293	1096.44
466.512	1074.44
466.732	1131.44
466.951	1120.44
467.171	1171.44
467.391	1160.44
467.61	1108.44
467.829	1081.44
468.049	1091.44
468.268	1048.44
468.488	1059.44
468.707	1052.44
468.927	1044.44
469.146	1054.44
469.365	1084.44
469.585	1080.44
469.804	1080.44
470.023	1108.44
470.243	1126.44
470.462	1121.44
470.681	1184.44
470.901	1251.44
471.12	1406.44
471.339	1422.44
471.558	1237.44
471.777	1168.44
471.997	1080.44
472.216	1094.44
472.435	1058.44
472.654	1055.44
472.873	1052.44
473.092	1038.44
473.311	1078.44
473.53	1090.44
473.749	1096.44
473.968	1113.44
474.187	1082.44
474.406	1090.44
474.625	1059.44
474.844	1085.44
475.063	1069.44
475.282	1054.44
475.501	1057.44
475.72	1071.44
475.939	1087.44
476.158	1111.44
476.377	1091.44
476.596	1094.44
476.814	1112.44
477.033	1099.44
477.252	1129.44
477.471	1144.44
477.69	1180.44
477.908	1202.44
478.127	1208.44
478.346	1234.44
478.564	1236.44
478.783	1218.44
479.002	1243.44
479.22	1264.44
479.439	1273.44
479.658	1252.44
479.876	1251.44
480.095	1268.44
480.313	1305.44
480.532	1328.44
480.751	1293.44
480.969	1258.44
481.188	1276.44
481.406	1247.44
481.624	1241.44
481.843	1238.44
482.061	1258.44
482.28	1298.44
482.498	1277.44
482.717	1271.44
482.935	1283.44
483.153	1308.44
483.372	1359.44
483.59	1351.44
483.808	1331.44
484.027	1347.44
484.245	1416.44
484.463	1556.44
484.681	1687.44
484.9	1550.44
485.118	1460.44
485.336	1455.44
485.554	1487.44
485.772	1546.44
485.99	1674.44
486.209	1819.44
486.427	1555.44
486.645	1450.44
486.863	1394.44
487.081	1376.44
487.299	1362.44
487.517	1350.44
487.735	1370.44
487.953	1414.44
488.171	1369.44
488.389	1380.44
488.607	1363.44
488.825	1335.44
489.043	1300.44
489.261	1312.44
489.479	1359.44
489.696	1315.44
489.914	1329.44
490.132	1316.44
490.35	1333.44
490.568	1370.44
490.786	1357.44
491.003	1402.44
491.221	1404.44
491.439	1384.44
491.657	1378.44
491.874	1420.44
