Data from SnStandardFlinnAPT0064_QswitchEnergy10_LIBS07252019.E.O._I.C._HRD10591_15-26-13-972.txt Node
Date: Thu Jul 25 15:26:13 EDT 2019
User: cochatt
Spectrometer: HR+D1059
Trigger mode: 1
Integration Time (sec): 1.000000E-1
Scans to average: 1
Electric dark correction enabled: true
Nonlinearity correction enabled: false
Boxcar width: 0
XAxis mode: Wavelengths
Number of Pixels in Spectrum: 2048
>>>>>Begin Spectral Data<<<<<
223.165	-14.62
223.4	-14.62
223.635	-14.62
223.869	-27.62
224.104	-14.62
224.338	-5.62
224.573	-8.62
224.808	-10.62
225.042	-22.62
225.277	-14.62
225.511	-12.62
225.746	14.38
225.98	7.38
226.215	9.38
226.449	14.38
226.683	22.38
226.918	29.38
227.152	34.38
227.387	36.38
227.621	34.38
227.856	53.38
228.09	31.38
228.324	53.38
228.559	52.38
228.793	53.38
229.027	67.38
229.262	69.38
229.496	55.38
229.73	72.38
229.964	79.38
230.199	64.38
230.433	78.38
230.667	76.38
230.901	82.38
231.136	76.38
231.37	86.38
231.604	94.38
231.838	104.38
232.072	121.38
232.306	105.38
232.541	95.38
232.775	87.38
233.009	90.38
233.243	85.38
233.477	79.38
233.711	90.38
233.945	112.38
234.179	101.38
234.413	101.38
234.647	85.38
234.881	86.38
235.115	90.38
235.349	80.38
235.583	111.38
235.817	122.38
236.051	130.38
236.285	91.38
236.519	73.38
236.753	82.38
236.987	85.38
237.221	81.38
237.455	81.38
237.689	80.38
237.922	85.38
238.156	79.38
238.39	73.38
238.624	84.38
238.858	85.38
239.091	82.38
239.325	86.38
239.559	81.38
239.793	78.38
240.027	83.38
240.26	77.38
240.494	80.38
240.728	90.38
240.961	86.38
241.195	88.38
241.429	102.38
241.662	74.38
241.896	84.38
242.13	85.38
242.363	121.38
242.597	139.38
242.83	122.38
243.064	138.38
243.298	161.38
243.531	121.38
243.765	85.38
243.998	87.38
244.232	92.38
244.465	78.38
244.699	73.38
244.932	67.38
245.166	93.38
245.399	85.38
245.633	82.38
245.866	83.38
246.099	82.38
246.333	84.38
246.566	73.38
246.8	90.38
247.033	81.38
247.266	87.38
247.5	89.38
247.733	82.38
247.966	93.38
248.2	99.38
248.433	106.38
248.666	121.38
248.899	111.38
249.133	92.38
249.366	91.38
249.599	97.38
249.832	102.38
250.066	109.38
250.299	82.38
250.532	75.38
250.765	90.38
250.998	91.38
251.231	79.38
251.465	81.38
251.698	80.38
251.931	74.38
252.164	74.38
252.397	79.38
252.63	86.38
252.863	101.38
253.096	93.38
253.329	86.38
253.562	100.38
253.795	90.38
254.028	79.38
254.261	88.38
254.494	92.38
254.727	106.38
254.96	119.38
255.193	117.38
255.426	91.38
255.659	77.38
255.892	99.38
256.124	97.38
256.357	81.38
256.59	86.38
256.823	90.38
257.056	98.38
257.289	127.38
257.521	163.38
257.754	119.38
257.987	96.38
258.22	83.38
258.452	82.38
258.685	81.38
258.918	73.38
259.151	88.38
259.383	119.38
259.616	119.38
259.849	126.38
260.081	99.38
260.314	74.38
260.547	86.38
260.779	85.38
261.012	78.38
261.244	98.38
261.477	97.38
261.71	82.38
261.942	78.38
262.175	90.38
262.407	84.38
262.64	69.38
262.872	84.38
263.105	86.38
263.337	88.38
263.57	86.38
263.802	93.38
264.035	85.38
264.267	99.38
264.499	75.38
264.732	101.38
264.964	90.38
265.197	98.38
265.429	101.38
265.661	90.38
265.894	95.38
266.126	96.38
266.358	133.38
266.591	129.38
266.823	91.38
267.055	88.38
267.287	101.38
267.52	79.38
267.752	86.38
267.984	90.38
268.216	80.38
268.448	89.38
268.681	90.38
268.913	89.38
269.145	94.38
269.377	103.38
269.609	101.38
269.841	88.38
270.073	96.38
270.306	114.38
270.538	182.38
270.77	267.38
271.002	330.38
271.234	159.38
271.466	101.38
271.698	98.38
271.93	86.38
272.162	92.38
272.394	86.38
272.626	89.38
272.858	87.38
273.09	84.38
273.322	85.38
273.553	90.38
273.785	87.38
274.017	88.38
274.249	86.38
274.481	88.38
274.713	75.38
274.945	97.38
275.176	78.38
275.408	83.38
275.64	93.38
275.872	95.38
276.104	102.38
276.335	90.38
276.567	99.38
276.799	88.38
277.031	90.38
277.262	83.38
277.494	103.38
277.726	122.38
277.957	159.38
278.189	221.38
278.421	211.38
278.652	176.38
278.884	162.38
279.115	131.38
279.347	102.38
279.579	90.38
279.81	102.38
280.042	96.38
280.273	97.38
280.505	113.38
280.736	117.38
280.968	109.38
281.199	141.38
281.431	205.38
281.662	220.38
281.894	136.38
282.125	118.38
282.356	101.38
282.588	104.38
282.819	106.38
283.051	96.38
283.282	138.38
283.513	173.38
283.745	271.38
283.976	455.38
284.207	665.38
284.439	498.38
284.67	233.38
284.901	220.38
285.132	277.38
285.364	305.38
285.595	188.38
285.826	156.38
286.057	215.38
286.288	349.38
286.52	520.38
286.751	414.38
286.982	171.38
287.213	119.38
287.444	105.38
287.675	101.38
287.906	102.38
288.138	106.38
288.369	104.38
288.6	90.38
288.831	88.38
289.062	84.38
289.293	97.38
289.524	85.38
289.755	102.38
289.986	95.38
290.217	98.38
290.448	105.38
290.679	120.38
290.91	111.38
291.141	152.38
291.371	197.38
291.602	211.38
291.833	156.38
292.064	120.38
292.295	103.38
292.526	91.38
292.757	97.38
292.987	90.38
293.218	102.38
293.449	99.38
293.68	95.38
293.91	85.38
294.141	95.38
294.372	101.38
294.603	91.38
294.833	92.38
295.064	85.38
295.295	98.38
295.525	93.38
295.756	99.38
295.987	89.38
296.217	99.38
296.448	96.38
296.679	92.38
296.909	89.38
297.14	103.38
297.37	77.38
297.601	106.38
297.831	90.38
298.062	86.38
298.292	107.38
298.523	112.38
298.753	103.38
298.984	103.38
299.214	103.38
299.445	110.38
299.675	122.38
299.905	125.38
300.136	117.38
300.366	138.38
300.597	223.38
300.827	379.38
301.057	587.38
301.288	507.38
301.518	213.38
301.748	129.38
301.979	120.38
302.209	117.38
302.439	136.38
302.669	138.38
302.9	227.38
303.13	393.38
303.36	723.38
303.59	976.38
303.82	686.38
304.051	233.38
304.281	139.38
304.511	118.38
304.741	117.38
304.971	112.38
305.201	102.38
305.431	101.38
305.661	99.38
305.891	103.38
306.121	110.38
306.352	111.38
306.582	103.38
306.812	105.38
307.042	109.38
307.272	105.38
307.502	106.38
307.731	99.38
307.961	93.38
308.191	102.38
308.421	105.38
308.651	96.38
308.881	97.38
309.111	80.38
309.341	97.38
309.571	102.38
309.8	104.38
310.03	105.38
310.26	110.38
310.49	95.38
310.72	115.38
310.949	115.38
311.179	107.38
311.409	102.38
311.639	105.38
311.868	98.38
312.098	111.38
312.328	107.38
312.557	119.38
312.787	105.38
313.017	102.38
313.246	103.38
313.476	86.38
313.706	111.38
313.935	135.38
314.165	158.38
314.394	201.38
314.624	144.38
314.853	112.38
315.083	126.38
315.312	116.38
315.542	122.38
315.771	125.38
316.001	117.38
316.23	127.38
316.46	133.38
316.689	176.38
316.919	214.38
317.148	419.38
317.377	724.38
317.607	1191.38
317.836	1151.38
318.065	445.38
318.295	198.38
318.524	143.38
318.753	125.38
318.983	116.38
319.212	126.38
319.441	109.38
319.67	112.38
319.9	106.38
320.129	118.38
320.358	90.38
320.587	110.38
320.816	126.38
321.046	118.38
321.275	123.38
321.504	120.38
321.733	137.38
321.962	138.38
322.191	146.38
322.42	137.38
322.649	130.38
322.878	117.38
323.108	117.38
323.337	106.38
323.566	121.38
323.795	129.38
324.024	118.38
324.253	118.38
324.482	162.38
324.71	205.38
324.939	246.38
325.168	210.38
325.397	167.38
325.626	225.38
325.855	395.38
326.084	762.38
326.313	1296.38
326.542	1286.38
326.77	519.38
326.999	207.38
327.228	189.38
327.457	198.38
327.686	181.38
327.914	138.38
328.143	134.38
328.372	126.38
328.6	112.38
328.829	109.38
329.058	119.38
329.287	109.38
329.515	101.38
329.744	112.38
329.972	106.38
330.201	95.38
330.43	112.38
330.658	110.38
330.887	99.38
331.115	110.38
331.344	107.38
331.572	111.38
331.801	112.38
332.03	115.38
332.258	120.38
332.486	137.38
332.715	224.38
332.943	405.38
333.172	647.38
333.4	542.38
333.629	200.38
333.857	138.38
334.085	110.38
334.314	123.38
334.542	126.38
334.771	119.38
334.999	123.38
335.227	114.38
335.455	121.38
335.684	100.38
335.912	115.38
336.14	115.38
336.369	121.38
336.597	98.38
336.825	103.38
337.053	114.38
337.281	99.38
337.51	105.38
337.738	111.38
337.966	110.38
338.194	115.38
338.422	107.38
338.65	99.38
338.878	101.38
339.106	102.38
339.334	111.38
339.562	105.38
339.79	107.38
340.018	112.38
340.246	117.38
340.474	103.38
340.702	95.38
340.93	109.38
341.158	111.38
341.386	100.38
341.614	109.38
341.842	113.38
342.07	111.38
342.298	116.38
342.526	101.38
342.754	106.38
342.981	98.38
343.209	110.38
343.437	117.38
343.665	109.38
343.893	93.38
344.12	91.38
344.348	109.38
344.576	107.38
344.804	101.38
345.031	105.38
345.259	98.38
345.487	105.38
345.714	98.38
345.942	103.38
346.17	105.38
346.397	112.38
346.625	98.38
346.853	106.38
347.08	106.38
347.308	91.38
347.535	99.38
347.763	109.38
347.99	73.38
348.218	102.38
348.445	100.38
348.673	111.38
348.9	113.38
349.128	110.38
349.355	103.38
349.583	118.38
349.81	109.38
350.037	98.38
350.265	111.38
350.492	103.38
350.72	100.38
350.947	96.38
351.174	121.38
351.402	108.38
351.629	104.38
351.856	108.38
352.083	92.38
352.311	101.38
352.538	96.38
352.765	102.38
352.992	106.38
353.22	97.38
353.447	104.38
353.674	93.38
353.901	115.38
354.128	106.38
354.355	90.38
354.583	90.38
354.81	110.38
355.037	103.38
355.264	99.38
355.491	97.38
355.718	98.38
355.945	98.38
356.172	109.38
356.399	98.38
356.626	96.38
356.853	89.38
357.08	92.38
357.307	100.38
357.534	95.38
357.761	110.38
357.988	92.38
358.215	106.38
358.441	101.38
358.668	112.38
358.895	103.38
359.122	117.38
359.349	105.38
359.576	115.38
359.802	105.38
360.029	116.38
360.256	108.38
360.483	98.38
360.709	105.38
360.936	113.38
361.163	115.38
361.39	118.38
361.616	103.38
361.843	103.38
362.07	112.38
362.296	99.38
362.523	107.38
362.749	110.38
362.976	95.38
363.203	106.38
363.429	97.38
363.656	91.38
363.882	109.38
364.109	118.38
364.335	106.38
364.562	88.38
364.788	91.38
365.015	101.38
365.241	109.38
365.468	151.38
365.694	192.38
365.92	175.38
366.147	102.38
366.373	96.38
366.599	99.38
366.826	94.38
367.052	107.38
367.278	98.38
367.505	92.38
367.731	104.38
367.957	94.38
368.184	106.38
368.41	109.38
368.636	112.38
368.862	92.38
369.089	93.38
369.315	106.38
369.541	95.38
369.767	103.38
369.993	99.38
370.219	93.38
370.445	96.38
370.672	103.38
370.898	115.38
371.124	85.38
371.35	106.38
371.576	102.38
371.802	94.38
372.028	97.38
372.254	110.38
372.48	97.38
372.706	114.38
372.932	116.38
373.158	107.38
373.384	101.38
373.61	111.38
373.835	110.38
374.061	88.38
374.287	104.38
374.513	100.38
374.739	93.38
374.965	105.38
375.191	114.38
375.416	102.38
375.642	101.38
375.868	105.38
376.094	121.38
376.319	100.38
376.545	96.38
376.771	101.38
376.997	109.38
377.222	97.38
377.448	109.38
377.674	106.38
377.899	104.38
378.125	98.38
378.35	109.38
378.576	119.38
378.802	99.38
379.027	109.38
379.253	127.38
379.478	155.38
379.704	278.38
379.929	631.38
380.155	1290.38
380.38	1344.38
380.606	429.38
380.831	173.38
381.057	132.38
381.282	110.38
381.507	103.38
381.733	103.38
381.958	96.38
382.184	88.38
382.409	95.38
382.634	96.38
382.86	96.38
383.085	103.38
383.31	87.38
383.535	90.38
383.761	109.38
383.986	100.38
384.211	97.38
384.436	96.38
384.662	103.38
384.887	102.38
385.112	95.38
385.337	97.38
385.562	95.38
385.787	93.38
386.013	100.38
386.238	104.38
386.463	105.38
386.688	93.38
386.913	100.38
387.138	98.38
387.363	109.38
387.588	100.38
387.813	90.38
388.038	98.38
388.263	98.38
388.488	98.38
388.713	87.38
388.938	101.38
389.163	93.38
389.387	110.38
389.612	95.38
389.837	100.38
390.062	106.38
390.287	93.38
390.512	100.38
390.736	105.38
390.961	91.38
391.186	100.38
391.411	101.38
391.636	106.38
391.86	94.38
392.085	91.38
392.31	92.38
392.534	95.38
392.759	93.38
392.984	92.38
393.208	106.38
393.433	126.38
393.658	120.38
393.882	104.38
394.107	86.38
394.331	85.38
394.556	90.38
394.78	112.38
395.005	97.38
395.229	101.38
395.454	96.38
395.678	102.38
395.903	96.38
396.127	94.38
396.352	98.38
396.576	109.38
396.801	102.38
397.025	123.38
397.249	105.38
397.474	99.38
397.698	89.38
397.922	90.38
398.147	99.38
398.371	120.38
398.595	94.38
398.82	105.38
399.044	98.38
399.268	95.38
399.492	95.38
399.717	87.38
399.941	87.38
400.165	86.38
400.389	98.38
400.613	87.38
400.837	106.38
401.062	94.38
401.286	102.38
401.51	82.38
401.734	101.38
401.958	104.38
402.182	105.38
402.406	100.38
402.63	103.38
402.854	84.38
403.078	94.38
403.302	111.38
403.526	93.38
403.75	103.38
403.974	101.38
404.198	98.38
404.422	91.38
404.645	100.38
404.869	95.38
405.093	91.38
405.317	105.38
405.541	96.38
405.765	116.38
405.988	112.38
406.212	101.38
406.436	99.38
406.66	110.38
406.883	100.38
407.107	81.38
407.331	92.38
407.555	101.38
407.778	90.38
408.002	94.38
408.226	110.38
408.449	113.38
408.673	92.38
408.896	100.38
409.12	90.38
409.344	102.38
409.567	98.38
409.791	89.38
410.014	91.38
410.238	95.38
410.461	96.38
410.685	86.38
410.908	94.38
411.132	92.38
411.355	103.38
411.578	103.38
411.802	89.38
412.025	83.38
412.249	95.38
412.472	77.38
412.695	109.38
412.919	99.38
413.142	93.38
413.365	96.38
413.589	95.38
413.812	96.38
414.035	110.38
414.258	93.38
414.482	103.38
414.705	99.38
414.928	95.38
415.151	106.38
415.374	82.38
415.597	90.38
415.821	85.38
416.044	87.38
416.267	103.38
416.49	95.38
416.713	93.38
416.936	82.38
417.159	96.38
417.382	92.38
417.605	88.38
417.828	98.38
418.051	100.38
418.274	112.38
418.497	103.38
418.72	106.38
418.943	103.38
419.166	105.38
419.389	96.38
419.611	113.38
419.834	100.38
420.057	86.38
420.28	103.38
420.503	97.38
420.726	92.38
420.948	83.38
421.171	86.38
421.394	86.38
421.617	91.38
421.839	93.38
422.062	99.38
422.285	94.38
422.507	101.38
422.73	126.38
422.953	128.38
423.175	106.38
423.398	99.38
423.621	95.38
423.843	103.38
424.066	95.38
424.288	92.38
424.511	92.38
424.733	86.38
424.956	81.38
425.178	101.38
425.401	88.38
425.623	86.38
425.846	92.38
426.068	86.38
426.291	95.38
426.513	91.38
426.735	89.38
426.958	84.38
427.18	111.38
427.402	90.38
427.625	101.38
427.847	91.38
428.069	106.38
428.292	101.38
428.514	81.38
428.736	95.38
428.958	84.38
429.181	98.38
429.403	83.38
429.625	86.38
429.847	89.38
430.069	99.38
430.292	87.38
430.514	95.38
430.736	104.38
430.958	90.38
431.18	89.38
431.402	94.38
431.624	89.38
431.846	91.38
432.068	86.38
432.29	103.38
432.512	100.38
432.734	81.38
432.956	89.38
433.178	87.38
433.4	89.38
433.622	86.38
433.844	97.38
434.066	81.38
434.287	99.38
434.509	94.38
434.731	85.38
434.953	88.38
435.175	85.38
435.397	96.38
435.618	84.38
435.84	86.38
436.062	93.38
436.284	85.38
436.505	84.38
436.727	90.38
436.949	105.38
437.17	99.38
437.392	106.38
437.614	72.38
437.835	108.38
438.057	88.38
438.278	98.38
438.5	83.38
438.721	89.38
438.943	99.38
439.165	101.38
439.386	111.38
439.608	104.38
439.829	111.38
440.05	115.38
440.272	120.38
440.493	100.38
440.715	109.38
440.936	85.38
441.158	101.38
441.379	86.38
441.6	81.38
441.822	92.38
442.043	105.38
442.264	115.38
442.486	109.38
442.707	94.38
442.928	88.38
443.149	95.38
443.371	82.38
443.592	87.38
443.813	86.38
444.034	98.38
444.255	94.38
444.476	95.38
444.698	99.38
444.919	100.38
445.14	211.38
445.361	151.38
445.582	95.38
445.803	106.38
446.024	97.38
446.245	84.38
446.466	93.38
446.687	85.38
446.908	94.38
447.129	91.38
447.35	93.38
447.571	101.38
447.792	99.38
448.013	88.38
448.234	93.38
448.455	84.38
448.675	85.38
448.896	93.38
449.117	105.38
449.338	138.38
449.559	139.38
449.779	113.38
450	94.38
450.221	90.38
450.442	97.38
450.662	119.38
450.883	113.38
451.104	109.38
451.324	117.38
451.545	102.38
451.766	116.38
451.986	133.38
452.207	176.38
452.428	443.38
452.648	1051.38
452.869	584.38
453.089	176.38
453.31	103.38
453.53	105.38
453.751	132.38
453.971	151.38
454.192	137.38
454.412	106.38
454.633	97.38
454.853	100.38
455.073	99.38
455.294	81.38
455.514	104.38
455.734	89.38
455.955	90.38
456.175	88.38
456.395	86.38
456.616	111.38
456.836	93.38
457.056	85.38
457.276	91.38
457.497	98.38
457.717	108.38
457.937	107.38
458.157	109.38
458.377	82.38
458.598	97.38
458.818	89.38
459.038	80.38
459.258	85.38
459.478	82.38
459.698	95.38
459.918	97.38
460.138	97.38
460.358	91.38
460.578	99.38
460.798	87.38
461.018	89.38
461.238	88.38
461.458	103.38
461.678	88.38
461.898	72.38
462.118	92.38
462.338	101.38
462.558	98.38
462.777	106.38
462.997	107.38
463.217	111.38
463.437	114.38
463.657	151.38
463.876	167.38
464.096	115.38
464.316	84.38
464.536	93.38
464.755	95.38
464.975	92.38
465.195	78.38
465.414	80.38
465.634	85.38
465.854	101.38
466.073	87.38
466.293	93.38
466.512	98.38
466.732	101.38
466.951	99.38
467.171	127.38
467.391	110.38
467.61	111.38
467.829	105.38
468.049	95.38
468.268	96.38
468.488	89.38
468.707	87.38
468.927	91.38
469.146	92.38
469.365	91.38
469.585	101.38
469.804	104.38
470.023	89.38
470.243	101.38
470.462	113.38
470.681	109.38
470.901	112.38
471.12	173.38
471.339	185.38
471.558	121.38
471.777	98.38
471.997	103.38
472.216	104.38
472.435	100.38
472.654	81.38
472.873	97.38
473.092	86.38
473.311	91.38
473.53	87.38
473.749	89.38
473.968	103.38
474.187	94.38
474.406	93.38
474.625	83.38
474.844	92.38
475.063	98.38
475.282	101.38
475.501	78.38
475.72	77.38
475.939	90.38
476.158	95.38
476.377	106.38
476.596	92.38
476.814	78.38
477.033	97.38
477.252	89.38
477.471	81.38
477.69	91.38
477.908	94.38
478.127	84.38
478.346	90.38
478.564	100.38
478.783	78.38
479.002	74.38
479.22	98.38
479.439	94.38
479.658	97.38
479.876	94.38
480.095	86.38
480.313	75.38
480.532	88.38
480.751	97.38
480.969	98.38
481.188	95.38
481.406	80.38
481.624	96.38
481.843	95.38
482.061	94.38
482.28	86.38
482.498	98.38
482.717	106.38
482.935	95.38
483.153	102.38
483.372	104.38
483.59	120.38
483.808	111.38
484.027	92.38
484.245	106.38
484.463	152.38
484.681	200.38
484.9	131.38
485.118	108.38
485.336	116.38
485.554	115.38
485.772	125.38
485.99	171.38
486.209	221.38
486.427	153.38
486.645	102.38
486.863	109.38
487.081	89.38
487.299	103.38
487.517	95.38
487.735	94.38
487.953	101.38
488.171	91.38
488.389	99.38
488.607	99.38
488.825	99.38
489.043	101.38
489.261	97.38
489.479	84.38
489.696	94.38
489.914	94.38
490.132	98.38
490.35	96.38
490.568	86.38
490.786	86.38
491.003	109.38
491.221	103.38
491.439	127.38
491.657	111.38
491.874	112.38
492.092	113.38
492.31	97.38
492.527	105.38
492.745	102.38
492.963	113.38
493.18	103.38
493.398	117.38
493.615	89.38
493.833	91.38
494.05	101.38
494.268	113.38
494.485	121.38
494.703	98.38
494.92	106.38
495.138	98.38
495.355	99.38
495.573	118.38
495.79	100.38
496.008	106.38
496.225	113.38
496.442	86.38
496.66	107.38
496.877	137.38
497.094	135.38
497.312	98.38
497.529	86.38
497.746	100.38
497.963	96.38
498.181	103.38
498.398	91.38
498.615	112.38
498.832	94.38
499.049	91.38
499.267	126.38
499.484	133.38
499.701	102.38
499.918	86.38
500.135	85.38
500.352	88.38
500.569	88.38
500.786	104.38
501.003	85.38
501.22	97.38
501.437	93.38
501.654	104.38
501.871	90.38
502.088	94.38
502.305	97.38
502.522	84.38
502.739	99.38
502.956	94.38
503.172	99.38
503.389	99.38
503.606	93.38
503.823	73.38
504.04	89.38
504.256	105.38
504.473	100.38
504.69	89.38
504.907	103.38
505.123	97.38
505.34	98.38
505.557	105.38
505.773	103.38
505.99	91.38
506.207	100.38
506.423	95.38
506.64	85.38
506.856	84.38
507.073	90.38
507.289	91.38
507.506	87.38
507.722	88.38
507.939	94.38
508.155	100.38
508.372	89.38
508.588	94.38
508.805	90.38
509.021	83.38
509.238	95.38
509.454	129.38
509.67	153.38
509.887	114.38
510.103	86.38
510.319	95.38
