Data from SnStandardFlinnAPT0064_LampEnergy10_LIBS07252019.E.O._I.C._HRD10591_15-22-20-495.txt Node
Date: Thu Jul 25 15:22:20 EDT 2019
User: cochatt
Spectrometer: HR+D1059
Trigger mode: 1
Integration Time (sec): 1.000000E-1
Scans to average: 1
Electric dark correction enabled: true
Nonlinearity correction enabled: false
Boxcar width: 0
XAxis mode: Wavelengths
Number of Pixels in Spectrum: 2048
>>>>>Begin Spectral Data<<<<<
223.165	-4
223.4	-4
223.635	-4
223.869	-26
224.104	-24
224.338	-28
224.573	-7
224.808	-21
225.042	-11
225.277	0
225.511	-12
225.746	13
225.98	9
226.215	19
226.449	21
226.683	17
226.918	22
227.152	32
227.387	39
227.621	40
227.856	53
228.09	34
228.324	40
228.559	49
228.793	131
229.027	295
229.262	319
229.496	298
229.73	277
229.964	299
230.199	299
230.433	306
230.667	323
230.901	289
231.136	336
231.37	349
231.604	375
231.838	434
232.072	550
232.306	568
232.541	463
232.775	418
233.009	413
233.243	408
233.477	436
233.711	490
233.945	585
234.179	497
234.413	465
234.647	433
234.881	455
235.115	511
235.349	611
235.583	757
235.817	1004
236.051	988
236.285	648
236.519	526
236.753	471
236.987	507
237.221	556
237.455	506
237.689	463
237.922	438
238.156	468
238.39	473
238.624	466
238.858	496
239.091	471
239.325	497
239.559	485
239.793	502
240.027	483
240.26	526
240.494	539
240.728	561
240.961	580
241.195	637
241.429	644
241.662	674
241.896	789
242.13	932
242.363	1246
242.597	1630
242.83	1551
243.064	1539
243.298	1845
243.531	1488
243.765	934
243.998	744
244.232	700
244.465	629
244.699	619
244.932	640
245.166	631
245.399	661
245.633	673
245.866	686
246.099	667
246.333	622
246.566	647
246.8	643
247.033	659
247.266	637
247.5	645
247.733	652
247.966	693
248.2	731
248.433	845
248.666	982
248.899	936
249.133	823
249.366	865
249.599	950
249.832	1026
250.066	1047
250.299	872
250.532	772
250.765	731
250.998	746
251.231	744
251.465	700
251.698	734
251.931	736
252.164	706
252.397	745
252.63	788
252.863	815
253.096	787
253.329	779
253.562	770
253.795	757
254.028	782
254.261	815
254.494	854
254.727	997
254.96	1208
255.193	1207
255.426	936
255.659	847
255.892	851
256.124	853
256.357	872
256.59	888
256.823	974
257.056	1110
257.289	1338
257.521	1463
257.754	1167
257.987	956
258.22	911
258.452	917
258.685	936
258.918	958
259.151	1003
259.383	1110
259.616	1193
259.849	1251
260.081	1071
260.314	976
260.547	936
260.779	940
261.012	944
261.244	947
261.477	942
261.71	930
261.942	981
262.175	1007
262.407	1033
262.64	1041
262.872	1087
263.105	1110
263.337	1226
263.57	1257
263.802	1281
264.035	1302
264.267	1355
264.499	1373
264.732	1442
264.964	1463
265.197	1450
265.429	1449
265.661	1484
265.894	1537
266.126	1754
266.358	1927
266.591	1909
266.823	1628
267.055	1448
267.287	1403
267.52	1313
267.752	1285
267.984	1278
268.216	1243
268.448	1252
268.681	1220
268.913	1207
269.145	1224
269.377	1246
269.609	1245
269.841	1284
270.073	1342
270.306	1576
270.538	2141
270.77	3190
271.002	3964
271.234	2709
271.466	1832
271.698	1493
271.93	1401
272.162	1309
272.394	1287
272.626	1262
272.858	1241
273.09	1208
273.322	1218
273.553	1209
273.785	1203
274.017	1195
274.249	1169
274.481	1193
274.713	1217
274.945	1199
275.176	1214
275.408	1216
275.64	1206
275.872	1235
276.104	1241
276.335	1219
276.567	1303
276.799	1247
277.031	1317
277.262	1313
277.494	1426
277.726	1545
277.957	1835
278.189	2082
278.421	1949
278.652	1741
278.884	1645
279.115	1494
279.347	1428
279.579	1405
279.81	1402
280.042	1359
280.273	1417
280.505	1413
280.736	1511
280.968	1574
281.199	1792
281.431	1998
281.662	2075
281.894	1761
282.125	1632
282.356	1654
282.588	1638
282.819	1683
283.051	1768
283.282	1961
283.513	2442
283.745	3574
283.976	5617
284.207	8097
284.439	7261
284.67	4448
284.901	3611
285.132	3710
285.364	3523
285.595	2674
285.826	2404
286.057	2812
286.288	3885
286.52	5212
286.751	4909
286.982	2971
287.213	2272
287.444	2002
287.675	1826
287.906	1746
288.138	1731
288.369	1670
288.6	1643
288.831	1664
289.062	1698
289.293	1649
289.524	1656
289.755	1686
289.986	1671
290.217	1688
290.448	1716
290.679	1699
290.91	1767
291.141	1857
291.371	2023
291.602	2101
291.833	1931
292.064	1726
292.295	1652
292.526	1637
292.757	1611
292.987	1618
293.218	1541
293.449	1569
293.68	1573
293.91	1567
294.141	1589
294.372	1578
294.603	1538
294.833	1593
295.064	1539
295.295	1536
295.525	1497
295.756	1523
295.987	1525
296.217	1556
296.448	1583
296.679	1599
296.909	1563
297.14	1586
297.37	1599
297.601	1608
297.831	1637
298.062	1650
298.292	1659
298.523	1709
298.753	1674
298.984	1718
299.214	1698
299.445	1736
299.675	1788
299.905	1856
300.136	1895
300.366	2108
300.597	2737
300.827	3865
301.057	5187
301.288	5265
301.518	3355
301.748	2535
301.979	2347
302.209	2271
302.439	2312
302.669	2443
302.9	2941
303.13	4068
303.36	6107
303.59	8341
303.82	7131
304.051	4087
304.281	2963
304.511	2527
304.741	2301
304.971	2171
305.201	2071
305.431	1986
305.661	1922
305.891	1876
306.121	1905
306.352	1866
306.582	1822
306.812	1826
307.042	1873
307.272	1808
307.502	1837
307.731	1816
307.961	1811
308.191	1800
308.421	1774
308.651	1796
308.881	1803
309.111	1805
309.341	1771
309.571	1848
309.8	1829
310.03	1832
310.26	1851
310.49	1843
310.72	1884
310.949	1866
311.179	1910
311.409	1903
311.639	1941
311.868	1894
312.098	1933
312.328	1931
312.557	1949
312.787	1939
313.017	1935
313.246	1973
313.476	1999
313.706	2100
313.935	2193
314.165	2327
314.394	2418
314.624	2331
314.853	2165
315.083	2148
315.312	2135
315.542	2173
315.771	2165
316.001	2249
316.23	2243
316.46	2379
316.689	2630
316.919	3173
317.148	4636
317.377	7110
317.607	10440
317.836	10937
318.065	6500
318.295	4204
318.524	3385
318.753	2936
318.983	2691
319.212	2512
319.441	2479
319.67	2401
319.9	2406
320.129	2339
320.358	2353
320.587	2314
320.816	2335
321.046	2352
321.275	2370
321.504	2347
321.733	2459
321.962	2462
322.191	2510
322.42	2469
322.649	2438
322.878	2507
323.108	2482
323.337	2520
323.566	2510
323.795	2628
324.024	2693
324.253	2728
324.482	2830
324.71	3020
324.939	3189
325.168	3237
325.397	3385
325.626	3982
325.855	5565
326.084	8688
326.313	12724
326.542	13441
326.77	8828
326.999	5884
327.228	4870
327.457	4592
327.686	4731
327.914	4975
328.143	5922
328.372	7144
328.6	7749
328.829	6844
329.058	5788
329.287	4964
329.515	4520
329.744	4249
329.972	4056
330.201	3802
330.43	3678
330.658	3604
330.887	3567
331.115	3543
331.344	3493
331.572	3470
331.801	3526
332.03	3548
332.258	3551
332.486	3682
332.715	4295
332.943	5341
333.172	6530
333.4	6525
333.629	4870
333.857	4463
334.085	4445
334.314	4661
334.542	5041
334.771	5988
334.999	7359
335.227	9189
335.455	10285
335.684	9198
335.912	7563
336.14	6371
336.369	5590
336.597	5157
336.825	4745
337.053	4549
337.281	4244
337.51	3978
337.738	3849
337.966	3653
338.194	3565
338.422	3491
338.65	3350
338.878	3337
339.106	3309
339.334	3221
339.562	3148
339.79	3072
340.018	3056
340.246	3040
340.474	3023
340.702	3031
340.93	2965
341.158	3005
341.386	3008
341.614	2957
341.842	2917
342.07	2883
342.298	2816
342.526	2744
342.754	2766
342.981	2685
343.209	2713
343.437	2750
343.665	2782
343.893	2840
344.12	2811
344.348	2775
344.576	2754
344.804	2728
345.031	2605
345.259	2624
345.487	2631
345.714	2546
345.942	2562
346.17	2551
346.397	2537
346.625	2546
346.853	2496
347.08	2504
347.308	2524
347.535	2502
347.763	2482
347.99	2459
348.218	2480
348.445	2497
348.673	2427
348.9	2461
349.128	2456
349.355	2398
349.583	2450
349.81	2417
350.037	2408
350.265	2447
350.492	2395
350.72	2371
350.947	2410
351.174	2393
351.402	2447
351.629	2440
351.856	2399
352.083	2394
352.311	2323
352.538	2373
352.765	2397
352.992	2317
353.22	2382
353.447	2323
353.674	2420
353.901	2395
354.128	2392
354.355	2431
354.583	2422
354.81	2441
355.037	2431
355.264	2441
355.491	2439
355.718	2446
355.945	2492
356.172	2481
356.399	2445
356.626	2443
356.853	2464
357.08	2510
357.307	2498
357.534	2595
357.761	2590
357.988	2584
358.215	2607
358.441	2544
358.668	2508
358.895	2573
359.122	2572
359.349	2556
359.576	2496
359.802	2535
360.029	2534
360.256	2513
360.483	2482
360.709	2568
360.936	2539
361.163	2564
361.39	2579
361.616	2568
361.843	2568
362.07	2519
362.296	2594
362.523	2524
362.749	2540
362.976	2536
363.203	2489
363.429	2520
363.656	2526
363.882	2561
364.109	2574
364.335	2510
364.562	2518
364.788	2594
365.015	2610
365.241	2696
365.468	2779
365.694	2893
365.92	2788
366.147	2627
366.373	2661
366.599	2633
366.826	2604
367.052	2630
367.278	2645
367.505	2639
367.731	2640
367.957	2568
368.184	2617
368.41	2712
368.636	2664
368.862	2649
369.089	2688
369.315	2680
369.541	2644
369.767	2623
369.993	2589
370.219	2610
370.445	2665
370.672	2703
370.898	2654
371.124	2699
371.35	2723
371.576	2747
371.802	2719
372.028	2746
372.254	2747
372.48	2772
372.706	2833
372.932	2813
373.158	2813
373.384	2835
373.61	2834
373.835	2789
374.061	2835
374.287	2861
374.513	2840
374.739	2937
374.965	2899
375.191	2888
375.416	2899
375.642	2859
375.868	2865
376.094	2777
376.319	2792
376.545	2801
376.771	2750
376.997	2756
377.222	2768
377.448	2691
377.674	2731
377.899	2765
378.125	2681
378.35	2738
378.576	2786
378.802	2770
379.027	2848
379.253	2890
379.478	3085
379.704	3557
379.929	5183
380.155	7968
380.38	8579
380.606	5235
380.831	3637
381.057	3212
381.282	2923
381.507	2882
381.733	2823
381.958	2797
382.184	2718
382.409	2673
382.634	2707
382.86	2700
383.085	2658
383.31	2687
383.535	2683
383.761	2703
383.986	2719
384.211	2728
384.436	2779
384.662	2752
384.887	2804
385.112	2775
385.337	2773
385.562	2799
385.787	2828
386.013	2819
386.238	2744
386.463	2758
386.688	2821
386.913	2727
387.138	2779
387.363	2828
387.588	2725
387.813	2752
388.038	2787
388.263	2761
388.488	2793
388.713	2774
388.938	2791
389.163	2768
389.387	2831
389.612	2748
389.837	2779
390.062	2820
390.287	2843
390.512	2847
390.736	2862
390.961	2883
391.186	2890
391.411	2954
391.636	2938
391.86	2925
392.085	2953
392.31	2909
392.534	2860
392.759	2894
392.984	2839
393.208	2861
393.433	2878
393.658	2862
393.882	2785
394.107	2828
394.331	2848
394.556	2803
394.78	2855
395.005	2860
395.229	2860
395.454	2843
395.678	2870
395.903	2900
396.127	2917
396.352	2843
396.576	2865
396.801	2928
397.025	2957
397.249	2932
397.474	2919
397.698	2927
397.922	2929
398.147	2945
398.371	2935
398.595	3008
398.82	3099
399.044	3225
399.268	3333
399.492	3585
399.717	3711
399.941	3679
400.165	3536
400.389	3393
400.613	3241
400.837	3174
401.062	3161
401.286	3140
401.51	3083
401.734	3074
401.958	3107
402.182	3064
402.406	3046
402.63	3105
402.854	3101
403.078	3107
403.302	3118
403.526	3144
403.75	3165
403.974	3184
404.198	3172
404.422	3243
404.645	3157
404.869	3185
405.093	3229
405.317	3198
405.541	3275
405.765	3272
405.988	3273
406.212	3310
406.436	3254
406.66	3303
406.883	3276
407.107	3396
407.331	3391
407.555	3488
407.778	3525
408.002	3470
408.226	3442
408.449	3367
408.673	3315
408.896	3259
409.12	3287
409.344	3232
409.567	3148
409.791	3205
410.014	3176
410.238	3170
410.461	3215
410.685	3142
410.908	3137
411.132	3109
411.355	3014
411.578	3113
411.802	3054
412.025	3055
412.249	3067
412.472	3038
412.695	3037
412.919	3009
413.142	3043
413.365	2981
413.589	3055
413.812	2979
414.035	2955
414.258	3021
414.482	3041
414.705	2965
414.928	3020
415.151	2992
415.374	3003
415.597	2936
415.821	2888
416.044	2862
416.267	2881
416.49	2861
416.713	2882
416.936	2910
417.159	2831
417.382	2849
417.605	2834
417.828	2880
418.051	2886
418.274	2917
418.497	2982
418.72	2987
418.943	2893
419.166	3041
419.389	3202
419.611	3169
419.834	3073
420.057	3029
420.28	2952
420.503	2911
420.726	2865
420.948	2866
421.171	2824
421.394	2855
421.617	2847
421.839	2877
422.062	2887
422.285	2856
422.507	2927
422.73	2960
422.953	2999
423.175	2990
423.398	2993
423.621	2872
423.843	2945
424.066	2938
424.288	2865
424.511	2848
424.733	2880
424.956	2822
425.178	2849
425.401	2816
425.623	2848
425.846	2777
426.068	2809
426.291	2778
426.513	2757
426.735	2735
426.958	2747
427.18	2670
427.402	2687
427.625	2720
427.847	2731
428.069	2629
428.292	2739
428.514	2651
428.736	2698
428.958	2676
429.181	2631
429.403	2657
429.625	2638
429.847	2667
430.069	2727
430.292	2788
430.514	2873
430.736	2841
430.958	2721
431.18	2646
431.402	2646
431.624	2620
431.846	2623
432.068	2591
432.29	2681
432.512	2585
432.734	2681
432.956	2579
433.178	2617
433.4	2629
433.622	2661
433.844	2666
434.066	2677
434.287	2664
434.509	2652
434.731	2744
434.953	2741
435.175	2782
435.397	2788
435.618	2742
435.84	2667
436.062	2625
436.284	2644
436.505	2639
436.727	2623
436.949	2639
437.17	2620
437.392	2583
437.614	2603
437.835	2549
438.057	2569
438.278	2561
438.5	2595
438.721	2651
438.943	2652
439.165	2752
439.386	2748
439.608	2748
439.829	2791
440.05	2838
440.272	2892
440.493	2719
440.715	2711
440.936	2748
441.158	2792
441.379	2845
441.6	2881
441.822	2910
442.043	3073
442.264	3155
442.486	2923
442.707	2875
442.928	2846
443.149	2766
443.371	2743
443.592	2812
443.813	2850
444.034	2825
444.255	2881
444.476	2918
444.698	2995
444.919	3054
445.14	3126
445.361	2995
445.582	2892
445.803	2835
446.024	2768
446.245	2839
446.466	2801
446.687	2768
446.908	2715
447.129	2681
447.35	2648
447.571	2637
447.792	2619
448.013	2575
448.234	2581
448.455	2524
448.675	2661
448.896	2680
449.117	2806
449.338	3045
449.559	3156
449.779	2826
450	2620
450.221	2585
450.442	2559
450.662	2528
450.883	2509
451.104	2562
451.324	2519
451.545	2555
451.766	2555
451.986	2573
452.207	2759
452.428	3576
452.648	5351
452.869	4468
453.089	3160
453.31	2952
453.53	2934
453.751	3017
453.971	3179
454.192	3117
454.412	2689
454.633	2534
454.853	2501
455.073	2417
455.294	2486
455.514	2412
455.734	2446
455.955	2404
456.175	2419
456.395	2402
456.616	2429
456.836	2462
457.056	2498
457.276	2453
457.497	2633
457.717	2693
457.937	2569
458.157	2583
458.377	2544
458.598	2517
458.818	2586
459.038	2618
459.258	2648
459.478	2690
459.698	2675
459.918	2661
460.138	2771
460.358	2823
460.578	2846
460.798	2877
461.018	2899
461.238	2871
461.458	2866
461.678	2869
461.898	2995
462.118	2997
462.338	3098
462.558	3100
462.777	3172
462.997	3284
463.217	3415
463.437	3511
463.657	3609
463.876	3533
464.096	3368
464.316	3156
464.536	3197
464.755	3095
464.975	2993
465.195	2934
465.414	2893
465.634	2769
465.854	2723
466.073	2711
466.293	2627
466.512	2627
466.732	2698
466.951	2811
467.171	2978
467.391	2931
467.61	2761
467.829	2621
468.049	2612
468.268	2583
468.488	2541
468.707	2581
468.927	2569
469.146	2557
469.365	2641
469.585	2614
469.804	2673
470.023	2723
470.243	2735
470.462	2891
470.681	3015
470.901	3235
471.12	3837
471.339	3848
471.558	3190
471.777	2930
471.997	2750
472.216	2717
472.435	2639
472.654	2587
472.873	2546
473.092	2633
473.311	2582
473.53	2652
473.749	2678
473.968	2801
474.187	2631
474.406	2588
474.625	2651
474.844	2580
475.063	2626
475.282	2599
475.501	2626
475.72	2627
475.939	2654
476.158	2694
476.377	2774
476.596	2830
476.814	2741
477.033	2739
477.252	2801
477.471	2799
477.69	2888
477.908	2965
478.127	2955
478.346	3002
478.564	3006
478.783	3033
479.002	3038
479.22	3058
479.439	3100
479.658	3117
479.876	3129
480.095	3212
480.313	3204
480.532	3204
480.751	3210
480.969	3217
481.188	3168
481.406	3133
481.624	3171
481.843	3166
482.061	3153
482.28	3161
482.498	3168
482.717	3125
482.935	3171
483.153	3199
483.372	3195
483.59	3268
483.808	3378
484.027	3429
484.245	3594
484.463	4089
484.681	4599
484.9	4109
485.118	3795
485.336	3740
485.554	3791
485.772	4023
485.99	4580
486.209	4904
486.427	4133
486.645	3615
486.863	3556
487.081	3430
487.299	3406
487.517	3368
487.735	3384
487.953	3341
488.171	3342
488.389	3341
488.607	3253
488.825	3255
489.043	3224
489.261	3227
489.479	3236
489.696	3263
489.914	3252
490.132	3312
490.35	3291
490.568	3339
490.786	3335
491.003	3350
491.221	3407
491.439	3418
491.657	3419
491.874	3381
492.092	3449
492.31	3433
492.527	3413
492.745	3401
492.963	3351
493.18	3423
493.398	3366
493.615	3409
493.833	3411
494.05	3378
494.268	3452
494.485	3421
494.703	3427
494.92	3465
495.138	3425
495.355	3489
495.573	3461
495.79	3433
496.008	3498
496.225	3455
496.442	3556
496.66	3697
496.877	3857
497.094	3845
497.312	3680
497.529	3743
497.746	3755
497.963	3765
498.181	3889
498.398	3944
498.615	4124
498.832	4226
499.049	4491
499.267	4772
499.484	5095
499.701	5011
499.918	5235
500.135	5462
500.352	5657
500.569	5822
500.786	5709
501.003	5525
501.22	5214
501.437	5049
501.654	4734
501.871	4612
502.088	4413
502.305	4261
502.522	4130
502.739	4097
502.956	3879
503.172	3787
503.389	3730
503.606	3599
503.823	3613
504.04	3593
504.256	3606
504.473	3581
504.69	3544
504.907	3503
505.123	3459
505.34	3366
505.557	3220
505.773	3264
505.99	3226
506.207	3181
506.423	3109
506.64	3150
506.856	3112
507.073	3041
507.289	3048
507.506	3061
507.722	3039
507.939	2984
508.155	2989
508.372	2971
508.588	2976
508.805	2932
509.021	2911
509.238	3061
509.454	3167
509.67	3327
509.887	3136
510.103	3018
510.319	2964
510.536	3006
510.752	2963
510.968	2873
511.184	2868
511.401	2824
511.617	2808
511.833	2848
512.049	2796
512.265	2837
512.481	2829
512.698	2873
512.914	2840
513.13	2804
513.346	2831
513.562	2827
513.778	2889
513.994	2917
514.21	2965
514.426	3134
514.642	3301
514.858	2980
515.074	2944
515.29	2934
515.506	2877
515.721	2947
515.937	2904
516.153	2922
516.369	2959
516.585	3016
516.801	3071
517.016	3104
517.232	3143
517.448	3219
517.664	3233
517.879	3277
518.095	3327
518.311	3174
518.527	3159
518.742	3185
518.958	3185
519.173	3274
519.389	3084
519.605	3054
519.82	2967
520.036	2915
520.251	2835
520.467	2862
520.682	2825
520.898	2861
521.113	2776
521.329	2790
521.544	2742
521.76	2771
521.975	2824
522.19	2735
522.406	2747
522.621	2773
522.836	2791
523.052	2766
523.267	2712
523.482	2709
523.698	2753
523.913	2701
524.128	2687
524.343	2707
524.559	2735
524.774	2691
524.989	2693
525.204	2748
525.419	2719
525.634	2674
525.849	2715
526.064	2739
526.28	2740
526.495	2737
526.71	2784
526.925	2764
527.14	2706
527.355	2757
527.57	2709
527.785	2752
527.999	2772
528.214	2709
528.429	2768
528.644	2833
528.859	2845
529.074	2881
529.289	2861
529.503	2924
529.718	2891
529.933	2856
530.148	2839
530.363	2869
530.577	2890
530.792	2906
531.007	2902
531.221	2944
531.436	2952
531.651	2962
531.865	3022
532.08	3083
532.295	3144
532.509	3343
532.724	3370
532.938	3421
533.153	3525
533.367	3791
533.582	4058
533.796	3928
534.011	3751
534.225	3605
534.44	3442
534.654	3377
534.868	3340
535.083	3209
535.297	3237
535.511	3145
535.726	3088
535.94	3042
536.154	2938
536.369	2983
536.583	2913
536.797	2885
537.011	2840
537.225	2823
537.44	2805
537.654	2790
537.868	2758
538.082	2726
538.296	2719
538.51	2688
538.724	2724
538.938	2693
539.153	2686
539.367	2688
539.581	2643
539.795	2647
540.009	2625
540.222	2607
540.436	2579
540.65	2605
540.864	2629
541.078	2719
541.292	2824
541.506	3342
541.72	3458
541.934	3031
542.147	2853
542.361	2739
