Data from SnStandardFlinnAPT0064_LampEnergy5.5_LIBS07252019.E.O._I.C._HRD10591_15-17-05-493.txt Node
Date: Thu Jul 25 15:17:05 EDT 2019
User: cochatt
Spectrometer: HR+D1059
Trigger mode: 1
Integration Time (sec): 1.000000E-1
Scans to average: 1
Electric dark correction enabled: true
Nonlinearity correction enabled: false
Boxcar width: 0
XAxis mode: Wavelengths
Number of Pixels in Spectrum: 2048
>>>>>Begin Spectral Data<<<<<
223.165	-23.88
223.4	-23.88
223.635	-23.88
223.869	-15.88
224.104	-3.88
224.338	-5.88
224.573	-15.88
224.808	-13.88
225.042	-16.88
225.277	-14.88
225.511	11.12
225.746	-8.88
225.98	6.12
226.215	14.12
226.449	8.12
226.683	16.12
226.918	28.12
227.152	36.12
227.387	30.12
227.621	30.12
227.856	38.12
228.09	57.12
228.324	53.12
228.559	47.12
228.793	80.12
229.027	152.12
229.262	158.12
229.496	140.12
229.73	147.12
229.964	152.12
230.199	152.12
230.433	167.12
230.667	161.12
230.901	171.12
231.136	157.12
231.37	184.12
231.604	190.12
231.838	220.12
232.072	243.12
232.306	256.12
232.541	233.12
232.775	199.12
233.009	205.12
233.243	204.12
233.477	200.12
233.711	268.12
233.945	272.12
234.179	267.12
234.413	213.12
234.647	212.12
234.881	226.12
235.115	264.12
235.349	292.12
235.583	336.12
235.817	465.12
236.051	448.12
236.285	306.12
236.519	257.12
236.753	238.12
236.987	222.12
237.221	235.12
237.455	248.12
237.689	237.12
237.922	239.12
238.156	239.12
238.39	236.12
238.624	229.12
238.858	230.12
239.091	240.12
239.325	244.12
239.559	245.12
239.793	222.12
240.027	237.12
240.26	244.12
240.494	260.12
240.728	278.12
240.961	281.12
241.195	289.12
241.429	295.12
241.662	313.12
241.896	359.12
242.13	399.12
242.363	528.12
242.597	664.12
242.83	664.12
243.064	647.12
243.298	769.12
243.531	640.12
243.765	408.12
243.998	358.12
244.232	320.12
244.465	305.12
244.699	287.12
244.932	294.12
245.166	304.12
245.399	314.12
245.633	301.12
245.866	297.12
246.099	317.12
246.333	306.12
246.566	297.12
246.8	297.12
247.033	308.12
247.266	268.12
247.5	281.12
247.733	287.12
247.966	317.12
248.2	344.12
248.433	368.12
248.666	418.12
248.899	401.12
249.133	385.12
249.366	378.12
249.599	417.12
249.832	468.12
250.066	450.12
250.299	373.12
250.532	355.12
250.765	351.12
250.998	326.12
251.231	320.12
251.465	334.12
251.698	307.12
251.931	349.12
252.164	339.12
252.397	351.12
252.63	342.12
252.863	355.12
253.096	373.12
253.329	356.12
253.562	348.12
253.795	349.12
254.028	376.12
254.261	386.12
254.494	413.12
254.727	453.12
254.96	522.12
255.193	522.12
255.426	437.12
255.659	397.12
255.892	390.12
256.124	392.12
256.357	387.12
256.59	408.12
256.823	429.12
257.056	480.12
257.289	541.12
257.521	599.12
257.754	515.12
257.987	422.12
258.22	415.12
258.452	417.12
258.685	422.12
258.918	416.12
259.151	440.12
259.383	461.12
259.616	518.12
259.849	545.12
260.081	481.12
260.314	424.12
260.547	440.12
260.779	422.12
261.012	424.12
261.244	440.12
261.477	441.12
261.71	440.12
261.942	436.12
262.175	472.12
262.407	455.12
262.64	488.12
262.872	508.12
263.105	507.12
263.337	549.12
263.57	576.12
263.802	568.12
264.035	591.12
264.267	575.12
264.499	598.12
264.732	634.12
264.964	649.12
265.197	657.12
265.429	626.12
265.661	640.12
265.894	661.12
266.126	735.12
266.358	831.12
266.591	792.12
266.823	686.12
267.055	615.12
267.287	622.12
267.52	578.12
267.752	583.12
267.984	576.12
268.216	551.12
268.448	568.12
268.681	567.12
268.913	561.12
269.145	576.12
269.377	552.12
269.609	560.12
269.841	566.12
270.073	625.12
270.306	700.12
270.538	932.12
270.77	1322.12
271.002	1620.12
271.234	1154.12
271.466	790.12
271.698	623.12
271.93	595.12
272.162	564.12
272.394	557.12
272.626	561.12
272.858	542.12
273.09	558.12
273.322	554.12
273.553	528.12
273.785	523.12
274.017	540.12
274.249	547.12
274.481	545.12
274.713	550.12
274.945	544.12
275.176	546.12
275.408	525.12
275.64	534.12
275.872	567.12
276.104	551.12
276.335	552.12
276.567	570.12
276.799	580.12
277.031	553.12
277.262	577.12
277.494	598.12
277.726	664.12
277.957	768.12
278.189	830.12
278.421	807.12
278.652	694.12
278.884	704.12
279.115	632.12
279.347	618.12
279.579	610.12
279.81	614.12
280.042	613.12
280.273	604.12
280.505	632.12
280.736	665.12
280.968	663.12
281.199	718.12
281.431	805.12
281.662	814.12
281.894	732.12
282.125	679.12
282.356	688.12
282.588	721.12
282.819	737.12
283.051	764.12
283.282	830.12
283.513	1044.12
283.745	1496.12
283.976	2364.12
284.207	3425.12
284.439	3068.12
284.67	1805.12
284.901	1444.12
285.132	1447.12
285.364	1396.12
285.595	1108.12
285.826	1003.12
286.057	1196.12
286.288	1616.12
286.52	2174.12
286.751	2004.12
286.982	1224.12
287.213	914.12
287.444	849.12
287.675	778.12
287.906	727.12
288.138	734.12
288.369	711.12
288.6	749.12
288.831	750.12
289.062	713.12
289.293	712.12
289.524	710.12
289.755	707.12
289.986	730.12
290.217	720.12
290.448	743.12
290.679	749.12
290.91	742.12
291.141	800.12
291.371	809.12
291.602	839.12
291.833	781.12
292.064	750.12
292.295	713.12
292.526	698.12
292.757	699.12
292.987	701.12
293.218	710.12
293.449	678.12
293.68	700.12
293.91	692.12
294.141	680.12
294.372	694.12
294.603	672.12
294.833	691.12
295.064	656.12
295.295	685.12
295.525	666.12
295.756	680.12
295.987	673.12
296.217	672.12
296.448	690.12
296.679	662.12
296.909	687.12
297.14	677.12
297.37	686.12
297.601	675.12
297.831	708.12
298.062	696.12
298.292	711.12
298.523	733.12
298.753	716.12
298.984	719.12
299.214	764.12
299.445	722.12
299.675	744.12
299.905	774.12
300.136	829.12
300.366	896.12
300.597	1171.12
300.827	1604.12
301.057	2160.12
301.288	2108.12
301.518	1344.12
301.748	1042.12
301.979	950.12
302.209	925.12
302.439	946.12
302.669	1004.12
302.9	1193.12
303.13	1654.12
303.36	2470.12
303.59	3354.12
303.82	2882.12
304.051	1677.12
304.281	1204.12
304.511	982.12
304.741	912.12
304.971	896.12
305.201	856.12
305.431	839.12
305.661	842.12
305.891	803.12
306.121	794.12
306.352	796.12
306.582	779.12
306.812	800.12
307.042	785.12
307.272	786.12
307.502	764.12
307.731	767.12
307.961	805.12
308.191	775.12
308.421	791.12
308.651	801.12
308.881	785.12
309.111	782.12
309.341	778.12
309.571	814.12
309.8	804.12
310.03	806.12
310.26	796.12
310.49	795.12
310.72	806.12
310.949	798.12
311.179	790.12
311.409	832.12
311.639	820.12
311.868	818.12
312.098	854.12
312.328	837.12
312.557	822.12
312.787	837.12
313.017	853.12
313.246	854.12
313.476	832.12
313.706	912.12
313.935	902.12
314.165	980.12
314.394	998.12
314.624	951.12
314.853	906.12
315.083	912.12
315.312	914.12
315.542	944.12
315.771	929.12
316.001	938.12
316.23	960.12
316.46	995.12
316.689	1105.12
316.919	1341.12
317.148	1948.12
317.377	3002.12
317.607	4425.12
317.836	4513.12
318.065	2593.12
318.295	1648.12
318.524	1329.12
318.753	1172.12
318.983	1114.12
319.212	1047.12
319.441	1021.12
319.67	1021.12
319.9	993.12
320.129	973.12
320.358	996.12
320.587	974.12
320.816	982.12
321.046	975.12
321.275	1013.12
321.504	1043.12
321.733	1024.12
321.962	1052.12
322.191	1029.12
322.42	1041.12
322.649	1043.12
322.878	1044.12
323.108	1030.12
323.337	1040.12
323.566	1079.12
323.795	1096.12
324.024	1097.12
324.253	1119.12
324.482	1185.12
324.71	1236.12
324.939	1328.12
325.168	1320.12
325.397	1348.12
325.626	1605.12
325.855	2270.12
326.084	3623.12
326.313	5420.12
326.542	5702.12
326.77	3534.12
326.999	2265.12
327.228	1908.12
327.457	1799.12
327.686	1833.12
327.914	1947.12
328.143	2297.12
328.372	2610.12
328.6	2805.12
328.829	2552.12
329.058	2212.12
329.287	2012.12
329.515	1850.12
329.744	1676.12
329.972	1652.12
330.201	1593.12
330.43	1505.12
330.658	1460.12
330.887	1490.12
331.115	1438.12
331.344	1445.12
331.572	1385.12
331.801	1439.12
332.03	1474.12
332.258	1463.12
332.486	1509.12
332.715	1744.12
332.943	2140.12
333.172	2604.12
333.4	2595.12
333.629	1987.12
333.857	1791.12
334.085	1800.12
334.314	1840.12
334.542	1994.12
334.771	2328.12
334.999	2793.12
335.227	3385.12
335.455	3761.12
335.684	3455.12
335.912	3010.12
336.14	2536.12
336.369	2251.12
336.597	2097.12
336.825	1952.12
337.053	1828.12
337.281	1736.12
337.51	1641.12
337.738	1604.12
337.966	1504.12
338.194	1460.12
338.422	1418.12
338.65	1401.12
338.878	1388.12
339.106	1352.12
339.334	1304.12
339.562	1341.12
339.79	1289.12
340.018	1274.12
340.246	1308.12
340.474	1278.12
340.702	1270.12
340.93	1266.12
341.158	1246.12
341.386	1250.12
341.614	1246.12
341.842	1198.12
342.07	1198.12
342.298	1186.12
342.526	1186.12
342.754	1177.12
342.981	1159.12
343.209	1172.12
343.437	1156.12
343.665	1190.12
343.893	1180.12
344.12	1186.12
344.348	1156.12
344.576	1154.12
344.804	1144.12
345.031	1143.12
345.259	1118.12
345.487	1129.12
345.714	1108.12
345.942	1082.12
346.17	1053.12
346.397	1076.12
346.625	1074.12
346.853	1071.12
347.08	1092.12
347.308	1066.12
347.535	1057.12
347.763	1074.12
347.99	1035.12
348.218	1040.12
348.445	1061.12
348.673	1057.12
348.9	1052.12
349.128	1047.12
349.355	1030.12
349.583	1063.12
349.81	1039.12
350.037	1042.12
350.265	1001.12
350.492	1018.12
350.72	1017.12
350.947	1021.12
351.174	1038.12
351.402	1008.12
351.629	1020.12
351.856	1018.12
352.083	1034.12
352.311	1032.12
352.538	1041.12
352.765	1018.12
352.992	1000.12
353.22	984.12
353.447	1017.12
353.674	1036.12
353.901	1044.12
354.128	1042.12
354.355	1045.12
354.583	1024.12
354.81	1043.12
355.037	1027.12
355.264	1073.12
355.491	1057.12
355.718	1031.12
355.945	1041.12
356.172	1059.12
356.399	1046.12
356.626	1060.12
356.853	1061.12
357.08	1009.12
357.307	1081.12
357.534	1073.12
357.761	1097.12
357.988	1104.12
358.215	1083.12
358.441	1099.12
358.668	1062.12
358.895	1084.12
359.122	1069.12
359.349	1098.12
359.576	1082.12
359.802	1088.12
360.029	1104.12
360.256	1107.12
360.483	1114.12
360.709	1110.12
360.936	1100.12
361.163	1109.12
361.39	1062.12
361.616	1068.12
361.843	1102.12
362.07	1099.12
362.296	1112.12
362.523	1096.12
362.749	1113.12
362.976	1100.12
363.203	1100.12
363.429	1084.12
363.656	1077.12
363.882	1045.12
364.109	1100.12
364.335	1061.12
364.562	1076.12
364.788	1081.12
365.015	1098.12
365.241	1136.12
365.468	1172.12
365.694	1218.12
365.92	1164.12
366.147	1129.12
366.373	1124.12
366.599	1129.12
366.826	1151.12
367.052	1128.12
367.278	1113.12
367.505	1125.12
367.731	1121.12
367.957	1111.12
368.184	1117.12
368.41	1125.12
368.636	1114.12
368.862	1138.12
369.089	1122.12
369.315	1136.12
369.541	1151.12
369.767	1156.12
369.993	1124.12
370.219	1144.12
370.445	1161.12
370.672	1147.12
370.898	1140.12
371.124	1141.12
371.35	1148.12
371.576	1173.12
371.802	1138.12
372.028	1187.12
372.254	1161.12
372.48	1192.12
372.706	1196.12
372.932	1197.12
373.158	1174.12
373.384	1183.12
373.61	1191.12
373.835	1220.12
374.061	1214.12
374.287	1220.12
374.513	1189.12
374.739	1246.12
374.965	1219.12
375.191	1231.12
375.416	1237.12
375.642	1198.12
375.868	1223.12
376.094	1204.12
376.319	1185.12
376.545	1180.12
376.771	1176.12
376.997	1177.12
377.222	1182.12
377.448	1161.12
377.674	1185.12
377.899	1150.12
378.125	1173.12
378.35	1148.12
378.576	1162.12
378.802	1168.12
379.027	1213.12
379.253	1228.12
379.478	1297.12
379.704	1489.12
379.929	2133.12
380.155	3236.12
380.38	3432.12
380.606	2082.12
380.831	1502.12
381.057	1334.12
381.282	1242.12
381.507	1207.12
381.733	1159.12
381.958	1160.12
382.184	1145.12
382.409	1202.12
382.634	1177.12
382.86	1150.12
383.085	1144.12
383.31	1180.12
383.535	1168.12
383.761	1196.12
383.986	1191.12
384.211	1196.12
384.436	1184.12
384.662	1201.12
384.887	1188.12
385.112	1171.12
385.337	1197.12
385.562	1209.12
385.787	1196.12
386.013	1196.12
386.238	1212.12
386.463	1200.12
386.688	1264.12
386.913	1203.12
387.138	1206.12
387.363	1191.12
387.588	1189.12
387.813	1211.12
388.038	1204.12
388.263	1198.12
388.488	1220.12
388.713	1210.12
388.938	1221.12
389.163	1206.12
389.387	1193.12
389.612	1202.12
389.837	1200.12
390.062	1199.12
390.287	1222.12
390.512	1249.12
390.736	1271.12
390.961	1239.12
391.186	1260.12
391.411	1240.12
391.636	1260.12
391.86	1282.12
392.085	1319.12
392.31	1296.12
392.534	1239.12
392.759	1220.12
392.984	1227.12
393.208	1222.12
393.433	1271.12
393.658	1241.12
393.882	1220.12
394.107	1206.12
394.331	1217.12
394.556	1219.12
394.78	1229.12
395.005	1220.12
395.229	1218.12
395.454	1246.12
395.678	1260.12
395.903	1256.12
396.127	1260.12
396.352	1218.12
396.576	1250.12
396.801	1249.12
397.025	1245.12
397.249	1263.12
397.474	1251.12
397.698	1286.12
397.922	1293.12
398.147	1287.12
398.371	1313.12
398.595	1324.12
398.82	1320.12
399.044	1404.12
399.268	1448.12
399.492	1520.12
399.717	1636.12
399.941	1598.12
400.165	1529.12
400.389	1469.12
400.613	1444.12
400.837	1362.12
401.062	1370.12
401.286	1351.12
401.51	1345.12
401.734	1326.12
401.958	1375.12
402.182	1335.12
402.406	1346.12
402.63	1369.12
402.854	1360.12
403.078	1369.12
403.302	1383.12
403.526	1380.12
403.75	1410.12
403.974	1400.12
404.198	1399.12
404.422	1402.12
404.645	1377.12
404.869	1380.12
405.093	1380.12
405.317	1345.12
405.541	1382.12
405.765	1428.12
405.988	1406.12
406.212	1420.12
406.436	1443.12
406.66	1431.12
406.883	1411.12
407.107	1477.12
407.331	1464.12
407.555	1485.12
407.778	1476.12
408.002	1473.12
408.226	1448.12
408.449	1490.12
408.673	1437.12
408.896	1386.12
409.12	1378.12
409.344	1381.12
409.567	1374.12
409.791	1394.12
410.014	1360.12
410.238	1366.12
410.461	1367.12
410.685	1395.12
410.908	1372.12
411.132	1370.12
411.355	1292.12
411.578	1341.12
411.802	1334.12
412.025	1327.12
412.249	1347.12
412.472	1332.12
412.695	1337.12
412.919	1317.12
413.142	1283.12
413.365	1310.12
413.589	1280.12
413.812	1274.12
414.035	1313.12
414.258	1302.12
414.482	1312.12
414.705	1320.12
414.928	1348.12
415.151	1289.12
415.374	1308.12
415.597	1297.12
415.821	1266.12
416.044	1255.12
416.267	1294.12
416.49	1289.12
416.713	1270.12
416.936	1256.12
417.159	1232.12
417.382	1279.12
417.605	1223.12
417.828	1237.12
418.051	1250.12
418.274	1269.12
418.497	1297.12
418.72	1312.12
418.943	1304.12
419.166	1337.12
419.389	1401.12
419.611	1354.12
419.834	1353.12
420.057	1305.12
420.28	1280.12
420.503	1260.12
420.726	1249.12
420.948	1260.12
421.171	1280.12
421.394	1258.12
421.617	1266.12
421.839	1246.12
422.062	1270.12
422.285	1242.12
422.507	1302.12
422.73	1326.12
422.953	1271.12
423.175	1305.12
423.398	1297.12
423.621	1272.12
423.843	1315.12
424.066	1294.12
424.288	1241.12
424.511	1255.12
424.733	1250.12
424.956	1248.12
425.178	1253.12
425.401	1257.12
425.623	1263.12
425.846	1263.12
426.068	1244.12
426.291	1203.12
426.513	1182.12
426.735	1190.12
426.958	1238.12
427.18	1184.12
427.402	1200.12
427.625	1169.12
427.847	1187.12
428.069	1153.12
428.292	1151.12
428.514	1176.12
428.736	1186.12
428.958	1153.12
429.181	1160.12
429.403	1172.12
429.625	1168.12
429.847	1209.12
430.069	1197.12
430.292	1194.12
430.514	1212.12
430.736	1190.12
430.958	1182.12
431.18	1182.12
431.402	1171.12
431.624	1136.12
431.846	1145.12
432.068	1134.12
432.29	1135.12
432.512	1123.12
432.734	1160.12
432.956	1177.12
433.178	1189.12
433.4	1164.12
433.622	1182.12
433.844	1189.12
434.066	1161.12
434.287	1140.12
434.509	1180.12
434.731	1183.12
434.953	1203.12
435.175	1216.12
435.397	1215.12
435.618	1191.12
435.84	1173.12
436.062	1166.12
436.284	1166.12
436.505	1160.12
436.727	1167.12
436.949	1143.12
437.17	1162.12
437.392	1164.12
437.614	1153.12
437.835	1102.12
438.057	1160.12
438.278	1094.12
438.5	1119.12
438.721	1148.12
438.943	1193.12
439.165	1196.12
439.386	1210.12
439.608	1206.12
439.829	1225.12
440.05	1266.12
440.272	1254.12
440.493	1214.12
440.715	1222.12
440.936	1199.12
441.158	1216.12
441.379	1274.12
441.6	1281.12
441.822	1298.12
442.043	1362.12
442.264	1401.12
442.486	1328.12
442.707	1267.12
442.928	1252.12
443.149	1262.12
443.371	1209.12
443.592	1260.12
443.813	1232.12
444.034	1241.12
444.255	1268.12
444.476	1320.12
444.698	1343.12
444.919	1337.12
445.14	1402.12
445.361	1347.12
445.582	1312.12
445.803	1256.12
446.024	1241.12
446.245	1257.12
446.466	1252.12
446.687	1234.12
446.908	1226.12
447.129	1188.12
447.35	1193.12
447.571	1178.12
447.792	1190.12
448.013	1199.12
448.234	1150.12
448.455	1162.12
448.675	1169.12
448.896	1198.12
449.117	1211.12
449.338	1290.12
449.559	1366.12
449.779	1228.12
450	1162.12
450.221	1137.12
450.442	1142.12
450.662	1100.12
450.883	1112.12
451.104	1110.12
451.324	1096.12
451.545	1156.12
451.766	1127.12
451.986	1141.12
452.207	1244.12
452.428	1492.12
452.648	2114.12
452.869	1819.12
453.089	1268.12
453.31	1224.12
453.53	1230.12
453.751	1223.12
453.971	1337.12
454.192	1336.12
454.412	1174.12
454.633	1098.12
454.853	1084.12
455.073	1093.12
455.294	1117.12
455.514	1088.12
455.734	1056.12
455.955	1039.12
456.175	1069.12
456.395	1069.12
456.616	1041.12
456.836	1064.12
457.056	1067.12
457.276	1064.12
457.497	1132.12
457.717	1138.12
457.937	1121.12
458.157	1105.12
458.377	1102.12
458.598	1122.12
458.818	1157.12
459.038	1138.12
459.258	1146.12
459.478	1156.12
459.698	1182.12
459.918	1182.12
460.138	1202.12
460.358	1240.12
460.578	1260.12
460.798	1257.12
461.018	1244.12
461.238	1246.12
461.458	1276.12
461.678	1262.12
461.898	1298.12
462.118	1345.12
462.338	1304.12
462.558	1303.12
462.777	1364.12
462.997	1400.12
463.217	1448.12
463.437	1504.12
463.657	1518.12
463.876	1496.12
464.096	1442.12
464.316	1385.12
464.536	1376.12
464.755	1351.12
464.975	1342.12
465.195	1267.12
465.414	1268.12
465.634	1177.12
465.854	1210.12
466.073	1180.12
466.293	1176.12
466.512	1173.12
466.732	1176.12
466.951	1229.12
467.171	1285.12
467.391	1315.12
467.61	1172.12
467.829	1172.12
468.049	1184.12
468.268	1126.12
468.488	1140.12
468.707	1154.12
468.927	1160.12
469.146	1142.12
469.365	1137.12
469.585	1165.12
469.804	1170.12
470.023	1208.12
470.243	1214.12
470.462	1265.12
470.681	1293.12
470.901	1446.12
471.12	1662.12
471.339	1678.12
471.558	1398.12
471.777	1249.12
471.997	1189.12
472.216	1176.12
472.435	1155.12
472.654	1152.12
472.873	1125.12
473.092	1136.12
473.311	1120.12
473.53	1178.12
473.749	1177.12
473.968	1207.12
474.187	1160.12
474.406	1146.12
474.625	1170.12
474.844	1143.12
475.063	1177.12
475.282	1150.12
475.501	1168.12
475.72	1161.12
475.939	1178.12
476.158	1198.12
476.377	1204.12
476.596	1213.12
476.814	1197.12
477.033	1220.12
477.252	1211.12
477.471	1231.12
477.69	1272.12
477.908	1252.12
478.127	1272.12
478.346	1296.12
478.564	1325.12
478.783	1326.12
479.002	1351.12
479.22	1367.12
479.439	1363.12
479.658	1381.12
479.876	1340.12
480.095	1332.12
480.313	1388.12
480.532	1419.12
480.751	1419.12
480.969	1354.12
481.188	1365.12
481.406	1316.12
481.624	1367.12
481.843	1355.12
482.061	1357.12
482.28	1347.12
482.498	1332.12
482.717	1352.12
482.935	1337.12
483.153	1399.12
483.372	1400.12
483.59	1456.12
483.808	1435.12
484.027	1473.12
484.245	1528.12
484.463	1745.12
484.681	1941.12
484.9	1746.12
485.118	1616.12
485.336	1602.12
485.554	1583.12
485.772	1716.12
485.99	1925.12
486.209	2112.12
486.427	1726.12
486.645	1548.12
486.863	1475.12
487.081	1474.12
487.299	1460.12
487.517	1504.12
487.735	1485.12
487.953	1512.12
488.171	1471.12
488.389	1453.12
488.607	1436.12
488.825	1424.12
489.043	1431.12
489.261	1432.12
489.479	1416.12
489.696	1421.12
489.914	1407.12
490.132	1434.12
490.35	1451.12
490.568	1454.12
490.786	1445.12
