Data from SnStandardFlinnAPT0064_QswitchEnergy10_LIBS07252019.E.O._I.C._HRD10591_15-28-43-974.txt Node
Date: Thu Jul 25 15:28:43 EDT 2019
User: cochatt
Spectrometer: HR+D1059
Trigger mode: 1
Integration Time (sec): 1.000000E-1
Scans to average: 1
Electric dark correction enabled: true
Nonlinearity correction enabled: false
Boxcar width: 0
XAxis mode: Wavelengths
Number of Pixels in Spectrum: 2048
>>>>>Begin Spectral Data<<<<<
223.165	-14.38
223.4	-14.38
223.635	-14.38
223.869	-10.38
224.104	-19.38
224.338	-22.38
224.573	-25.38
224.808	-0.38
225.042	-6.38
225.277	2.62
225.511	-2.38
225.746	-0.38
225.98	3.62
226.215	11.62
226.449	12.62
226.683	21.62
226.918	16.62
227.152	32.62
227.387	33.62
227.621	40.62
227.856	30.62
228.09	32.62
228.324	59.62
228.559	50.62
228.793	54.62
229.027	57.62
229.262	69.62
229.496	65.62
229.73	61.62
229.964	64.62
230.199	72.62
230.433	84.62
230.667	74.62
230.901	69.62
231.136	74.62
231.37	74.62
231.604	80.62
231.838	95.62
232.072	113.62
232.306	115.62
232.541	91.62
232.775	82.62
233.009	85.62
233.243	84.62
233.477	94.62
233.711	93.62
233.945	103.62
234.179	73.62
234.413	71.62
234.647	93.62
234.881	88.62
235.115	101.62
235.349	73.62
235.583	98.62
235.817	124.62
236.051	128.62
236.285	99.62
236.519	88.62
236.753	90.62
236.987	77.62
237.221	72.62
237.455	74.62
237.689	84.62
237.922	76.62
238.156	65.62
238.39	88.62
238.624	78.62
238.858	82.62
239.091	66.62
239.325	78.62
239.559	85.62
239.793	66.62
240.027	92.62
240.26	74.62
240.494	82.62
240.728	79.62
240.961	82.62
241.195	88.62
241.429	89.62
241.662	94.62
241.896	92.62
242.13	99.62
242.363	139.62
242.597	170.62
242.83	127.62
243.064	134.62
243.298	154.62
243.531	146.62
243.765	96.62
243.998	89.62
244.232	77.62
244.465	86.62
244.699	71.62
244.932	72.62
245.166	73.62
245.399	75.62
245.633	74.62
245.866	88.62
246.099	72.62
246.333	68.62
246.566	69.62
246.8	80.62
247.033	79.62
247.266	82.62
247.5	84.62
247.733	75.62
247.966	76.62
248.2	85.62
248.433	108.62
248.666	136.62
248.899	119.62
249.133	93.62
249.366	97.62
249.599	91.62
249.832	112.62
250.066	110.62
250.299	84.62
250.532	71.62
250.765	69.62
250.998	66.62
251.231	74.62
251.465	78.62
251.698	80.62
251.931	85.62
252.164	86.62
252.397	84.62
252.63	90.62
252.863	96.62
253.096	84.62
253.329	90.62
253.562	103.62
253.795	90.62
254.028	67.62
254.261	84.62
254.494	87.62
254.727	113.62
254.96	147.62
255.193	122.62
255.426	85.62
255.659	85.62
255.892	104.62
256.124	81.62
256.357	101.62
256.59	82.62
256.823	77.62
257.056	105.62
257.289	143.62
257.521	172.62
257.754	130.62
257.987	97.62
258.22	87.62
258.452	88.62
258.685	94.62
258.918	94.62
259.151	84.62
259.383	113.62
259.616	146.62
259.849	165.62
260.081	95.62
260.314	84.62
260.547	86.62
260.779	74.62
261.012	89.62
261.244	77.62
261.477	84.62
261.71	72.62
261.942	89.62
262.175	74.62
262.407	74.62
262.64	90.62
262.872	71.62
263.105	78.62
263.337	82.62
263.57	91.62
263.802	81.62
264.035	89.62
264.267	78.62
264.499	97.62
264.732	82.62
264.964	83.62
265.197	90.62
265.429	76.62
265.661	91.62
265.894	94.62
266.126	125.62
266.358	156.62
266.591	156.62
266.823	88.62
267.055	94.62
267.287	88.62
267.52	80.62
267.752	77.62
267.984	95.62
268.216	103.62
268.448	84.62
268.681	92.62
268.913	95.62
269.145	90.62
269.377	98.62
269.609	92.62
269.841	80.62
270.073	97.62
270.306	121.62
270.538	185.62
270.77	324.62
271.002	382.62
271.234	195.62
271.466	124.62
271.698	109.62
271.93	77.62
272.162	90.62
272.394	93.62
272.626	81.62
272.858	85.62
273.09	75.62
273.322	91.62
273.553	70.62
273.785	84.62
274.017	74.62
274.249	85.62
274.481	98.62
274.713	81.62
274.945	74.62
275.176	72.62
275.408	76.62
275.64	95.62
275.872	83.62
276.104	92.62
276.335	108.62
276.567	97.62
276.799	101.62
277.031	82.62
277.262	78.62
277.494	97.62
277.726	127.62
277.957	183.62
278.189	252.62
278.421	229.62
278.652	186.62
278.884	197.62
279.115	136.62
279.347	142.62
279.579	103.62
279.81	108.62
280.042	105.62
280.273	96.62
280.505	97.62
280.736	99.62
280.968	125.62
281.199	181.62
281.431	256.62
281.662	256.62
281.894	153.62
282.125	108.62
282.356	100.62
282.588	100.62
282.819	113.62
283.051	128.62
283.282	134.62
283.513	186.62
283.745	327.62
283.976	564.62
284.207	790.62
284.439	590.62
284.67	259.62
284.901	253.62
285.132	358.62
285.364	393.62
285.595	228.62
285.826	174.62
286.057	240.62
286.288	422.62
286.52	626.62
286.751	504.62
286.982	201.62
287.213	150.62
287.444	106.62
287.675	94.62
287.906	88.62
288.138	89.62
288.369	85.62
288.6	89.62
288.831	100.62
289.062	98.62
289.293	99.62
289.524	95.62
289.755	74.62
289.986	102.62
290.217	94.62
290.448	99.62
290.679	94.62
290.91	137.62
291.141	166.62
291.371	253.62
291.602	293.62
291.833	200.62
292.064	112.62
292.295	97.62
292.526	82.62
292.757	89.62
292.987	101.62
293.218	92.62
293.449	94.62
293.68	106.62
293.91	86.62
294.141	78.62
294.372	86.62
294.603	86.62
294.833	90.62
295.064	90.62
295.295	104.62
295.525	114.62
295.756	94.62
295.987	76.62
296.217	96.62
296.448	93.62
296.679	100.62
296.909	100.62
297.14	87.62
297.37	93.62
297.601	109.62
297.831	108.62
298.062	92.62
298.292	98.62
298.523	103.62
298.753	125.62
298.984	105.62
299.214	112.62
299.445	108.62
299.675	114.62
299.905	111.62
300.136	113.62
300.366	161.62
300.597	280.62
300.827	473.62
301.057	702.62
301.288	608.62
301.518	246.62
301.748	155.62
301.979	138.62
302.209	138.62
302.439	152.62
302.669	174.62
302.9	278.62
303.13	533.62
303.36	914.62
303.59	1252.62
303.82	873.62
304.051	304.62
304.281	162.62
304.511	131.62
304.741	118.62
304.971	118.62
305.201	116.62
305.431	105.62
305.661	100.62
305.891	101.62
306.121	98.62
306.352	112.62
306.582	121.62
306.812	114.62
307.042	109.62
307.272	105.62
307.502	118.62
307.731	112.62
307.961	108.62
308.191	109.62
308.421	87.62
308.651	107.62
308.881	86.62
309.111	114.62
309.341	85.62
309.571	110.62
309.8	89.62
310.03	110.62
310.26	115.62
310.49	122.62
310.72	103.62
310.949	116.62
311.179	99.62
311.409	122.62
311.639	102.62
311.868	119.62
312.098	120.62
312.328	115.62
312.557	108.62
312.787	108.62
313.017	137.62
313.246	118.62
313.476	131.62
313.706	134.62
313.935	150.62
314.165	195.62
314.394	251.62
314.624	199.62
314.853	135.62
315.083	122.62
315.312	120.62
315.542	125.62
315.771	139.62
316.001	144.62
316.23	134.62
316.46	147.62
316.689	174.62
316.919	276.62
317.148	537.62
317.377	932.62
317.607	1521.62
317.836	1416.62
318.065	525.62
318.295	239.62
318.524	160.62
318.753	146.62
318.983	133.62
319.212	115.62
319.441	124.62
319.67	119.62
319.9	117.62
320.129	112.62
320.358	118.62
320.587	103.62
320.816	139.62
321.046	130.62
321.275	130.62
321.504	127.62
321.733	137.62
321.962	172.62
322.191	153.62
322.42	128.62
322.649	124.62
322.878	122.62
323.108	132.62
323.337	148.62
323.566	138.62
323.795	132.62
324.024	138.62
324.253	156.62
324.482	178.62
324.71	223.62
324.939	296.62
325.168	252.62
325.397	191.62
325.626	269.62
325.855	532.62
326.084	979.62
326.313	1656.62
326.542	1584.62
326.77	633.62
326.999	276.62
327.228	218.62
327.457	246.62
327.686	248.62
327.914	160.62
328.143	134.62
328.372	144.62
328.6	132.62
328.829	114.62
329.058	120.62
329.287	108.62
329.515	108.62
329.744	125.62
329.972	121.62
330.201	113.62
330.43	114.62
330.658	113.62
330.887	123.62
331.115	121.62
331.344	122.62
331.572	119.62
331.801	117.62
332.03	135.62
332.258	144.62
332.486	185.62
332.715	308.62
332.943	525.62
333.172	752.62
333.4	670.62
333.629	254.62
333.857	134.62
334.085	120.62
334.314	122.62
334.542	116.62
334.771	104.62
334.999	131.62
335.227	124.62
335.455	139.62
335.684	109.62
335.912	117.62
336.14	120.62
336.369	117.62
336.597	110.62
336.825	110.62
337.053	118.62
337.281	111.62
337.51	121.62
337.738	120.62
337.966	101.62
338.194	120.62
338.422	120.62
338.65	119.62
338.878	114.62
339.106	117.62
339.334	130.62
339.562	112.62
339.79	122.62
340.018	119.62
340.246	108.62
340.474	120.62
340.702	118.62
340.93	126.62
341.158	115.62
341.386	115.62
341.614	127.62
341.842	111.62
342.07	129.62
342.298	117.62
342.526	106.62
342.754	118.62
342.981	115.62
343.209	113.62
343.437	124.62
343.665	117.62
343.893	129.62
344.12	117.62
344.348	105.62
344.576	113.62
344.804	115.62
345.031	102.62
345.259	118.62
345.487	107.62
345.714	118.62
345.942	113.62
346.17	125.62
346.397	101.62
346.625	110.62
346.853	105.62
347.08	106.62
347.308	115.62
347.535	116.62
347.763	86.62
347.99	108.62
348.218	96.62
348.445	105.62
348.673	121.62
348.9	128.62
349.128	121.62
349.355	115.62
349.583	120.62
349.81	120.62
350.037	116.62
350.265	116.62
350.492	109.62
350.72	115.62
350.947	118.62
351.174	116.62
351.402	119.62
351.629	109.62
351.856	108.62
352.083	112.62
352.311	105.62
352.538	112.62
352.765	118.62
352.992	111.62
353.22	93.62
353.447	102.62
353.674	95.62
353.901	113.62
354.128	116.62
354.355	108.62
354.583	99.62
354.81	105.62
355.037	111.62
355.264	92.62
355.491	101.62
355.718	95.62
355.945	111.62
356.172	99.62
356.399	118.62
356.626	120.62
356.853	108.62
357.08	114.62
357.307	106.62
357.534	96.62
357.761	112.62
357.988	107.62
358.215	122.62
358.441	104.62
358.668	132.62
358.895	116.62
359.122	120.62
359.349	116.62
359.576	119.62
359.802	115.62
360.029	116.62
360.256	118.62
360.483	120.62
360.709	113.62
360.936	110.62
361.163	117.62
361.39	116.62
361.616	112.62
361.843	122.62
362.07	111.62
362.296	97.62
362.523	117.62
362.749	110.62
362.976	115.62
363.203	122.62
363.429	119.62
363.656	123.62
363.882	113.62
364.109	119.62
364.335	108.62
364.562	108.62
364.788	102.62
365.015	116.62
365.241	147.62
365.468	208.62
365.694	279.62
365.92	208.62
366.147	130.62
366.373	111.62
366.599	97.62
366.826	102.62
367.052	94.62
367.278	112.62
367.505	84.62
367.731	104.62
367.957	111.62
368.184	112.62
368.41	132.62
368.636	124.62
368.862	103.62
369.089	102.62
369.315	98.62
369.541	116.62
369.767	101.62
369.993	100.62
370.219	115.62
370.445	118.62
370.672	111.62
370.898	115.62
371.124	113.62
371.35	120.62
371.576	109.62
371.802	94.62
372.028	105.62
372.254	111.62
372.48	123.62
372.706	113.62
372.932	113.62
373.158	102.62
373.384	128.62
373.61	119.62
373.835	122.62
374.061	117.62
374.287	125.62
374.513	102.62
374.739	115.62
374.965	95.62
375.191	130.62
375.416	110.62
375.642	114.62
375.868	103.62
376.094	108.62
376.319	104.62
376.545	114.62
376.771	120.62
376.997	110.62
377.222	117.62
377.448	95.62
377.674	112.62
377.899	101.62
378.125	97.62
378.35	113.62
378.576	112.62
378.802	115.62
379.027	137.62
379.253	142.62
379.478	188.62
379.704	314.62
379.929	806.62
380.155	1656.62
380.38	1690.62
380.606	528.62
380.831	173.62
381.057	150.62
381.282	124.62
381.507	125.62
381.733	122.62
381.958	112.62
382.184	113.62
382.409	103.62
382.634	117.62
382.86	114.62
383.085	112.62
383.31	111.62
383.535	110.62
383.761	122.62
383.986	100.62
384.211	110.62
384.436	101.62
384.662	96.62
384.887	96.62
385.112	134.62
385.337	110.62
385.562	109.62
385.787	97.62
386.013	120.62
386.238	118.62
386.463	103.62
386.688	92.62
386.913	116.62
387.138	110.62
387.363	115.62
387.588	105.62
387.813	97.62
388.038	103.62
388.263	109.62
388.488	126.62
388.713	104.62
388.938	92.62
389.163	96.62
389.387	103.62
389.612	99.62
389.837	104.62
390.062	104.62
390.287	110.62
390.512	100.62
390.736	104.62
390.961	116.62
391.186	103.62
391.411	111.62
391.636	94.62
391.86	101.62
392.085	97.62
392.31	91.62
392.534	97.62
392.759	103.62
392.984	109.62
393.208	126.62
393.433	160.62
393.658	153.62
393.882	124.62
394.107	105.62
394.331	100.62
394.556	100.62
394.78	108.62
395.005	79.62
395.229	96.62
395.454	95.62
395.678	92.62
395.903	113.62
396.127	102.62
396.352	113.62
396.576	110.62
396.801	121.62
397.025	133.62
397.249	110.62
397.474	116.62
397.698	93.62
397.922	105.62
398.147	99.62
398.371	103.62
398.595	88.62
398.82	91.62
399.044	75.62
399.268	107.62
399.492	102.62
399.717	98.62
399.941	93.62
400.165	114.62
400.389	96.62
400.613	103.62
400.837	101.62
401.062	98.62
401.286	84.62
401.51	106.62
401.734	108.62
401.958	102.62
402.182	95.62
402.406	102.62
402.63	103.62
402.854	98.62
403.078	103.62
403.302	105.62
403.526	106.62
403.75	87.62
403.974	97.62
404.198	99.62
404.422	108.62
404.645	93.62
404.869	111.62
405.093	107.62
405.317	110.62
405.541	102.62
405.765	120.62
405.988	164.62
406.212	123.62
406.436	111.62
406.66	113.62
406.883	94.62
407.107	97.62
407.331	109.62
407.555	90.62
407.778	118.62
408.002	95.62
408.226	104.62
408.449	102.62
408.673	106.62
408.896	100.62
409.12	108.62
409.344	92.62
409.567	91.62
409.791	107.62
410.014	97.62
410.238	99.62
410.461	110.62
410.685	85.62
410.908	96.62
411.132	108.62
411.355	98.62
411.578	101.62
411.802	101.62
412.025	86.62
412.249	98.62
412.472	89.62
412.695	92.62
412.919	99.62
413.142	96.62
413.365	112.62
413.589	96.62
413.812	103.62
414.035	99.62
414.258	111.62
414.482	93.62
414.705	97.62
414.928	92.62
415.151	93.62
415.374	86.62
415.597	100.62
415.821	83.62
416.044	94.62
416.267	98.62
416.49	87.62
416.713	93.62
416.936	90.62
417.159	99.62
417.382	103.62
417.605	94.62
417.828	92.62
418.051	91.62
418.274	95.62
418.497	104.62
418.72	101.62
418.943	104.62
419.166	105.62
419.389	109.62
419.611	117.62
419.834	103.62
420.057	101.62
420.28	91.62
420.503	97.62
420.726	103.62
420.948	80.62
421.171	97.62
421.394	95.62
421.617	103.62
421.839	91.62
422.062	96.62
422.285	98.62
422.507	109.62
422.73	140.62
422.953	127.62
423.175	113.62
423.398	92.62
423.621	95.62
423.843	91.62
424.066	87.62
424.288	87.62
424.511	88.62
424.733	87.62
424.956	82.62
425.178	98.62
425.401	96.62
425.623	80.62
425.846	91.62
426.068	89.62
426.291	93.62
426.513	95.62
426.735	101.62
426.958	89.62
427.18	102.62
427.402	94.62
427.625	104.62
427.847	109.62
428.069	100.62
428.292	101.62
428.514	95.62
428.736	77.62
428.958	90.62
429.181	96.62
429.403	103.62
429.625	95.62
429.847	96.62
430.069	114.62
430.292	110.62
430.514	105.62
430.736	107.62
430.958	103.62
431.18	86.62
431.402	84.62
431.624	85.62
431.846	90.62
432.068	92.62
432.29	92.62
432.512	95.62
432.734	85.62
432.956	82.62
433.178	102.62
433.4	94.62
433.622	100.62
433.844	89.62
434.066	95.62
434.287	88.62
434.509	96.62
434.731	92.62
434.953	91.62
435.175	91.62
435.397	87.62
435.618	83.62
435.84	103.62
436.062	101.62
436.284	71.62
436.505	95.62
436.727	87.62
436.949	91.62
437.17	101.62
437.392	95.62
437.614	102.62
437.835	97.62
438.057	90.62
438.278	82.62
438.5	99.62
438.721	100.62
438.943	103.62
439.165	113.62
439.386	98.62
439.608	102.62
439.829	95.62
440.05	104.62
440.272	115.62
440.493	110.62
440.715	88.62
440.936	86.62
441.158	99.62
441.379	93.62
441.6	91.62
441.822	99.62
442.043	111.62
442.264	114.62
442.486	110.62
442.707	85.62
442.928	94.62
443.149	97.62
443.371	102.62
443.592	84.62
443.813	92.62
444.034	86.62
444.255	105.62
444.476	96.62
444.698	79.62
444.919	105.62
445.14	185.62
445.361	127.62
445.582	91.62
445.803	103.62
446.024	98.62
446.245	102.62
446.466	135.62
446.687	112.62
446.908	84.62
447.129	96.62
447.35	100.62
447.571	77.62
447.792	94.62
448.013	84.62
448.234	102.62
448.455	97.62
448.675	85.62
448.896	80.62
449.117	114.62
449.338	127.62
449.559	132.62
449.779	117.62
450	105.62
450.221	103.62
450.442	114.62
450.662	108.62
450.883	109.62
451.104	104.62
451.324	116.62
451.545	106.62
451.766	104.62
451.986	144.62
452.207	228.62
452.428	601.62
452.648	1469.62
452.869	813.62
453.089	212.62
453.31	122.62
453.53	121.62
453.751	137.62
453.971	149.62
454.192	149.62
454.412	101.62
454.633	102.62
454.853	85.62
455.073	84.62
455.294	80.62
455.514	96.62
455.734	85.62
455.955	93.62
456.175	78.62
456.395	96.62
456.616	97.62
456.836	98.62
457.056	101.62
457.276	98.62
457.497	106.62
457.717	134.62
457.937	94.62
458.157	88.62
458.377	97.62
458.598	81.62
458.818	86.62
459.038	98.62
459.258	90.62
459.478	84.62
459.698	89.62
459.918	79.62
460.138	91.62
460.358	77.62
460.578	79.62
460.798	90.62
461.018	90.62
461.238	87.62
461.458	88.62
461.678	82.62
461.898	92.62
462.118	96.62
462.338	94.62
462.558	89.62
462.777	90.62
462.997	99.62
463.217	99.62
463.437	137.62
463.657	194.62
463.876	176.62
464.096	118.62
464.316	99.62
464.536	91.62
464.755	97.62
464.975	89.62
465.195	86.62
465.414	98.62
465.634	85.62
465.854	87.62
466.073	81.62
466.293	91.62
466.512	82.62
466.732	98.62
466.951	112.62
467.171	134.62
467.391	137.62
467.61	111.62
467.829	92.62
468.049	91.62
468.268	97.62
468.488	93.62
468.707	103.62
468.927	96.62
469.146	107.62
469.365	99.62
469.585	87.62
469.804	88.62
470.023	83.62
470.243	98.62
470.462	100.62
470.681	114.62
470.901	143.62
471.12	197.62
471.339	208.62
471.558	123.62
471.777	114.62
471.997	96.62
472.216	93.62
472.435	101.62
472.654	95.62
472.873	109.62
473.092	94.62
473.311	89.62
473.53	83.62
473.749	104.62
473.968	104.62
474.187	94.62
474.406	78.62
474.625	101.62
474.844	101.62
475.063	93.62
475.282	99.62
475.501	85.62
475.72	93.62
475.939	91.62
476.158	96.62
476.377	118.62
476.596	96.62
476.814	86.62
477.033	96.62
477.252	89.62
477.471	97.62
477.69	90.62
477.908	85.62
478.127	98.62
478.346	86.62
478.564	92.62
478.783	98.62
479.002	104.62
479.22	93.62
479.439	94.62
479.658	84.62
479.876	90.62
480.095	90.62
480.313	103.62
480.532	98.62
480.751	84.62
480.969	104.62
481.188	94.62
481.406	95.62
481.624	97.62
481.843	114.62
482.061	116.62
482.28	102.62
482.498	92.62
482.717	94.62
482.935	96.62
483.153	92.62
483.372	90.62
483.59	92.62
483.808	84.62
484.027	92.62
484.245	127.62
484.463	169.62
484.681	230.62
484.9	146.62
485.118	117.62
485.336	98.62
485.554	105.62
485.772	119.62
485.99	179.62
486.209	257.62
486.427	154.62
486.645	132.62
486.863	115.62
487.081	102.62
487.299	109.62
487.517	102.62
487.735	104.62
487.953	87.62
488.171	93.62
488.389	90.62
488.607	92.62
488.825	92.62
489.043	91.62
489.261	97.62
489.479	105.62
489.696	112.62
489.914	96.62
490.132	110.62
490.35	92.62
490.568	98.62
490.786	102.62
491.003	101.62
491.221	112.62
491.439	85.62
491.657	99.62
491.874	110.62
492.092	104.62
492.31	103.62
492.527	108.62
492.745	86.62
492.963	97.62
493.18	104.62
493.398	108.62
493.615	97.62
493.833	88.62
494.05	87.62
494.268	95.62
494.485	111.62
494.703	99.62
494.92	92.62
495.138	113.62
495.355	98.62
495.573	108.62
495.79	98.62
496.008	108.62
496.225	112.62
496.442	109.62
496.66	125.62
496.877	167.62
497.094	142.62
497.312	116.62
497.529	98.62
497.746	94.62
497.963	80.62
498.181	112.62
498.398	104.62
498.615	105.62
498.832	98.62
499.049	108.62
499.267	133.62
499.484	155.62
499.701	119.62
499.918	105.62
500.135	119.62
500.352	99.62
500.569	94.62
500.786	95.62
501.003	95.62
501.22	99.62
501.437	96.62
501.654	104.62
501.871	98.62
502.088	98.62
502.305	101.62
502.522	102.62
502.739	98.62
502.956	114.62
503.172	103.62
503.389	88.62
503.606	89.62
503.823	96.62
504.04	110.62
504.256	103.62
504.473	88.62
504.69	98.62
504.907	101.62
505.123	113.62
505.34	116.62
505.557	99.62
505.773	84.62
505.99	96.62
506.207	111.62
506.423	110.62
506.64	91.62
506.856	94.62
507.073	108.62
507.289	102.62
507.506	92.62
507.722	103.62
507.939	106.62
508.155	105.62
508.372	79.62
508.588	88.62
508.805	102.62
509.021	96.62
