Data from SnStandardFlinnAPT0064_LampEnergy5.5_LIBS07252019.E.O._I.C._HRD10591_15-16-20-491.txt Node
Date: Thu Jul 25 15:16:20 EDT 2019
User: cochatt
Spectrometer: HR+D1059
Trigger mode: 1
Integration Time (sec): 1.000000E-1
Scans to average: 1
Electric dark correction enabled: true
Nonlinearity correction enabled: false
Boxcar width: 0
XAxis mode: Wavelengths
Number of Pixels in Spectrum: 2048
>>>>>Begin Spectral Data<<<<<
223.165	-0.31
223.4	-0.31
223.635	-0.31
223.869	-24.31
224.104	-14.31
224.338	-23.31
224.573	-10.31
224.808	-20.31
225.042	4.69
225.277	-7.31
225.511	1.69
225.746	8.69
225.98	-4.31
226.215	-8.31
226.449	4.69
226.683	39.69
226.918	20.69
227.152	32.69
227.387	36.69
227.621	42.69
227.856	41.69
228.09	40.69
228.324	50.69
228.559	50.69
228.793	88.69
229.027	150.69
229.262	163.69
229.496	136.69
229.73	150.69
229.964	158.69
230.199	167.69
230.433	141.69
230.667	173.69
230.901	167.69
231.136	183.69
231.37	164.69
231.604	170.69
231.838	203.69
232.072	230.69
232.306	228.69
232.541	221.69
232.775	206.69
233.009	205.69
233.243	196.69
233.477	210.69
233.711	242.69
233.945	265.69
234.179	256.69
234.413	212.69
234.647	217.69
234.881	218.69
235.115	229.69
235.349	280.69
235.583	330.69
235.817	419.69
236.051	398.69
236.285	287.69
236.519	235.69
236.753	241.69
236.987	241.69
237.221	251.69
237.455	259.69
237.689	222.69
237.922	228.69
238.156	206.69
238.39	228.69
238.624	240.69
238.858	232.69
239.091	240.69
239.325	213.69
239.559	222.69
239.793	235.69
240.027	247.69
240.26	242.69
240.494	255.69
240.728	261.69
240.961	281.69
241.195	299.69
241.429	276.69
241.662	308.69
241.896	323.69
242.13	375.69
242.363	493.69
242.597	622.69
242.83	608.69
243.064	605.69
243.298	704.69
243.531	592.69
243.765	395.69
243.998	334.69
244.232	304.69
244.465	293.69
244.699	284.69
244.932	304.69
245.166	309.69
245.399	289.69
245.633	311.69
245.866	292.69
246.099	286.69
246.333	298.69
246.566	280.69
246.8	300.69
247.033	283.69
247.266	287.69
247.5	299.69
247.733	316.69
247.966	341.69
248.2	340.69
248.433	339.69
248.666	384.69
248.899	392.69
249.133	372.69
249.366	380.69
249.599	404.69
249.832	436.69
250.066	439.69
250.299	362.69
250.532	345.69
250.765	342.69
250.998	339.69
251.231	331.69
251.465	327.69
251.698	334.69
251.931	350.69
252.164	333.69
252.397	334.69
252.63	349.69
252.863	348.69
253.096	341.69
253.329	347.69
253.562	322.69
253.795	347.69
254.028	370.69
254.261	360.69
254.494	352.69
254.727	429.69
254.96	503.69
255.193	502.69
255.426	419.69
255.659	388.69
255.892	376.69
256.124	366.69
256.357	387.69
256.59	376.69
256.823	420.69
257.056	468.69
257.289	509.69
257.521	570.69
257.754	473.69
257.987	408.69
258.22	393.69
258.452	399.69
258.685	397.69
258.918	412.69
259.151	424.69
259.383	457.69
259.616	488.69
259.849	502.69
260.081	461.69
260.314	434.69
260.547	416.69
260.779	422.69
261.012	402.69
261.244	433.69
261.477	451.69
261.71	416.69
261.942	430.69
262.175	455.69
262.407	473.69
262.64	490.69
262.872	479.69
263.105	515.69
263.337	532.69
263.57	537.69
263.802	574.69
264.035	576.69
264.267	570.69
264.499	624.69
264.732	592.69
264.964	606.69
265.197	631.69
265.429	640.69
265.661	640.69
265.894	689.69
266.126	747.69
266.358	798.69
266.591	816.69
266.823	681.69
267.055	602.69
267.287	593.69
267.52	573.69
267.752	566.69
267.984	561.69
268.216	553.69
268.448	550.69
268.681	560.69
268.913	547.69
269.145	550.69
269.377	545.69
269.609	564.69
269.841	568.69
270.073	582.69
270.306	658.69
270.538	858.69
270.77	1274.69
271.002	1508.69
271.234	1047.69
271.466	740.69
271.698	617.69
271.93	586.69
272.162	545.69
272.394	552.69
272.626	542.69
272.858	522.69
273.09	530.69
273.322	537.69
273.553	530.69
273.785	515.69
274.017	503.69
274.249	525.69
274.481	516.69
274.713	532.69
274.945	519.69
275.176	530.69
275.408	518.69
275.64	519.69
275.872	538.69
276.104	553.69
276.335	556.69
276.567	558.69
276.799	552.69
277.031	568.69
277.262	587.69
277.494	597.69
277.726	627.69
277.957	717.69
278.189	787.69
278.421	748.69
278.652	675.69
278.884	670.69
279.115	612.69
279.347	614.69
279.579	590.69
279.81	588.69
280.042	607.69
280.273	605.69
280.505	615.69
280.736	624.69
280.968	640.69
281.199	699.69
281.431	792.69
281.662	782.69
281.894	708.69
282.125	674.69
282.356	686.69
282.588	676.69
282.819	714.69
283.051	735.69
283.282	775.69
283.513	987.69
283.745	1415.69
283.976	2172.69
284.207	3087.69
284.439	2744.69
284.67	1645.69
284.901	1338.69
285.132	1344.69
285.364	1232.69
285.595	1000.69
285.826	945.69
286.057	1090.69
286.288	1440.69
286.52	1977.69
286.751	1770.69
286.982	1142.69
287.213	872.69
287.444	790.69
287.675	764.69
287.906	727.69
288.138	692.69
288.369	721.69
288.6	708.69
288.831	701.69
289.062	708.69
289.293	696.69
289.524	706.69
289.755	713.69
289.986	692.69
290.217	712.69
290.448	696.69
290.679	703.69
290.91	726.69
291.141	738.69
291.371	773.69
291.602	788.69
291.833	763.69
292.064	717.69
292.295	674.69
292.526	678.69
292.757	702.69
292.987	661.69
293.218	644.69
293.449	665.69
293.68	674.69
293.91	653.69
294.141	641.69
294.372	652.69
294.603	648.69
294.833	647.69
295.064	669.69
295.295	668.69
295.525	657.69
295.756	638.69
295.987	648.69
296.217	690.69
296.448	656.69
296.679	670.69
296.909	675.69
297.14	665.69
297.37	670.69
297.601	676.69
297.831	676.69
298.062	666.69
298.292	671.69
298.523	701.69
298.753	701.69
298.984	717.69
299.214	721.69
299.445	724.69
299.675	743.69
299.905	728.69
300.136	753.69
300.366	873.69
300.597	1084.69
300.827	1439.69
301.057	1895.69
301.288	1916.69
301.518	1243.69
301.748	979.69
301.979	915.69
302.209	877.69
302.439	904.69
302.669	960.69
302.9	1124.69
303.13	1556.69
303.36	2248.69
303.59	2987.69
303.82	2528.69
304.051	1522.69
304.281	1136.69
304.511	971.69
304.741	916.69
304.971	864.69
305.201	832.69
305.431	809.69
305.661	812.69
305.891	758.69
306.121	779.69
306.352	766.69
306.582	766.69
306.812	757.69
307.042	788.69
307.272	755.69
307.502	747.69
307.731	750.69
307.961	763.69
308.191	729.69
308.421	758.69
308.651	761.69
308.881	741.69
309.111	786.69
309.341	777.69
309.571	796.69
309.8	776.69
310.03	772.69
310.26	786.69
310.49	794.69
310.72	785.69
310.949	785.69
311.179	802.69
311.409	810.69
311.639	792.69
311.868	812.69
312.098	801.69
312.328	811.69
312.557	807.69
312.787	813.69
313.017	840.69
313.246	820.69
313.476	804.69
313.706	864.69
313.935	861.69
314.165	919.69
314.394	928.69
314.624	929.69
314.853	871.69
315.083	900.69
315.312	904.69
315.542	880.69
315.771	893.69
316.001	918.69
316.23	936.69
316.46	963.69
316.689	1052.69
316.919	1255.69
317.148	1768.69
317.377	2676.69
317.607	3946.69
317.836	4009.69
318.065	2333.69
318.295	1538.69
318.524	1257.69
318.753	1136.69
318.983	1072.69
319.212	1033.69
319.441	998.69
319.67	955.69
319.9	980.69
320.129	947.69
320.358	951.69
320.587	952.69
320.816	966.69
321.046	962.69
321.275	976.69
321.504	960.69
321.733	965.69
321.962	1020.69
322.191	1013.69
322.42	1006.69
322.649	989.69
322.878	989.69
323.108	1027.69
323.337	1025.69
323.566	1035.69
323.795	1058.69
324.024	1066.69
324.253	1079.69
324.482	1107.69
324.71	1181.69
324.939	1261.69
325.168	1263.69
325.397	1317.69
325.626	1509.69
325.855	2097.69
326.084	3277.69
326.313	4800.69
326.542	5109.69
326.77	3213.69
326.999	2144.69
327.228	1816.69
327.457	1721.69
327.686	1803.69
327.914	1856.69
328.143	2179.69
328.372	2455.69
328.6	2652.69
328.829	2474.69
329.058	2181.69
329.287	1912.69
329.515	1778.69
329.744	1618.69
329.972	1570.69
330.201	1503.69
330.43	1458.69
330.658	1428.69
330.887	1397.69
331.115	1397.69
331.344	1370.69
331.572	1376.69
331.801	1370.69
332.03	1364.69
332.258	1401.69
332.486	1482.69
332.715	1649.69
332.943	1962.69
333.172	2374.69
333.4	2394.69
333.629	1876.69
333.857	1713.69
334.085	1719.69
334.314	1795.69
334.542	1936.69
334.771	2264.69
334.999	2631.69
335.227	3222.69
335.455	3563.69
335.684	3304.69
335.912	2885.69
336.14	2418.69
336.369	2206.69
336.597	2044.69
336.825	1905.69
337.053	1777.69
337.281	1647.69
337.51	1604.69
337.738	1523.69
337.966	1447.69
338.194	1436.69
338.422	1373.69
338.65	1332.69
338.878	1334.69
339.106	1311.69
339.334	1331.69
339.562	1287.69
339.79	1250.69
340.018	1234.69
340.246	1218.69
340.474	1259.69
340.702	1242.69
340.93	1230.69
341.158	1233.69
341.386	1208.69
341.614	1207.69
341.842	1201.69
342.07	1176.69
342.298	1132.69
342.526	1165.69
342.754	1167.69
342.981	1118.69
343.209	1117.69
343.437	1135.69
343.665	1142.69
343.893	1144.69
344.12	1163.69
344.348	1140.69
344.576	1143.69
344.804	1113.69
345.031	1093.69
345.259	1079.69
345.487	1060.69
345.714	1050.69
345.942	1086.69
346.17	1058.69
346.397	1058.69
346.625	1050.69
346.853	1070.69
347.08	1034.69
347.308	1048.69
347.535	1007.69
347.763	1014.69
347.99	1030.69
348.218	1039.69
348.445	1001.69
348.673	1005.69
348.9	1020.69
349.128	1022.69
349.355	1016.69
349.583	1000.69
349.81	1006.69
350.037	986.69
350.265	1016.69
350.492	970.69
350.72	1016.69
350.947	1037.69
351.174	1002.69
351.402	1009.69
351.629	1006.69
351.856	999.69
352.083	995.69
352.311	994.69
352.538	988.69
352.765	1005.69
352.992	1002.69
353.22	984.69
353.447	999.69
353.674	999.69
353.901	1013.69
354.128	998.69
354.355	1002.69
354.583	989.69
354.81	1031.69
355.037	1013.69
355.264	1040.69
355.491	985.69
355.718	1012.69
355.945	1024.69
356.172	1038.69
356.399	1015.69
356.626	1044.69
356.853	1054.69
357.08	1022.69
357.307	1047.69
357.534	1059.69
357.761	1076.69
357.988	1060.69
358.215	1058.69
358.441	1082.69
358.668	1062.69
358.895	1057.69
359.122	1049.69
359.349	1074.69
359.576	1072.69
359.802	1057.69
360.029	1091.69
360.256	1052.69
360.483	1051.69
360.709	1048.69
360.936	1081.69
361.163	1060.69
361.39	1098.69
361.616	1044.69
361.843	1069.69
362.07	1045.69
362.296	1050.69
362.523	1092.69
362.749	1073.69
362.976	1062.69
363.203	1067.69
363.429	1072.69
363.656	1093.69
363.882	1078.69
364.109	1057.69
364.335	1076.69
364.562	1042.69
364.788	1075.69
365.015	1039.69
365.241	1082.69
365.468	1119.69
365.694	1158.69
365.92	1150.69
366.147	1080.69
366.373	1084.69
366.599	1097.69
366.826	1067.69
367.052	1059.69
367.278	1090.69
367.505	1060.69
367.731	1080.69
367.957	1114.69
368.184	1117.69
368.41	1120.69
368.636	1104.69
368.862	1081.69
369.089	1124.69
369.315	1083.69
369.541	1091.69
369.767	1088.69
369.993	1098.69
370.219	1121.69
370.445	1097.69
370.672	1133.69
370.898	1118.69
371.124	1123.69
371.35	1125.69
371.576	1124.69
371.802	1124.69
372.028	1139.69
372.254	1162.69
372.48	1136.69
372.706	1158.69
372.932	1147.69
373.158	1157.69
373.384	1168.69
373.61	1154.69
373.835	1175.69
374.061	1164.69
374.287	1184.69
374.513	1178.69
374.739	1198.69
374.965	1210.69
375.191	1189.69
375.416	1199.69
375.642	1184.69
375.868	1180.69
376.094	1154.69
376.319	1176.69
376.545	1152.69
376.771	1156.69
376.997	1150.69
377.222	1154.69
377.448	1133.69
377.674	1137.69
377.899	1144.69
378.125	1136.69
378.35	1169.69
378.576	1154.69
378.802	1151.69
379.027	1164.69
379.253	1173.69
379.478	1268.69
379.704	1423.69
379.929	1968.69
380.155	2887.69
380.38	3066.69
380.606	1940.69
380.831	1452.69
381.057	1307.69
381.282	1225.69
381.507	1160.69
381.733	1150.69
381.958	1146.69
382.184	1147.69
382.409	1149.69
382.634	1115.69
382.86	1129.69
383.085	1101.69
383.31	1129.69
383.535	1142.69
383.761	1146.69
383.986	1166.69
384.211	1140.69
384.436	1127.69
384.662	1170.69
384.887	1150.69
385.112	1156.69
385.337	1181.69
385.562	1180.69
385.787	1196.69
386.013	1178.69
386.238	1156.69
386.463	1168.69
386.688	1161.69
386.913	1147.69
387.138	1202.69
387.363	1169.69
387.588	1146.69
387.813	1180.69
388.038	1152.69
388.263	1174.69
388.488	1151.69
388.713	1160.69
388.938	1167.69
389.163	1178.69
389.387	1178.69
389.612	1181.69
389.837	1176.69
390.062	1185.69
390.287	1200.69
390.512	1190.69
390.736	1200.69
390.961	1222.69
391.186	1205.69
391.411	1231.69
391.636	1238.69
391.86	1231.69
392.085	1216.69
392.31	1224.69
392.534	1204.69
392.759	1204.69
392.984	1176.69
393.208	1219.69
393.433	1233.69
393.658	1200.69
393.882	1182.69
394.107	1166.69
394.331	1188.69
394.556	1192.69
394.78	1178.69
395.005	1204.69
395.229	1202.69
395.454	1205.69
395.678	1209.69
395.903	1220.69
396.127	1218.69
396.352	1236.69
396.576	1204.69
396.801	1218.69
397.025	1233.69
397.249	1228.69
397.474	1240.69
397.698	1217.69
397.922	1288.69
398.147	1229.69
398.371	1248.69
398.595	1287.69
398.82	1314.69
399.044	1346.69
399.268	1418.69
399.492	1467.69
399.717	1538.69
399.941	1522.69
400.165	1513.69
400.389	1414.69
400.613	1400.69
400.837	1332.69
401.062	1336.69
401.286	1296.69
401.51	1296.69
401.734	1295.69
401.958	1307.69
402.182	1309.69
402.406	1315.69
402.63	1289.69
402.854	1329.69
403.078	1316.69
403.302	1314.69
403.526	1334.69
403.75	1328.69
403.974	1342.69
404.198	1348.69
404.422	1342.69
404.645	1362.69
404.869	1357.69
405.093	1353.69
405.317	1301.69
405.541	1318.69
405.765	1348.69
405.988	1384.69
406.212	1380.69
406.436	1351.69
406.66	1379.69
406.883	1392.69
407.107	1424.69
407.331	1455.69
407.555	1472.69
407.778	1489.69
408.002	1428.69
408.226	1423.69
408.449	1401.69
408.673	1394.69
408.896	1402.69
409.12	1345.69
409.344	1354.69
409.567	1358.69
409.791	1352.69
410.014	1325.69
410.238	1277.69
410.461	1302.69
410.685	1332.69
410.908	1332.69
411.132	1328.69
411.355	1290.69
411.578	1246.69
411.802	1288.69
412.025	1299.69
412.249	1317.69
412.472	1286.69
412.695	1278.69
412.919	1263.69
413.142	1292.69
413.365	1274.69
413.589	1261.69
413.812	1250.69
414.035	1261.69
414.258	1266.69
414.482	1269.69
414.705	1294.69
414.928	1256.69
415.151	1249.69
415.374	1214.69
415.597	1255.69
415.821	1219.69
416.044	1226.69
416.267	1231.69
416.49	1226.69
416.713	1197.69
416.936	1220.69
417.159	1212.69
417.382	1224.69
417.605	1219.69
417.828	1187.69
418.051	1218.69
418.274	1202.69
418.497	1187.69
418.72	1245.69
418.943	1220.69
419.166	1300.69
419.389	1345.69
419.611	1342.69
419.834	1325.69
420.057	1309.69
420.28	1228.69
420.503	1241.69
420.726	1190.69
420.948	1212.69
421.171	1236.69
421.394	1234.69
421.617	1245.69
421.839	1269.69
422.062	1264.69
422.285	1217.69
422.507	1225.69
422.73	1226.69
422.953	1224.69
423.175	1269.69
423.398	1257.69
423.621	1234.69
423.843	1228.69
424.066	1243.69
424.288	1221.69
424.511	1217.69
424.733	1202.69
424.956	1236.69
425.178	1218.69
425.401	1215.69
425.623	1232.69
425.846	1191.69
426.068	1192.69
426.291	1198.69
426.513	1188.69
426.735	1164.69
426.958	1164.69
427.18	1158.69
427.402	1156.69
427.625	1163.69
427.847	1150.69
428.069	1137.69
428.292	1161.69
428.514	1132.69
428.736	1127.69
428.958	1143.69
429.181	1108.69
429.403	1134.69
429.625	1133.69
429.847	1105.69
430.069	1159.69
430.292	1166.69
430.514	1183.69
430.736	1208.69
430.958	1166.69
431.18	1153.69
431.402	1170.69
431.624	1126.69
431.846	1113.69
432.068	1126.69
432.29	1113.69
432.512	1082.69
432.734	1153.69
432.956	1142.69
433.178	1135.69
433.4	1136.69
433.622	1149.69
433.844	1157.69
434.066	1117.69
434.287	1130.69
434.509	1125.69
434.731	1167.69
434.953	1174.69
435.175	1161.69
435.397	1205.69
435.618	1144.69
435.84	1130.69
436.062	1140.69
436.284	1129.69
436.505	1130.69
436.727	1139.69
436.949	1133.69
437.17	1131.69
437.392	1148.69
437.614	1130.69
437.835	1044.69
438.057	1067.69
438.278	1123.69
438.5	1113.69
438.721	1131.69
438.943	1145.69
439.165	1176.69
439.386	1172.69
439.608	1160.69
439.829	1160.69
440.05	1180.69
440.272	1238.69
440.493	1162.69
440.715	1146.69
440.936	1166.69
441.158	1169.69
441.379	1209.69
441.6	1247.69
441.822	1228.69
442.043	1284.69
442.264	1336.69
442.486	1236.69
442.707	1217.69
442.928	1200.69
443.149	1197.69
443.371	1192.69
443.592	1230.69
443.813	1196.69
444.034	1216.69
444.255	1231.69
444.476	1235.69
444.698	1300.69
444.919	1316.69
445.14	1374.69
445.361	1288.69
445.582	1252.69
445.803	1254.69
446.024	1216.69
446.245	1202.69
446.466	1209.69
446.687	1193.69
446.908	1187.69
447.129	1172.69
447.35	1160.69
447.571	1109.69
447.792	1108.69
448.013	1116.69
448.234	1115.69
448.455	1106.69
448.675	1123.69
448.896	1151.69
449.117	1178.69
449.338	1274.69
449.559	1267.69
449.779	1196.69
450	1138.69
450.221	1114.69
450.442	1112.69
450.662	1082.69
450.883	1067.69
451.104	1095.69
451.324	1094.69
451.545	1091.69
451.766	1057.69
451.986	1082.69
452.207	1158.69
452.428	1379.69
452.648	1844.69
452.869	1629.69
453.089	1221.69
453.31	1177.69
453.53	1210.69
453.751	1210.69
453.971	1289.69
454.192	1254.69
454.412	1127.69
454.633	1072.69
454.853	1057.69
455.073	1033.69
455.294	1054.69
455.514	1029.69
455.734	1013.69
455.955	986.69
456.175	1013.69
456.395	1006.69
456.616	1001.69
456.836	1085.69
457.056	1064.69
457.276	1029.69
457.497	1098.69
457.717	1111.69
457.937	1112.69
458.157	1092.69
458.377	1063.69
458.598	1106.69
458.818	1088.69
459.038	1091.69
459.258	1057.69
459.478	1142.69
459.698	1158.69
459.918	1136.69
460.138	1184.69
460.358	1189.69
460.578	1241.69
460.798	1240.69
461.018	1236.69
461.238	1220.69
461.458	1247.69
461.678	1194.69
461.898	1240.69
462.118	1270.69
462.338	1276.69
462.558	1299.69
462.777	1338.69
462.997	1380.69
463.217	1420.69
463.437	1488.69
463.657	1467.69
463.876	1422.69
464.096	1404.69
464.316	1372.69
464.536	1305.69
464.755	1274.69
464.975	1297.69
465.195	1240.69
465.414	1202.69
465.634	1167.69
465.854	1172.69
466.073	1131.69
466.293	1128.69
466.512	1123.69
466.732	1165.69
466.951	1188.69
467.171	1257.69
467.391	1230.69
467.61	1138.69
467.829	1117.69
468.049	1122.69
468.268	1138.69
468.488	1099.69
468.707	1099.69
468.927	1123.69
469.146	1097.69
469.365	1126.69
469.585	1138.69
469.804	1141.69
470.023	1162.69
470.243	1194.69
470.462	1249.69
470.681	1229.69
470.901	1386.69
471.12	1546.69
471.339	1596.69
471.558	1281.69
471.777	1192.69
471.997	1174.69
472.216	1144.69
472.435	1124.69
472.654	1106.69
472.873	1094.69
473.092	1112.69
473.311	1098.69
473.53	1124.69
473.749	1149.69
473.968	1180.69
474.187	1101.69
474.406	1122.69
474.625	1129.69
474.844	1143.69
475.063	1120.69
475.282	1140.69
475.501	1112.69
475.72	1126.69
475.939	1148.69
476.158	1160.69
476.377	1181.69
476.596	1183.69
476.814	1184.69
477.033	1132.69
477.252	1206.69
477.471	1220.69
477.69	1216.69
477.908	1269.69
478.127	1288.69
478.346	1264.69
478.564	1286.69
478.783	1262.69
479.002	1336.69
479.22	1333.69
479.439	1340.69
479.658	1304.69
479.876	1294.69
480.095	1325.69
480.313	1357.69
480.532	1356.69
480.751	1345.69
480.969	1323.69
481.188	1314.69
481.406	1315.69
481.624	1275.69
481.843	1314.69
482.061	1344.69
482.28	1352.69
482.498	1284.69
482.717	1295.69
482.935	1322.69
483.153	1351.69
483.372	1360.69
483.59	1373.69
483.808	1414.69
484.027	1415.69
484.245	1500.69
484.463	1666.69
484.681	1824.69
484.9	1662.69
485.118	1515.69
485.336	1535.69
485.554	1559.69
485.772	1582.69
485.99	1828.69
486.209	1976.69
486.427	1682.69
486.645	1528.69
486.863	1469.69
487.081	1428.69
487.299	1396.69
487.517	1416.69
487.735	1423.69
487.953	1464.69
488.171	1466.69
488.389	1451.69
488.607	1426.69
488.825	1393.69
489.043	1381.69
489.261	1362.69
489.479	1400.69
489.696	1349.69
489.914	1378.69
490.132	1378.69
490.35	1405.69
490.568	1393.69
490.786	1424.69
491.003	1446.69
491.221	1469.69
