Data from SnStandardFlinnAPT0064_LampEnergy5.5_LIBS07252019.E.O._I.C._HRD10591_15-14-56-491.txt Node
Date: Thu Jul 25 15:14:56 EDT 2019
User: cochatt
Spectrometer: HR+D1059
Trigger mode: 1
Integration Time (sec): 1.000000E-1
Scans to average: 1
Electric dark correction enabled: true
Nonlinearity correction enabled: false
Boxcar width: 0
XAxis mode: Wavelengths
Number of Pixels in Spectrum: 2048
>>>>>Begin Spectral Data<<<<<
223.165	-19
223.4	-19
223.635	-19
223.869	-13
224.104	-24
224.338	-24
224.573	-2
224.808	-13
225.042	-13
225.277	3
225.511	-20
225.746	-5
225.98	15
226.215	6
226.449	19
226.683	25
226.918	29
227.152	36
227.387	45
227.621	57
227.856	45
228.09	43
228.324	44
228.559	53
228.793	75
229.027	124
229.262	177
229.496	141
229.73	158
229.964	156
230.199	150
230.433	140
230.667	168
230.901	167
231.136	154
231.37	179
231.604	180
231.838	205
232.072	204
232.306	234
232.541	211
232.775	182
233.009	193
233.243	205
233.477	201
233.711	226
233.945	252
234.179	216
234.413	202
234.647	208
234.881	225
235.115	212
235.349	268
235.583	305
235.817	382
236.051	384
236.285	277
236.519	197
236.753	196
236.987	219
237.221	209
237.455	244
237.689	189
237.922	203
238.156	229
238.39	219
238.624	203
238.858	227
239.091	217
239.325	228
239.559	225
239.793	247
240.027	232
240.26	233
240.494	237
240.728	251
240.961	243
241.195	279
241.429	272
241.662	297
241.896	313
242.13	361
242.363	427
242.597	548
242.83	535
243.064	546
243.298	603
243.531	520
243.765	365
243.998	308
244.232	298
244.465	279
244.699	295
244.932	281
245.166	280
245.399	312
245.633	291
245.866	281
246.099	282
246.333	291
246.566	291
246.8	283
247.033	291
247.266	276
247.5	285
247.733	271
247.966	299
248.2	334
248.433	332
248.666	383
248.899	358
249.133	346
249.366	356
249.599	358
249.832	398
250.066	411
250.299	328
250.532	319
250.765	301
250.998	320
251.231	311
251.465	318
251.698	337
251.931	330
252.164	332
252.397	317
252.63	326
252.863	315
253.096	333
253.329	356
253.562	327
253.795	308
254.028	329
254.261	346
254.494	363
254.727	404
254.96	428
255.193	448
255.426	377
255.659	353
255.892	366
256.124	351
256.357	381
256.59	373
256.823	390
257.056	435
257.289	483
257.521	520
257.754	444
257.987	396
258.22	384
258.452	379
258.685	381
258.918	397
259.151	411
259.383	416
259.616	471
259.849	470
260.081	438
260.314	429
260.547	388
260.779	403
261.012	412
261.244	410
261.477	415
261.71	397
261.942	420
262.175	437
262.407	419
262.64	450
262.872	474
263.105	467
263.337	517
263.57	525
263.802	527
264.035	556
264.267	566
264.499	562
264.732	594
264.964	598
265.197	610
265.429	595
265.661	602
265.894	644
266.126	682
266.358	755
266.591	721
266.823	663
267.055	595
267.287	597
267.52	546
267.752	544
267.984	530
268.216	511
268.448	516
268.681	540
268.913	524
269.145	516
269.377	515
269.609	511
269.841	538
270.073	546
270.306	618
270.538	811
270.77	1095
271.002	1267
271.234	960
271.466	693
271.698	604
271.93	554
272.162	523
272.394	522
272.626	549
272.858	485
273.09	509
273.322	487
273.553	490
273.785	473
274.017	488
274.249	495
274.481	523
274.713	480
274.945	510
275.176	504
275.408	497
275.64	495
275.872	484
276.104	499
276.335	501
276.567	507
276.799	525
277.031	498
277.262	523
277.494	539
277.726	567
277.957	625
278.189	709
278.421	672
278.652	637
278.884	622
279.115	575
279.347	540
279.579	548
279.81	549
280.042	560
280.273	565
280.505	547
280.736	556
280.968	581
281.199	641
281.431	703
281.662	721
281.894	656
282.125	652
282.356	623
282.588	648
282.819	650
283.051	642
283.282	717
283.513	894
283.745	1213
283.976	1915
284.207	2612
284.439	2380
284.67	1493
284.901	1226
285.132	1132
285.364	1115
285.595	905
285.826	864
286.057	982
286.288	1272
286.52	1696
286.751	1571
286.982	1047
287.213	821
287.444	719
287.675	693
287.906	669
288.138	674
288.369	695
288.6	651
288.831	667
289.062	643
289.293	671
289.524	668
289.755	669
289.986	697
290.217	676
290.448	655
290.679	664
290.91	687
291.141	695
291.371	720
291.602	743
291.833	719
292.064	691
292.295	666
292.526	642
292.757	642
292.987	619
293.218	628
293.449	634
293.68	612
293.91	623
294.141	627
294.372	629
294.603	627
294.833	624
295.064	623
295.295	641
295.525	612
295.756	623
295.987	629
296.217	608
296.448	620
296.679	658
296.909	627
297.14	621
297.37	641
297.601	634
297.831	649
298.062	634
298.292	653
298.523	660
298.753	666
298.984	671
299.214	655
299.445	683
299.675	683
299.905	710
300.136	721
300.366	809
300.597	956
300.827	1285
301.057	1667
301.288	1633
301.518	1148
301.748	913
301.979	879
302.209	810
302.439	845
302.669	868
302.9	1018
303.13	1359
303.36	1970
303.59	2540
303.82	2251
304.051	1381
304.281	1066
304.511	917
304.741	834
304.971	807
305.201	779
305.431	751
305.661	755
305.891	755
306.121	742
306.352	722
306.582	732
306.812	741
307.042	708
307.272	724
307.502	716
307.731	711
307.961	727
308.191	699
308.421	726
308.651	706
308.881	714
309.111	705
309.341	752
309.571	727
309.8	736
310.03	727
310.26	753
310.49	717
310.72	735
310.949	741
311.179	764
311.409	759
311.639	729
311.868	749
312.098	756
312.328	756
312.557	760
312.787	756
313.017	765
313.246	762
313.476	803
313.706	800
313.935	838
314.165	833
314.394	870
314.624	853
314.853	817
315.083	812
315.312	799
315.542	860
315.771	850
316.001	832
316.23	890
316.46	909
316.689	965
316.919	1145
317.148	1541
317.377	2298
317.607	3342
317.836	3439
318.065	2108
318.295	1423
318.524	1199
318.753	1051
318.983	1013
319.212	988
319.441	923
319.67	933
319.9	900
320.129	921
320.358	935
320.587	938
320.816	901
321.046	905
321.275	913
321.504	933
321.733	932
321.962	949
322.191	956
322.42	932
322.649	942
322.878	940
323.108	935
323.337	975
323.566	962
323.795	983
324.024	1009
324.253	1069
324.482	1057
324.71	1106
324.939	1150
325.168	1188
325.397	1230
325.626	1405
325.855	1892
326.084	2799
326.313	4082
326.542	4348
326.77	2854
326.999	1988
327.228	1727
327.457	1625
327.686	1655
327.914	1743
328.143	2000
328.372	2277
328.6	2484
328.829	2288
329.058	2047
329.287	1859
329.515	1696
329.744	1598
329.972	1508
330.201	1442
330.43	1414
330.658	1354
330.887	1309
331.115	1305
331.344	1325
331.572	1347
331.801	1306
332.03	1328
332.258	1315
332.486	1385
332.715	1555
332.943	1787
333.172	2101
333.4	2102
333.629	1747
333.857	1575
334.085	1676
334.314	1715
334.542	1868
334.771	2095
334.999	2408
335.227	2995
335.455	3279
335.684	3112
335.912	2677
336.14	2320
336.369	2096
336.597	1940
336.825	1806
337.053	1677
337.281	1587
337.51	1543
337.738	1467
337.966	1441
338.194	1369
338.422	1354
338.65	1319
338.878	1267
339.106	1233
339.334	1252
339.562	1229
339.79	1185
340.018	1223
340.246	1194
340.474	1182
340.702	1188
340.93	1156
341.158	1180
341.386	1185
341.614	1145
341.842	1124
342.07	1121
342.298	1108
342.526	1087
342.754	1089
342.981	1060
343.209	1107
343.437	1085
343.665	1092
343.893	1121
344.12	1128
344.348	1095
344.576	1080
344.804	1035
345.031	1043
345.259	1039
345.487	1013
345.714	1032
345.942	982
346.17	980
346.397	1005
346.625	977
346.853	1001
347.08	985
347.308	994
347.535	981
347.763	1000
347.99	955
348.218	964
348.445	983
348.673	975
348.9	952
349.128	977
349.355	965
349.583	951
349.81	1008
350.037	983
350.265	938
350.492	964
350.72	910
350.947	959
351.174	955
351.402	976
351.629	957
351.856	936
352.083	962
352.311	929
352.538	941
352.765	941
352.992	931
353.22	931
353.447	931
353.674	954
353.901	945
354.128	949
354.355	964
354.583	941
354.81	966
355.037	957
355.264	970
355.491	956
355.718	966
355.945	962
356.172	990
356.399	979
356.626	969
356.853	1034
357.08	979
357.307	991
357.534	995
357.761	1018
357.988	1001
358.215	1019
358.441	1009
358.668	996
358.895	994
359.122	989
359.349	986
359.576	1020
359.802	1012
360.029	1014
360.256	1006
360.483	1029
360.709	1023
360.936	1025
361.163	998
361.39	996
361.616	1008
361.843	1020
362.07	1008
362.296	1049
362.523	1014
362.749	1001
362.976	1025
363.203	986
363.429	981
363.656	997
363.882	1026
364.109	1028
364.335	1005
364.562	995
364.788	997
365.015	1018
365.241	1026
365.468	1060
365.694	1078
365.92	1079
366.147	1021
366.373	1027
366.599	1066
366.826	1050
367.052	1033
367.278	1012
367.505	1027
367.731	1023
367.957	1030
368.184	1014
368.41	1095
368.636	1069
368.862	1065
369.089	1067
369.315	1045
369.541	1041
369.767	1056
369.993	1075
370.219	1079
370.445	1065
370.672	1072
370.898	1068
371.124	1080
371.35	1089
371.576	1076
371.802	1104
372.028	1084
372.254	1098
372.48	1085
372.706	1103
372.932	1103
373.158	1104
373.384	1107
373.61	1108
373.835	1106
374.061	1122
374.287	1149
374.513	1109
374.739	1167
374.965	1155
375.191	1163
375.416	1160
375.642	1116
375.868	1132
376.094	1116
376.319	1094
376.545	1130
376.771	1104
376.997	1097
377.222	1097
377.448	1077
377.674	1098
377.899	1097
378.125	1107
378.35	1106
378.576	1073
378.802	1106
379.027	1124
379.253	1102
379.478	1165
379.704	1341
379.929	1744
380.155	2526
380.38	2648
380.606	1793
380.831	1343
381.057	1194
381.282	1135
381.507	1125
381.733	1129
381.958	1087
382.184	1099
382.409	1068
382.634	1078
382.86	1077
383.085	1108
383.31	1095
383.535	1093
383.761	1074
383.986	1120
384.211	1073
384.436	1092
384.662	1102
384.887	1130
385.112	1096
385.337	1107
385.562	1115
385.787	1137
386.013	1160
386.238	1139
386.463	1108
386.688	1116
386.913	1111
387.138	1110
387.363	1100
387.588	1111
387.813	1126
388.038	1136
388.263	1115
388.488	1097
388.713	1099
388.938	1079
389.163	1127
389.387	1136
389.612	1091
389.837	1115
390.062	1102
390.287	1145
390.512	1120
390.736	1135
390.961	1144
391.186	1163
391.411	1157
391.636	1184
391.86	1189
392.085	1160
392.31	1183
392.534	1168
392.759	1128
392.984	1120
393.208	1138
393.433	1142
393.658	1145
393.882	1137
394.107	1122
394.331	1123
394.556	1163
394.78	1155
395.005	1168
395.229	1159
395.454	1167
395.678	1179
395.903	1162
396.127	1171
396.352	1165
396.576	1151
396.801	1137
397.025	1187
397.249	1157
397.474	1184
397.698	1173
397.922	1200
398.147	1183
398.371	1189
398.595	1216
398.82	1229
399.044	1298
399.268	1377
399.492	1459
399.717	1491
399.941	1501
400.165	1451
400.389	1376
400.613	1323
400.837	1284
401.062	1304
401.286	1274
401.51	1232
401.734	1231
401.958	1248
402.182	1258
402.406	1257
402.63	1242
402.854	1252
403.078	1253
403.302	1257
403.526	1264
403.75	1275
403.974	1279
404.198	1277
404.422	1295
404.645	1305
404.869	1269
405.093	1300
405.317	1281
405.541	1279
405.765	1298
405.988	1324
406.212	1330
406.436	1338
406.66	1335
406.883	1331
407.107	1356
407.331	1385
407.555	1429
407.778	1359
408.002	1379
408.226	1359
408.449	1361
408.673	1346
408.896	1331
409.12	1287
409.344	1284
409.567	1264
409.791	1323
410.014	1287
410.238	1281
410.461	1286
410.685	1209
410.908	1246
411.132	1244
411.355	1231
411.578	1236
411.802	1222
412.025	1215
412.249	1232
412.472	1201
412.695	1230
412.919	1209
413.142	1247
413.365	1228
413.589	1218
413.812	1194
414.035	1236
414.258	1219
414.482	1205
414.705	1188
414.928	1204
415.151	1187
415.374	1180
415.597	1193
415.821	1159
416.044	1184
416.267	1154
416.49	1185
416.713	1178
416.936	1166
417.159	1149
417.382	1177
417.605	1165
417.828	1148
418.051	1176
418.274	1172
418.497	1153
418.72	1195
418.943	1176
419.166	1226
419.389	1319
419.611	1289
419.834	1237
420.057	1211
420.28	1183
420.503	1182
420.726	1152
420.948	1171
421.171	1189
421.394	1202
421.617	1199
421.839	1199
422.062	1208
422.285	1144
422.507	1193
422.73	1208
422.953	1200
423.175	1240
423.398	1191
423.621	1207
423.843	1195
424.066	1178
424.288	1205
424.511	1175
424.733	1165
424.956	1151
425.178	1210
425.401	1163
425.623	1167
425.846	1149
426.068	1146
426.291	1127
426.513	1145
426.735	1108
426.958	1138
427.18	1127
427.402	1131
427.625	1127
427.847	1073
428.069	1101
428.292	1118
428.514	1098
428.736	1084
428.958	1094
429.181	1073
429.403	1100
429.625	1117
429.847	1089
430.069	1086
430.292	1135
430.514	1177
430.736	1165
430.958	1123
431.18	1089
431.402	1091
431.624	1091
431.846	1086
432.068	1046
432.29	1049
432.512	1065
432.734	1097
432.956	1112
433.178	1098
433.4	1094
433.622	1095
433.844	1113
434.066	1128
434.287	1077
434.509	1078
434.731	1124
434.953	1118
435.175	1136
435.397	1109
435.618	1097
435.84	1097
436.062	1072
436.284	1045
436.505	1072
436.727	1091
436.949	1066
437.17	1071
437.392	1051
437.614	1036
437.835	1038
438.057	1031
438.278	1049
438.5	1073
438.721	1100
438.943	1107
439.165	1126
439.386	1126
439.608	1116
439.829	1108
440.05	1141
440.272	1175
440.493	1146
440.715	1118
440.936	1115
441.158	1127
441.379	1148
441.6	1192
441.822	1194
442.043	1250
442.264	1257
442.486	1199
442.707	1169
442.928	1149
443.149	1179
443.371	1145
443.592	1171
443.813	1165
444.034	1164
444.255	1190
444.476	1201
444.698	1283
444.919	1275
445.14	1346
445.361	1251
445.582	1235
445.803	1167
446.024	1151
446.245	1194
446.466	1179
446.687	1134
446.908	1148
447.129	1114
447.35	1106
447.571	1086
447.792	1093
448.013	1043
448.234	1064
448.455	1050
448.675	1075
448.896	1098
449.117	1093
449.338	1182
449.559	1223
449.779	1122
450	1059
450.221	1068
450.442	1040
450.662	1077
450.883	1051
451.104	1019
451.324	1073
451.545	1036
451.766	1045
451.986	1047
452.207	1122
452.428	1264
452.648	1688
452.869	1506
453.089	1179
453.31	1115
453.53	1157
453.751	1124
453.971	1190
454.192	1177
454.412	1079
454.633	1017
454.853	995
455.073	999
455.294	998
455.514	989
455.734	987
455.955	977
456.175	999
456.395	1002
456.616	998
456.836	1004
457.056	1021
457.276	988
457.497	1051
457.717	1068
457.937	1052
458.157	1043
458.377	1031
458.598	1050
458.818	1064
459.038	1044
459.258	1075
459.478	1093
459.698	1081
459.918	1119
460.138	1118
460.358	1155
460.578	1177
460.798	1147
461.018	1181
461.238	1188
461.458	1205
461.678	1148
461.898	1193
462.118	1225
462.338	1230
462.558	1251
462.777	1283
462.997	1302
463.217	1364
463.437	1361
463.657	1371
463.876	1387
464.096	1358
464.316	1271
464.536	1281
464.755	1234
464.975	1245
465.195	1185
465.414	1131
465.634	1105
465.854	1127
466.073	1131
466.293	1099
466.512	1101
466.732	1088
466.951	1154
467.171	1165
467.391	1155
467.61	1124
467.829	1068
468.049	1076
468.268	1073
468.488	1045
468.707	1039
468.927	1089
469.146	1073
469.365	1092
469.585	1082
469.804	1089
470.023	1114
470.243	1135
470.462	1148
470.681	1214
470.901	1280
471.12	1431
471.339	1463
471.558	1257
471.777	1173
471.997	1121
472.216	1094
472.435	1067
472.654	1075
472.873	1059
473.092	1120
473.311	1039
473.53	1062
473.749	1096
473.968	1131
474.187	1056
474.406	1071
474.625	1069
474.844	1071
475.063	1112
475.282	1074
475.501	1062
475.72	1058
475.939	1122
476.158	1097
476.377	1122
476.596	1096
476.814	1143
477.033	1127
477.252	1152
477.471	1142
477.69	1173
477.908	1201
478.127	1223
478.346	1223
478.564	1283
478.783	1219
479.002	1266
479.22	1251
479.439	1278
479.658	1268
479.876	1265
480.095	1297
480.313	1276
480.532	1303
480.751	1305
480.969	1258
481.188	1274
481.406	1256
481.624	1247
481.843	1233
482.061	1260
482.28	1281
482.498	1244
482.717	1277
482.935	1254
483.153	1287
483.372	1329
483.59	1333
483.808	1331
484.027	1402
484.245	1407
484.463	1575
484.681	1698
484.9	1569
485.118	1471
485.336	1440
485.554	1471
485.772	1523
485.99	1720
486.209	1849
486.427	1579
486.645	1449
486.863	1431
487.081	1404
487.299	1340
487.517	1386
487.735	1409
487.953	1399
488.171	1348
488.389	1347
488.607	1358
488.825	1373
489.043	1311
489.261	1322
489.479	1334
489.696	1309
489.914	1316
490.132	1341
490.35	1358
490.568	1350
490.786	1397
491.003	1374
491.221	1412
491.439	1405
491.657	1415
491.874	1445
492.092	1458
492.31	1472
492.527	1463
492.745	1431
492.963	1431
493.18	1387
493.398	1397
493.615	1409
493.833	1435
494.05	1446
494.268	1435
494.485	1394
494.703	1423
494.92	1387
495.138	1433
495.355	1411
495.573	1435
495.79	1453
496.008	1419
496.225	1429
496.442	1457
496.66	1492
496.877	1549
497.094	1525
497.312	1488
497.529	1471
497.746	1520
497.963	1549
498.181	1574
498.398	1589
498.615	1633
498.832	1693
499.049	1749
499.267	1880
499.484	2012
499.701	2049
499.918	2132
500.135	2253
500.352	2355
500.569	2413
500.786	2429
501.003	2354
501.22	2227
501.437	2065
501.654	1942
501.871	1923
502.088	1784
502.305	1729
502.522	1661
502.739	1654
502.956	1571
503.172	1566
503.389	1522
503.606	1482
503.823	1469
504.04	1461
504.256	1448
504.473	1460
504.69	1470
504.907	1474
505.123	1367
505.34	1349
505.557	1325
505.773	1318
505.99	1366
506.207	1277
506.423	1289
506.64	1291
506.856	1235
507.073	1252
507.289	1235
507.506	1220
507.722	1231
507.939	1225
508.155	1215
508.372	1157
508.588	1213
508.805	1164
509.021	1186
509.238	1187
509.454	1229
509.67	1292
509.887	1247
510.103	1225
510.319	1199
510.536	1157
510.752	1219
510.968	1169
511.184	1165
511.401	1146
511.617	1132
511.833	1141
512.049	1131
512.265	1161
512.481	1168
512.698	1118
512.914	1147
513.13	1155
513.346	1153
513.562	1143
513.778	1165
513.994	1195
514.21	1188
514.426	1238
514.642	1242
514.858	1189
515.074	1190
515.29	1168
515.506	1172
515.721	1155
515.937	1168
516.153	1178
516.369	1203
516.585	1229
516.801	1219
517.016	1259
517.232	1264
517.448	1301
517.664	1291
517.879	1316
518.095	1285
518.311	1291
518.527	1300
518.742	1252
518.958	1268
519.173	1311
519.389	1247
519.605	1206
519.82	1214
520.036	1164
520.251	1144
520.467	1138
520.682	1154
520.898	1125
521.113	1140
521.329	1087
521.544	1139
521.76	1120
521.975	1136
522.19	1145
522.406	1135
522.621	1143
522.836	1138
523.052	1098
523.267	1107
523.482	1098
523.698	1127
523.913	1146
524.128	1117
524.343	1117
524.559	1118
524.774	1121
524.989	1101
525.204	1122
525.419	1107
525.634	1106
525.849	1101
526.064	1136
526.28	1079
526.495	1106
526.71	1105
526.925	1084
527.14	1078
527.355	1102
527.57	1079
527.785	1131
527.999	1114
528.214	1137
528.429	1142
528.644	1154
528.859	1181
529.074	1185
529.289	1205
529.503	1220
529.718	1175
529.933	1153
530.148	1169
530.363	1154
530.577	1156
530.792	1161
531.007	1127
531.221	1165
531.436	1190
531.651	1187
531.865	1186
532.08	1183
532.295	1250
532.509	1304
532.724	1297
532.938	1287
533.153	1328
533.367	1401
533.582	1457
533.796	1448
534.011	1407
534.225	1379
534.44	1316
534.654	1331
534.868	1301
535.083	1290
535.297	1271
535.511	1259
535.726	1223
535.94	1217
536.154	1194
536.369	1189
536.583	1160
536.797	1147
537.011	1130
537.225	1155
537.44	1128
537.654	1121
537.868	1128
538.082	1137
538.296	1120
538.51	1101
538.724	1117
538.938	1126
539.153	1101
539.367	1099
539.581	1087
539.795	1049
540.009	1061
540.222	1060
540.436	1081
540.65	1051
540.864	1104
541.078	1148
541.292	1173
541.506	1300
541.72	1387
541.934	1247
542.147	1221
542.361	1160
542.575	1097
542.789	1069
543.002	1057
543.216	1027
543.43	1041
543.644	1027
543.857	1067
544.071	1050
544.285	1084
544.498	1083
544.712	1110
544.925	1095
545.139	1076
545.352	1105
545.566	1113
545.779	1071
545.993	1056
546.206	1126
546.42	1115
546.633	1132
546.847	1068
547.06	1104
547.274	1099
