Data from SnStandardFlinnAPT0064_LampEnergy10_LIBS07252019.E.O._I.C._HRD10591_15-21-16-493.txt Node
Date: Thu Jul 25 15:21:16 EDT 2019
User: cochatt
Spectrometer: HR+D1059
Trigger mode: 1
Integration Time (sec): 1.000000E-1
Scans to average: 1
Electric dark correction enabled: true
Nonlinearity correction enabled: false
Boxcar width: 0
XAxis mode: Wavelengths
Number of Pixels in Spectrum: 2048
>>>>>Begin Spectral Data<<<<<
223.165	-13.19
223.4	-13.19
223.635	-13.19
223.869	-18.19
224.104	-22.19
224.338	-23.19
224.573	-3.19
224.808	-9.19
225.042	-9.19
225.277	-10.19
225.511	-7.19
225.746	-5.19
225.98	2.81
226.215	13.81
226.449	21.81
226.683	20.81
226.918	34.81
227.152	26.81
227.387	24.81
227.621	37.81
227.856	48.81
228.09	52.81
228.324	49.81
228.559	48.81
228.793	128.81
229.027	316.81
229.262	335.81
229.496	312.81
229.73	284.81
229.964	282.81
230.199	286.81
230.433	307.81
230.667	326.81
230.901	326.81
231.136	316.81
231.37	335.81
231.604	380.81
231.838	436.81
232.072	515.81
232.306	554.81
232.541	456.81
232.775	433.81
233.009	437.81
233.243	428.81
233.477	465.81
233.711	518.81
233.945	576.81
234.179	513.81
234.413	462.81
234.647	439.81
234.881	470.81
235.115	532.81
235.349	621.81
235.583	788.81
235.817	1027.81
236.051	1016.81
236.285	670.81
236.519	536.81
236.753	491.81
236.987	493.81
237.221	542.81
237.455	520.81
237.689	456.81
237.922	466.81
238.156	472.81
238.39	500.81
238.624	474.81
238.858	473.81
239.091	484.81
239.325	478.81
239.559	513.81
239.793	512.81
240.027	514.81
240.26	558.81
240.494	572.81
240.728	584.81
240.961	628.81
241.195	650.81
241.429	690.81
241.662	722.81
241.896	770.81
242.13	941.81
242.363	1276.81
242.597	1616.81
242.83	1532.81
243.064	1536.81
243.298	1825.81
243.531	1494.81
243.765	931.81
243.998	772.81
244.232	707.81
244.465	677.81
244.699	652.81
244.932	668.81
245.166	650.81
245.399	669.81
245.633	674.81
245.866	678.81
246.099	692.81
246.333	653.81
246.566	642.81
246.8	653.81
247.033	654.81
247.266	629.81
247.5	667.81
247.733	665.81
247.966	710.81
248.2	756.81
248.433	870.81
248.666	1016.81
248.899	970.81
249.133	865.81
249.366	888.81
249.599	948.81
249.832	1095.81
250.066	1106.81
250.299	863.81
250.532	790.81
250.765	772.81
250.998	752.81
251.231	737.81
251.465	736.81
251.698	746.81
251.931	754.81
252.164	767.81
252.397	776.81
252.63	819.81
252.863	821.81
253.096	790.81
253.329	796.81
253.562	776.81
253.795	796.81
254.028	810.81
254.261	820.81
254.494	888.81
254.727	1006.81
254.96	1228.81
255.193	1245.81
255.426	959.81
255.659	856.81
255.892	854.81
256.124	877.81
256.357	846.81
256.59	916.81
256.823	958.81
257.056	1114.81
257.289	1373.81
257.521	1496.81
257.754	1219.81
257.987	992.81
258.22	919.81
258.452	905.81
258.685	932.81
258.918	988.81
259.151	992.81
259.383	1077.81
259.616	1206.81
259.849	1280.81
260.081	1082.81
260.314	1019.81
260.547	951.81
260.779	961.81
261.012	961.81
261.244	978.81
261.477	997.81
261.71	959.81
261.942	980.81
262.175	1006.81
262.407	1064.81
262.64	1086.81
262.872	1097.81
263.105	1141.81
263.337	1220.81
263.57	1312.81
263.802	1323.81
264.035	1326.81
264.267	1342.81
264.499	1363.81
264.732	1429.81
264.964	1473.81
265.197	1451.81
265.429	1457.81
265.661	1513.81
265.894	1579.81
266.126	1803.81
266.358	1985.81
266.591	1935.81
266.823	1652.81
267.055	1474.81
267.287	1411.81
267.52	1346.81
267.752	1300.81
267.984	1341.81
268.216	1273.81
268.448	1248.81
268.681	1232.81
268.913	1227.81
269.145	1266.81
269.377	1245.81
269.609	1278.81
269.841	1316.81
270.073	1365.81
270.306	1586.81
270.538	2198.81
270.77	3219.81
271.002	3970.81
271.234	2762.81
271.466	1856.81
271.698	1539.81
271.93	1412.81
272.162	1292.81
272.394	1275.81
272.626	1276.81
272.858	1233.81
273.09	1221.81
273.322	1213.81
273.553	1184.81
273.785	1210.81
274.017	1170.81
274.249	1202.81
274.481	1255.81
274.713	1227.81
274.945	1202.81
275.176	1246.81
275.408	1224.81
275.64	1258.81
275.872	1267.81
276.104	1272.81
276.335	1258.81
276.567	1293.81
276.799	1250.81
277.031	1310.81
277.262	1340.81
277.494	1403.81
277.726	1574.81
277.957	1871.81
278.189	2109.81
278.421	2003.81
278.652	1763.81
278.884	1722.81
279.115	1468.81
279.347	1414.81
279.579	1366.81
279.81	1405.81
280.042	1403.81
280.273	1396.81
280.505	1451.81
280.736	1509.81
280.968	1584.81
281.199	1788.81
281.431	2092.81
281.662	2108.81
281.894	1808.81
282.125	1611.81
282.356	1641.81
282.588	1689.81
282.819	1716.81
283.051	1808.81
283.282	2026.81
283.513	2494.81
283.745	3646.81
283.976	5693.81
284.207	8101.81
284.439	7413.81
284.67	4595.81
284.901	3702.81
285.132	3756.81
285.364	3543.81
285.595	2722.81
285.826	2459.81
286.057	2811.81
286.288	3889.81
286.52	5274.81
286.751	4870.81
286.982	3019.81
287.213	2296.81
287.444	1985.81
287.675	1845.81
287.906	1812.81
288.138	1742.81
288.369	1731.81
288.6	1723.81
288.831	1668.81
289.062	1670.81
289.293	1681.81
289.524	1694.81
289.755	1735.81
289.986	1724.81
290.217	1717.81
290.448	1737.81
290.679	1749.81
290.91	1802.81
291.141	1854.81
291.371	2030.81
291.602	2106.81
291.833	1926.81
292.064	1740.81
292.295	1702.81
292.526	1662.81
292.757	1586.81
292.987	1614.81
293.218	1606.81
293.449	1618.81
293.68	1601.81
293.91	1550.81
294.141	1569.81
294.372	1563.81
294.603	1604.81
294.833	1551.81
295.064	1555.81
295.295	1543.81
295.525	1604.81
295.756	1567.81
295.987	1546.81
296.217	1595.81
296.448	1611.81
296.679	1557.81
296.909	1600.81
297.14	1594.81
297.37	1642.81
297.601	1620.81
297.831	1596.81
298.062	1643.81
298.292	1668.81
298.523	1700.81
298.753	1699.81
298.984	1693.81
299.214	1768.81
299.445	1734.81
299.675	1784.81
299.905	1846.81
300.136	1906.81
300.366	2130.81
300.597	2773.81
300.827	3885.81
301.057	5285.81
301.288	5272.81
301.518	3371.81
301.748	2579.81
301.979	2348.81
302.209	2289.81
302.439	2325.81
302.669	2473.81
302.9	2941.81
303.13	4188.81
303.36	6218.81
303.59	8301.81
303.82	7225.81
304.051	4243.81
304.281	3053.81
304.511	2534.81
304.741	2333.81
304.971	2204.81
305.201	2076.81
305.431	1998.81
305.661	1987.81
305.891	1912.81
306.121	1868.81
306.352	1859.81
306.582	1852.81
306.812	1824.81
307.042	1853.81
307.272	1853.81
307.502	1865.81
307.731	1859.81
307.961	1824.81
308.191	1801.81
308.421	1795.81
308.651	1825.81
308.881	1828.81
309.111	1783.81
309.341	1815.81
309.571	1817.81
309.8	1847.81
310.03	1890.81
310.26	1896.81
310.49	1880.81
310.72	1880.81
310.949	1902.81
311.179	1894.81
311.409	1898.81
311.639	1938.81
311.868	1945.81
312.098	1977.81
312.328	1960.81
312.557	1973.81
312.787	1954.81
313.017	1972.81
313.246	1999.81
313.476	2042.81
313.706	2062.81
313.935	2220.81
314.165	2330.81
314.394	2472.81
314.624	2395.81
314.853	2174.81
315.083	2200.81
315.312	2151.81
315.542	2202.81
315.771	2237.81
316.001	2264.81
316.23	2324.81
316.46	2473.81
316.689	2683.81
316.919	3242.81
317.148	4636.81
317.377	7150.81
317.607	10486.81
317.836	10954.81
318.065	6509.81
318.295	4240.81
318.524	3412.81
318.753	2933.81
318.983	2783.81
319.212	2622.81
319.441	2476.81
319.67	2458.81
319.9	2376.81
320.129	2389.81
320.358	2380.81
320.587	2361.81
320.816	2367.81
321.046	2359.81
321.275	2306.81
321.504	2443.81
321.733	2448.81
321.962	2480.81
322.191	2568.81
322.42	2473.81
322.649	2530.81
322.878	2515.81
323.108	2500.81
323.337	2564.81
323.566	2553.81
323.795	2606.81
324.024	2662.81
324.253	2731.81
324.482	2845.81
324.71	2995.81
324.939	3242.81
325.168	3240.81
325.397	3405.81
325.626	4021.81
325.855	5686.81
326.084	8881.81
326.313	12806.81
326.542	13451.81
326.77	9080.81
326.999	5912.81
327.228	5038.81
327.457	4742.81
327.686	4754.81
327.914	5122.81
328.143	6036.81
328.372	7220.81
328.6	7831.81
328.829	7010.81
329.058	5814.81
329.287	5114.81
329.515	4610.81
329.744	4240.81
329.972	4066.81
330.201	3893.81
330.43	3713.81
330.658	3598.81
330.887	3596.81
331.115	3536.81
331.344	3494.81
331.572	3452.81
331.801	3540.81
332.03	3502.81
332.258	3596.81
332.486	3795.81
332.715	4262.81
332.943	5350.81
333.172	6566.81
333.4	6590.81
333.629	4960.81
333.857	4528.81
334.085	4533.81
334.314	4732.81
334.542	5105.81
334.771	6080.81
334.999	7432.81
335.227	9360.81
335.455	10502.81
335.684	9333.81
335.912	7596.81
336.14	6460.81
336.369	5680.81
336.597	5208.81
336.825	4836.81
337.053	4533.81
337.281	4237.81
337.51	4026.81
337.738	3922.81
337.966	3708.81
338.194	3607.81
338.422	3542.81
338.65	3411.81
338.878	3345.81
339.106	3303.81
339.334	3274.81
339.562	3218.81
339.79	3109.81
340.018	3089.81
340.246	3057.81
340.474	3030.81
340.702	3040.81
340.93	3029.81
341.158	3032.81
341.386	3038.81
341.614	3007.81
341.842	2915.81
342.07	2879.81
342.298	2810.81
342.526	2781.81
342.754	2790.81
342.981	2728.81
343.209	2736.81
343.437	2774.81
343.665	2798.81
343.893	2850.81
344.12	2899.81
344.348	2786.81
344.576	2726.81
344.804	2727.81
345.031	2674.81
345.259	2662.81
345.487	2596.81
345.714	2627.81
345.942	2533.81
346.17	2550.81
346.397	2534.81
346.625	2531.81
346.853	2515.81
347.08	2530.81
347.308	2536.81
347.535	2547.81
347.763	2532.81
347.99	2484.81
348.218	2467.81
348.445	2468.81
348.673	2473.81
348.9	2470.81
349.128	2496.81
349.355	2468.81
349.583	2442.81
349.81	2396.81
350.037	2413.81
350.265	2445.81
350.492	2440.81
350.72	2423.81
350.947	2371.81
351.174	2412.81
351.402	2466.81
351.629	2420.81
351.856	2379.81
352.083	2416.81
352.311	2420.81
352.538	2367.81
352.765	2422.81
352.992	2366.81
353.22	2358.81
353.447	2388.81
353.674	2430.81
353.901	2391.81
354.128	2429.81
354.355	2391.81
354.583	2418.81
354.81	2424.81
355.037	2444.81
355.264	2493.81
355.491	2484.81
355.718	2447.81
355.945	2438.81
356.172	2470.81
356.399	2457.81
356.626	2501.81
356.853	2506.81
357.08	2509.81
357.307	2549.81
357.534	2574.81
357.761	2597.81
357.988	2618.81
358.215	2553.81
358.441	2608.81
358.668	2552.81
358.895	2553.81
359.122	2529.81
359.349	2529.81
359.576	2529.81
359.802	2586.81
360.029	2571.81
360.256	2578.81
360.483	2541.81
360.709	2548.81
360.936	2638.81
361.163	2583.81
361.39	2614.81
361.616	2613.81
361.843	2556.81
362.07	2587.81
362.296	2575.81
362.523	2587.81
362.749	2593.81
362.976	2589.81
363.203	2582.81
363.429	2569.81
363.656	2566.81
363.882	2567.81
364.109	2548.81
364.335	2540.81
364.562	2530.81
364.788	2559.81
365.015	2676.81
365.241	2624.81
365.468	2800.81
365.694	2938.81
365.92	2870.81
366.147	2634.81
366.373	2642.81
366.599	2646.81
366.826	2690.81
367.052	2616.81
367.278	2624.81
367.505	2624.81
367.731	2666.81
367.957	2622.81
368.184	2620.81
368.41	2673.81
368.636	2649.81
368.862	2706.81
369.089	2679.81
369.315	2699.81
369.541	2640.81
369.767	2652.81
369.993	2633.81
370.219	2662.81
370.445	2649.81
370.672	2769.81
370.898	2742.81
371.124	2718.81
371.35	2744.81
371.576	2737.81
371.802	2759.81
372.028	2762.81
372.254	2752.81
372.48	2762.81
372.706	2870.81
372.932	2830.81
373.158	2838.81
373.384	2846.81
373.61	2833.81
373.835	2797.81
374.061	2816.81
374.287	2859.81
374.513	2799.81
374.739	2894.81
374.965	2928.81
375.191	2948.81
375.416	2924.81
375.642	2850.81
375.868	2878.81
376.094	2826.81
376.319	2822.81
376.545	2768.81
376.771	2766.81
376.997	2766.81
377.222	2770.81
377.448	2766.81
377.674	2780.81
377.899	2755.81
378.125	2776.81
378.35	2748.81
378.576	2782.81
378.802	2787.81
379.027	2845.81
379.253	2916.81
379.478	3038.81
379.704	3654.81
379.929	5214.81
380.155	7900.81
380.38	8578.81
380.606	5331.81
380.831	3678.81
381.057	3265.81
381.282	3008.81
381.507	2860.81
381.733	2787.81
381.958	2798.81
382.184	2725.81
382.409	2728.81
382.634	2680.81
382.86	2702.81
383.085	2671.81
383.31	2705.81
383.535	2710.81
383.761	2683.81
383.986	2723.81
384.211	2758.81
384.436	2753.81
384.662	2796.81
384.887	2766.81
385.112	2781.81
385.337	2769.81
385.562	2776.81
385.787	2806.81
386.013	2822.81
386.238	2784.81
386.463	2787.81
386.688	2784.81
386.913	2776.81
387.138	2766.81
387.363	2809.81
387.588	2738.81
387.813	2757.81
388.038	2740.81
388.263	2777.81
388.488	2770.81
388.713	2786.81
388.938	2776.81
389.163	2764.81
389.387	2783.81
389.612	2728.81
389.837	2783.81
390.062	2836.81
390.287	2778.81
390.512	2818.81
390.736	2901.81
390.961	2902.81
391.186	2867.81
391.411	2932.81
391.636	2967.81
391.86	2930.81
392.085	2892.81
392.31	2891.81
392.534	2859.81
392.759	2876.81
392.984	2808.81
393.208	2878.81
393.433	2805.81
393.658	2761.81
393.882	2794.81
394.107	2797.81
394.331	2867.81
394.556	2829.81
394.78	2786.81
395.005	2846.81
395.229	2852.81
395.454	2951.81
395.678	2913.81
395.903	2919.81
396.127	2947.81
396.352	2878.81
396.576	2850.81
396.801	2891.81
397.025	2893.81
397.249	2914.81
397.474	2953.81
397.698	2956.81
397.922	2937.81
398.147	2953.81
398.371	2989.81
398.595	3051.81
398.82	3096.81
399.044	3258.81
399.268	3343.81
399.492	3572.81
399.717	3688.81
399.941	3686.81
400.165	3577.81
400.389	3440.81
400.613	3242.81
400.837	3192.81
401.062	3159.81
401.286	3108.81
401.51	3100.81
401.734	3047.81
401.958	3081.81
402.182	3063.81
402.406	3041.81
402.63	3077.81
402.854	3133.81
403.078	3112.81
403.302	3168.81
403.526	3156.81
403.75	3146.81
403.974	3190.81
404.198	3187.81
404.422	3180.81
404.645	3210.81
404.869	3157.81
405.093	3206.81
405.317	3177.81
405.541	3247.81
405.765	3330.81
405.988	3273.81
406.212	3301.81
406.436	3328.81
406.66	3341.81
406.883	3308.81
407.107	3360.81
407.331	3392.81
407.555	3518.81
407.778	3533.81
408.002	3488.81
408.226	3422.81
408.449	3388.81
408.673	3356.81
408.896	3275.81
409.12	3192.81
409.344	3225.81
409.567	3236.81
409.791	3179.81
410.014	3200.81
410.238	3125.81
410.461	3141.81
410.685	3094.81
410.908	3130.81
411.132	3160.81
411.355	3039.81
411.578	3117.81
411.802	3082.81
412.025	3043.81
412.249	3111.81
412.472	3053.81
412.695	3062.81
412.919	3026.81
413.142	2975.81
413.365	2965.81
413.589	3029.81
413.812	2966.81
414.035	3035.81
414.258	2984.81
414.482	3010.81
414.705	2989.81
414.928	2976.81
415.151	2991.81
415.374	3002.81
415.597	2934.81
415.821	2901.81
416.044	2896.81
416.267	2880.81
416.49	2898.81
416.713	2849.81
416.936	2908.81
417.159	2856.81
417.382	2801.81
417.605	2816.81
417.828	2853.81
418.051	2919.81
418.274	2930.81
418.497	2912.81
418.72	2994.81
418.943	2940.81
419.166	3049.81
419.389	3246.81
419.611	3176.81
419.834	3079.81
420.057	3044.81
420.28	2931.81
420.503	2852.81
420.726	2874.81
420.948	2887.81
421.171	2885.81
421.394	2893.81
421.617	2874.81
421.839	2897.81
422.062	2931.81
422.285	2854.81
422.507	2885.81
422.73	2939.81
422.953	3026.81
423.175	3063.81
423.398	3014.81
423.621	2876.81
423.843	2899.81
424.066	2917.81
424.288	2886.81
424.511	2856.81
424.733	2905.81
424.956	2848.81
425.178	2839.81
425.401	2802.81
425.623	2848.81
425.846	2825.81
426.068	2778.81
426.291	2764.81
426.513	2781.81
426.735	2777.81
426.958	2768.81
427.18	2738.81
427.402	2712.81
427.625	2748.81
427.847	2665.81
428.069	2680.81
428.292	2701.81
428.514	2665.81
428.736	2672.81
428.958	2690.81
429.181	2654.81
429.403	2650.81
429.625	2651.81
429.847	2675.81
430.069	2685.81
430.292	2817.81
430.514	2828.81
430.736	2852.81
430.958	2731.81
431.18	2697.81
431.402	2648.81
431.624	2598.81
431.846	2638.81
432.068	2654.81
432.29	2645.81
432.512	2556.81
432.734	2617.81
432.956	2679.81
433.178	2677.81
433.4	2601.81
433.622	2689.81
433.844	2707.81
434.066	2664.81
434.287	2626.81
434.509	2668.81
434.731	2744.81
434.953	2749.81
435.175	2772.81
435.397	2790.81
435.618	2677.81
435.84	2722.81
436.062	2636.81
436.284	2642.81
436.505	2621.81
436.727	2659.81
436.949	2634.81
437.17	2603.81
437.392	2586.81
437.614	2617.81
437.835	2557.81
438.057	2565.81
438.278	2558.81
438.5	2574.81
438.721	2572.81
438.943	2646.81
439.165	2777.81
439.386	2738.81
439.608	2777.81
439.829	2743.81
440.05	2873.81
440.272	2909.81
440.493	2777.81
440.715	2771.81
440.936	2729.81
441.158	2767.81
441.379	2761.81
441.6	2833.81
441.822	2954.81
442.043	3112.81
442.264	3166.81
442.486	2938.81
442.707	2873.81
442.928	2834.81
443.149	2831.81
443.371	2812.81
443.592	2836.81
443.813	2848.81
444.034	2880.81
444.255	2911.81
444.476	2940.81
444.698	2946.81
444.919	3012.81
445.14	3059.81
445.361	3002.81
445.582	2904.81
445.803	2801.81
446.024	2814.81
446.245	2792.81
446.466	2814.81
446.687	2736.81
446.908	2774.81
447.129	2681.81
447.35	2682.81
447.571	2680.81
447.792	2585.81
448.013	2648.81
448.234	2614.81
448.455	2560.81
448.675	2631.81
448.896	2698.81
449.117	2803.81
449.338	3020.81
449.559	3151.81
449.779	2802.81
450	2664.81
450.221	2554.81
450.442	2568.81
450.662	2578.81
450.883	2500.81
451.104	2539.81
451.324	2523.81
451.545	2573.81
451.766	2562.81
451.986	2606.81
452.207	2843.81
452.428	3638.81
452.648	5428.81
452.869	4520.81
453.089	3159.81
453.31	2934.81
453.53	3007.81
453.751	3022.81
453.971	3204.81
454.192	3104.81
454.412	2710.81
454.633	2535.81
454.853	2498.81
455.073	2455.81
455.294	2504.81
455.514	2418.81
455.734	2470.81
455.955	2405.81
456.175	2403.81
456.395	2412.81
456.616	2422.81
456.836	2458.81
457.056	2500.81
457.276	2482.81
457.497	2643.81
457.717	2647.81
457.937	2566.81
458.157	2556.81
458.377	2569.81
458.598	2616.81
458.818	2629.81
459.038	2592.81
459.258	2649.81
459.478	2658.81
459.698	2676.81
459.918	2751.81
460.138	2748.81
460.358	2790.81
460.578	2840.81
460.798	2876.81
461.018	2915.81
461.238	2885.81
461.458	2914.81
461.678	2891.81
461.898	3007.81
462.118	3021.81
462.338	3046.81
462.558	3125.81
462.777	3112.81
462.997	3266.81
463.217	3405.81
463.437	3512.81
463.657	3632.81
463.876	3608.81
464.096	3373.81
464.316	3196.81
464.536	3186.81
464.755	3140.81
464.975	3013.81
465.195	2954.81
465.414	2806.81
465.634	2750.81
465.854	2759.81
466.073	2751.81
466.293	2742.81
466.512	2698.81
466.732	2693.81
466.951	2828.81
467.171	3004.81
467.391	2928.81
467.61	2731.81
467.829	2636.81
468.049	2635.81
468.268	2598.81
468.488	2569.81
468.707	2562.81
468.927	2608.81
469.146	2554.81
469.365	2655.81
469.585	2641.81
469.804	2703.81
470.023	2781.81
470.243	2804.81
470.462	2866.81
470.681	3050.81
470.901	3315.81
471.12	3808.81
471.339	3801.81
471.558	3177.81
471.777	2915.81
471.997	2726.81
472.216	2710.81
472.435	2674.81
472.654	2624.81
472.873	2592.81
473.092	2641.81
473.311	2636.81
473.53	2649.81
473.749	2701.81
473.968	2831.81
474.187	2659.81
474.406	2578.81
474.625	2592.81
474.844	2627.81
475.063	2614.81
475.282	2640.81
475.501	2660.81
475.72	2654.81
475.939	2662.81
476.158	2728.81
476.377	2818.81
476.596	2772.81
476.814	2804.81
477.033	2735.81
477.252	2835.81
477.471	2867.81
477.69	2889.81
477.908	2973.81
478.127	2934.81
478.346	2974.81
478.564	2993.81
478.783	3013.81
479.002	3101.81
479.22	3111.81
479.439	3111.81
479.658	3101.81
479.876	3147.81
480.095	3170.81
480.313	3184.81
480.532	3279.81
480.751	3268.81
480.969	3207.81
481.188	3192.81
481.406	3216.81
481.624	3178.81
481.843	3213.81
482.061	3197.81
482.28	3174.81
482.498	3140.81
482.717	3102.81
482.935	3170.81
483.153	3237.81
483.372	3266.81
483.59	3303.81
483.808	3336.81
484.027	3453.81
484.245	3626.81
484.463	4034.81
484.681	4542.81
484.9	4164.81
485.118	3763.81
485.336	3804.81
485.554	3821.81
485.772	4053.81
485.99	4629.81
486.209	4922.81
486.427	4139.81
486.645	3718.81
486.863	3541.81
487.081	3421.81
487.299	3415.81
487.517	3358.81
487.735	3352.81
