Data from SnStandardFlinnAPT0064_LampEnergy5.5_LIBS07252019.E.O._I.C._HRD10591_15-15-09-491.txt Node
Date: Thu Jul 25 15:15:09 EDT 2019
User: cochatt
Spectrometer: HR+D1059
Trigger mode: 1
Integration Time (sec): 1.000000E-1
Scans to average: 1
Electric dark correction enabled: true
Nonlinearity correction enabled: false
Boxcar width: 0
XAxis mode: Wavelengths
Number of Pixels in Spectrum: 2048
>>>>>Begin Spectral Data<<<<<
223.165	-20.5
223.4	-20.5
223.635	-20.5
223.869	-26.5
224.104	-7.5
224.338	-18.5
224.573	-19.5
224.808	-21.5
225.042	-9.5
225.277	-10.5
225.511	-6.5
225.746	12.5
225.98	14.5
226.215	7.5
226.449	24.5
226.683	30.5
226.918	27.5
227.152	23.5
227.387	38.5
227.621	44.5
227.856	37.5
228.09	37.5
228.324	34.5
228.559	43.5
228.793	86.5
229.027	127.5
229.262	138.5
229.496	155.5
229.73	150.5
229.964	141.5
230.199	155.5
230.433	137.5
230.667	162.5
230.901	159.5
231.136	169.5
231.37	157.5
231.604	176.5
231.838	213.5
232.072	207.5
232.306	214.5
232.541	197.5
232.775	179.5
233.009	183.5
233.243	204.5
233.477	200.5
233.711	211.5
233.945	240.5
234.179	222.5
234.413	208.5
234.647	192.5
234.881	215.5
235.115	231.5
235.349	256.5
235.583	316.5
235.817	368.5
236.051	377.5
236.285	278.5
236.519	231.5
236.753	216.5
236.987	203.5
237.221	237.5
237.455	216.5
237.689	215.5
237.922	206.5
238.156	210.5
238.39	203.5
238.624	219.5
238.858	213.5
239.091	212.5
239.325	234.5
239.559	228.5
239.793	222.5
240.027	223.5
240.26	230.5
240.494	246.5
240.728	236.5
240.961	230.5
241.195	269.5
241.429	264.5
241.662	297.5
241.896	316.5
242.13	360.5
242.363	430.5
242.597	551.5
242.83	545.5
243.064	529.5
243.298	634.5
243.531	549.5
243.765	371.5
243.998	316.5
244.232	270.5
244.465	263.5
244.699	285.5
244.932	286.5
245.166	270.5
245.399	288.5
245.633	294.5
245.866	287.5
246.099	281.5
246.333	265.5
246.566	281.5
246.8	275.5
247.033	277.5
247.266	287.5
247.5	283.5
247.733	279.5
247.966	294.5
248.2	309.5
248.433	341.5
248.666	358.5
248.899	364.5
249.133	344.5
249.366	342.5
249.599	371.5
249.832	381.5
250.066	401.5
250.299	355.5
250.532	318.5
250.765	297.5
250.998	310.5
251.231	319.5
251.465	315.5
251.698	321.5
251.931	315.5
252.164	322.5
252.397	325.5
252.63	317.5
252.863	329.5
253.096	319.5
253.329	331.5
253.562	327.5
253.795	325.5
254.028	333.5
254.261	338.5
254.494	360.5
254.727	398.5
254.96	465.5
255.193	472.5
255.426	365.5
255.659	368.5
255.892	353.5
256.124	340.5
256.357	377.5
256.59	371.5
256.823	389.5
257.056	431.5
257.289	481.5
257.521	519.5
257.754	467.5
257.987	379.5
258.22	370.5
258.452	387.5
258.685	379.5
258.918	395.5
259.151	401.5
259.383	424.5
259.616	450.5
259.849	466.5
260.081	436.5
260.314	395.5
260.547	405.5
260.779	396.5
261.012	399.5
261.244	397.5
261.477	415.5
261.71	401.5
261.942	436.5
262.175	421.5
262.407	437.5
262.64	447.5
262.872	451.5
263.105	489.5
263.337	491.5
263.57	529.5
263.802	552.5
264.035	557.5
264.267	588.5
264.499	577.5
264.732	570.5
264.964	600.5
265.197	608.5
265.429	608.5
265.661	597.5
265.894	661.5
266.126	685.5
266.358	767.5
266.591	720.5
266.823	619.5
267.055	625.5
267.287	569.5
267.52	559.5
267.752	557.5
267.984	535.5
268.216	535.5
268.448	543.5
268.681	511.5
268.913	517.5
269.145	512.5
269.377	511.5
269.609	486.5
269.841	533.5
270.073	559.5
270.306	633.5
270.538	783.5
270.77	1090.5
271.002	1298.5
271.234	945.5
271.466	689.5
271.698	578.5
271.93	559.5
272.162	520.5
272.394	499.5
272.626	522.5
272.858	512.5
273.09	512.5
273.322	511.5
273.553	493.5
273.785	488.5
274.017	491.5
274.249	488.5
274.481	496.5
274.713	491.5
274.945	488.5
275.176	498.5
275.408	491.5
275.64	493.5
275.872	495.5
276.104	509.5
276.335	516.5
276.567	538.5
276.799	525.5
277.031	540.5
277.262	519.5
277.494	568.5
277.726	597.5
277.957	656.5
278.189	704.5
278.421	682.5
278.652	633.5
278.884	584.5
279.115	584.5
279.347	559.5
279.579	555.5
279.81	558.5
280.042	561.5
280.273	587.5
280.505	557.5
280.736	557.5
280.968	621.5
281.199	646.5
281.431	703.5
281.662	703.5
281.894	673.5
282.125	612.5
282.356	640.5
282.588	625.5
282.819	649.5
283.051	703.5
283.282	736.5
283.513	914.5
283.745	1219.5
283.976	1911.5
284.207	2699.5
284.439	2401.5
284.67	1521.5
284.901	1223.5
285.132	1183.5
285.364	1126.5
285.595	917.5
285.826	889.5
286.057	1017.5
286.288	1278.5
286.52	1675.5
286.751	1601.5
286.982	1043.5
287.213	839.5
287.444	729.5
287.675	711.5
287.906	693.5
288.138	679.5
288.369	671.5
288.6	676.5
288.831	670.5
289.062	671.5
289.293	663.5
289.524	666.5
289.755	667.5
289.986	677.5
290.217	669.5
290.448	664.5
290.679	692.5
290.91	709.5
291.141	703.5
291.371	747.5
291.602	744.5
291.833	711.5
292.064	708.5
292.295	646.5
292.526	645.5
292.757	647.5
292.987	616.5
293.218	612.5
293.449	649.5
293.68	647.5
293.91	626.5
294.141	633.5
294.372	625.5
294.603	604.5
294.833	620.5
295.064	641.5
295.295	623.5
295.525	633.5
295.756	628.5
295.987	624.5
296.217	628.5
296.448	615.5
296.679	630.5
296.909	619.5
297.14	650.5
297.37	643.5
297.601	667.5
297.831	663.5
298.062	642.5
298.292	639.5
298.523	674.5
298.753	662.5
298.984	672.5
299.214	684.5
299.445	661.5
299.675	695.5
299.905	714.5
300.136	730.5
300.366	789.5
300.597	977.5
300.827	1268.5
301.057	1665.5
301.288	1671.5
301.518	1144.5
301.748	899.5
301.979	870.5
302.209	853.5
302.439	867.5
302.669	893.5
302.9	1033.5
303.13	1369.5
303.36	1951.5
303.59	2529.5
303.82	2286.5
304.051	1424.5
304.281	1087.5
304.511	937.5
304.741	849.5
304.971	827.5
305.201	780.5
305.431	778.5
305.661	742.5
305.891	732.5
306.121	757.5
306.352	743.5
306.582	713.5
306.812	728.5
307.042	716.5
307.272	718.5
307.502	717.5
307.731	709.5
307.961	704.5
308.191	721.5
308.421	714.5
308.651	725.5
308.881	729.5
309.111	726.5
309.341	707.5
309.571	765.5
309.8	743.5
310.03	729.5
310.26	717.5
310.49	757.5
310.72	739.5
310.949	769.5
311.179	741.5
311.409	750.5
311.639	777.5
311.868	772.5
312.098	787.5
312.328	780.5
312.557	786.5
312.787	782.5
313.017	774.5
313.246	815.5
313.476	789.5
313.706	789.5
313.935	821.5
314.165	885.5
314.394	884.5
314.624	841.5
314.853	832.5
315.083	832.5
315.312	830.5
315.542	844.5
315.771	840.5
316.001	839.5
316.23	868.5
316.46	929.5
316.689	981.5
316.919	1127.5
317.148	1562.5
317.377	2333.5
317.607	3336.5
317.836	3437.5
318.065	2120.5
318.295	1422.5
318.524	1211.5
318.753	1057.5
318.983	1007.5
319.212	953.5
319.441	929.5
319.67	902.5
319.9	932.5
320.129	915.5
320.358	916.5
320.587	900.5
320.816	931.5
321.046	894.5
321.275	912.5
321.504	917.5
321.733	910.5
321.962	948.5
322.191	975.5
322.42	958.5
322.649	968.5
322.878	963.5
323.108	965.5
323.337	967.5
323.566	982.5
323.795	1012.5
324.024	1015.5
324.253	1003.5
324.482	1069.5
324.71	1083.5
324.939	1153.5
325.168	1201.5
325.397	1207.5
325.626	1427.5
325.855	1864.5
326.084	2870.5
326.313	4205.5
326.542	4386.5
326.77	2927.5
326.999	1995.5
327.228	1765.5
327.457	1666.5
327.686	1675.5
327.914	1764.5
328.143	1975.5
328.372	2301.5
328.6	2449.5
328.829	2312.5
329.058	2048.5
329.287	1822.5
329.515	1738.5
329.744	1590.5
329.972	1545.5
330.201	1442.5
330.43	1405.5
330.658	1365.5
330.887	1361.5
331.115	1328.5
331.344	1301.5
331.572	1337.5
331.801	1328.5
332.03	1295.5
332.258	1339.5
332.486	1371.5
332.715	1559.5
332.943	1819.5
333.172	2133.5
333.4	2125.5
333.629	1735.5
333.857	1612.5
334.085	1653.5
334.314	1724.5
334.542	1837.5
334.771	2086.5
334.999	2477.5
335.227	2954.5
335.455	3233.5
335.684	3101.5
335.912	2693.5
336.14	2309.5
336.369	2098.5
336.597	1963.5
336.825	1832.5
337.053	1733.5
337.281	1639.5
337.51	1549.5
337.738	1471.5
337.966	1435.5
338.194	1375.5
338.422	1315.5
338.65	1319.5
338.878	1292.5
339.106	1199.5
339.334	1259.5
339.562	1241.5
339.79	1197.5
340.018	1206.5
340.246	1181.5
340.474	1191.5
340.702	1176.5
340.93	1189.5
341.158	1164.5
341.386	1177.5
341.614	1159.5
341.842	1166.5
342.07	1135.5
342.298	1114.5
342.526	1102.5
342.754	1101.5
342.981	1083.5
343.209	1106.5
343.437	1051.5
343.665	1112.5
343.893	1099.5
344.12	1136.5
344.348	1083.5
344.576	1095.5
344.804	1095.5
345.031	1061.5
345.259	1041.5
345.487	1030.5
345.714	1032.5
345.942	1020.5
346.17	1011.5
346.397	983.5
346.625	1037.5
346.853	1011.5
347.08	1000.5
347.308	987.5
347.535	980.5
347.763	973.5
347.99	980.5
348.218	976.5
348.445	956.5
348.673	967.5
348.9	975.5
349.128	988.5
349.355	960.5
349.583	964.5
349.81	979.5
350.037	954.5
350.265	956.5
350.492	959.5
350.72	946.5
350.947	973.5
351.174	953.5
351.402	966.5
351.629	954.5
351.856	960.5
352.083	944.5
352.311	950.5
352.538	944.5
352.765	960.5
352.992	961.5
353.22	918.5
353.447	944.5
353.674	984.5
353.901	956.5
354.128	953.5
354.355	939.5
354.583	958.5
354.81	977.5
355.037	955.5
355.264	965.5
355.491	970.5
355.718	976.5
355.945	973.5
356.172	957.5
356.399	1003.5
356.626	968.5
356.853	984.5
357.08	988.5
357.307	1043.5
357.534	1018.5
357.761	1009.5
357.988	1008.5
358.215	987.5
358.441	992.5
358.668	1037.5
358.895	1045.5
359.122	990.5
359.349	977.5
359.576	968.5
359.802	1030.5
360.029	997.5
360.256	1000.5
360.483	991.5
360.709	1020.5
360.936	1016.5
361.163	1040.5
361.39	1027.5
361.616	988.5
361.843	1031.5
362.07	1012.5
362.296	1027.5
362.523	1019.5
362.749	1009.5
362.976	1007.5
363.203	1024.5
363.429	1007.5
363.656	1030.5
363.882	1033.5
364.109	1019.5
364.335	1034.5
364.562	1021.5
364.788	1008.5
365.015	1015.5
365.241	1034.5
365.468	1069.5
365.694	1088.5
365.92	1089.5
366.147	1037.5
366.373	1037.5
366.599	1070.5
366.826	1023.5
367.052	1031.5
367.278	1013.5
367.505	1038.5
367.731	1051.5
367.957	1074.5
368.184	1017.5
368.41	1045.5
368.636	1067.5
368.862	1073.5
369.089	1056.5
369.315	1093.5
369.541	1060.5
369.767	1067.5
369.993	1048.5
370.219	1055.5
370.445	1061.5
370.672	1094.5
370.898	1079.5
371.124	1091.5
371.35	1059.5
371.576	1093.5
371.802	1086.5
372.028	1101.5
372.254	1086.5
372.48	1115.5
372.706	1093.5
372.932	1116.5
373.158	1138.5
373.384	1139.5
373.61	1130.5
373.835	1123.5
374.061	1134.5
374.287	1153.5
374.513	1142.5
374.739	1150.5
374.965	1181.5
375.191	1148.5
375.416	1189.5
375.642	1139.5
375.868	1131.5
376.094	1116.5
376.319	1126.5
376.545	1087.5
376.771	1120.5
376.997	1107.5
377.222	1147.5
377.448	1097.5
377.674	1100.5
377.899	1102.5
378.125	1116.5
378.35	1120.5
378.576	1128.5
378.802	1104.5
379.027	1070.5
379.253	1159.5
379.478	1167.5
379.704	1311.5
379.929	1736.5
380.155	2462.5
380.38	2667.5
380.606	1767.5
380.831	1332.5
381.057	1223.5
381.282	1171.5
381.507	1147.5
381.733	1115.5
381.958	1131.5
382.184	1104.5
382.409	1098.5
382.634	1077.5
382.86	1110.5
383.085	1090.5
383.31	1101.5
383.535	1092.5
383.761	1118.5
383.986	1084.5
384.211	1088.5
384.436	1123.5
384.662	1136.5
384.887	1139.5
385.112	1113.5
385.337	1151.5
385.562	1147.5
385.787	1139.5
386.013	1135.5
386.238	1126.5
386.463	1143.5
386.688	1143.5
386.913	1138.5
387.138	1141.5
387.363	1102.5
387.588	1091.5
387.813	1118.5
388.038	1112.5
388.263	1123.5
388.488	1139.5
388.713	1112.5
388.938	1124.5
389.163	1114.5
389.387	1124.5
389.612	1073.5
389.837	1128.5
390.062	1140.5
390.287	1117.5
390.512	1137.5
390.736	1133.5
390.961	1161.5
391.186	1140.5
391.411	1160.5
391.636	1199.5
391.86	1210.5
392.085	1186.5
392.31	1173.5
392.534	1192.5
392.759	1161.5
392.984	1147.5
393.208	1167.5
393.433	1121.5
393.658	1129.5
393.882	1144.5
394.107	1107.5
394.331	1136.5
394.556	1149.5
394.78	1161.5
395.005	1158.5
395.229	1168.5
395.454	1152.5
395.678	1187.5
395.903	1206.5
396.127	1184.5
396.352	1152.5
396.576	1155.5
396.801	1160.5
397.025	1144.5
397.249	1177.5
397.474	1196.5
397.698	1179.5
397.922	1192.5
398.147	1194.5
398.371	1207.5
398.595	1243.5
398.82	1238.5
399.044	1309.5
399.268	1389.5
399.492	1465.5
399.717	1513.5
399.941	1532.5
400.165	1436.5
400.389	1377.5
400.613	1330.5
400.837	1256.5
401.062	1283.5
401.286	1272.5
401.51	1243.5
401.734	1250.5
401.958	1225.5
402.182	1261.5
402.406	1248.5
402.63	1252.5
402.854	1287.5
403.078	1249.5
403.302	1310.5
403.526	1314.5
403.75	1272.5
403.974	1323.5
404.198	1301.5
404.422	1300.5
404.645	1283.5
404.869	1300.5
405.093	1308.5
405.317	1279.5
405.541	1307.5
405.765	1337.5
405.988	1312.5
406.212	1304.5
406.436	1323.5
406.66	1351.5
406.883	1375.5
407.107	1384.5
407.331	1415.5
407.555	1415.5
407.778	1407.5
408.002	1365.5
408.226	1364.5
408.449	1397.5
408.673	1359.5
408.896	1303.5
409.12	1313.5
409.344	1313.5
409.567	1279.5
409.791	1313.5
410.014	1299.5
410.238	1262.5
410.461	1275.5
410.685	1294.5
410.908	1278.5
411.132	1275.5
411.355	1261.5
411.578	1263.5
411.802	1239.5
412.025	1254.5
412.249	1250.5
412.472	1238.5
412.695	1243.5
412.919	1215.5
413.142	1236.5
413.365	1242.5
413.589	1238.5
413.812	1226.5
414.035	1212.5
414.258	1206.5
414.482	1229.5
414.705	1249.5
414.928	1223.5
415.151	1216.5
415.374	1253.5
415.597	1184.5
415.821	1171.5
416.044	1177.5
416.267	1165.5
416.49	1187.5
416.713	1171.5
416.936	1207.5
417.159	1165.5
417.382	1183.5
417.605	1167.5
417.828	1162.5
418.051	1192.5
418.274	1189.5
418.497	1192.5
418.72	1224.5
418.943	1177.5
419.166	1256.5
419.389	1284.5
419.611	1279.5
419.834	1281.5
420.057	1213.5
420.28	1190.5
420.503	1194.5
420.726	1193.5
420.948	1185.5
421.171	1191.5
421.394	1177.5
421.617	1211.5
421.839	1217.5
422.062	1212.5
422.285	1188.5
422.507	1228.5
422.73	1188.5
422.953	1221.5
423.175	1238.5
423.398	1216.5
423.621	1167.5
423.843	1207.5
424.066	1193.5
424.288	1186.5
424.511	1201.5
424.733	1197.5
424.956	1209.5
425.178	1204.5
425.401	1144.5
425.623	1175.5
425.846	1179.5
426.068	1149.5
426.291	1147.5
426.513	1113.5
426.735	1121.5
426.958	1135.5
427.18	1128.5
427.402	1136.5
427.625	1144.5
427.847	1115.5
428.069	1094.5
428.292	1107.5
428.514	1108.5
428.736	1124.5
428.958	1132.5
429.181	1116.5
429.403	1059.5
429.625	1103.5
429.847	1058.5
430.069	1101.5
430.292	1159.5
430.514	1176.5
430.736	1157.5
430.958	1124.5
431.18	1145.5
431.402	1092.5
431.624	1083.5
431.846	1074.5
432.068	1051.5
432.29	1101.5
432.512	1088.5
432.734	1067.5
432.956	1097.5
433.178	1125.5
433.4	1084.5
433.622	1128.5
433.844	1138.5
434.066	1084.5
434.287	1071.5
434.509	1085.5
434.731	1140.5
434.953	1140.5
435.175	1151.5
435.397	1134.5
435.618	1094.5
435.84	1098.5
436.062	1099.5
436.284	1103.5
436.505	1063.5
436.727	1100.5
436.949	1069.5
437.17	1089.5
437.392	1075.5
437.614	1103.5
437.835	1045.5
438.057	1039.5
438.278	1046.5
438.5	1053.5
438.721	1089.5
438.943	1133.5
439.165	1092.5
439.386	1102.5
439.608	1129.5
439.829	1161.5
440.05	1147.5
440.272	1143.5
440.493	1135.5
440.715	1117.5
440.936	1163.5
441.158	1130.5
441.379	1175.5
441.6	1200.5
441.822	1195.5
442.043	1231.5
442.264	1276.5
442.486	1197.5
442.707	1167.5
442.928	1182.5
443.149	1156.5
443.371	1148.5
443.592	1207.5
443.813	1192.5
444.034	1173.5
444.255	1196.5
444.476	1225.5
444.698	1253.5
444.919	1267.5
445.14	1295.5
445.361	1286.5
445.582	1223.5
445.803	1176.5
446.024	1179.5
446.245	1169.5
446.466	1189.5
446.687	1186.5
446.908	1166.5
447.129	1149.5
447.35	1112.5
447.571	1137.5
447.792	1083.5
448.013	1069.5
448.234	1083.5
448.455	1094.5
448.675	1083.5
448.896	1101.5
449.117	1121.5
449.338	1181.5
449.559	1216.5
449.779	1126.5
450	1096.5
450.221	1072.5
450.442	1051.5
450.662	1057.5
450.883	1059.5
451.104	1041.5
451.324	1053.5
451.545	1009.5
451.766	1051.5
451.986	1055.5
452.207	1099.5
452.428	1252.5
452.648	1655.5
452.869	1498.5
453.089	1165.5
453.31	1141.5
453.53	1152.5
453.751	1156.5
453.971	1187.5
454.192	1197.5
454.412	1055.5
454.633	1035.5
454.853	1017.5
455.073	1043.5
455.294	966.5
455.514	959.5
455.734	965.5
455.955	975.5
456.175	1000.5
456.395	987.5
456.616	986.5
456.836	1013.5
457.056	1023.5
457.276	1013.5
457.497	1052.5
457.717	1047.5
457.937	1028.5
458.157	1025.5
458.377	1034.5
458.598	1033.5
458.818	1062.5
459.038	1088.5
459.258	1076.5
459.478	1102.5
459.698	1091.5
459.918	1106.5
460.138	1144.5
460.358	1145.5
460.578	1162.5
460.798	1185.5
461.018	1181.5
461.238	1197.5
461.458	1190.5
461.678	1180.5
461.898	1264.5
462.118	1231.5
462.338	1234.5
462.558	1274.5
462.777	1255.5
462.997	1317.5
463.217	1357.5
463.437	1395.5
463.657	1351.5
463.876	1373.5
464.096	1336.5
464.316	1285.5
464.536	1264.5
464.755	1245.5
464.975	1225.5
465.195	1208.5
465.414	1172.5
465.634	1144.5
465.854	1112.5
466.073	1109.5
466.293	1103.5
466.512	1124.5
466.732	1096.5
466.951	1139.5
467.171	1221.5
467.391	1200.5
467.61	1110.5
467.829	1082.5
468.049	1079.5
468.268	1048.5
468.488	1060.5
468.707	1089.5
468.927	1075.5
469.146	1045.5
469.365	1081.5
469.585	1079.5
469.804	1125.5
470.023	1143.5
470.243	1151.5
470.462	1174.5
470.681	1189.5
470.901	1301.5
471.12	1425.5
471.339	1441.5
471.558	1251.5
471.777	1133.5
471.997	1116.5
472.216	1108.5
472.435	1069.5
472.654	1052.5
472.873	1023.5
473.092	1063.5
473.311	1115.5
473.53	1103.5
473.749	1100.5
473.968	1116.5
474.187	1093.5
474.406	1100.5
474.625	1112.5
474.844	1087.5
475.063	1086.5
475.282	1091.5
475.501	1081.5
475.72	1078.5
475.939	1086.5
476.158	1120.5
476.377	1168.5
476.596	1126.5
476.814	1120.5
477.033	1111.5
477.252	1147.5
477.471	1155.5
477.69	1160.5
477.908	1167.5
478.127	1241.5
478.346	1236.5
478.564	1215.5
478.783	1241.5
479.002	1271.5
479.22	1252.5
479.439	1310.5
479.658	1293.5
479.876	1257.5
480.095	1307.5
480.313	1305.5
480.532	1289.5
480.751	1291.5
480.969	1277.5
481.188	1241.5
481.406	1285.5
481.624	1244.5
481.843	1281.5
482.061	1259.5
482.28	1291.5
482.498	1285.5
482.717	1301.5
482.935	1298.5
483.153	1327.5
483.372	1319.5
483.59	1351.5
483.808	1349.5
484.027	1413.5
484.245	1429.5
484.463	1564.5
484.681	1661.5
484.9	1574.5
485.118	1495.5
485.336	1466.5
485.554	1494.5
485.772	1559.5
485.99	1663.5
486.209	1833.5
486.427	1595.5
486.645	1465.5
486.863	1416.5
487.081	1395.5
487.299	1363.5
487.517	1353.5
487.735	1370.5
487.953	1405.5
488.171	1423.5
488.389	1374.5
488.607	1356.5
488.825	1328.5
489.043	1319.5
489.261	1302.5
489.479	1335.5
489.696	1341.5
489.914	1340.5
490.132	1381.5
490.35	1368.5
490.568	1351.5
490.786	1371.5
491.003	1385.5
491.221	1413.5
491.439	1392.5
491.657	1424.5
491.874	1443.5
492.092	1476.5
492.31	1456.5
492.527	1444.5
492.745	1421.5
492.963	1403.5
493.18	1397.5
493.398	1432.5
493.615	1447.5
493.833	1426.5
494.05	1382.5
494.268	1457.5
494.485	1400.5
494.703	1450.5
494.92	1414.5
495.138	1400.5
495.355	1431.5
495.573	1406.5
495.79	1409.5
496.008	1481.5
496.225	1448.5
496.442	1469.5
496.66	1484.5
496.877	1549.5
497.094	1539.5
497.312	1541.5
497.529	1515.5
497.746	1476.5
497.963	1530.5
498.181	1571.5
498.398	1632.5
498.615	1673.5
498.832	1712.5
499.049	1830.5
499.267	1875.5
499.484	2020.5
499.701	2054.5
499.918	2137.5
500.135	2293.5
500.352	2402.5
500.569	2459.5
500.786	2365.5
501.003	2341.5
501.22	2215.5
501.437	2109.5
501.654	1923.5
501.871	1888.5
502.088	1791.5
502.305	1765.5
502.522	1680.5
502.739	1645.5
502.956	1607.5
503.172	1555.5
503.389	1475.5
503.606	1526.5
503.823	1445.5
504.04	1477.5
504.256	1469.5
504.473	1468.5
504.69	1417.5
504.907	1458.5
505.123	1393.5
505.34	1370.5
505.557	1347.5
505.773	1337.5
505.99	1328.5
506.207	1309.5
506.423	1291.5
506.64	1286.5
506.856	1265.5
507.073	1260.5
507.289	1221.5
507.506	1277.5
507.722	1251.5
507.939	1209.5
508.155	1219.5
