Data from SnStandardFlinnAPT0064_QswitchEnergy10_LIBS07252019.E.O._I.C._HRD10591_15-28-12-973.txt Node
Date: Thu Jul 25 15:28:12 EDT 2019
User: cochatt
Spectrometer: HR+D1059
Trigger mode: 1
Integration Time (sec): 1.000000E-1
Scans to average: 1
Electric dark correction enabled: true
Nonlinearity correction enabled: false
Boxcar width: 0
XAxis mode: Wavelengths
Number of Pixels in Spectrum: 2048
>>>>>Begin Spectral Data<<<<<
223.165	-15.06
223.4	-15.06
223.635	-15.06
223.869	-25.06
224.104	-20.06
224.338	-14.06
224.573	-4.06
224.808	-9.06
225.042	-6.06
225.277	-4.06
225.511	-0.06
225.746	8.94
225.98	10.94
226.215	2.94
226.449	14.94
226.683	10.94
226.918	17.94
227.152	30.94
227.387	38.94
227.621	38.94
227.856	41.94
228.09	52.94
228.324	57.94
228.559	69.94
228.793	64.94
229.027	69.94
229.262	61.94
229.496	75.94
229.73	58.94
229.964	66.94
230.199	66.94
230.433	69.94
230.667	82.94
230.901	75.94
231.136	83.94
231.37	86.94
231.604	102.94
231.838	103.94
232.072	118.94
232.306	116.94
232.541	108.94
232.775	79.94
233.009	80.94
233.243	74.94
233.477	90.94
233.711	95.94
233.945	106.94
234.179	75.94
234.413	100.94
234.647	75.94
234.881	92.94
235.115	79.94
235.349	86.94
235.583	93.94
235.817	129.94
236.051	111.94
236.285	90.94
236.519	85.94
236.753	85.94
236.987	90.94
237.221	85.94
237.455	82.94
237.689	75.94
237.922	86.94
238.156	81.94
238.39	84.94
238.624	100.94
238.858	94.94
239.091	82.94
239.325	79.94
239.559	79.94
239.793	77.94
240.027	77.94
240.26	78.94
240.494	101.94
240.728	89.94
240.961	95.94
241.195	102.94
241.429	72.94
241.662	70.94
241.896	96.94
242.13	99.94
242.363	129.94
242.597	128.94
242.83	113.94
243.064	129.94
243.298	154.94
243.531	138.94
243.765	110.94
243.998	85.94
244.232	98.94
244.465	78.94
244.699	75.94
244.932	82.94
245.166	86.94
245.399	87.94
245.633	71.94
245.866	78.94
246.099	65.94
246.333	83.94
246.566	74.94
246.8	74.94
247.033	93.94
247.266	80.94
247.5	74.94
247.733	85.94
247.966	81.94
248.2	93.94
248.433	106.94
248.666	121.94
248.899	105.94
249.133	81.94
249.366	89.94
249.599	93.94
249.832	110.94
250.066	123.94
250.299	85.94
250.532	66.94
250.765	73.94
250.998	80.94
251.231	84.94
251.465	84.94
251.698	82.94
251.931	81.94
252.164	88.94
252.397	78.94
252.63	94.94
252.863	113.94
253.096	82.94
253.329	87.94
253.562	82.94
253.795	74.94
254.028	80.94
254.261	82.94
254.494	106.94
254.727	118.94
254.96	147.94
255.193	130.94
255.426	96.94
255.659	85.94
255.892	92.94
256.124	97.94
256.357	98.94
256.59	95.94
256.823	92.94
257.056	106.94
257.289	139.94
257.521	170.94
257.754	120.94
257.987	96.94
258.22	90.94
258.452	90.94
258.685	90.94
258.918	93.94
259.151	100.94
259.383	98.94
259.616	126.94
259.849	144.94
260.081	103.94
260.314	86.94
260.547	89.94
260.779	82.94
261.012	80.94
261.244	82.94
261.477	84.94
261.71	85.94
261.942	93.94
262.175	83.94
262.407	80.94
262.64	84.94
262.872	79.94
263.105	82.94
263.337	93.94
263.57	87.94
263.802	81.94
264.035	98.94
264.267	83.94
264.499	82.94
264.732	85.94
264.964	79.94
265.197	89.94
265.429	94.94
265.661	80.94
265.894	94.94
266.126	112.94
266.358	143.94
266.591	141.94
266.823	104.94
267.055	81.94
267.287	100.94
267.52	99.94
267.752	95.94
267.984	87.94
268.216	86.94
268.448	81.94
268.681	88.94
268.913	95.94
269.145	93.94
269.377	72.94
269.609	89.94
269.841	96.94
270.073	108.94
270.306	129.94
270.538	187.94
270.77	292.94
271.002	344.94
271.234	187.94
271.466	125.94
271.698	95.94
271.93	93.94
272.162	95.94
272.394	74.94
272.626	81.94
272.858	82.94
273.09	76.94
273.322	76.94
273.553	90.94
273.785	95.94
274.017	81.94
274.249	83.94
274.481	96.94
274.713	92.94
274.945	86.94
275.176	66.94
275.408	93.94
275.64	82.94
275.872	87.94
276.104	80.94
276.335	99.94
276.567	98.94
276.799	90.94
277.031	77.94
277.262	88.94
277.494	98.94
277.726	128.94
277.957	174.94
278.189	215.94
278.421	203.94
278.652	158.94
278.884	155.94
279.115	125.94
279.347	114.94
279.579	111.94
279.81	91.94
280.042	87.94
280.273	96.94
280.505	106.94
280.736	97.94
280.968	125.94
281.199	151.94
281.431	197.94
281.662	224.94
281.894	146.94
282.125	112.94
282.356	113.94
282.588	107.94
282.819	102.94
283.051	108.94
283.282	142.94
283.513	166.94
283.745	276.94
283.976	479.94
284.207	701.94
284.439	532.94
284.67	246.94
284.901	216.94
285.132	305.94
285.364	347.94
285.595	183.94
285.826	161.94
286.057	226.94
286.288	383.94
286.52	549.94
286.751	462.94
286.982	186.94
287.213	117.94
287.444	101.94
287.675	104.94
287.906	89.94
288.138	90.94
288.369	95.94
288.6	79.94
288.831	91.94
289.062	99.94
289.293	95.94
289.524	91.94
289.755	99.94
289.986	98.94
290.217	105.94
290.448	93.94
290.679	119.94
290.91	131.94
291.141	152.94
291.371	203.94
291.602	261.94
291.833	165.94
292.064	105.94
292.295	96.94
292.526	98.94
292.757	87.94
292.987	88.94
293.218	97.94
293.449	92.94
293.68	95.94
293.91	88.94
294.141	105.94
294.372	98.94
294.603	96.94
294.833	96.94
295.064	100.94
295.295	88.94
295.525	81.94
295.756	86.94
295.987	107.94
296.217	87.94
296.448	95.94
296.679	95.94
296.909	100.94
297.14	111.94
297.37	104.94
297.601	92.94
297.831	96.94
298.062	109.94
298.292	97.94
298.523	99.94
298.753	102.94
298.984	91.94
299.214	90.94
299.445	104.94
299.675	119.94
299.905	115.94
300.136	115.94
300.366	160.94
300.597	260.94
300.827	390.94
301.057	615.94
301.288	573.94
301.518	248.94
301.748	138.94
301.979	115.94
302.209	103.94
302.439	123.94
302.669	168.94
302.9	258.94
303.13	451.94
303.36	791.94
303.59	1079.94
303.82	753.94
304.051	268.94
304.281	152.94
304.511	122.94
304.741	121.94
304.971	114.94
305.201	117.94
305.431	96.94
305.661	100.94
305.891	96.94
306.121	102.94
306.352	96.94
306.582	121.94
306.812	135.94
307.042	106.94
307.272	121.94
307.502	113.94
307.731	88.94
307.961	106.94
308.191	105.94
308.421	98.94
308.651	98.94
308.881	96.94
309.111	87.94
309.341	108.94
309.571	109.94
309.8	99.94
310.03	91.94
310.26	109.94
310.49	105.94
310.72	100.94
310.949	100.94
311.179	89.94
311.409	113.94
311.639	100.94
311.868	107.94
312.098	110.94
312.328	117.94
312.557	96.94
312.787	99.94
313.017	115.94
313.246	107.94
313.476	122.94
313.706	126.94
313.935	140.94
314.165	171.94
314.394	202.94
314.624	167.94
314.853	113.94
315.083	123.94
315.312	114.94
315.542	133.94
315.771	125.94
316.001	121.94
316.23	125.94
316.46	133.94
316.689	166.94
316.919	232.94
317.148	435.94
317.377	829.94
317.607	1369.94
317.836	1247.94
318.065	486.94
318.295	209.94
318.524	140.94
318.753	121.94
318.983	117.94
319.212	105.94
319.441	101.94
319.67	113.94
319.9	104.94
320.129	112.94
320.358	111.94
320.587	113.94
320.816	119.94
321.046	113.94
321.275	115.94
321.504	132.94
321.733	141.94
321.962	145.94
322.191	145.94
322.42	118.94
322.649	122.94
322.878	123.94
323.108	114.94
323.337	124.94
323.566	120.94
323.795	129.94
324.024	125.94
324.253	133.94
324.482	156.94
324.71	229.94
324.939	273.94
325.168	209.94
325.397	177.94
325.626	233.94
325.855	435.94
326.084	839.94
326.313	1434.94
326.542	1421.94
326.77	549.94
326.999	251.94
327.228	196.94
327.457	226.94
327.686	236.94
327.914	147.94
328.143	136.94
328.372	141.94
328.6	114.94
328.829	128.94
329.058	114.94
329.287	117.94
329.515	98.94
329.744	109.94
329.972	107.94
330.201	104.94
330.43	98.94
330.658	115.94
330.887	112.94
331.115	105.94
331.344	104.94
331.572	112.94
331.801	119.94
332.03	118.94
332.258	131.94
332.486	163.94
332.715	271.94
332.943	478.94
333.172	699.94
333.4	618.94
333.629	239.94
333.857	125.94
334.085	98.94
334.314	104.94
334.542	121.94
334.771	114.94
334.999	129.94
335.227	121.94
335.455	122.94
335.684	116.94
335.912	106.94
336.14	122.94
336.369	106.94
336.597	105.94
336.825	116.94
337.053	129.94
337.281	117.94
337.51	111.94
337.738	108.94
337.966	102.94
338.194	95.94
338.422	120.94
338.65	113.94
338.878	117.94
339.106	109.94
339.334	133.94
339.562	103.94
339.79	113.94
340.018	105.94
340.246	83.94
340.474	117.94
340.702	125.94
340.93	88.94
341.158	113.94
341.386	110.94
341.614	118.94
341.842	114.94
342.07	114.94
342.298	111.94
342.526	115.94
342.754	121.94
342.981	100.94
343.209	104.94
343.437	108.94
343.665	110.94
343.893	110.94
344.12	109.94
344.348	98.94
344.576	109.94
344.804	113.94
345.031	105.94
345.259	113.94
345.487	109.94
345.714	115.94
345.942	99.94
346.17	121.94
346.397	107.94
346.625	88.94
346.853	99.94
347.08	111.94
347.308	110.94
347.535	102.94
347.763	113.94
347.99	85.94
348.218	109.94
348.445	103.94
348.673	131.94
348.9	123.94
349.128	100.94
349.355	117.94
349.583	129.94
349.81	114.94
350.037	102.94
350.265	106.94
350.492	119.94
350.72	104.94
350.947	113.94
351.174	105.94
351.402	103.94
351.629	117.94
351.856	98.94
352.083	110.94
352.311	99.94
352.538	121.94
352.765	127.94
352.992	101.94
353.22	109.94
353.447	115.94
353.674	110.94
353.901	103.94
354.128	105.94
354.355	97.94
354.583	96.94
354.81	107.94
355.037	92.94
355.264	115.94
355.491	99.94
355.718	98.94
355.945	95.94
356.172	106.94
356.399	90.94
356.626	82.94
356.853	110.94
357.08	106.94
357.307	97.94
357.534	95.94
357.761	98.94
357.988	113.94
358.215	109.94
358.441	105.94
358.668	93.94
358.895	110.94
359.122	107.94
359.349	117.94
359.576	123.94
359.802	115.94
360.029	101.94
360.256	104.94
360.483	116.94
360.709	107.94
360.936	105.94
361.163	101.94
361.39	99.94
361.616	111.94
361.843	113.94
362.07	111.94
362.296	120.94
362.523	113.94
362.749	114.94
362.976	114.94
363.203	106.94
363.429	99.94
363.656	101.94
363.882	121.94
364.109	117.94
364.335	110.94
364.562	101.94
364.788	101.94
365.015	102.94
365.241	133.94
365.468	177.94
365.694	222.94
365.92	190.94
366.147	122.94
366.373	84.94
366.599	99.94
366.826	102.94
367.052	90.94
367.278	97.94
367.505	107.94
367.731	118.94
367.957	100.94
368.184	96.94
368.41	100.94
368.636	123.94
368.862	102.94
369.089	107.94
369.315	107.94
369.541	111.94
369.767	95.94
369.993	110.94
370.219	104.94
370.445	112.94
370.672	105.94
370.898	99.94
371.124	98.94
371.35	97.94
371.576	112.94
371.802	103.94
372.028	119.94
372.254	117.94
372.48	121.94
372.706	124.94
372.932	105.94
373.158	103.94
373.384	115.94
373.61	118.94
373.835	101.94
374.061	102.94
374.287	117.94
374.513	118.94
374.739	114.94
374.965	109.94
375.191	100.94
375.416	120.94
375.642	109.94
375.868	98.94
376.094	109.94
376.319	111.94
376.545	102.94
376.771	111.94
376.997	99.94
377.222	114.94
377.448	113.94
377.674	112.94
377.899	115.94
378.125	117.94
378.35	104.94
378.576	104.94
378.802	99.94
379.027	102.94
379.253	135.94
379.478	164.94
379.704	290.94
379.929	717.94
380.155	1445.94
380.38	1487.94
380.606	475.94
380.831	173.94
381.057	123.94
381.282	105.94
381.507	102.94
381.733	107.94
381.958	112.94
382.184	105.94
382.409	88.94
382.634	90.94
382.86	110.94
383.085	105.94
383.31	107.94
383.535	98.94
383.761	117.94
383.986	101.94
384.211	99.94
384.436	100.94
384.662	95.94
384.887	88.94
385.112	104.94
385.337	101.94
385.562	97.94
385.787	99.94
386.013	113.94
386.238	101.94
386.463	93.94
386.688	111.94
386.913	113.94
387.138	89.94
387.363	102.94
387.588	90.94
387.813	98.94
388.038	114.94
388.263	91.94
388.488	86.94
388.713	93.94
388.938	89.94
389.163	110.94
389.387	106.94
389.612	95.94
389.837	94.94
390.062	96.94
390.287	105.94
390.512	95.94
390.736	94.94
390.961	112.94
391.186	100.94
391.411	102.94
391.636	89.94
391.86	89.94
392.085	79.94
392.31	89.94
392.534	102.94
392.759	110.94
392.984	88.94
393.208	118.94
393.433	120.94
393.658	127.94
393.882	103.94
394.107	79.94
394.331	66.94
394.556	84.94
394.78	98.94
395.005	84.94
395.229	100.94
395.454	97.94
395.678	94.94
395.903	95.94
396.127	99.94
396.352	116.94
396.576	105.94
396.801	117.94
397.025	123.94
397.249	108.94
397.474	105.94
397.698	109.94
397.922	96.94
398.147	90.94
398.371	74.94
398.595	105.94
398.82	101.94
399.044	91.94
399.268	96.94
399.492	90.94
399.717	105.94
399.941	97.94
400.165	91.94
400.389	94.94
400.613	95.94
400.837	86.94
401.062	100.94
401.286	92.94
401.51	88.94
401.734	103.94
401.958	82.94
402.182	90.94
402.406	87.94
402.63	101.94
402.854	87.94
403.078	110.94
403.302	96.94
403.526	106.94
403.75	90.94
403.974	88.94
404.198	83.94
404.422	104.94
404.645	92.94
404.869	93.94
405.093	96.94
405.317	85.94
405.541	115.94
405.765	113.94
405.988	140.94
406.212	121.94
406.436	96.94
406.66	103.94
406.883	94.94
407.107	95.94
407.331	88.94
407.555	102.94
407.778	101.94
408.002	106.94
408.226	94.94
408.449	98.94
408.673	97.94
408.896	108.94
409.12	85.94
409.344	93.94
409.567	98.94
409.791	98.94
410.014	89.94
410.238	100.94
410.461	103.94
410.685	95.94
410.908	89.94
411.132	104.94
411.355	113.94
411.578	104.94
411.802	87.94
412.025	100.94
412.249	91.94
412.472	103.94
412.695	86.94
412.919	103.94
413.142	94.94
413.365	81.94
413.589	101.94
413.812	108.94
414.035	107.94
414.258	99.94
414.482	113.94
414.705	101.94
414.928	93.94
415.151	126.94
415.374	95.94
415.597	92.94
415.821	88.94
416.044	89.94
416.267	91.94
416.49	88.94
416.713	79.94
416.936	79.94
417.159	100.94
417.382	83.94
417.605	99.94
417.828	90.94
418.051	90.94
418.274	82.94
418.497	90.94
418.72	105.94
418.943	100.94
419.166	111.94
419.389	107.94
419.611	104.94
419.834	106.94
420.057	107.94
420.28	86.94
420.503	85.94
420.726	89.94
420.948	92.94
421.171	86.94
421.394	96.94
421.617	99.94
421.839	102.94
422.062	99.94
422.285	109.94
422.507	102.94
422.73	117.94
422.953	143.94
423.175	115.94
423.398	88.94
423.621	82.94
423.843	86.94
424.066	102.94
424.288	86.94
424.511	100.94
424.733	110.94
424.956	117.94
425.178	88.94
425.401	88.94
425.623	93.94
425.846	83.94
426.068	97.94
426.291	89.94
426.513	109.94
426.735	86.94
426.958	92.94
427.18	98.94
427.402	81.94
427.625	93.94
427.847	94.94
428.069	96.94
428.292	95.94
428.514	93.94
428.736	95.94
428.958	100.94
429.181	86.94
429.403	95.94
429.625	95.94
429.847	105.94
430.069	98.94
430.292	114.94
430.514	102.94
430.736	99.94
430.958	95.94
431.18	78.94
431.402	74.94
431.624	83.94
431.846	104.94
432.068	93.94
432.29	101.94
432.512	84.94
432.734	97.94
432.956	80.94
433.178	91.94
433.4	86.94
433.622	87.94
433.844	96.94
434.066	79.94
434.287	81.94
434.509	85.94
434.731	106.94
434.953	83.94
435.175	99.94
435.397	80.94
435.618	96.94
435.84	81.94
436.062	85.94
436.284	96.94
436.505	73.94
436.727	93.94
436.949	104.94
437.17	103.94
437.392	82.94
437.614	81.94
437.835	90.94
438.057	103.94
438.278	95.94
438.5	95.94
438.721	97.94
438.943	97.94
439.165	142.94
439.386	116.94
439.608	90.94
439.829	102.94
440.05	121.94
440.272	120.94
440.493	99.94
440.715	90.94
440.936	89.94
441.158	95.94
441.379	99.94
441.6	97.94
441.822	91.94
442.043	97.94
442.264	140.94
442.486	126.94
442.707	91.94
442.928	96.94
443.149	93.94
443.371	96.94
443.592	97.94
443.813	109.94
444.034	101.94
444.255	89.94
444.476	84.94
444.698	88.94
444.919	77.94
445.14	177.94
445.361	139.94
445.582	100.94
445.803	104.94
446.024	110.94
446.245	109.94
446.466	95.94
446.687	100.94
446.908	89.94
447.129	104.94
447.35	96.94
447.571	98.94
447.792	81.94
448.013	95.94
448.234	92.94
448.455	109.94
448.675	85.94
448.896	102.94
449.117	116.94
449.338	112.94
449.559	135.94
449.779	110.94
450	98.94
450.221	99.94
450.442	110.94
450.662	122.94
450.883	115.94
451.104	121.94
451.324	121.94
451.545	114.94
451.766	94.94
451.986	145.94
452.207	203.94
452.428	527.94
452.648	1176.94
452.869	671.94
453.089	187.94
453.31	124.94
453.53	101.94
453.751	115.94
453.971	131.94
454.192	142.94
454.412	119.94
454.633	93.94
454.853	84.94
455.073	98.94
455.294	95.94
455.514	101.94
455.734	92.94
455.955	83.94
456.175	90.94
456.395	74.94
456.616	115.94
456.836	98.94
457.056	87.94
457.276	85.94
457.497	114.94
457.717	117.94
457.937	92.94
458.157	100.94
458.377	102.94
458.598	86.94
458.818	86.94
459.038	103.94
459.258	88.94
459.478	71.94
459.698	81.94
459.918	82.94
460.138	82.94
460.358	82.94
460.578	89.94
460.798	96.94
461.018	81.94
461.238	78.94
461.458	94.94
461.678	85.94
461.898	92.94
462.118	79.94
462.338	98.94
462.558	97.94
462.777	94.94
462.997	109.94
463.217	96.94
463.437	119.94
463.657	158.94
463.876	164.94
464.096	100.94
464.316	90.94
464.536	98.94
464.755	100.94
464.975	97.94
465.195	103.94
465.414	83.94
465.634	78.94
465.854	107.94
466.073	92.94
466.293	88.94
466.512	91.94
466.732	104.94
466.951	98.94
467.171	139.94
467.391	127.94
467.61	99.94
467.829	102.94
468.049	93.94
468.268	88.94
468.488	94.94
468.707	93.94
468.927	96.94
469.146	102.94
469.365	91.94
469.585	116.94
469.804	101.94
470.023	95.94
470.243	91.94
470.462	107.94
470.681	106.94
470.901	120.94
471.12	179.94
471.339	193.94
471.558	138.94
471.777	118.94
471.997	98.94
472.216	88.94
472.435	93.94
472.654	96.94
472.873	86.94
473.092	110.94
473.311	80.94
473.53	84.94
473.749	94.94
473.968	84.94
474.187	86.94
474.406	96.94
474.625	89.94
474.844	91.94
475.063	90.94
475.282	90.94
475.501	118.94
475.72	112.94
475.939	96.94
476.158	89.94
476.377	101.94
476.596	91.94
476.814	100.94
477.033	83.94
477.252	93.94
477.471	104.94
477.69	98.94
477.908	95.94
478.127	87.94
478.346	89.94
478.564	90.94
478.783	88.94
479.002	87.94
479.22	97.94
479.439	100.94
479.658	105.94
479.876	85.94
480.095	93.94
480.313	97.94
480.532	92.94
480.751	81.94
480.969	86.94
481.188	97.94
481.406	88.94
481.624	106.94
481.843	103.94
482.061	115.94
482.28	95.94
482.498	95.94
482.717	85.94
482.935	92.94
483.153	101.94
483.372	106.94
483.59	101.94
483.808	100.94
484.027	112.94
484.245	125.94
484.463	167.94
484.681	223.94
484.9	137.94
485.118	124.94
485.336	96.94
485.554	117.94
485.772	113.94
485.99	178.94
486.209	253.94
486.427	149.94
486.645	105.94
486.863	117.94
487.081	111.94
487.299	96.94
487.517	99.94
487.735	87.94
487.953	98.94
488.171	100.94
488.389	95.94
488.607	93.94
488.825	87.94
489.043	90.94
489.261	98.94
489.479	99.94
489.696	102.94
489.914	99.94
490.132	103.94
490.35	93.94
490.568	96.94
490.786	106.94
491.003	91.94
491.221	117.94
491.439	106.94
491.657	104.94
491.874	120.94
492.092	113.94
492.31	101.94
492.527	106.94
492.745	113.94
492.963	104.94
493.18	120.94
493.398	104.94
493.615	105.94
493.833	103.94
494.05	106.94
494.268	98.94
494.485	109.94
494.703	89.94
494.92	99.94
495.138	94.94
495.355	111.94
495.573	104.94
495.79	94.94
496.008	100.94
496.225	97.94
496.442	93.94
496.66	127.94
496.877	125.94
497.094	159.94
497.312	119.94
497.529	89.94
497.746	103.94
497.963	92.94
498.181	90.94
498.398	95.94
498.615	104.94
498.832	94.94
499.049	119.94
499.267	117.94
499.484	157.94
499.701	101.94
499.918	111.94
500.135	106.94
500.352	95.94
500.569	96.94
500.786	84.94
501.003	88.94
501.22	112.94
501.437	93.94
501.654	90.94
501.871	87.94
502.088	93.94
502.305	88.94
502.522	98.94
502.739	102.94
502.956	102.94
503.172	99.94
503.389	100.94
503.606	89.94
503.823	87.94
504.04	83.94
504.256	94.94
504.473	92.94
504.69	103.94
504.907	116.94
505.123	114.94
505.34	98.94
505.557	94.94
505.773	105.94
505.99	96.94
506.207	93.94
506.423	96.94
506.64	98.94
506.856	113.94
507.073	115.94
507.289	102.94
507.506	99.94
507.722	88.94
507.939	97.94
508.155	100.94
508.372	113.94
508.588	101.94
508.805	102.94
509.021	91.94
509.238	105.94
509.454	122.94
509.67	150.94
