Data from SnStandardFlinnAPT0064_LampEnergy10_LIBS07252019.E.O._I.C._HRD10591_15-19-56-493.txt Node
Date: Thu Jul 25 15:19:56 EDT 2019
User: cochatt
Spectrometer: HR+D1059
Trigger mode: 1
Integration Time (sec): 1.000000E-1
Scans to average: 1
Electric dark correction enabled: true
Nonlinearity correction enabled: false
Boxcar width: 0
XAxis mode: Wavelengths
Number of Pixels in Spectrum: 2048
>>>>>Begin Spectral Data<<<<<
223.165	-24.94
223.4	-24.94
223.635	-24.94
223.869	-11.94
224.104	-13.94
224.338	-18.94
224.573	-26.94
224.808	-19.94
225.042	-5.94
225.277	-2.94
225.511	12.06
225.746	5.06
225.98	4.06
226.215	6.06
226.449	9.06
226.683	23.06
226.918	37.06
227.152	29.06
227.387	35.06
227.621	39.06
227.856	35.06
228.09	54.06
228.324	53.06
228.559	69.06
228.793	126.06
229.027	324.06
229.262	337.06
229.496	333.06
229.73	313.06
229.964	314.06
230.199	331.06
230.433	301.06
230.667	323.06
230.901	316.06
231.136	345.06
231.37	390.06
231.604	414.06
231.838	472.06
232.072	530.06
232.306	596.06
232.541	514.06
232.775	447.06
233.009	416.06
233.243	438.06
233.477	480.06
233.711	535.06
233.945	615.06
234.179	539.06
234.413	477.06
234.647	481.06
234.881	466.06
235.115	543.06
235.349	648.06
235.583	835.06
235.817	1059.06
236.051	1038.06
236.285	666.06
236.519	555.06
236.753	537.06
236.987	525.06
237.221	558.06
237.455	540.06
237.689	466.06
237.922	482.06
238.156	483.06
238.39	497.06
238.624	518.06
238.858	504.06
239.091	496.06
239.325	499.06
239.559	520.06
239.793	520.06
240.027	536.06
240.26	557.06
240.494	580.06
240.728	604.06
240.961	649.06
241.195	691.06
241.429	720.06
241.662	748.06
241.896	836.06
242.13	1029.06
242.363	1369.06
242.597	1714.06
242.83	1642.06
243.064	1632.06
243.298	1913.06
243.531	1606.06
243.765	1003.06
243.998	836.06
244.232	694.06
244.465	694.06
244.699	682.06
244.932	674.06
245.166	664.06
245.399	677.06
245.633	711.06
245.866	677.06
246.099	697.06
246.333	696.06
246.566	686.06
246.8	666.06
247.033	664.06
247.266	657.06
247.5	672.06
247.733	690.06
247.966	710.06
248.2	798.06
248.433	909.06
248.666	1068.06
248.899	980.06
249.133	891.06
249.366	909.06
249.599	995.06
249.832	1144.06
250.066	1156.06
250.299	893.06
250.532	812.06
250.765	782.06
250.998	758.06
251.231	768.06
251.465	747.06
251.698	767.06
251.931	767.06
252.164	786.06
252.397	752.06
252.63	805.06
252.863	823.06
253.096	797.06
253.329	801.06
253.562	790.06
253.795	828.06
254.028	818.06
254.261	851.06
254.494	925.06
254.727	1042.06
254.96	1323.06
255.193	1277.06
255.426	987.06
255.659	932.06
255.892	870.06
256.124	894.06
256.357	908.06
256.59	946.06
256.823	1022.06
257.056	1188.06
257.289	1412.06
257.521	1588.06
257.754	1264.06
257.987	1004.06
258.22	936.06
258.452	956.06
258.685	978.06
258.918	978.06
259.151	1027.06
259.383	1115.06
259.616	1259.06
259.849	1313.06
260.081	1123.06
260.314	1020.06
260.547	1018.06
260.779	968.06
261.012	972.06
261.244	974.06
261.477	1000.06
261.71	1002.06
261.942	997.06
262.175	1022.06
262.407	1080.06
262.64	1076.06
262.872	1099.06
263.105	1156.06
263.337	1212.06
263.57	1278.06
263.802	1287.06
264.035	1293.06
264.267	1370.06
264.499	1431.06
264.732	1404.06
264.964	1441.06
265.197	1430.06
265.429	1466.06
265.661	1476.06
265.894	1591.06
266.126	1770.06
266.358	1977.06
266.591	1953.06
266.823	1611.06
267.055	1458.06
267.287	1402.06
267.52	1325.06
267.752	1281.06
267.984	1256.06
268.216	1266.06
268.448	1251.06
268.681	1241.06
268.913	1240.06
269.145	1257.06
269.377	1251.06
269.609	1268.06
269.841	1316.06
270.073	1430.06
270.306	1665.06
270.538	2251.06
270.77	3424.06
271.002	4154.06
271.234	2976.06
271.466	1980.06
271.698	1602.06
271.93	1443.06
272.162	1356.06
272.394	1325.06
272.626	1281.06
272.858	1244.06
273.09	1240.06
273.322	1243.06
273.553	1218.06
273.785	1212.06
274.017	1221.06
274.249	1221.06
274.481	1230.06
274.713	1233.06
274.945	1225.06
275.176	1255.06
275.408	1243.06
275.64	1235.06
275.872	1262.06
276.104	1266.06
276.335	1292.06
276.567	1329.06
276.799	1309.06
277.031	1352.06
277.262	1374.06
277.494	1444.06
277.726	1602.06
277.957	1913.06
278.189	2214.06
278.421	2066.06
278.652	1797.06
278.884	1700.06
279.115	1534.06
279.347	1489.06
279.579	1424.06
279.81	1416.06
280.042	1449.06
280.273	1478.06
280.505	1496.06
280.736	1526.06
280.968	1596.06
281.199	1826.06
281.431	2087.06
281.662	2158.06
281.894	1806.06
282.125	1680.06
282.356	1702.06
282.588	1685.06
282.819	1811.06
283.051	1844.06
283.282	2095.06
283.513	2606.06
283.745	3770.06
283.976	5992.06
284.207	8440.06
284.439	7744.06
284.67	4827.06
284.901	3966.06
285.132	3927.06
285.364	3789.06
285.595	2880.06
285.826	2529.06
286.057	2965.06
286.288	4052.06
286.52	5528.06
286.751	5150.06
286.982	3234.06
287.213	2389.06
287.444	2038.06
287.675	1936.06
287.906	1870.06
288.138	1763.06
288.369	1728.06
288.6	1714.06
288.831	1697.06
289.062	1722.06
289.293	1715.06
289.524	1708.06
289.755	1782.06
289.986	1756.06
290.217	1738.06
290.448	1763.06
290.679	1781.06
290.91	1849.06
291.141	1907.06
291.371	2080.06
291.602	2219.06
291.833	1968.06
292.064	1796.06
292.295	1680.06
292.526	1663.06
292.757	1654.06
292.987	1674.06
293.218	1605.06
293.449	1657.06
293.68	1636.06
293.91	1611.06
294.141	1612.06
294.372	1580.06
294.603	1602.06
294.833	1573.06
295.064	1609.06
295.295	1581.06
295.525	1587.06
295.756	1598.06
295.987	1584.06
296.217	1595.06
296.448	1610.06
296.679	1589.06
296.909	1596.06
297.14	1623.06
297.37	1665.06
297.601	1656.06
297.831	1676.06
298.062	1660.06
298.292	1673.06
298.523	1726.06
298.753	1719.06
298.984	1759.06
299.214	1769.06
299.445	1773.06
299.675	1799.06
299.905	1844.06
300.136	1958.06
300.366	2221.06
300.597	2891.06
300.827	4000.06
301.057	5544.06
301.288	5548.06
301.518	3553.06
301.748	2712.06
301.979	2422.06
302.209	2357.06
302.439	2391.06
302.669	2555.06
302.9	3083.06
303.13	4321.06
303.36	6568.06
303.59	8676.06
303.82	7600.06
304.051	4442.06
304.281	3247.06
304.511	2626.06
304.741	2432.06
304.971	2283.06
305.201	2185.06
305.431	2081.06
305.661	2029.06
305.891	1968.06
306.121	1916.06
306.352	1910.06
306.582	1885.06
306.812	1866.06
307.042	1852.06
307.272	1893.06
307.502	1834.06
307.731	1792.06
307.961	1809.06
308.191	1821.06
308.421	1861.06
308.651	1802.06
308.881	1819.06
309.111	1838.06
309.341	1814.06
309.571	1880.06
309.8	1868.06
310.03	1875.06
310.26	1906.06
310.49	1897.06
310.72	1904.06
310.949	1860.06
311.179	1900.06
311.409	1932.06
311.639	1925.06
311.868	1973.06
312.098	1969.06
312.328	1977.06
312.557	1990.06
312.787	1976.06
313.017	2037.06
313.246	2015.06
313.476	2071.06
313.706	2116.06
313.935	2229.06
314.165	2432.06
314.394	2520.06
314.624	2394.06
314.853	2226.06
315.083	2216.06
315.312	2222.06
315.542	2264.06
315.771	2253.06
316.001	2315.06
316.23	2396.06
316.46	2428.06
316.689	2772.06
316.919	3373.06
317.148	4814.06
317.377	7485.06
317.607	10934.06
317.836	11389.06
318.065	7056.06
318.295	4504.06
318.524	3662.06
318.753	3156.06
318.983	2857.06
319.212	2700.06
319.441	2545.06
319.67	2528.06
319.9	2479.06
320.129	2436.06
320.358	2398.06
320.587	2438.06
320.816	2396.06
321.046	2413.06
321.275	2373.06
321.504	2417.06
321.733	2463.06
321.962	2570.06
322.191	2572.06
322.42	2570.06
322.649	2556.06
322.878	2553.06
323.108	2549.06
323.337	2579.06
323.566	2601.06
323.795	2660.06
324.024	2678.06
324.253	2808.06
324.482	2962.06
324.71	3099.06
324.939	3334.06
325.168	3334.06
325.397	3525.06
325.626	4200.06
325.855	5850.06
326.084	9199.06
326.313	13232.06
326.542	13897.06
326.77	9669.06
326.999	6328.06
327.228	5235.06
327.457	4984.06
327.686	5072.06
327.914	5417.06
328.143	6282.06
328.372	7414.06
328.6	8239.06
328.829	7324.06
329.058	6116.06
329.287	5242.06
329.515	4804.06
329.744	4384.06
329.972	4211.06
330.201	3992.06
330.43	3856.06
330.658	3650.06
330.887	3557.06
331.115	3565.06
331.344	3556.06
331.572	3508.06
331.801	3560.06
332.03	3614.06
332.258	3635.06
332.486	3856.06
332.715	4421.06
332.943	5504.06
333.172	6903.06
333.4	6796.06
333.629	5160.06
333.857	4657.06
334.085	4636.06
334.314	4832.06
334.542	5300.06
334.771	6267.06
334.999	7850.06
335.227	9696.06
335.455	10890.06
335.684	9876.06
335.912	8009.06
336.14	6750.06
336.369	5925.06
336.597	5445.06
336.825	4951.06
337.053	4661.06
337.281	4380.06
337.51	4139.06
337.738	3945.06
337.966	3773.06
338.194	3638.06
338.422	3552.06
338.65	3425.06
338.878	3379.06
339.106	3270.06
339.334	3226.06
339.562	3186.06
339.79	3105.06
340.018	3074.06
340.246	3111.06
340.474	3037.06
340.702	3028.06
340.93	3082.06
341.158	3062.06
341.386	3005.06
341.614	3029.06
341.842	2955.06
342.07	2894.06
342.298	2855.06
342.526	2818.06
342.754	2750.06
342.981	2734.06
343.209	2722.06
343.437	2765.06
343.665	2840.06
343.893	2856.06
344.12	2854.06
344.348	2814.06
344.576	2745.06
344.804	2736.06
345.031	2666.06
345.259	2648.06
345.487	2609.06
345.714	2596.06
345.942	2574.06
346.17	2583.06
346.397	2582.06
346.625	2570.06
346.853	2561.06
347.08	2548.06
347.308	2480.06
347.535	2552.06
347.763	2580.06
347.99	2461.06
348.218	2447.06
348.445	2490.06
348.673	2482.06
348.9	2507.06
349.128	2458.06
349.355	2459.06
349.583	2495.06
349.81	2456.06
350.037	2377.06
350.265	2414.06
350.492	2378.06
350.72	2419.06
350.947	2368.06
351.174	2430.06
351.402	2434.06
351.629	2434.06
351.856	2411.06
352.083	2436.06
352.311	2442.06
352.538	2375.06
352.765	2417.06
352.992	2442.06
353.22	2441.06
353.447	2418.06
353.674	2405.06
353.901	2421.06
354.128	2432.06
354.355	2390.06
354.583	2392.06
354.81	2438.06
355.037	2422.06
355.264	2442.06
355.491	2443.06
355.718	2474.06
355.945	2487.06
356.172	2470.06
356.399	2514.06
356.626	2532.06
356.853	2567.06
357.08	2506.06
357.307	2551.06
357.534	2576.06
357.761	2633.06
357.988	2636.06
358.215	2598.06
358.441	2612.06
358.668	2566.06
358.895	2570.06
359.122	2541.06
359.349	2583.06
359.576	2540.06
359.802	2562.06
360.029	2541.06
360.256	2574.06
360.483	2602.06
360.709	2556.06
360.936	2600.06
361.163	2541.06
361.39	2559.06
361.616	2550.06
361.843	2599.06
362.07	2556.06
362.296	2592.06
362.523	2582.06
362.749	2620.06
362.976	2541.06
363.203	2534.06
363.429	2585.06
363.656	2584.06
363.882	2528.06
364.109	2549.06
364.335	2540.06
364.562	2562.06
364.788	2585.06
365.015	2589.06
365.241	2701.06
365.468	2803.06
365.694	3011.06
365.92	2890.06
366.147	2621.06
366.373	2638.06
366.599	2590.06
366.826	2659.06
367.052	2582.06
367.278	2624.06
367.505	2638.06
367.731	2611.06
367.957	2612.06
368.184	2666.06
368.41	2698.06
368.636	2658.06
368.862	2708.06
369.089	2711.06
369.315	2660.06
369.541	2672.06
369.767	2669.06
369.993	2621.06
370.219	2660.06
370.445	2652.06
370.672	2681.06
370.898	2676.06
371.124	2617.06
371.35	2747.06
371.576	2762.06
371.802	2720.06
372.028	2754.06
372.254	2779.06
372.48	2759.06
372.706	2765.06
372.932	2846.06
373.158	2838.06
373.384	2834.06
373.61	2780.06
373.835	2787.06
374.061	2807.06
374.287	2814.06
374.513	2846.06
374.739	2889.06
374.965	2956.06
375.191	2962.06
375.416	2923.06
375.642	2897.06
375.868	2829.06
376.094	2813.06
376.319	2773.06
376.545	2772.06
376.771	2750.06
376.997	2762.06
377.222	2737.06
377.448	2752.06
377.674	2712.06
377.899	2726.06
378.125	2710.06
378.35	2718.06
378.576	2773.06
378.802	2798.06
379.027	2816.06
379.253	2891.06
379.478	3084.06
379.704	3694.06
379.929	5343.06
380.155	8266.06
380.38	9074.06
380.606	5552.06
380.831	3839.06
381.057	3310.06
381.282	3039.06
381.507	2859.06
381.733	2852.06
381.958	2806.06
382.184	2791.06
382.409	2718.06
382.634	2693.06
382.86	2702.06
383.085	2699.06
383.31	2742.06
383.535	2740.06
383.761	2687.06
383.986	2728.06
384.211	2720.06
384.436	2774.06
384.662	2833.06
384.887	2767.06
385.112	2779.06
385.337	2813.06
385.562	2788.06
385.787	2779.06
386.013	2770.06
386.238	2820.06
386.463	2792.06
386.688	2803.06
386.913	2742.06
387.138	2759.06
387.363	2774.06
387.588	2726.06
387.813	2766.06
388.038	2739.06
388.263	2768.06
388.488	2789.06
388.713	2793.06
388.938	2755.06
389.163	2773.06
389.387	2766.06
389.612	2753.06
389.837	2795.06
390.062	2825.06
390.287	2828.06
390.512	2821.06
390.736	2859.06
390.961	2910.06
391.186	2866.06
391.411	2922.06
391.636	2843.06
391.86	2900.06
392.085	2930.06
392.31	2919.06
392.534	2829.06
392.759	2832.06
392.984	2856.06
393.208	2851.06
393.433	2835.06
393.658	2852.06
393.882	2805.06
394.107	2784.06
394.331	2829.06
394.556	2830.06
394.78	2834.06
395.005	2868.06
395.229	2822.06
395.454	2891.06
395.678	2890.06
395.903	2820.06
396.127	2882.06
396.352	2893.06
396.576	2846.06
396.801	2879.06
397.025	2916.06
397.249	2878.06
397.474	2920.06
397.698	2908.06
397.922	2932.06
398.147	2936.06
398.371	2947.06
398.595	3083.06
398.82	3092.06
399.044	3267.06
399.268	3352.06
399.492	3516.06
399.717	3640.06
399.941	3646.06
400.165	3498.06
400.389	3394.06
400.613	3245.06
400.837	3179.06
401.062	3096.06
401.286	3019.06
401.51	3101.06
401.734	3036.06
401.958	3012.06
402.182	3026.06
402.406	3051.06
402.63	3113.06
402.854	3096.06
403.078	3052.06
403.302	3150.06
403.526	3198.06
403.75	3118.06
403.974	3227.06
404.198	3173.06
404.422	3192.06
404.645	3178.06
404.869	3208.06
405.093	3203.06
405.317	3148.06
405.541	3218.06
405.765	3218.06
405.988	3303.06
406.212	3288.06
406.436	3240.06
406.66	3288.06
406.883	3289.06
407.107	3419.06
407.331	3438.06
407.555	3502.06
407.778	3434.06
408.002	3386.06
408.226	3454.06
408.449	3420.06
408.673	3295.06
408.896	3304.06
409.12	3260.06
409.344	3253.06
409.567	3186.06
409.791	3196.06
410.014	3169.06
410.238	3120.06
410.461	3148.06
410.685	3150.06
410.908	3082.06
411.132	3132.06
411.355	3028.06
411.578	3101.06
411.802	3004.06
412.025	3024.06
412.249	3079.06
412.472	3086.06
412.695	2990.06
412.919	2966.06
413.142	3021.06
413.365	2962.06
413.589	3005.06
413.812	2969.06
414.035	2984.06
414.258	2960.06
414.482	3003.06
414.705	3074.06
414.928	2945.06
415.151	3013.06
415.374	2988.06
415.597	2932.06
415.821	2921.06
416.044	2881.06
416.267	2909.06
416.49	2882.06
416.713	2866.06
416.936	2891.06
417.159	2844.06
417.382	2791.06
417.605	2822.06
417.828	2854.06
418.051	2916.06
418.274	2908.06
418.497	2933.06
418.72	2935.06
418.943	2940.06
419.166	3059.06
419.389	3273.06
419.611	3184.06
419.834	3066.06
420.057	3028.06
420.28	2976.06
420.503	2861.06
420.726	2873.06
420.948	2845.06
421.171	2870.06
421.394	2870.06
421.617	2848.06
421.839	2899.06
422.062	2914.06
422.285	2862.06
422.507	2924.06
422.73	2928.06
422.953	2984.06
423.175	3009.06
423.398	2995.06
423.621	2873.06
423.843	2901.06
424.066	2902.06
424.288	2849.06
424.511	2885.06
424.733	2853.06
424.956	2899.06
425.178	2858.06
425.401	2843.06
425.623	2856.06
425.846	2790.06
426.068	2755.06
426.291	2776.06
426.513	2712.06
426.735	2748.06
426.958	2787.06
427.18	2709.06
427.402	2751.06
427.625	2760.06
427.847	2715.06
428.069	2651.06
428.292	2699.06
428.514	2704.06
428.736	2680.06
428.958	2662.06
429.181	2612.06
429.403	2658.06
429.625	2591.06
429.847	2674.06
430.069	2710.06
430.292	2822.06
430.514	2894.06
430.736	2865.06
430.958	2707.06
431.18	2620.06
431.402	2687.06
431.624	2652.06
431.846	2642.06
432.068	2656.06
432.29	2630.06
432.512	2567.06
432.734	2645.06
432.956	2664.06
433.178	2696.06
433.4	2640.06
433.622	2651.06
433.844	2650.06
434.066	2673.06
434.287	2656.06
434.509	2712.06
434.731	2702.06
434.953	2816.06
435.175	2760.06
435.397	2740.06
435.618	2674.06
435.84	2638.06
436.062	2634.06
436.284	2670.06
436.505	2630.06
436.727	2652.06
436.949	2598.06
437.17	2620.06
437.392	2581.06
437.614	2588.06
437.835	2470.06
438.057	2558.06
438.278	2537.06
438.5	2591.06
438.721	2645.06
438.943	2701.06
439.165	2742.06
439.386	2744.06
439.608	2777.06
439.829	2750.06
440.05	2876.06
440.272	2890.06
440.493	2757.06
440.715	2735.06
440.936	2753.06
441.158	2760.06
441.379	2752.06
441.6	2934.06
441.822	2986.06
442.043	3141.06
442.264	3250.06
442.486	3032.06
442.707	2848.06
442.928	2832.06
443.149	2828.06
443.371	2816.06
443.592	2806.06
443.813	2895.06
444.034	2850.06
444.255	2885.06
444.476	2956.06
444.698	3000.06
444.919	3029.06
445.14	3081.06
445.361	3030.06
445.582	2930.06
445.803	2830.06
446.024	2785.06
446.245	2820.06
446.466	2774.06
446.687	2774.06
446.908	2733.06
447.129	2704.06
447.35	2618.06
447.571	2644.06
447.792	2575.06
448.013	2634.06
448.234	2624.06
448.455	2645.06
448.675	2663.06
448.896	2701.06
449.117	2834.06
449.338	3062.06
449.559	3199.06
449.779	2813.06
450	2654.06
450.221	2613.06
450.442	2560.06
450.662	2568.06
450.883	2567.06
451.104	2553.06
451.324	2565.06
451.545	2572.06
451.766	2648.06
451.986	2644.06
452.207	2860.06
452.428	3675.06
452.648	5703.06
452.869	4749.06
453.089	3248.06
453.31	2999.06
453.53	3043.06
453.751	3100.06
453.971	3305.06
454.192	3220.06
454.412	2769.06
454.633	2594.06
454.853	2553.06
455.073	2455.06
455.294	2469.06
455.514	2483.06
455.734	2434.06
455.955	2388.06
456.175	2440.06
456.395	2443.06
456.616	2464.06
456.836	2462.06
457.056	2513.06
457.276	2488.06
457.497	2654.06
457.717	2672.06
457.937	2590.06
458.157	2600.06
458.377	2560.06
458.598	2611.06
458.818	2672.06
459.038	2628.06
459.258	2634.06
459.478	2676.06
459.698	2694.06
459.918	2697.06
460.138	2752.06
460.358	2830.06
460.578	2812.06
460.798	2890.06
461.018	2881.06
461.238	2874.06
461.458	2924.06
461.678	2904.06
461.898	2983.06
462.118	3016.06
462.338	3043.06
462.558	3087.06
462.777	3156.06
462.997	3239.06
463.217	3411.06
463.437	3567.06
463.657	3606.06
463.876	3586.06
464.096	3435.06
464.316	3226.06
464.536	3215.06
464.755	3086.06
464.975	3041.06
465.195	2900.06
465.414	2860.06
465.634	2792.06
465.854	2816.06
466.073	2697.06
466.293	2711.06
466.512	2674.06
466.732	2696.06
466.951	2850.06
467.171	3056.06
467.391	2998.06
467.61	2750.06
467.829	2664.06
468.049	2628.06
468.268	2599.06
468.488	2594.06
468.707	2572.06
468.927	2607.06
469.146	2614.06
469.365	2632.06
469.585	2607.06
469.804	2712.06
470.023	2790.06
470.243	2824.06
470.462	2940.06
470.681	3049.06
470.901	3358.06
471.12	3872.06
471.339	3874.06
471.558	3253.06
471.777	2998.06
471.997	2785.06
472.216	2726.06
472.435	2683.06
472.654	2639.06
472.873	2639.06
473.092	2626.06
473.311	2641.06
473.53	2654.06
473.749	2709.06
473.968	2820.06
474.187	2695.06
474.406	2625.06
474.625	2612.06
474.844	2610.06
475.063	2647.06
475.282	2588.06
475.501	2650.06
475.72	2668.06
475.939	2673.06
476.158	2773.06
476.377	2792.06
476.596	2755.06
476.814	2776.06
477.033	2748.06
477.252	2797.06
477.471	2866.06
477.69	2905.06
477.908	2910.06
478.127	2958.06
478.346	2966.06
478.564	3093.06
478.783	3015.06
479.002	3155.06
479.22	3068.06
479.439	3222.06
479.658	3143.06
479.876	3146.06
480.095	3147.06
480.313	3213.06
480.532	3296.06
480.751	3285.06
480.969	3194.06
481.188	3168.06
481.406	3156.06
481.624	3172.06
481.843	3175.06
482.061	3228.06
482.28	3184.06
482.498	3172.06
482.717	3223.06
482.935	3219.06
483.153	3213.06
483.372	3319.06
483.59	3387.06
483.808	3466.06
484.027	3467.06
484.245	3673.06
484.463	4154.06
484.681	4609.06
484.9	4228.06
485.118	3925.06
485.336	3810.06
485.554	3816.06
485.772	4127.06
485.99	4701.06
486.209	4975.06
486.427	4172.06
486.645	3722.06
486.863	3639.06
487.081	3526.06
487.299	3400.06
487.517	3455.06
487.735	3409.06
