Data from SnStandardFlinnAPT0064_LampEnergy10_LIBS07252019.E.O._I.C._HRD10591_15-20-50-494.txt Node
Date: Thu Jul 25 15:20:50 EDT 2019
User: cochatt
Spectrometer: HR+D1059
Trigger mode: 1
Integration Time (sec): 1.000000E-1
Scans to average: 1
Electric dark correction enabled: true
Nonlinearity correction enabled: false
Boxcar width: 0
XAxis mode: Wavelengths
Number of Pixels in Spectrum: 2048
>>>>>Begin Spectral Data<<<<<
223.165	-18.88
223.4	-18.88
223.635	-18.88
223.869	-9.88
224.104	-10.88
224.338	-17.88
224.573	-17.88
224.808	-11.88
225.042	-5.88
225.277	-10.88
225.511	0.12
225.746	-2.88
225.98	13.12
226.215	11.12
226.449	7.12
226.683	19.12
226.918	35.12
227.152	21.12
227.387	31.12
227.621	30.12
227.856	54.12
228.09	47.12
228.324	29.12
228.559	60.12
228.793	129.12
229.027	311.12
229.262	326.12
229.496	317.12
229.73	277.12
229.964	302.12
230.199	298.12
230.433	299.12
230.667	294.12
230.901	328.12
231.136	321.12
231.37	351.12
231.604	371.12
231.838	439.12
232.072	537.12
232.306	564.12
232.541	487.12
232.775	455.12
233.009	403.12
233.243	409.12
233.477	456.12
233.711	514.12
233.945	564.12
234.179	505.12
234.413	462.12
234.647	463.12
234.881	485.12
235.115	498.12
235.349	617.12
235.583	766.12
235.817	1007.12
236.051	1000.12
236.285	669.12
236.519	542.12
236.753	498.12
236.987	521.12
237.221	539.12
237.455	494.12
237.689	454.12
237.922	459.12
238.156	482.12
238.39	475.12
238.624	488.12
238.858	487.12
239.091	489.12
239.325	485.12
239.559	495.12
239.793	486.12
240.027	509.12
240.26	525.12
240.494	577.12
240.728	580.12
240.961	637.12
241.195	642.12
241.429	692.12
241.662	683.12
241.896	779.12
242.13	936.12
242.363	1238.12
242.597	1635.12
242.83	1565.12
243.064	1561.12
243.298	1804.12
243.531	1503.12
243.765	951.12
243.998	784.12
244.232	695.12
244.465	657.12
244.699	636.12
244.932	664.12
245.166	676.12
245.399	671.12
245.633	655.12
245.866	691.12
246.099	669.12
246.333	645.12
246.566	650.12
246.8	621.12
247.033	643.12
247.266	651.12
247.5	650.12
247.733	677.12
247.966	720.12
248.2	768.12
248.433	867.12
248.666	1016.12
248.899	948.12
249.133	862.12
249.366	873.12
249.599	957.12
249.832	1118.12
250.066	1084.12
250.299	890.12
250.532	780.12
250.765	710.12
250.998	742.12
251.231	734.12
251.465	756.12
251.698	717.12
251.931	742.12
252.164	736.12
252.397	741.12
252.63	778.12
252.863	800.12
253.096	798.12
253.329	779.12
253.562	791.12
253.795	780.12
254.028	784.12
254.261	808.12
254.494	889.12
254.727	991.12
254.96	1235.12
255.193	1212.12
255.426	971.12
255.659	881.12
255.892	867.12
256.124	845.12
256.357	881.12
256.59	923.12
256.823	1010.12
257.056	1107.12
257.289	1317.12
257.521	1511.12
257.754	1171.12
257.987	979.12
258.22	931.12
258.452	913.12
258.685	929.12
258.918	955.12
259.151	999.12
259.383	1089.12
259.616	1198.12
259.849	1240.12
260.081	1097.12
260.314	986.12
260.547	943.12
260.779	921.12
261.012	955.12
261.244	959.12
261.477	959.12
261.71	991.12
261.942	993.12
262.175	1012.12
262.407	1022.12
262.64	1058.12
262.872	1107.12
263.105	1126.12
263.337	1231.12
263.57	1242.12
263.802	1291.12
264.035	1327.12
264.267	1335.12
264.499	1351.12
264.732	1414.12
264.964	1434.12
265.197	1430.12
265.429	1451.12
265.661	1461.12
265.894	1557.12
266.126	1771.12
266.358	1962.12
266.591	1917.12
266.823	1637.12
267.055	1469.12
267.287	1426.12
267.52	1325.12
267.752	1297.12
267.984	1308.12
268.216	1286.12
268.448	1233.12
268.681	1231.12
268.913	1250.12
269.145	1204.12
269.377	1243.12
269.609	1236.12
269.841	1301.12
270.073	1367.12
270.306	1575.12
270.538	2129.12
270.77	3207.12
271.002	3966.12
271.234	2781.12
271.466	1896.12
271.698	1527.12
271.93	1387.12
272.162	1326.12
272.394	1290.12
272.626	1224.12
272.858	1237.12
273.09	1220.12
273.322	1222.12
273.553	1197.12
273.785	1182.12
274.017	1205.12
274.249	1218.12
274.481	1208.12
274.713	1189.12
274.945	1195.12
275.176	1195.12
275.408	1199.12
275.64	1201.12
275.872	1218.12
276.104	1239.12
276.335	1251.12
276.567	1251.12
276.799	1269.12
277.031	1332.12
277.262	1311.12
277.494	1381.12
277.726	1551.12
277.957	1865.12
278.189	2150.12
278.421	1941.12
278.652	1765.12
278.884	1656.12
279.115	1467.12
279.347	1396.12
279.579	1394.12
279.81	1372.12
280.042	1417.12
280.273	1380.12
280.505	1423.12
280.736	1477.12
280.968	1548.12
281.199	1717.12
281.431	2033.12
281.662	2075.12
281.894	1786.12
282.125	1609.12
282.356	1702.12
282.588	1678.12
282.819	1692.12
283.051	1795.12
283.282	2011.12
283.513	2466.12
283.745	3619.12
283.976	5690.12
284.207	8135.12
284.439	7313.12
284.67	4611.12
284.901	3727.12
285.132	3703.12
285.364	3570.12
285.595	2707.12
285.826	2397.12
286.057	2821.12
286.288	3901.12
286.52	5174.12
286.751	4882.12
286.982	3084.12
287.213	2302.12
287.444	1954.12
287.675	1871.12
287.906	1769.12
288.138	1736.12
288.369	1700.12
288.6	1671.12
288.831	1670.12
289.062	1666.12
289.293	1668.12
289.524	1674.12
289.755	1699.12
289.986	1684.12
290.217	1704.12
290.448	1703.12
290.679	1725.12
290.91	1751.12
291.141	1852.12
291.371	2024.12
291.602	2144.12
291.833	1921.12
292.064	1787.12
292.295	1657.12
292.526	1623.12
292.757	1631.12
292.987	1594.12
293.218	1578.12
293.449	1626.12
293.68	1583.12
293.91	1563.12
294.141	1566.12
294.372	1570.12
294.603	1586.12
294.833	1589.12
295.064	1559.12
295.295	1556.12
295.525	1563.12
295.756	1561.12
295.987	1571.12
296.217	1573.12
296.448	1572.12
296.679	1560.12
296.909	1547.12
297.14	1594.12
297.37	1607.12
297.601	1622.12
297.831	1621.12
298.062	1633.12
298.292	1630.12
298.523	1658.12
298.753	1686.12
298.984	1683.12
299.214	1718.12
299.445	1726.12
299.675	1747.12
299.905	1815.12
300.136	1929.12
300.366	2164.12
300.597	2735.12
300.827	3849.12
301.057	5209.12
301.288	5222.12
301.518	3368.12
301.748	2587.12
301.979	2357.12
302.209	2247.12
302.439	2274.12
302.669	2423.12
302.9	2951.12
303.13	4176.12
303.36	6133.12
303.59	8154.12
303.82	7102.12
304.051	4229.12
304.281	3024.12
304.511	2495.12
304.741	2303.12
304.971	2173.12
305.201	2103.12
305.431	1997.12
305.661	1979.12
305.891	1886.12
306.121	1872.12
306.352	1869.12
306.582	1833.12
306.812	1822.12
307.042	1832.12
307.272	1810.12
307.502	1809.12
307.731	1797.12
307.961	1782.12
308.191	1803.12
308.421	1798.12
308.651	1815.12
308.881	1810.12
309.111	1794.12
309.341	1814.12
309.571	1827.12
309.8	1838.12
310.03	1845.12
310.26	1867.12
310.49	1853.12
310.72	1866.12
310.949	1867.12
311.179	1894.12
311.409	1890.12
311.639	1885.12
311.868	1895.12
312.098	1898.12
312.328	1969.12
312.557	1946.12
312.787	1968.12
313.017	1948.12
313.246	1985.12
313.476	1960.12
313.706	2051.12
313.935	2170.12
314.165	2345.12
314.394	2472.12
314.624	2318.12
314.853	2122.12
315.083	2144.12
315.312	2157.12
315.542	2183.12
315.771	2187.12
316.001	2241.12
316.23	2341.12
316.46	2413.12
316.689	2692.12
316.919	3188.12
317.148	4551.12
317.377	7077.12
317.607	10355.12
317.836	10906.12
318.065	6568.12
318.295	4285.12
318.524	3397.12
318.753	2975.12
318.983	2718.12
319.212	2538.12
319.441	2474.12
319.67	2454.12
319.9	2350.12
320.129	2347.12
320.358	2362.12
320.587	2325.12
320.816	2320.12
321.046	2387.12
321.275	2335.12
321.504	2382.12
321.733	2441.12
321.962	2479.12
322.191	2541.12
322.42	2482.12
322.649	2479.12
322.878	2475.12
323.108	2434.12
323.337	2522.12
323.566	2547.12
323.795	2597.12
324.024	2670.12
324.253	2763.12
324.482	2817.12
324.71	3005.12
324.939	3143.12
325.168	3325.12
325.397	3365.12
325.626	3990.12
325.855	5565.12
326.084	8689.12
326.313	12655.12
326.542	13429.12
326.77	9105.12
326.999	6046.12
327.228	4997.12
327.457	4736.12
327.686	4800.12
327.914	5142.12
328.143	5971.12
328.372	7188.12
328.6	7804.12
328.829	7077.12
329.058	5853.12
329.287	5091.12
329.515	4617.12
329.744	4287.12
329.972	4057.12
330.201	3881.12
330.43	3759.12
330.658	3544.12
330.887	3517.12
331.115	3461.12
331.344	3461.12
331.572	3464.12
331.801	3442.12
332.03	3484.12
332.258	3518.12
332.486	3770.12
332.715	4314.12
332.943	5318.12
333.172	6578.12
333.4	6525.12
333.629	4938.12
333.857	4463.12
334.085	4498.12
334.314	4735.12
334.542	5136.12
334.771	6016.12
334.999	7475.12
335.227	9397.12
335.455	10562.12
335.684	9439.12
335.912	7827.12
336.14	6497.12
336.369	5654.12
336.597	5185.12
336.825	4787.12
337.053	4546.12
337.281	4266.12
337.51	4028.12
337.738	3845.12
337.966	3703.12
338.194	3619.12
338.422	3493.12
338.65	3294.12
338.878	3230.12
339.106	3288.12
339.334	3140.12
339.562	3147.12
339.79	3107.12
340.018	3073.12
340.246	3008.12
340.474	3027.12
340.702	3015.12
340.93	2973.12
341.158	3018.12
341.386	3027.12
341.614	2959.12
341.842	2910.12
342.07	2836.12
342.298	2789.12
342.526	2749.12
342.754	2748.12
342.981	2708.12
343.209	2685.12
343.437	2740.12
343.665	2786.12
343.893	2795.12
344.12	2823.12
344.348	2770.12
344.576	2718.12
344.804	2679.12
345.031	2601.12
345.259	2608.12
345.487	2540.12
345.714	2556.12
345.942	2534.12
346.17	2551.12
346.397	2555.12
346.625	2522.12
346.853	2492.12
347.08	2483.12
347.308	2518.12
347.535	2542.12
347.763	2516.12
347.99	2499.12
348.218	2427.12
348.445	2480.12
348.673	2487.12
348.9	2495.12
349.128	2446.12
349.355	2399.12
349.583	2434.12
349.81	2398.12
350.037	2365.12
350.265	2413.12
350.492	2409.12
350.72	2384.12
350.947	2402.12
351.174	2455.12
351.402	2387.12
351.629	2399.12
351.856	2352.12
352.083	2378.12
352.311	2372.12
352.538	2340.12
352.765	2394.12
352.992	2398.12
353.22	2338.12
353.447	2373.12
353.674	2334.12
353.901	2393.12
354.128	2375.12
354.355	2359.12
354.583	2427.12
354.81	2401.12
355.037	2405.12
355.264	2461.12
355.491	2444.12
355.718	2426.12
355.945	2433.12
356.172	2468.12
356.399	2496.12
356.626	2524.12
356.853	2521.12
357.08	2521.12
357.307	2518.12
357.534	2590.12
357.761	2588.12
357.988	2563.12
358.215	2547.12
358.441	2530.12
358.668	2509.12
358.895	2484.12
359.122	2522.12
359.349	2521.12
359.576	2494.12
359.802	2505.12
360.029	2500.12
360.256	2574.12
360.483	2537.12
360.709	2559.12
360.936	2535.12
361.163	2513.12
361.39	2513.12
361.616	2570.12
361.843	2567.12
362.07	2545.12
362.296	2585.12
362.523	2527.12
362.749	2499.12
362.976	2519.12
363.203	2535.12
363.429	2489.12
363.656	2528.12
363.882	2497.12
364.109	2514.12
364.335	2511.12
364.562	2528.12
364.788	2518.12
365.015	2502.12
365.241	2553.12
365.468	2773.12
365.694	2918.12
365.92	2782.12
366.147	2571.12
366.373	2572.12
366.599	2590.12
366.826	2570.12
367.052	2586.12
367.278	2630.12
367.505	2621.12
367.731	2607.12
367.957	2534.12
368.184	2649.12
368.41	2690.12
368.636	2595.12
368.862	2662.12
369.089	2588.12
369.315	2633.12
369.541	2647.12
369.767	2624.12
369.993	2613.12
370.219	2593.12
370.445	2613.12
370.672	2682.12
370.898	2645.12
371.124	2711.12
371.35	2685.12
371.576	2742.12
371.802	2748.12
372.028	2757.12
372.254	2717.12
372.48	2741.12
372.706	2751.12
372.932	2783.12
373.158	2766.12
373.384	2763.12
373.61	2760.12
373.835	2779.12
374.061	2739.12
374.287	2833.12
374.513	2869.12
374.739	2926.12
374.965	2872.12
375.191	2911.12
375.416	2895.12
375.642	2873.12
375.868	2801.12
376.094	2802.12
376.319	2762.12
376.545	2801.12
376.771	2701.12
376.997	2739.12
377.222	2744.12
377.448	2677.12
377.674	2724.12
377.899	2705.12
378.125	2735.12
378.35	2726.12
378.576	2725.12
378.802	2762.12
379.027	2824.12
379.253	2876.12
379.478	3026.12
379.704	3568.12
379.929	5117.12
380.155	7793.12
380.38	8537.12
380.606	5321.12
380.831	3735.12
381.057	3219.12
381.282	2974.12
381.507	2878.12
381.733	2781.12
381.958	2734.12
382.184	2715.12
382.409	2681.12
382.634	2720.12
382.86	2639.12
383.085	2657.12
383.31	2646.12
383.535	2714.12
383.761	2751.12
383.986	2699.12
384.211	2720.12
384.436	2758.12
384.662	2766.12
384.887	2773.12
385.112	2720.12
385.337	2785.12
385.562	2767.12
385.787	2733.12
386.013	2802.12
386.238	2736.12
386.463	2779.12
386.688	2799.12
386.913	2711.12
387.138	2739.12
387.363	2747.12
387.588	2709.12
387.813	2719.12
388.038	2707.12
388.263	2718.12
388.488	2713.12
388.713	2740.12
388.938	2742.12
389.163	2711.12
389.387	2752.12
389.612	2733.12
389.837	2750.12
390.062	2723.12
390.287	2787.12
390.512	2769.12
390.736	2795.12
390.961	2927.12
391.186	2906.12
391.411	2853.12
391.636	2904.12
391.86	2919.12
392.085	2869.12
392.31	2846.12
392.534	2853.12
392.759	2822.12
392.984	2783.12
393.208	2755.12
393.433	2799.12
393.658	2775.12
393.882	2745.12
394.107	2747.12
394.331	2784.12
394.556	2829.12
394.78	2846.12
395.005	2843.12
395.229	2825.12
395.454	2822.12
395.678	2866.12
395.903	2898.12
396.127	2859.12
396.352	2831.12
396.576	2852.12
396.801	2888.12
397.025	2845.12
397.249	2848.12
397.474	2934.12
397.698	2918.12
397.922	2933.12
398.147	2902.12
398.371	2933.12
398.595	3023.12
398.82	2999.12
399.044	3190.12
399.268	3327.12
399.492	3537.12
399.717	3613.12
399.941	3650.12
400.165	3509.12
400.389	3361.12
400.613	3268.12
400.837	3123.12
401.062	3126.12
401.286	3021.12
401.51	3056.12
401.734	3032.12
401.958	3022.12
402.182	3050.12
402.406	3029.12
402.63	3019.12
402.854	3086.12
403.078	3091.12
403.302	3095.12
403.526	3120.12
403.75	3171.12
403.974	3191.12
404.198	3136.12
404.422	3172.12
404.645	3112.12
404.869	3076.12
405.093	3176.12
405.317	3152.12
405.541	3202.12
405.765	3205.12
405.988	3234.12
406.212	3225.12
406.436	3252.12
406.66	3285.12
406.883	3280.12
407.107	3364.12
407.331	3391.12
407.555	3464.12
407.778	3447.12
408.002	3447.12
408.226	3338.12
408.449	3343.12
408.673	3325.12
408.896	3187.12
409.12	3172.12
409.344	3269.12
409.567	3178.12
409.791	3163.12
410.014	3089.12
410.238	3120.12
410.461	3102.12
410.685	3187.12
410.908	3154.12
411.132	3126.12
411.355	3014.12
411.578	3035.12
411.802	2994.12
412.025	3037.12
412.249	3028.12
412.472	3020.12
412.695	2990.12
412.919	2959.12
413.142	2993.12
413.365	2946.12
413.589	3001.12
413.812	2937.12
414.035	2964.12
414.258	2977.12
414.482	2971.12
414.705	2992.12
414.928	2956.12
415.151	2937.12
415.374	2953.12
415.597	2917.12
415.821	2925.12
416.044	2830.12
416.267	2878.12
416.49	2852.12
416.713	2861.12
416.936	2833.12
417.159	2843.12
417.382	2780.12
417.605	2815.12
417.828	2763.12
418.051	2877.12
418.274	2875.12
418.497	2845.12
418.72	2890.12
418.943	2885.12
419.166	3063.12
419.389	3202.12
419.611	3143.12
419.834	3053.12
420.057	3007.12
420.28	2872.12
420.503	2813.12
420.726	2837.12
420.948	2786.12
421.171	2879.12
421.394	2841.12
421.617	2877.12
421.839	2854.12
422.062	2922.12
422.285	2845.12
422.507	2912.12
422.73	2935.12
422.953	2952.12
423.175	3027.12
423.398	2904.12
423.621	2792.12
423.843	2850.12
424.066	2870.12
424.288	2861.12
424.511	2909.12
424.733	2849.12
424.956	2813.12
425.178	2817.12
425.401	2769.12
425.623	2795.12
425.846	2782.12
426.068	2758.12
426.291	2725.12
426.513	2699.12
426.735	2737.12
426.958	2719.12
427.18	2651.12
427.402	2735.12
427.625	2734.12
427.847	2640.12
428.069	2663.12
428.292	2724.12
428.514	2683.12
428.736	2670.12
428.958	2665.12
429.181	2565.12
429.403	2576.12
429.625	2614.12
429.847	2630.12
430.069	2672.12
430.292	2773.12
430.514	2841.12
430.736	2851.12
430.958	2664.12
431.18	2616.12
431.402	2625.12
431.624	2585.12
431.846	2551.12
432.068	2564.12
432.29	2616.12
432.512	2553.12
432.734	2677.12
432.956	2639.12
433.178	2638.12
433.4	2646.12
433.622	2643.12
433.844	2645.12
434.066	2580.12
434.287	2639.12
434.509	2663.12
434.731	2713.12
434.953	2761.12
435.175	2721.12
435.397	2733.12
435.618	2681.12
435.84	2619.12
436.062	2620.12
436.284	2581.12
436.505	2600.12
436.727	2589.12
436.949	2592.12
437.17	2607.12
437.392	2598.12
437.614	2533.12
437.835	2492.12
438.057	2505.12
438.278	2514.12
438.5	2507.12
438.721	2583.12
438.943	2682.12
439.165	2721.12
439.386	2716.12
439.608	2703.12
439.829	2739.12
440.05	2836.12
440.272	2823.12
440.493	2707.12
440.715	2666.12
440.936	2716.12
441.158	2730.12
441.379	2758.12
441.6	2865.12
441.822	2895.12
442.043	3080.12
442.264	3186.12
442.486	2948.12
442.707	2901.12
442.928	2795.12
443.149	2824.12
443.371	2774.12
443.592	2775.12
443.813	2848.12
444.034	2841.12
444.255	2881.12
444.476	2873.12
444.698	2947.12
444.919	2982.12
445.14	3078.12
445.361	2906.12
445.582	2852.12
445.803	2789.12
446.024	2786.12
446.245	2773.12
446.466	2725.12
446.687	2737.12
446.908	2766.12
447.129	2675.12
447.35	2664.12
447.571	2634.12
447.792	2563.12
448.013	2607.12
448.234	2594.12
448.455	2585.12
448.675	2641.12
448.896	2666.12
449.117	2753.12
449.338	3010.12
449.559	3045.12
449.779	2775.12
450	2574.12
450.221	2514.12
450.442	2565.12
450.662	2511.12
450.883	2496.12
451.104	2504.12
451.324	2544.12
451.545	2514.12
451.766	2560.12
451.986	2567.12
452.207	2763.12
452.428	3617.12
452.648	5431.12
452.869	4591.12
453.089	3135.12
453.31	2989.12
453.53	2954.12
453.751	3050.12
453.971	3114.12
454.192	3106.12
454.412	2660.12
454.633	2590.12
454.853	2473.12
455.073	2452.12
455.294	2417.12
455.514	2424.12
455.734	2400.12
455.955	2389.12
456.175	2422.12
456.395	2417.12
456.616	2467.12
456.836	2440.12
457.056	2436.12
457.276	2393.12
457.497	2651.12
457.717	2679.12
457.937	2557.12
458.157	2522.12
458.377	2555.12
458.598	2576.12
458.818	2590.12
459.038	2588.12
459.258	2607.12
459.478	2610.12
459.698	2645.12
459.918	2696.12
460.138	2770.12
460.358	2758.12
460.578	2833.12
460.798	2826.12
461.018	2837.12
461.238	2846.12
461.458	2870.12
461.678	2877.12
461.898	2937.12
462.118	2997.12
462.338	3032.12
462.558	3041.12
462.777	3105.12
462.997	3212.12
463.217	3384.12
463.437	3467.12
463.657	3509.12
463.876	3517.12
464.096	3374.12
464.316	3201.12
464.536	3166.12
464.755	3030.12
464.975	2997.12
465.195	2851.12
465.414	2823.12
465.634	2794.12
465.854	2721.12
466.073	2655.12
466.293	2607.12
466.512	2660.12
466.732	2655.12
466.951	2801.12
467.171	2974.12
467.391	2914.12
467.61	2657.12
467.829	2605.12
468.049	2598.12
468.268	2559.12
468.488	2532.12
468.707	2532.12
468.927	2554.12
469.146	2559.12
469.365	2605.12
469.585	2627.12
469.804	2699.12
470.023	2772.12
470.243	2783.12
470.462	2828.12
470.681	2953.12
470.901	3265.12
471.12	3738.12
471.339	3761.12
471.558	3138.12
471.777	2865.12
471.997	2784.12
472.216	2691.12
472.435	2629.12
472.654	2583.12
472.873	2597.12
473.092	2532.12
473.311	2561.12
473.53	2617.12
473.749	2677.12
473.968	2762.12
474.187	2605.12
474.406	2559.12
474.625	2607.12
474.844	2625.12
475.063	2627.12
475.282	2615.12
475.501	2621.12
475.72	2630.12
475.939	2627.12
476.158	2714.12
476.377	2707.12
476.596	2702.12
476.814	2693.12
477.033	2717.12
477.252	2751.12
477.471	2786.12
477.69	2887.12
477.908	2903.12
478.127	2929.12
478.346	2957.12
478.564	2931.12
478.783	2999.12
479.002	3127.12
479.22	3053.12
479.439	3056.12
479.658	3118.12
479.876	3095.12
480.095	3159.12
480.313	3207.12
480.532	3226.12
480.751	3176.12
480.969	3181.12
481.188	3131.12
481.406	3091.12
481.624	3128.12
481.843	3134.12
482.061	3226.12
482.28	3103.12
482.498	3122.12
482.717	3131.12
482.935	3141.12
483.153	3216.12
483.372	3222.12
483.59	3283.12
483.808	3373.12
484.027	3453.12
484.245	3609.12
484.463	4064.12
484.681	4459.12
484.9	4101.12
485.118	3794.12
485.336	3747.12
485.554	3790.12
485.772	4000.12
485.99	4498.12
486.209	4842.12
486.427	4132.12
486.645	3669.12
486.863	3517.12
487.081	3421.12
487.299	3384.12
487.517	3377.12
487.735	3318.12
