Data from SnStandardFlinnAPT0064_QswitchEnergy10_LIBS07252019.E.O._I.C._HRD10591_15-27-58-973.txt Node
Date: Thu Jul 25 15:27:58 EDT 2019
User: cochatt
Spectrometer: HR+D1059
Trigger mode: 1
Integration Time (sec): 1.000000E-1
Scans to average: 1
Electric dark correction enabled: true
Nonlinearity correction enabled: false
Boxcar width: 0
XAxis mode: Wavelengths
Number of Pixels in Spectrum: 2048
>>>>>Begin Spectral Data<<<<<
223.165	-23.5
223.4	-23.5
223.635	-23.5
223.869	-14.5
224.104	-8.5
224.338	-16.5
224.573	-11.5
224.808	-19.5
225.042	-4.5
225.277	4.5
225.511	11.5
225.746	-5.5
225.98	0.5
226.215	12.5
226.449	15.5
226.683	10.5
226.918	28.5
227.152	20.5
227.387	31.5
227.621	28.5
227.856	43.5
228.09	54.5
228.324	46.5
228.559	40.5
228.793	49.5
229.027	63.5
229.262	66.5
229.496	58.5
229.73	71.5
229.964	73.5
230.199	74.5
230.433	79.5
230.667	80.5
230.901	71.5
231.136	66.5
231.37	74.5
231.604	87.5
231.838	98.5
232.072	115.5
232.306	126.5
232.541	120.5
232.775	77.5
233.009	96.5
233.243	76.5
233.477	77.5
233.711	100.5
233.945	105.5
234.179	94.5
234.413	91.5
234.647	84.5
234.881	94.5
235.115	96.5
235.349	103.5
235.583	111.5
235.817	121.5
236.051	136.5
236.285	100.5
236.519	89.5
236.753	72.5
236.987	84.5
237.221	90.5
237.455	82.5
237.689	86.5
237.922	86.5
238.156	73.5
238.39	89.5
238.624	75.5
238.858	93.5
239.091	54.5
239.325	82.5
239.559	74.5
239.793	89.5
240.027	88.5
240.26	79.5
240.494	83.5
240.728	75.5
240.961	78.5
241.195	95.5
241.429	99.5
241.662	89.5
241.896	86.5
242.13	94.5
242.363	138.5
242.597	178.5
242.83	148.5
243.064	134.5
243.298	155.5
243.531	143.5
243.765	91.5
243.998	97.5
244.232	76.5
244.465	94.5
244.699	64.5
244.932	79.5
245.166	87.5
245.399	84.5
245.633	80.5
245.866	79.5
246.099	79.5
246.333	75.5
246.566	85.5
246.8	70.5
247.033	88.5
247.266	75.5
247.5	64.5
247.733	72.5
247.966	76.5
248.2	90.5
248.433	99.5
248.666	134.5
248.899	118.5
249.133	100.5
249.366	96.5
249.599	111.5
249.832	128.5
250.066	119.5
250.299	97.5
250.532	82.5
250.765	73.5
250.998	96.5
251.231	76.5
251.465	70.5
251.698	80.5
251.931	78.5
252.164	84.5
252.397	77.5
252.63	88.5
252.863	87.5
253.096	82.5
253.329	81.5
253.562	83.5
253.795	89.5
254.028	87.5
254.261	85.5
254.494	92.5
254.727	132.5
254.96	155.5
255.193	140.5
255.426	91.5
255.659	89.5
255.892	98.5
256.124	91.5
256.357	89.5
256.59	89.5
256.823	99.5
257.056	114.5
257.289	154.5
257.521	192.5
257.754	125.5
257.987	101.5
258.22	85.5
258.452	83.5
258.685	104.5
258.918	91.5
259.151	102.5
259.383	118.5
259.616	127.5
259.849	142.5
260.081	108.5
260.314	102.5
260.547	98.5
260.779	72.5
261.012	95.5
261.244	82.5
261.477	79.5
261.71	73.5
261.942	94.5
262.175	81.5
262.407	91.5
262.64	80.5
262.872	98.5
263.105	82.5
263.337	79.5
263.57	90.5
263.802	84.5
264.035	99.5
264.267	86.5
264.499	90.5
264.732	98.5
264.964	84.5
265.197	71.5
265.429	90.5
265.661	95.5
265.894	106.5
266.126	116.5
266.358	150.5
266.591	150.5
266.823	102.5
267.055	85.5
267.287	82.5
267.52	88.5
267.752	88.5
267.984	96.5
268.216	87.5
268.448	87.5
268.681	97.5
268.913	90.5
269.145	86.5
269.377	90.5
269.609	87.5
269.841	91.5
270.073	104.5
270.306	133.5
270.538	193.5
270.77	321.5
271.002	368.5
271.234	205.5
271.466	121.5
271.698	98.5
271.93	92.5
272.162	98.5
272.394	82.5
272.626	86.5
272.858	89.5
273.09	87.5
273.322	91.5
273.553	93.5
273.785	91.5
274.017	87.5
274.249	96.5
274.481	94.5
274.713	94.5
274.945	92.5
275.176	93.5
275.408	110.5
275.64	91.5
275.872	90.5
276.104	83.5
276.335	91.5
276.567	93.5
276.799	82.5
277.031	85.5
277.262	96.5
277.494	102.5
277.726	128.5
277.957	165.5
278.189	228.5
278.421	231.5
278.652	192.5
278.884	188.5
279.115	140.5
279.347	112.5
279.579	96.5
279.81	94.5
280.042	95.5
280.273	90.5
280.505	99.5
280.736	93.5
280.968	121.5
281.199	174.5
281.431	240.5
281.662	258.5
281.894	147.5
282.125	107.5
282.356	105.5
282.588	96.5
282.819	106.5
283.051	118.5
283.282	132.5
283.513	190.5
283.745	320.5
283.976	566.5
284.207	828.5
284.439	616.5
284.67	268.5
284.901	254.5
285.132	353.5
285.364	383.5
285.595	229.5
285.826	160.5
286.057	241.5
286.288	430.5
286.52	636.5
286.751	492.5
286.982	211.5
287.213	132.5
287.444	103.5
287.675	94.5
287.906	97.5
288.138	115.5
288.369	86.5
288.6	92.5
288.831	83.5
289.062	101.5
289.293	94.5
289.524	100.5
289.755	87.5
289.986	96.5
290.217	88.5
290.448	87.5
290.679	110.5
290.91	110.5
291.141	145.5
291.371	227.5
291.602	266.5
291.833	195.5
292.064	106.5
292.295	86.5
292.526	104.5
292.757	102.5
292.987	99.5
293.218	96.5
293.449	106.5
293.68	86.5
293.91	83.5
294.141	105.5
294.372	99.5
294.603	94.5
294.833	105.5
295.064	105.5
295.295	98.5
295.525	94.5
295.756	100.5
295.987	94.5
296.217	98.5
296.448	105.5
296.679	94.5
296.909	87.5
297.14	98.5
297.37	96.5
297.601	84.5
297.831	100.5
298.062	107.5
298.292	102.5
298.523	97.5
298.753	98.5
298.984	96.5
299.214	108.5
299.445	110.5
299.675	116.5
299.905	114.5
300.136	126.5
300.366	166.5
300.597	281.5
300.827	467.5
301.057	735.5
301.288	655.5
301.518	266.5
301.748	132.5
301.979	122.5
302.209	112.5
302.439	130.5
302.669	158.5
302.9	284.5
303.13	508.5
303.36	897.5
303.59	1206.5
303.82	858.5
304.051	304.5
304.281	154.5
304.511	125.5
304.741	113.5
304.971	103.5
305.201	96.5
305.431	103.5
305.661	119.5
305.891	102.5
306.121	96.5
306.352	119.5
306.582	94.5
306.812	101.5
307.042	111.5
307.272	106.5
307.502	108.5
307.731	100.5
307.961	113.5
308.191	104.5
308.421	108.5
308.651	111.5
308.881	107.5
309.111	114.5
309.341	94.5
309.571	91.5
309.8	106.5
310.03	106.5
310.26	121.5
310.49	112.5
310.72	107.5
310.949	109.5
311.179	96.5
311.409	94.5
311.639	101.5
311.868	107.5
312.098	102.5
312.328	103.5
312.557	101.5
312.787	118.5
313.017	126.5
313.246	118.5
313.476	123.5
313.706	119.5
313.935	152.5
314.165	184.5
314.394	219.5
314.624	174.5
314.853	117.5
315.083	116.5
315.312	118.5
315.542	128.5
315.771	124.5
316.001	124.5
316.23	150.5
316.46	155.5
316.689	156.5
316.919	266.5
317.148	506.5
317.377	921.5
317.607	1564.5
317.836	1428.5
318.065	519.5
318.295	219.5
318.524	150.5
318.753	126.5
318.983	119.5
319.212	136.5
319.441	116.5
319.67	114.5
319.9	115.5
320.129	120.5
320.358	118.5
320.587	123.5
320.816	121.5
321.046	131.5
321.275	128.5
321.504	123.5
321.733	158.5
321.962	153.5
322.191	148.5
322.42	134.5
322.649	134.5
322.878	121.5
323.108	116.5
323.337	113.5
323.566	134.5
323.795	129.5
324.024	138.5
324.253	143.5
324.482	178.5
324.71	260.5
324.939	273.5
325.168	235.5
325.397	194.5
325.626	261.5
325.855	488.5
326.084	946.5
326.313	1650.5
326.542	1633.5
326.77	631.5
326.999	274.5
327.228	184.5
327.457	241.5
327.686	230.5
327.914	158.5
328.143	155.5
328.372	134.5
328.6	124.5
328.829	123.5
329.058	122.5
329.287	119.5
329.515	110.5
329.744	136.5
329.972	125.5
330.201	119.5
330.43	101.5
330.658	110.5
330.887	116.5
331.115	121.5
331.344	120.5
331.572	127.5
331.801	107.5
332.03	122.5
332.258	134.5
332.486	171.5
332.715	296.5
332.943	511.5
333.172	780.5
333.4	688.5
333.629	261.5
333.857	156.5
334.085	112.5
334.314	101.5
334.542	118.5
334.771	127.5
334.999	118.5
335.227	118.5
335.455	114.5
335.684	115.5
335.912	117.5
336.14	111.5
336.369	118.5
336.597	104.5
336.825	110.5
337.053	108.5
337.281	117.5
337.51	120.5
337.738	121.5
337.966	124.5
338.194	102.5
338.422	108.5
338.65	118.5
338.878	112.5
339.106	117.5
339.334	130.5
339.562	115.5
339.79	102.5
340.018	114.5
340.246	117.5
340.474	122.5
340.702	113.5
340.93	99.5
341.158	110.5
341.386	108.5
341.614	128.5
341.842	113.5
342.07	114.5
342.298	117.5
342.526	117.5
342.754	104.5
342.981	120.5
343.209	110.5
343.437	123.5
343.665	103.5
343.893	113.5
344.12	113.5
344.348	108.5
344.576	120.5
344.804	105.5
345.031	106.5
345.259	120.5
345.487	105.5
345.714	98.5
345.942	109.5
346.17	100.5
346.397	118.5
346.625	98.5
346.853	105.5
347.08	105.5
347.308	103.5
347.535	97.5
347.763	77.5
347.99	88.5
348.218	112.5
348.445	116.5
348.673	112.5
348.9	130.5
349.128	133.5
349.355	134.5
349.583	123.5
349.81	105.5
350.037	107.5
350.265	103.5
350.492	119.5
350.72	129.5
350.947	116.5
351.174	122.5
351.402	109.5
351.629	107.5
351.856	102.5
352.083	91.5
352.311	99.5
352.538	123.5
352.765	107.5
352.992	114.5
353.22	107.5
353.447	102.5
353.674	106.5
353.901	112.5
354.128	101.5
354.355	91.5
354.583	105.5
354.81	105.5
355.037	103.5
355.264	106.5
355.491	99.5
355.718	98.5
355.945	93.5
356.172	99.5
356.399	108.5
356.626	100.5
356.853	104.5
357.08	117.5
357.307	111.5
357.534	98.5
357.761	103.5
357.988	109.5
358.215	94.5
358.441	123.5
358.668	111.5
358.895	110.5
359.122	119.5
359.349	117.5
359.576	113.5
359.802	99.5
360.029	108.5
360.256	115.5
360.483	108.5
360.709	114.5
360.936	105.5
361.163	110.5
361.39	110.5
361.616	99.5
361.843	130.5
362.07	100.5
362.296	102.5
362.523	112.5
362.749	110.5
362.976	106.5
363.203	110.5
363.429	101.5
363.656	101.5
363.882	108.5
364.109	122.5
364.335	109.5
364.562	104.5
364.788	118.5
365.015	105.5
365.241	130.5
365.468	183.5
365.694	232.5
365.92	205.5
366.147	104.5
366.373	94.5
366.599	95.5
366.826	106.5
367.052	99.5
367.278	91.5
367.505	84.5
367.731	104.5
367.957	104.5
368.184	118.5
368.41	114.5
368.636	121.5
368.862	110.5
369.089	96.5
369.315	101.5
369.541	101.5
369.767	102.5
369.993	119.5
370.219	97.5
370.445	118.5
370.672	100.5
370.898	107.5
371.124	98.5
371.35	105.5
371.576	110.5
371.802	96.5
372.028	109.5
372.254	118.5
372.48	102.5
372.706	106.5
372.932	116.5
373.158	106.5
373.384	110.5
373.61	122.5
373.835	114.5
374.061	111.5
374.287	94.5
374.513	106.5
374.739	114.5
374.965	121.5
375.191	103.5
375.416	110.5
375.642	113.5
375.868	105.5
376.094	103.5
376.319	117.5
376.545	94.5
376.771	98.5
376.997	102.5
377.222	107.5
377.448	106.5
377.674	117.5
377.899	113.5
378.125	108.5
378.35	130.5
378.576	108.5
378.802	136.5
379.027	136.5
379.253	138.5
379.478	178.5
379.704	304.5
379.929	766.5
380.155	1599.5
380.38	1646.5
380.606	537.5
380.831	180.5
381.057	132.5
381.282	104.5
381.507	106.5
381.733	108.5
381.958	110.5
382.184	110.5
382.409	105.5
382.634	115.5
382.86	112.5
383.085	103.5
383.31	115.5
383.535	103.5
383.761	108.5
383.986	105.5
384.211	99.5
384.436	105.5
384.662	106.5
384.887	108.5
385.112	129.5
385.337	106.5
385.562	92.5
385.787	100.5
386.013	118.5
386.238	110.5
386.463	112.5
386.688	105.5
386.913	116.5
387.138	98.5
387.363	102.5
387.588	90.5
387.813	107.5
388.038	115.5
388.263	95.5
388.488	90.5
388.713	122.5
388.938	108.5
389.163	96.5
389.387	88.5
389.612	91.5
389.837	107.5
390.062	105.5
390.287	92.5
390.512	106.5
390.736	105.5
390.961	112.5
391.186	103.5
391.411	103.5
391.636	99.5
391.86	96.5
392.085	88.5
392.31	95.5
392.534	95.5
392.759	101.5
392.984	102.5
393.208	117.5
393.433	131.5
393.658	138.5
393.882	95.5
394.107	100.5
394.331	89.5
394.556	114.5
394.78	95.5
395.005	100.5
395.229	114.5
395.454	106.5
395.678	100.5
395.903	94.5
396.127	97.5
396.352	106.5
396.576	110.5
396.801	111.5
397.025	120.5
397.249	113.5
397.474	112.5
397.698	90.5
397.922	97.5
398.147	106.5
398.371	101.5
398.595	91.5
398.82	108.5
399.044	99.5
399.268	92.5
399.492	94.5
399.717	91.5
399.941	85.5
400.165	82.5
400.389	98.5
400.613	92.5
400.837	102.5
401.062	94.5
401.286	111.5
401.51	99.5
401.734	92.5
401.958	96.5
402.182	88.5
402.406	95.5
402.63	90.5
402.854	90.5
403.078	87.5
403.302	99.5
403.526	94.5
403.75	94.5
403.974	93.5
404.198	92.5
404.422	112.5
404.645	89.5
404.869	88.5
405.093	86.5
405.317	86.5
405.541	104.5
405.765	127.5
405.988	156.5
406.212	121.5
406.436	118.5
406.66	103.5
406.883	83.5
407.107	92.5
407.331	93.5
407.555	107.5
407.778	94.5
408.002	97.5
408.226	107.5
408.449	95.5
408.673	106.5
408.896	101.5
409.12	104.5
409.344	88.5
409.567	91.5
409.791	95.5
410.014	105.5
410.238	106.5
410.461	93.5
410.685	98.5
410.908	99.5
411.132	102.5
411.355	96.5
411.578	98.5
411.802	106.5
412.025	100.5
412.249	116.5
412.472	107.5
412.695	101.5
412.919	121.5
413.142	97.5
413.365	94.5
413.589	96.5
413.812	102.5
414.035	108.5
414.258	99.5
414.482	93.5
414.705	101.5
414.928	96.5
415.151	105.5
415.374	99.5
415.597	109.5
415.821	107.5
416.044	103.5
416.267	107.5
416.49	98.5
416.713	76.5
416.936	101.5
417.159	97.5
417.382	81.5
417.605	93.5
417.828	102.5
418.051	98.5
418.274	91.5
418.497	98.5
418.72	99.5
418.943	102.5
419.166	116.5
419.389	100.5
419.611	97.5
419.834	86.5
420.057	99.5
420.28	105.5
420.503	102.5
420.726	95.5
420.948	102.5
421.171	100.5
421.394	83.5
421.617	95.5
421.839	102.5
422.062	94.5
422.285	101.5
422.507	111.5
422.73	126.5
422.953	140.5
423.175	112.5
423.398	85.5
423.621	109.5
423.843	95.5
424.066	88.5
424.288	96.5
424.511	94.5
424.733	94.5
424.956	111.5
425.178	97.5
425.401	82.5
425.623	96.5
425.846	104.5
426.068	89.5
426.291	102.5
426.513	96.5
426.735	84.5
426.958	93.5
427.18	102.5
427.402	90.5
427.625	88.5
427.847	86.5
428.069	91.5
428.292	108.5
428.514	105.5
428.736	87.5
428.958	101.5
429.181	109.5
429.403	102.5
429.625	94.5
429.847	113.5
430.069	115.5
430.292	100.5
430.514	108.5
430.736	96.5
430.958	100.5
431.18	107.5
431.402	97.5
431.624	106.5
431.846	102.5
432.068	88.5
432.29	99.5
432.512	92.5
432.734	85.5
432.956	89.5
433.178	92.5
433.4	87.5
433.622	98.5
433.844	89.5
434.066	112.5
434.287	102.5
434.509	96.5
434.731	70.5
434.953	81.5
435.175	98.5
435.397	83.5
435.618	81.5
435.84	91.5
436.062	98.5
436.284	96.5
436.505	93.5
436.727	99.5
436.949	99.5
437.17	103.5
437.392	102.5
437.614	91.5
437.835	82.5
438.057	92.5
438.278	89.5
438.5	104.5
438.721	91.5
438.943	115.5
439.165	91.5
439.386	99.5
439.608	98.5
439.829	99.5
440.05	122.5
440.272	122.5
440.493	106.5
440.715	109.5
440.936	94.5
441.158	82.5
441.379	93.5
441.6	85.5
441.822	110.5
442.043	123.5
442.264	144.5
442.486	124.5
442.707	97.5
442.928	112.5
443.149	99.5
443.371	104.5
443.592	92.5
443.813	95.5
444.034	102.5
444.255	110.5
444.476	102.5
444.698	96.5
444.919	87.5
445.14	199.5
445.361	150.5
445.582	116.5
445.803	96.5
446.024	94.5
446.245	94.5
446.466	89.5
446.687	102.5
446.908	93.5
447.129	117.5
447.35	96.5
447.571	103.5
447.792	88.5
448.013	99.5
448.234	102.5
448.455	105.5
448.675	91.5
448.896	103.5
449.117	112.5
449.338	135.5
449.559	146.5
449.779	104.5
450	100.5
450.221	124.5
450.442	126.5
450.662	122.5
450.883	110.5
451.104	102.5
451.324	108.5
451.545	102.5
451.766	119.5
451.986	139.5
452.207	218.5
452.428	511.5
452.648	1321.5
452.869	739.5
453.089	189.5
453.31	121.5
453.53	120.5
453.751	132.5
453.971	172.5
454.192	161.5
454.412	121.5
454.633	110.5
454.853	95.5
455.073	91.5
455.294	102.5
455.514	93.5
455.734	92.5
455.955	92.5
456.175	86.5
456.395	104.5
456.616	108.5
456.836	102.5
457.056	86.5
457.276	87.5
457.497	119.5
457.717	123.5
457.937	98.5
458.157	87.5
458.377	87.5
458.598	80.5
458.818	82.5
459.038	93.5
459.258	79.5
459.478	77.5
459.698	87.5
459.918	96.5
460.138	87.5
460.358	84.5
460.578	91.5
460.798	86.5
461.018	89.5
461.238	91.5
461.458	97.5
461.678	84.5
461.898	98.5
462.118	96.5
462.338	91.5
462.558	109.5
462.777	84.5
462.997	106.5
463.217	109.5
463.437	140.5
463.657	190.5
463.876	193.5
464.096	123.5
464.316	106.5
464.536	103.5
464.755	95.5
464.975	87.5
465.195	102.5
465.414	103.5
465.634	90.5
465.854	92.5
466.073	107.5
466.293	85.5
466.512	88.5
466.732	94.5
466.951	106.5
467.171	145.5
467.391	146.5
467.61	120.5
467.829	108.5
468.049	99.5
468.268	99.5
468.488	90.5
468.707	99.5
468.927	99.5
469.146	87.5
469.365	70.5
469.585	89.5
469.804	101.5
470.023	97.5
470.243	93.5
470.462	113.5
470.681	101.5
470.901	132.5
471.12	199.5
471.339	213.5
471.558	129.5
471.777	111.5
471.997	120.5
472.216	88.5
472.435	95.5
472.654	92.5
472.873	106.5
473.092	106.5
473.311	93.5
473.53	100.5
473.749	95.5
473.968	88.5
474.187	110.5
474.406	76.5
474.625	103.5
474.844	98.5
475.063	76.5
475.282	85.5
475.501	80.5
475.72	105.5
475.939	88.5
476.158	92.5
476.377	106.5
476.596	118.5
476.814	106.5
477.033	82.5
477.252	96.5
477.471	94.5
477.69	101.5
477.908	100.5
478.127	99.5
478.346	94.5
478.564	79.5
478.783	94.5
479.002	88.5
479.22	86.5
479.439	94.5
479.658	102.5
479.876	107.5
480.095	90.5
480.313	102.5
480.532	110.5
480.751	92.5
480.969	90.5
481.188	91.5
481.406	102.5
481.624	96.5
481.843	112.5
482.061	115.5
482.28	101.5
482.498	117.5
482.717	96.5
482.935	93.5
483.153	95.5
483.372	101.5
483.59	99.5
483.808	101.5
484.027	109.5
484.245	121.5
484.463	194.5
484.681	235.5
484.9	158.5
485.118	102.5
485.336	108.5
485.554	122.5
485.772	126.5
485.99	179.5
486.209	272.5
486.427	175.5
486.645	116.5
486.863	107.5
487.081	103.5
487.299	92.5
487.517	106.5
487.735	103.5
487.953	110.5
488.171	100.5
488.389	111.5
488.607	96.5
488.825	104.5
489.043	97.5
489.261	91.5
489.479	107.5
489.696	97.5
489.914	97.5
490.132	110.5
490.35	110.5
490.568	102.5
490.786	107.5
491.003	90.5
491.221	93.5
491.439	106.5
491.657	110.5
491.874	103.5
492.092	94.5
492.31	115.5
492.527	100.5
492.745	119.5
492.963	120.5
493.18	98.5
493.398	96.5
493.615	114.5
493.833	106.5
494.05	107.5
494.268	100.5
494.485	84.5
494.703	103.5
494.92	93.5
495.138	99.5
495.355	99.5
495.573	119.5
495.79	106.5
496.008	100.5
496.225	100.5
496.442	110.5
496.66	110.5
496.877	149.5
497.094	167.5
497.312	108.5
497.529	106.5
497.746	107.5
497.963	98.5
498.181	113.5
498.398	104.5
498.615	104.5
498.832	108.5
499.049	116.5
499.267	134.5
499.484	172.5
499.701	114.5
499.918	110.5
500.135	101.5
500.352	96.5
500.569	108.5
500.786	100.5
501.003	105.5
501.22	103.5
501.437	96.5
501.654	88.5
501.871	95.5
502.088	100.5
502.305	103.5
502.522	100.5
502.739	104.5
502.956	108.5
503.172	93.5
503.389	93.5
503.606	95.5
503.823	89.5
504.04	89.5
504.256	99.5
504.473	93.5
504.69	90.5
504.907	102.5
505.123	111.5
505.34	110.5
505.557	111.5
505.773	104.5
505.99	108.5
506.207	120.5
506.423	104.5
506.64	104.5
506.856	107.5
507.073	88.5
507.289	110.5
507.506	96.5
507.722	103.5
507.939	94.5
508.155	119.5
508.372	98.5
508.588	100.5
508.805	82.5
509.021	96.5
509.238	95.5
509.454	143.5
509.67	154.5
509.887	119.5
510.103	112.5
510.319	100.5
510.536	111.5
510.752	117.5
510.968	102.5
511.184	92.5
511.401	89.5
511.617	96.5
511.833	91.5
512.049	113.5
512.265	100.5
512.481	108.5
512.698	102.5
512.914	107.5
513.13	107.5
513.346	99.5
513.562	92.5
513.778	100.5
513.994	105.5
514.21	109.5
514.426	149.5
514.642	179.5
514.858	121.5
515.074	98.5
515.29	108.5
515.506	96.5
515.721	95.5
515.937	92.5
516.153	104.5
516.369	117.5
516.585	90.5
516.801	90.5
517.016	94.5
517.232	96.5
517.448	103.5
517.664	104.5
517.879	90.5
518.095	84.5
518.311	94.5
518.527	85.5
518.742	98.5
518.958	118.5
519.173	166.5
519.389	104.5
519.605	115.5
519.82	98.5
520.036	93.5
520.251	88.5
520.467	96.5
520.682	95.5
520.898	88.5
521.113	110.5
521.329	100.5
521.544	110.5
521.76	105.5
521.975	110.5
522.19	106.5
522.406	98.5
522.621	95.5
522.836	88.5
523.052	97.5
523.267	106.5
523.482	83.5
523.698	94.5
523.913	94.5
524.128	90.5
524.343	105.5
524.559	108.5
524.774	91.5
524.989	91.5
525.204	95.5
525.419	102.5
525.634	108.5
525.849	98.5
526.064	100.5
526.28	104.5
526.495	80.5
526.71	88.5
526.925	98.5
527.14	82.5
527.355	110.5
527.57	105.5
