Data from SnStandardFlinnAPT0064_QswitchEnergy10_LIBS07252019.E.O._I.C._HRD10591_15-27-06-973.txt Node
Date: Thu Jul 25 15:27:06 EDT 2019
User: cochatt
Spectrometer: HR+D1059
Trigger mode: 1
Integration Time (sec): 1.000000E-1
Scans to average: 1
Electric dark correction enabled: true
Nonlinearity correction enabled: false
Boxcar width: 0
XAxis mode: Wavelengths
Number of Pixels in Spectrum: 2048
>>>>>Begin Spectral Data<<<<<
223.165	-22.5
223.4	-22.5
223.635	-22.5
223.869	-1.5
224.104	-5.5
224.338	-9.5
224.573	-14.5
224.808	-15.5
225.042	-0.5
225.277	-15.5
225.511	0.5
225.746	-0.5
225.98	-10.5
226.215	9.5
226.449	23.5
226.683	13.5
226.918	23.5
227.152	25.5
227.387	26.5
227.621	32.5
227.856	41.5
228.09	50.5
228.324	52.5
228.559	43.5
228.793	60.5
229.027	72.5
229.262	80.5
229.496	76.5
229.73	65.5
229.964	70.5
230.199	68.5
230.433	64.5
230.667	82.5
230.901	90.5
231.136	68.5
231.37	91.5
231.604	78.5
231.838	87.5
232.072	104.5
232.306	120.5
232.541	92.5
232.775	101.5
233.009	76.5
233.243	80.5
233.477	87.5
233.711	90.5
233.945	99.5
234.179	110.5
234.413	78.5
234.647	71.5
234.881	82.5
235.115	78.5
235.349	96.5
235.583	88.5
235.817	112.5
236.051	118.5
236.285	88.5
236.519	76.5
236.753	83.5
236.987	83.5
237.221	84.5
237.455	74.5
237.689	83.5
237.922	76.5
238.156	74.5
238.39	78.5
238.624	85.5
238.858	86.5
239.091	84.5
239.325	71.5
239.559	69.5
239.793	75.5
240.027	75.5
240.26	84.5
240.494	88.5
240.728	83.5
240.961	75.5
241.195	91.5
241.429	75.5
241.662	68.5
241.896	68.5
242.13	89.5
242.363	117.5
242.597	155.5
242.83	138.5
243.064	122.5
243.298	164.5
243.531	128.5
243.765	88.5
243.998	91.5
244.232	83.5
244.465	90.5
244.699	83.5
244.932	67.5
245.166	91.5
245.399	85.5
245.633	76.5
245.866	78.5
246.099	84.5
246.333	79.5
246.566	85.5
246.8	73.5
247.033	77.5
247.266	76.5
247.5	86.5
247.733	87.5
247.966	76.5
248.2	96.5
248.433	94.5
248.666	124.5
248.899	113.5
249.133	110.5
249.366	97.5
249.599	110.5
249.832	116.5
250.066	119.5
250.299	91.5
250.532	89.5
250.765	95.5
250.998	81.5
251.231	78.5
251.465	76.5
251.698	89.5
251.931	83.5
252.164	96.5
252.397	95.5
252.63	93.5
252.863	101.5
253.096	96.5
253.329	89.5
253.562	96.5
253.795	90.5
254.028	87.5
254.261	96.5
254.494	97.5
254.727	118.5
254.96	132.5
255.193	128.5
255.426	92.5
255.659	91.5
255.892	93.5
256.124	79.5
256.357	89.5
256.59	105.5
256.823	94.5
257.056	97.5
257.289	143.5
257.521	163.5
257.754	119.5
257.987	89.5
258.22	83.5
258.452	84.5
258.685	75.5
258.918	86.5
259.151	86.5
259.383	103.5
259.616	120.5
259.849	127.5
260.081	95.5
260.314	77.5
260.547	72.5
260.779	71.5
261.012	90.5
261.244	75.5
261.477	84.5
261.71	90.5
261.942	82.5
262.175	86.5
262.407	83.5
262.64	76.5
262.872	78.5
263.105	82.5
263.337	80.5
263.57	79.5
263.802	93.5
264.035	86.5
264.267	80.5
264.499	83.5
264.732	84.5
264.964	81.5
265.197	98.5
265.429	87.5
265.661	99.5
265.894	98.5
266.126	105.5
266.358	152.5
266.591	138.5
266.823	99.5
267.055	90.5
267.287	83.5
267.52	93.5
267.752	91.5
267.984	79.5
268.216	88.5
268.448	99.5
268.681	90.5
268.913	85.5
269.145	80.5
269.377	77.5
269.609	80.5
269.841	102.5
270.073	91.5
270.306	116.5
270.538	161.5
270.77	274.5
271.002	318.5
271.234	187.5
271.466	104.5
271.698	98.5
271.93	95.5
272.162	76.5
272.394	81.5
272.626	87.5
272.858	86.5
273.09	77.5
273.322	87.5
273.553	82.5
273.785	74.5
274.017	82.5
274.249	86.5
274.481	91.5
274.713	90.5
274.945	89.5
275.176	83.5
275.408	86.5
275.64	95.5
275.872	104.5
276.104	92.5
276.335	100.5
276.567	87.5
276.799	86.5
277.031	87.5
277.262	107.5
277.494	111.5
277.726	127.5
277.957	174.5
278.189	222.5
278.421	198.5
278.652	186.5
278.884	169.5
279.115	123.5
279.347	112.5
279.579	93.5
279.81	88.5
280.042	95.5
280.273	99.5
280.505	96.5
280.736	97.5
280.968	118.5
281.199	158.5
281.431	207.5
281.662	230.5
281.894	158.5
282.125	106.5
282.356	95.5
282.588	107.5
282.819	117.5
283.051	112.5
283.282	126.5
283.513	166.5
283.745	266.5
283.976	481.5
284.207	690.5
284.439	510.5
284.67	243.5
284.901	225.5
285.132	298.5
285.364	330.5
285.595	204.5
285.826	162.5
286.057	215.5
286.288	382.5
286.52	525.5
286.751	419.5
286.982	182.5
287.213	105.5
287.444	107.5
287.675	103.5
287.906	121.5
288.138	102.5
288.369	99.5
288.6	99.5
288.831	89.5
289.062	98.5
289.293	75.5
289.524	82.5
289.755	86.5
289.986	94.5
290.217	96.5
290.448	98.5
290.679	95.5
290.91	114.5
291.141	155.5
291.371	192.5
291.602	224.5
291.833	154.5
292.064	104.5
292.295	102.5
292.526	94.5
292.757	92.5
292.987	105.5
293.218	105.5
293.449	82.5
293.68	101.5
293.91	81.5
294.141	77.5
294.372	86.5
294.603	86.5
294.833	84.5
295.064	99.5
295.295	96.5
295.525	83.5
295.756	82.5
295.987	94.5
296.217	88.5
296.448	86.5
296.679	79.5
296.909	94.5
297.14	94.5
297.37	97.5
297.601	89.5
297.831	91.5
298.062	98.5
298.292	100.5
298.523	106.5
298.753	100.5
298.984	110.5
299.214	98.5
299.445	94.5
299.675	111.5
299.905	112.5
300.136	103.5
300.366	145.5
300.597	239.5
300.827	411.5
301.057	579.5
301.288	532.5
301.518	222.5
301.748	138.5
301.979	123.5
302.209	122.5
302.439	135.5
302.669	133.5
302.9	243.5
303.13	432.5
303.36	754.5
303.59	1038.5
303.82	702.5
304.051	250.5
304.281	142.5
304.511	119.5
304.741	104.5
304.971	97.5
305.201	104.5
305.431	100.5
305.661	99.5
305.891	96.5
306.121	97.5
306.352	111.5
306.582	105.5
306.812	92.5
307.042	115.5
307.272	94.5
307.502	88.5
307.731	97.5
307.961	102.5
308.191	98.5
308.421	89.5
308.651	116.5
308.881	100.5
309.111	105.5
309.341	88.5
309.571	96.5
309.8	97.5
310.03	97.5
310.26	102.5
310.49	111.5
310.72	102.5
310.949	100.5
311.179	101.5
311.409	114.5
311.639	111.5
311.868	117.5
312.098	110.5
312.328	113.5
312.557	110.5
312.787	117.5
313.017	106.5
313.246	121.5
313.476	110.5
313.706	120.5
313.935	155.5
314.165	180.5
314.394	197.5
314.624	142.5
314.853	134.5
315.083	125.5
315.312	121.5
315.542	123.5
315.771	118.5
316.001	120.5
316.23	118.5
316.46	148.5
316.689	167.5
316.919	235.5
317.148	439.5
317.377	784.5
317.607	1264.5
317.836	1172.5
318.065	446.5
318.295	182.5
318.524	147.5
318.753	131.5
318.983	114.5
319.212	111.5
319.441	115.5
319.67	110.5
319.9	102.5
320.129	115.5
320.358	105.5
320.587	96.5
320.816	122.5
321.046	129.5
321.275	115.5
321.504	126.5
321.733	127.5
321.962	143.5
322.191	143.5
322.42	110.5
322.649	126.5
322.878	95.5
323.108	106.5
323.337	124.5
323.566	119.5
323.795	100.5
324.024	126.5
324.253	141.5
324.482	147.5
324.71	194.5
324.939	250.5
325.168	197.5
325.397	174.5
325.626	225.5
325.855	416.5
326.084	825.5
326.313	1362.5
326.542	1351.5
326.77	523.5
326.999	234.5
327.228	193.5
327.457	211.5
327.686	200.5
327.914	157.5
328.143	132.5
328.372	120.5
328.6	134.5
328.829	121.5
329.058	99.5
329.287	121.5
329.515	103.5
329.744	108.5
329.972	104.5
330.201	105.5
330.43	103.5
330.658	121.5
330.887	112.5
331.115	107.5
331.344	111.5
331.572	112.5
331.801	111.5
332.03	127.5
332.258	123.5
332.486	156.5
332.715	256.5
332.943	462.5
333.172	658.5
333.4	563.5
333.629	212.5
333.857	122.5
334.085	123.5
334.314	102.5
334.542	110.5
334.771	123.5
334.999	118.5
335.227	105.5
335.455	124.5
335.684	115.5
335.912	105.5
336.14	112.5
336.369	121.5
336.597	112.5
336.825	111.5
337.053	104.5
337.281	119.5
337.51	99.5
337.738	120.5
337.966	104.5
338.194	94.5
338.422	112.5
338.65	103.5
338.878	114.5
339.106	107.5
339.334	100.5
339.562	110.5
339.79	118.5
340.018	118.5
340.246	105.5
340.474	114.5
340.702	111.5
340.93	105.5
341.158	115.5
341.386	119.5
341.614	110.5
341.842	118.5
342.07	104.5
342.298	107.5
342.526	104.5
342.754	111.5
342.981	95.5
343.209	106.5
343.437	112.5
343.665	108.5
343.893	101.5
344.12	115.5
344.348	117.5
344.576	116.5
344.804	98.5
345.031	122.5
345.259	111.5
345.487	91.5
345.714	93.5
345.942	115.5
346.17	98.5
346.397	110.5
346.625	107.5
346.853	101.5
347.08	95.5
347.308	114.5
347.535	103.5
347.763	110.5
347.99	96.5
348.218	102.5
348.445	115.5
348.673	106.5
348.9	123.5
349.128	105.5
349.355	114.5
349.583	102.5
349.81	110.5
350.037	96.5
350.265	115.5
350.492	103.5
350.72	101.5
350.947	105.5
351.174	105.5
351.402	109.5
351.629	104.5
351.856	107.5
352.083	103.5
352.311	99.5
352.538	103.5
352.765	116.5
352.992	95.5
353.22	98.5
353.447	98.5
353.674	118.5
353.901	102.5
354.128	99.5
354.355	95.5
354.583	106.5
354.81	99.5
355.037	100.5
355.264	98.5
355.491	97.5
355.718	103.5
355.945	94.5
356.172	112.5
356.399	99.5
356.626	106.5
356.853	99.5
357.08	110.5
357.307	99.5
357.534	99.5
357.761	106.5
357.988	107.5
358.215	120.5
358.441	105.5
358.668	114.5
358.895	128.5
359.122	111.5
359.349	105.5
359.576	98.5
359.802	103.5
360.029	103.5
360.256	91.5
360.483	113.5
360.709	110.5
360.936	101.5
361.163	103.5
361.39	105.5
361.616	102.5
361.843	106.5
362.07	102.5
362.296	91.5
362.523	95.5
362.749	116.5
362.976	110.5
363.203	126.5
363.429	88.5
363.656	95.5
363.882	108.5
364.109	100.5
364.335	118.5
364.562	102.5
364.788	94.5
365.015	102.5
365.241	109.5
365.468	169.5
365.694	201.5
365.92	200.5
366.147	118.5
366.373	99.5
366.599	94.5
366.826	103.5
367.052	92.5
367.278	100.5
367.505	102.5
367.731	95.5
367.957	104.5
368.184	106.5
368.41	112.5
368.636	99.5
368.862	96.5
369.089	95.5
369.315	96.5
369.541	109.5
369.767	102.5
369.993	103.5
370.219	100.5
370.445	102.5
370.672	107.5
370.898	96.5
371.124	96.5
371.35	117.5
371.576	103.5
371.802	96.5
372.028	111.5
372.254	88.5
372.48	103.5
372.706	119.5
372.932	104.5
373.158	95.5
373.384	106.5
373.61	110.5
373.835	116.5
374.061	121.5
374.287	94.5
374.513	106.5
374.739	100.5
374.965	92.5
375.191	107.5
375.416	116.5
375.642	106.5
375.868	107.5
376.094	106.5
376.319	111.5
376.545	96.5
376.771	99.5
376.997	97.5
377.222	114.5
377.448	102.5
377.674	104.5
377.899	100.5
378.125	106.5
378.35	90.5
378.576	103.5
378.802	106.5
379.027	112.5
379.253	129.5
379.478	161.5
379.704	273.5
379.929	660.5
380.155	1342.5
380.38	1332.5
380.606	459.5
380.831	162.5
381.057	124.5
381.282	111.5
381.507	104.5
381.733	101.5
381.958	112.5
382.184	105.5
382.409	98.5
382.634	93.5
382.86	103.5
383.085	100.5
383.31	95.5
383.535	107.5
383.761	113.5
383.986	94.5
384.211	106.5
384.436	103.5
384.662	100.5
384.887	90.5
385.112	99.5
385.337	112.5
385.562	102.5
385.787	110.5
386.013	103.5
386.238	116.5
386.463	102.5
386.688	107.5
386.913	105.5
387.138	108.5
387.363	92.5
387.588	95.5
387.813	106.5
388.038	111.5
388.263	115.5
388.488	101.5
388.713	95.5
388.938	103.5
389.163	115.5
389.387	106.5
389.612	105.5
389.837	99.5
390.062	112.5
390.287	113.5
390.512	94.5
390.736	91.5
390.961	92.5
391.186	81.5
391.411	103.5
391.636	98.5
391.86	99.5
392.085	95.5
392.31	92.5
392.534	100.5
392.759	88.5
392.984	104.5
393.208	100.5
393.433	125.5
393.658	124.5
393.882	108.5
394.107	92.5
394.331	83.5
394.556	101.5
394.78	90.5
395.005	92.5
395.229	98.5
395.454	95.5
395.678	85.5
395.903	100.5
396.127	100.5
396.352	101.5
396.576	100.5
396.801	106.5
397.025	119.5
397.249	118.5
397.474	96.5
397.698	98.5
397.922	80.5
398.147	90.5
398.371	106.5
398.595	107.5
398.82	98.5
399.044	105.5
399.268	82.5
399.492	81.5
399.717	95.5
399.941	83.5
400.165	91.5
400.389	98.5
400.613	86.5
400.837	95.5
401.062	87.5
401.286	93.5
401.51	96.5
401.734	82.5
401.958	91.5
402.182	86.5
402.406	110.5
402.63	104.5
402.854	89.5
403.078	100.5
403.302	99.5
403.526	104.5
403.75	75.5
403.974	94.5
404.198	85.5
404.422	95.5
404.645	91.5
404.869	108.5
405.093	97.5
405.317	90.5
405.541	107.5
405.765	120.5
405.988	118.5
406.212	99.5
406.436	94.5
406.66	90.5
406.883	100.5
407.107	99.5
407.331	98.5
407.555	87.5
407.778	88.5
408.002	85.5
408.226	94.5
408.449	100.5
408.673	96.5
408.896	99.5
409.12	98.5
409.344	92.5
409.567	90.5
409.791	91.5
410.014	102.5
410.238	94.5
410.461	93.5
410.685	99.5
410.908	96.5
411.132	112.5
411.355	99.5
411.578	107.5
411.802	106.5
412.025	95.5
412.249	85.5
412.472	95.5
412.695	91.5
412.919	100.5
413.142	86.5
413.365	114.5
413.589	98.5
413.812	99.5
414.035	94.5
414.258	115.5
414.482	94.5
414.705	100.5
414.928	88.5
415.151	104.5
415.374	92.5
415.597	88.5
415.821	97.5
416.044	98.5
416.267	103.5
416.49	96.5
416.713	99.5
416.936	96.5
417.159	85.5
417.382	96.5
417.605	91.5
417.828	100.5
418.051	94.5
418.274	94.5
418.497	90.5
418.72	97.5
418.943	105.5
419.166	96.5
419.389	113.5
419.611	92.5
419.834	106.5
420.057	82.5
420.28	97.5
420.503	99.5
420.726	100.5
420.948	92.5
421.171	82.5
421.394	86.5
421.617	102.5
421.839	87.5
422.062	85.5
422.285	96.5
422.507	86.5
422.73	101.5
422.953	131.5
423.175	100.5
423.398	101.5
423.621	110.5
423.843	91.5
424.066	98.5
424.288	98.5
424.511	82.5
424.733	101.5
424.956	95.5
425.178	99.5
425.401	88.5
425.623	82.5
425.846	87.5
426.068	99.5
426.291	91.5
426.513	96.5
426.735	86.5
426.958	97.5
427.18	95.5
427.402	98.5
427.625	100.5
427.847	93.5
428.069	80.5
428.292	87.5
428.514	96.5
428.736	92.5
428.958	81.5
429.181	92.5
429.403	97.5
429.625	88.5
429.847	96.5
430.069	105.5
430.292	100.5
430.514	98.5
430.736	98.5
430.958	93.5
431.18	101.5
431.402	104.5
431.624	79.5
431.846	80.5
432.068	93.5
432.29	98.5
432.512	97.5
432.734	95.5
432.956	107.5
433.178	99.5
433.4	102.5
433.622	94.5
433.844	100.5
434.066	95.5
434.287	91.5
434.509	89.5
434.731	86.5
434.953	101.5
435.175	99.5
435.397	90.5
435.618	80.5
435.84	92.5
436.062	101.5
436.284	110.5
436.505	106.5
436.727	91.5
436.949	107.5
437.17	94.5
437.392	76.5
437.614	97.5
437.835	76.5
438.057	88.5
438.278	91.5
438.5	80.5
438.721	112.5
438.943	111.5
439.165	102.5
439.386	98.5
439.608	104.5
439.829	93.5
440.05	112.5
440.272	126.5
440.493	104.5
440.715	89.5
440.936	97.5
441.158	104.5
441.379	98.5
441.6	91.5
441.822	115.5
442.043	107.5
442.264	117.5
442.486	115.5
442.707	87.5
442.928	100.5
443.149	95.5
443.371	98.5
443.592	83.5
443.813	84.5
444.034	97.5
444.255	100.5
444.476	100.5
444.698	89.5
444.919	91.5
445.14	198.5
445.361	142.5
445.582	90.5
445.803	111.5
446.024	104.5
446.245	114.5
446.466	94.5
446.687	97.5
446.908	103.5
447.129	100.5
447.35	88.5
447.571	102.5
447.792	111.5
448.013	96.5
448.234	100.5
448.455	83.5
448.675	92.5
448.896	91.5
449.117	115.5
449.338	146.5
449.559	131.5
449.779	106.5
450	104.5
450.221	113.5
450.442	114.5
450.662	95.5
450.883	102.5
451.104	115.5
451.324	103.5
451.545	114.5
451.766	115.5
451.986	132.5
452.207	212.5
452.428	482.5
452.648	1102.5
452.869	638.5
453.089	187.5
453.31	106.5
453.53	123.5
453.751	120.5
453.971	151.5
454.192	138.5
454.412	108.5
454.633	115.5
454.853	85.5
455.073	100.5
455.294	107.5
455.514	88.5
455.734	97.5
455.955	86.5
456.175	89.5
456.395	88.5
456.616	84.5
456.836	108.5
457.056	116.5
457.276	98.5
457.497	106.5
457.717	116.5
457.937	91.5
458.157	96.5
458.377	93.5
458.598	93.5
458.818	74.5
459.038	86.5
459.258	91.5
459.478	76.5
459.698	89.5
459.918	91.5
460.138	91.5
460.358	72.5
460.578	87.5
460.798	87.5
461.018	83.5
461.238	106.5
461.458	92.5
461.678	88.5
461.898	101.5
462.118	112.5
462.338	93.5
462.558	95.5
462.777	87.5
462.997	98.5
463.217	96.5
463.437	128.5
463.657	158.5
463.876	156.5
464.096	111.5
464.316	107.5
464.536	104.5
464.755	87.5
464.975	99.5
465.195	82.5
465.414	97.5
465.634	95.5
465.854	88.5
466.073	74.5
466.293	87.5
466.512	90.5
466.732	82.5
466.951	110.5
467.171	146.5
467.391	123.5
467.61	112.5
467.829	94.5
468.049	101.5
468.268	102.5
468.488	99.5
468.707	88.5
468.927	96.5
469.146	91.5
469.365	88.5
469.585	92.5
469.804	100.5
470.023	104.5
470.243	101.5
470.462	101.5
470.681	114.5
470.901	115.5
471.12	177.5
471.339	192.5
471.558	126.5
471.777	111.5
471.997	104.5
472.216	101.5
472.435	90.5
472.654	97.5
472.873	92.5
473.092	94.5
473.311	100.5
473.53	91.5
473.749	98.5
473.968	115.5
474.187	80.5
474.406	76.5
474.625	85.5
474.844	83.5
475.063	83.5
475.282	99.5
475.501	103.5
475.72	108.5
475.939	81.5
476.158	101.5
476.377	106.5
476.596	95.5
476.814	91.5
477.033	86.5
477.252	90.5
477.471	104.5
477.69	106.5
477.908	88.5
478.127	115.5
478.346	82.5
478.564	85.5
478.783	80.5
479.002	96.5
479.22	94.5
479.439	98.5
479.658	102.5
479.876	97.5
480.095	104.5
480.313	102.5
480.532	90.5
480.751	95.5
480.969	86.5
481.188	97.5
481.406	95.5
481.624	89.5
481.843	111.5
482.061	106.5
482.28	100.5
482.498	96.5
482.717	91.5
482.935	105.5
483.153	95.5
483.372	93.5
483.59	94.5
483.808	94.5
484.027	102.5
484.245	114.5
484.463	154.5
484.681	209.5
484.9	128.5
485.118	108.5
485.336	107.5
485.554	101.5
485.772	122.5
485.99	185.5
486.209	252.5
486.427	156.5
486.645	103.5
486.863	105.5
487.081	99.5
487.299	96.5
487.517	95.5
487.735	94.5
487.953	103.5
488.171	91.5
488.389	96.5
488.607	98.5
488.825	100.5
489.043	81.5
489.261	85.5
489.479	99.5
489.696	94.5
489.914	106.5
490.132	90.5
490.35	94.5
490.568	90.5
490.786	95.5
491.003	87.5
491.221	102.5
491.439	117.5
491.657	101.5
491.874	108.5
492.092	98.5
492.31	109.5
492.527	105.5
492.745	94.5
492.963	100.5
493.18	105.5
493.398	106.5
493.615	103.5
493.833	98.5
494.05	110.5
494.268	114.5
494.485	102.5
494.703	98.5
494.92	95.5
495.138	102.5
495.355	114.5
495.573	103.5
495.79	99.5
496.008	108.5
496.225	94.5
496.442	113.5
496.66	118.5
496.877	139.5
497.094	131.5
497.312	118.5
497.529	102.5
497.746	96.5
497.963	107.5
498.181	89.5
498.398	98.5
498.615	97.5
498.832	107.5
499.049	101.5
499.267	134.5
499.484	144.5
499.701	105.5
499.918	94.5
500.135	93.5
500.352	94.5
500.569	94.5
500.786	94.5
501.003	101.5
501.22	97.5
501.437	116.5
501.654	99.5
501.871	103.5
502.088	97.5
502.305	98.5
502.522	97.5
502.739	85.5
502.956	88.5
503.172	93.5
503.389	96.5
503.606	91.5
503.823	103.5
504.04	110.5
504.256	92.5
504.473	94.5
504.69	91.5
504.907	102.5
505.123	96.5
505.34	96.5
505.557	101.5
505.773	84.5
505.99	103.5
506.207	99.5
506.423	114.5
506.64	83.5
506.856	101.5
507.073	101.5
507.289	116.5
507.506	98.5
507.722	94.5
507.939	84.5
508.155	98.5
508.372	99.5
508.588	91.5
508.805	106.5
509.021	89.5
509.238	107.5
509.454	122.5
509.67	156.5
509.887	105.5
510.103	96.5
510.319	91.5
510.536	115.5
510.752	112.5
510.968	106.5
511.184	92.5
511.401	66.5
511.617	102.5
511.833	86.5
512.049	86.5
512.265	92.5
512.481	107.5
512.698	93.5
512.914	80.5
513.13	90.5
513.346	96.5
513.562	105.5
513.778	103.5
513.994	89.5
514.21	104.5
514.426	133.5
514.642	161.5
514.858	106.5
515.074	93.5
515.29	101.5
515.506	102.5
515.721	110.5
515.937	103.5
516.153	83.5
516.369	99.5
516.585	91.5
516.801	91.5
517.016	98.5
517.232	96.5
517.448	92.5
517.664	103.5
517.879	100.5
518.095	96.5
518.311	113.5
518.527	96.5
518.742	102.5
518.958	110.5
519.173	147.5
519.389	121.5
519.605	112.5
519.82	102.5
520.036	112.5
520.251	86.5
520.467	88.5
520.682	84.5
520.898	90.5
521.113	94.5
521.329	96.5
521.544	108.5
521.76	97.5
521.975	103.5
522.19	102.5
522.406	100.5
522.621	95.5
522.836	94.5
523.052	95.5
523.267	88.5
523.482	99.5
523.698	94.5
523.913	94.5
524.128	106.5
524.343	82.5
524.559	100.5
524.774	99.5
524.989	95.5
525.204	90.5
525.419	96.5
525.634	91.5
525.849	94.5
526.064	89.5
526.28	95.5
526.495	85.5
526.71	107.5
526.925	93.5
527.14	95.5
527.355	95.5
527.57	95.5
527.785	99.5
527.999	90.5
528.214	86.5
528.429	102.5
528.644	96.5
528.859	89.5
529.074	101.5
