Data from SnStandardFlinnAPT0064_LampEnergy10_LIBS07252019.E.O._I.C._HRD10591_15-21-32-494.txt Node
Date: Thu Jul 25 15:21:32 EDT 2019
User: cochatt
Spectrometer: HR+D1059
Trigger mode: 1
Integration Time (sec): 1.000000E-1
Scans to average: 1
Electric dark correction enabled: true
Nonlinearity correction enabled: false
Boxcar width: 0
XAxis mode: Wavelengths
Number of Pixels in Spectrum: 2048
>>>>>Begin Spectral Data<<<<<
223.165	-21.88
223.4	-21.88
223.635	-21.88
223.869	-11.88
224.104	-25.88
224.338	-16.88
224.573	-17.88
224.808	-9.88
225.042	0.12
225.277	-12.88
225.511	-0.88
225.746	-1.88
225.98	-6.88
226.215	13.12
226.449	19.12
226.683	15.12
226.918	26.12
227.152	53.12
227.387	38.12
227.621	42.12
227.856	50.12
228.09	40.12
228.324	47.12
228.559	51.12
228.793	131.12
229.027	316.12
229.262	327.12
229.496	295.12
229.73	310.12
229.964	294.12
230.199	302.12
230.433	311.12
230.667	308.12
230.901	299.12
231.136	336.12
231.37	359.12
231.604	389.12
231.838	453.12
232.072	530.12
232.306	568.12
232.541	474.12
232.775	424.12
233.009	416.12
233.243	419.12
233.477	457.12
233.711	489.12
233.945	590.12
234.179	492.12
234.413	456.12
234.647	440.12
234.881	490.12
235.115	517.12
235.349	610.12
235.583	763.12
235.817	1011.12
236.051	990.12
236.285	670.12
236.519	545.12
236.753	500.12
236.987	493.12
237.221	529.12
237.455	500.12
237.689	462.12
237.922	464.12
238.156	477.12
238.39	492.12
238.624	512.12
238.858	460.12
239.091	482.12
239.325	486.12
239.559	487.12
239.793	497.12
240.027	515.12
240.26	530.12
240.494	567.12
240.728	585.12
240.961	624.12
241.195	660.12
241.429	705.12
241.662	692.12
241.896	784.12
242.13	948.12
242.363	1242.12
242.597	1635.12
242.83	1548.12
243.064	1531.12
243.298	1815.12
243.531	1508.12
243.765	962.12
243.998	798.12
244.232	694.12
244.465	667.12
244.699	644.12
244.932	658.12
245.166	656.12
245.399	688.12
245.633	679.12
245.866	720.12
246.099	670.12
246.333	653.12
246.566	666.12
246.8	632.12
247.033	640.12
247.266	651.12
247.5	653.12
247.733	669.12
247.966	726.12
248.2	747.12
248.433	858.12
248.666	1024.12
248.899	955.12
249.133	870.12
249.366	872.12
249.599	963.12
249.832	1051.12
250.066	1108.12
250.299	895.12
250.532	792.12
250.765	765.12
250.998	763.12
251.231	731.12
251.465	731.12
251.698	735.12
251.931	764.12
252.164	741.12
252.397	750.12
252.63	793.12
252.863	791.12
253.096	803.12
253.329	779.12
253.562	770.12
253.795	792.12
254.028	780.12
254.261	828.12
254.494	880.12
254.727	1007.12
254.96	1231.12
255.193	1208.12
255.426	980.12
255.659	887.12
255.892	856.12
256.124	890.12
256.357	876.12
256.59	925.12
256.823	967.12
257.056	1129.12
257.289	1362.12
257.521	1487.12
257.754	1174.12
257.987	966.12
258.22	902.12
258.452	904.12
258.685	918.12
258.918	939.12
259.151	996.12
259.383	1077.12
259.616	1218.12
259.849	1256.12
260.081	1088.12
260.314	1026.12
260.547	946.12
260.779	972.12
261.012	952.12
261.244	969.12
261.477	964.12
261.71	976.12
261.942	996.12
262.175	1027.12
262.407	1076.12
262.64	1062.12
262.872	1124.12
263.105	1150.12
263.337	1211.12
263.57	1266.12
263.802	1334.12
264.035	1330.12
264.267	1324.12
264.499	1380.12
264.732	1441.12
264.964	1468.12
265.197	1448.12
265.429	1453.12
265.661	1488.12
265.894	1610.12
266.126	1771.12
266.358	1971.12
266.591	1915.12
266.823	1646.12
267.055	1468.12
267.287	1417.12
267.52	1312.12
267.752	1352.12
267.984	1299.12
268.216	1251.12
268.448	1278.12
268.681	1265.12
268.913	1249.12
269.145	1234.12
269.377	1220.12
269.609	1248.12
269.841	1272.12
270.073	1378.12
270.306	1598.12
270.538	2163.12
270.77	3206.12
271.002	3918.12
271.234	2770.12
271.466	1871.12
271.698	1523.12
271.93	1394.12
272.162	1327.12
272.394	1300.12
272.626	1267.12
272.858	1248.12
273.09	1231.12
273.322	1206.12
273.553	1222.12
273.785	1226.12
274.017	1196.12
274.249	1212.12
274.481	1200.12
274.713	1192.12
274.945	1205.12
275.176	1216.12
275.408	1232.12
275.64	1212.12
275.872	1243.12
276.104	1240.12
276.335	1280.12
276.567	1299.12
276.799	1235.12
277.031	1301.12
277.262	1354.12
277.494	1405.12
277.726	1586.12
277.957	1857.12
278.189	2107.12
278.421	1995.12
278.652	1794.12
278.884	1688.12
279.115	1506.12
279.347	1438.12
279.579	1384.12
279.81	1396.12
280.042	1404.12
280.273	1429.12
280.505	1439.12
280.736	1479.12
280.968	1578.12
281.199	1813.12
281.431	2079.12
281.662	2086.12
281.894	1751.12
282.125	1639.12
282.356	1681.12
282.588	1666.12
282.819	1706.12
283.051	1802.12
283.282	2045.12
283.513	2462.12
283.745	3604.12
283.976	5714.12
284.207	8069.12
284.439	7275.12
284.67	4515.12
284.901	3707.12
285.132	3691.12
285.364	3578.12
285.595	2733.12
285.826	2460.12
286.057	2901.12
286.288	3916.12
286.52	5206.12
286.751	4941.12
286.982	3043.12
287.213	2260.12
287.444	2025.12
287.675	1883.12
287.906	1778.12
288.138	1733.12
288.369	1734.12
288.6	1672.12
288.831	1681.12
289.062	1691.12
289.293	1667.12
289.524	1707.12
289.755	1724.12
289.986	1754.12
290.217	1714.12
290.448	1735.12
290.679	1770.12
290.91	1822.12
291.141	1872.12
291.371	2036.12
291.602	2101.12
291.833	1950.12
292.064	1807.12
292.295	1689.12
292.526	1648.12
292.757	1657.12
292.987	1615.12
293.218	1562.12
293.449	1602.12
293.68	1617.12
293.91	1598.12
294.141	1607.12
294.372	1549.12
294.603	1565.12
294.833	1579.12
295.064	1600.12
295.295	1583.12
295.525	1559.12
295.756	1562.12
295.987	1561.12
296.217	1550.12
296.448	1568.12
296.679	1582.12
296.909	1635.12
297.14	1627.12
297.37	1631.12
297.601	1620.12
297.831	1630.12
298.062	1638.12
298.292	1651.12
298.523	1648.12
298.753	1712.12
298.984	1733.12
299.214	1732.12
299.445	1728.12
299.675	1758.12
299.905	1892.12
300.136	1906.12
300.366	2164.12
300.597	2760.12
300.827	3861.12
301.057	5282.12
301.288	5278.12
301.518	3440.12
301.748	2567.12
301.979	2340.12
302.209	2292.12
302.439	2332.12
302.669	2455.12
302.9	2947.12
303.13	4206.12
303.36	6249.12
303.59	8192.12
303.82	7136.12
304.051	4218.12
304.281	3026.12
304.511	2546.12
304.741	2338.12
304.971	2200.12
305.201	2039.12
305.431	1991.12
305.661	1990.12
305.891	1900.12
306.121	1911.12
306.352	1882.12
306.582	1872.12
306.812	1868.12
307.042	1856.12
307.272	1835.12
307.502	1785.12
307.731	1846.12
307.961	1818.12
308.191	1870.12
308.421	1762.12
308.651	1799.12
308.881	1805.12
309.111	1805.12
309.341	1818.12
309.571	1796.12
309.8	1838.12
310.03	1878.12
310.26	1850.12
310.49	1839.12
310.72	1862.12
310.949	1870.12
311.179	1890.12
311.409	1919.12
311.639	1918.12
311.868	1970.12
312.098	1933.12
312.328	1961.12
312.557	1947.12
312.787	1977.12
313.017	1976.12
313.246	1987.12
313.476	2018.12
313.706	2085.12
313.935	2195.12
314.165	2342.12
314.394	2464.12
314.624	2363.12
314.853	2213.12
315.083	2134.12
315.312	2178.12
315.542	2160.12
315.771	2218.12
316.001	2219.12
316.23	2297.12
316.46	2380.12
316.689	2694.12
316.919	3206.12
317.148	4566.12
317.377	7150.12
317.607	10347.12
317.836	10801.12
318.065	6513.12
318.295	4240.12
318.524	3395.12
318.753	2950.12
318.983	2715.12
319.212	2580.12
319.441	2499.12
319.67	2459.12
319.9	2386.12
320.129	2352.12
320.358	2340.12
320.587	2339.12
320.816	2356.12
321.046	2379.12
321.275	2340.12
321.504	2383.12
321.733	2423.12
321.962	2456.12
322.191	2518.12
322.42	2521.12
322.649	2497.12
322.878	2466.12
323.108	2508.12
323.337	2539.12
323.566	2578.12
323.795	2615.12
324.024	2622.12
324.253	2751.12
324.482	2820.12
324.71	2994.12
324.939	3187.12
325.168	3298.12
325.397	3435.12
325.626	4034.12
325.855	5635.12
326.084	8759.12
326.313	12664.12
326.542	13400.12
326.77	9006.12
326.999	5940.12
327.228	4963.12
327.457	4681.12
327.686	4744.12
327.914	5091.12
328.143	5896.12
328.372	7120.12
328.6	7692.12
328.829	6879.12
329.058	5796.12
329.287	5045.12
329.515	4602.12
329.744	4337.12
329.972	4057.12
330.201	3891.12
330.43	3744.12
330.658	3684.12
330.887	3566.12
331.115	3536.12
331.344	3504.12
331.572	3394.12
331.801	3521.12
332.03	3525.12
332.258	3620.12
332.486	3766.12
332.715	4302.12
332.943	5305.12
333.172	6636.12
333.4	6548.12
333.629	4993.12
333.857	4516.12
334.085	4492.12
334.314	4732.12
334.542	5105.12
334.771	6018.12
334.999	7320.12
335.227	9371.12
335.455	10290.12
335.684	9233.12
335.912	7643.12
336.14	6509.12
336.369	5722.12
336.597	5212.12
336.825	4830.12
337.053	4590.12
337.281	4282.12
337.51	4060.12
337.738	3858.12
337.966	3703.12
338.194	3542.12
338.422	3503.12
338.65	3383.12
338.878	3329.12
339.106	3319.12
339.334	3256.12
339.562	3143.12
339.79	3074.12
340.018	3060.12
340.246	3047.12
340.474	3047.12
340.702	3061.12
340.93	3038.12
341.158	3034.12
341.386	3066.12
341.614	2985.12
341.842	2900.12
342.07	2890.12
342.298	2870.12
342.526	2832.12
342.754	2770.12
342.981	2769.12
343.209	2756.12
343.437	2743.12
343.665	2818.12
343.893	2826.12
344.12	2839.12
344.348	2767.12
344.576	2715.12
344.804	2712.12
345.031	2680.12
345.259	2668.12
345.487	2601.12
345.714	2600.12
345.942	2575.12
346.17	2548.12
346.397	2561.12
346.625	2536.12
346.853	2513.12
347.08	2518.12
347.308	2527.12
347.535	2568.12
347.763	2572.12
347.99	2537.12
348.218	2463.12
348.445	2466.12
348.673	2483.12
348.9	2475.12
349.128	2474.12
349.355	2450.12
349.583	2436.12
349.81	2454.12
350.037	2423.12
350.265	2422.12
350.492	2399.12
350.72	2378.12
350.947	2425.12
351.174	2415.12
351.402	2394.12
351.629	2394.12
351.856	2430.12
352.083	2415.12
352.311	2414.12
352.538	2369.12
352.765	2409.12
352.992	2350.12
353.22	2362.12
353.447	2370.12
353.674	2366.12
353.901	2403.12
354.128	2428.12
354.355	2406.12
354.583	2446.12
354.81	2427.12
355.037	2420.12
355.264	2435.12
355.491	2449.12
355.718	2448.12
355.945	2492.12
356.172	2462.12
356.399	2490.12
356.626	2496.12
356.853	2504.12
357.08	2531.12
357.307	2550.12
357.534	2578.12
357.761	2551.12
357.988	2595.12
358.215	2610.12
358.441	2588.12
358.668	2543.12
358.895	2558.12
359.122	2508.12
359.349	2574.12
359.576	2568.12
359.802	2576.12
360.029	2545.12
360.256	2546.12
360.483	2511.12
360.709	2595.12
360.936	2593.12
361.163	2593.12
361.39	2571.12
361.616	2548.12
361.843	2591.12
362.07	2572.12
362.296	2539.12
362.523	2576.12
362.749	2595.12
362.976	2521.12
363.203	2558.12
363.429	2542.12
363.656	2586.12
363.882	2536.12
364.109	2538.12
364.335	2556.12
364.562	2604.12
364.788	2607.12
365.015	2565.12
365.241	2667.12
365.468	2795.12
365.694	2990.12
365.92	2803.12
366.147	2620.12
366.373	2635.12
366.599	2635.12
366.826	2583.12
367.052	2585.12
367.278	2642.12
367.505	2577.12
367.731	2639.12
367.957	2606.12
368.184	2638.12
368.41	2703.12
368.636	2693.12
368.862	2655.12
369.089	2686.12
369.315	2664.12
369.541	2715.12
369.767	2657.12
369.993	2635.12
370.219	2635.12
370.445	2638.12
370.672	2684.12
370.898	2706.12
371.124	2696.12
371.35	2738.12
371.576	2752.12
371.802	2705.12
372.028	2796.12
372.254	2756.12
372.48	2746.12
372.706	2832.12
372.932	2826.12
373.158	2806.12
373.384	2782.12
373.61	2844.12
373.835	2862.12
374.061	2842.12
374.287	2863.12
374.513	2896.12
374.739	2896.12
374.965	2949.12
375.191	2944.12
375.416	2951.12
375.642	2840.12
375.868	2911.12
376.094	2888.12
376.319	2785.12
376.545	2785.12
376.771	2769.12
376.997	2768.12
377.222	2761.12
377.448	2746.12
377.674	2790.12
377.899	2741.12
378.125	2779.12
378.35	2746.12
378.576	2745.12
378.802	2772.12
379.027	2822.12
379.253	2886.12
379.478	3093.12
379.704	3590.12
379.929	5192.12
380.155	7996.12
380.38	8690.12
380.606	5268.12
380.831	3712.12
381.057	3218.12
381.282	2967.12
381.507	2878.12
381.733	2840.12
381.958	2728.12
382.184	2720.12
382.409	2688.12
382.634	2703.12
382.86	2698.12
383.085	2694.12
383.31	2728.12
383.535	2752.12
383.761	2692.12
383.986	2690.12
384.211	2752.12
384.436	2718.12
384.662	2809.12
384.887	2783.12
385.112	2780.12
385.337	2781.12
385.562	2815.12
385.787	2839.12
386.013	2772.12
386.238	2777.12
386.463	2804.12
386.688	2800.12
386.913	2777.12
387.138	2739.12
387.363	2760.12
387.588	2757.12
387.813	2828.12
388.038	2789.12
388.263	2760.12
388.488	2803.12
388.713	2796.12
388.938	2835.12
389.163	2770.12
389.387	2764.12
389.612	2752.12
389.837	2810.12
390.062	2757.12
390.287	2859.12
390.512	2847.12
390.736	2841.12
390.961	2874.12
391.186	2919.12
391.411	2938.12
391.636	2926.12
391.86	2906.12
392.085	2953.12
392.31	2912.12
392.534	2902.12
392.759	2833.12
392.984	2887.12
393.208	2841.12
393.433	2858.12
393.658	2893.12
393.882	2756.12
394.107	2807.12
394.331	2820.12
394.556	2828.12
394.78	2803.12
395.005	2867.12
395.229	2873.12
395.454	2882.12
395.678	2875.12
395.903	2865.12
396.127	2918.12
396.352	2882.12
396.576	2884.12
396.801	2876.12
397.025	2911.12
397.249	2948.12
397.474	2982.12
397.698	2899.12
397.922	2910.12
398.147	2960.12
398.371	2978.12
398.595	3042.12
398.82	3091.12
399.044	3200.12
399.268	3378.12
399.492	3542.12
399.717	3682.12
399.941	3707.12
400.165	3598.12
400.389	3437.12
400.613	3297.12
400.837	3194.12
401.062	3111.12
401.286	3078.12
401.51	3096.12
401.734	3084.12
401.958	3093.12
402.182	3053.12
402.406	3105.12
402.63	3114.12
402.854	3121.12
403.078	3138.12
403.302	3154.12
403.526	3132.12
403.75	3208.12
403.974	3168.12
404.198	3156.12
404.422	3259.12
404.645	3202.12
404.869	3173.12
405.093	3181.12
405.317	3202.12
405.541	3237.12
405.765	3250.12
405.988	3327.12
406.212	3272.12
406.436	3251.12
406.66	3323.12
406.883	3258.12
407.107	3402.12
407.331	3457.12
407.555	3542.12
407.778	3448.12
408.002	3403.12
408.226	3414.12
408.449	3420.12
408.673	3330.12
408.896	3260.12
409.12	3216.12
409.344	3290.12
409.567	3132.12
409.791	3194.12
410.014	3186.12
410.238	3191.12
410.461	3225.12
410.685	3161.12
410.908	3131.12
411.132	3103.12
411.355	3052.12
411.578	3122.12
411.802	3077.12
412.025	3073.12
412.249	3124.12
412.472	3016.12
412.695	3008.12
412.919	2975.12
413.142	3076.12
413.365	3008.12
413.589	3006.12
413.812	2997.12
414.035	3016.12
414.258	3034.12
414.482	3037.12
414.705	3036.12
414.928	3046.12
415.151	2998.12
415.374	2986.12
415.597	2942.12
415.821	2873.12
416.044	2877.12
416.267	2855.12
416.49	2894.12
416.713	2872.12
416.936	2898.12
417.159	2888.12
417.382	2878.12
417.605	2902.12
417.828	2890.12
418.051	2900.12
418.274	2838.12
418.497	2930.12
418.72	3003.12
418.943	2912.12
419.166	3065.12
419.389	3258.12
419.611	3178.12
419.834	3078.12
420.057	3032.12
420.28	2959.12
420.503	2892.12
420.726	2882.12
420.948	2903.12
421.171	2880.12
421.394	2880.12
421.617	2902.12
421.839	2912.12
422.062	2914.12
422.285	2862.12
422.507	2988.12
422.73	2898.12
422.953	2994.12
423.175	3046.12
423.398	2931.12
423.621	2866.12
423.843	2925.12
424.066	2913.12
424.288	2852.12
424.511	2942.12
424.733	2859.12
424.956	2868.12
425.178	2887.12
425.401	2855.12
425.623	2827.12
425.846	2753.12
426.068	2804.12
426.291	2754.12
426.513	2745.12
426.735	2790.12
426.958	2808.12
427.18	2689.12
427.402	2746.12
427.625	2768.12
427.847	2664.12
428.069	2681.12
428.292	2731.12
428.514	2709.12
428.736	2679.12
428.958	2658.12
429.181	2645.12
429.403	2631.12
429.625	2683.12
429.847	2649.12
430.069	2764.12
430.292	2834.12
430.514	2899.12
430.736	2870.12
430.958	2678.12
431.18	2657.12
431.402	2656.12
431.624	2583.12
431.846	2624.12
432.068	2610.12
432.29	2667.12
432.512	2630.12
432.734	2668.12
432.956	2600.12
433.178	2647.12
433.4	2647.12
433.622	2630.12
433.844	2667.12
434.066	2671.12
434.287	2681.12
434.509	2714.12
434.731	2746.12
434.953	2745.12
435.175	2796.12
435.397	2787.12
435.618	2746.12
435.84	2658.12
436.062	2590.12
436.284	2593.12
436.505	2549.12
436.727	2584.12
436.949	2620.12
437.17	2576.12
437.392	2584.12
437.614	2569.12
437.835	2488.12
438.057	2555.12
438.278	2515.12
438.5	2572.12
438.721	2632.12
438.943	2654.12
439.165	2707.12
439.386	2759.12
439.608	2754.12
439.829	2783.12
440.05	2846.12
440.272	2799.12
440.493	2807.12
440.715	2718.12
440.936	2726.12
441.158	2761.12
441.379	2779.12
441.6	2876.12
441.822	2931.12
442.043	3082.12
442.264	3233.12
442.486	2956.12
442.707	2915.12
442.928	2829.12
443.149	2841.12
443.371	2814.12
443.592	2837.12
443.813	2896.12
444.034	2912.12
444.255	2891.12
444.476	2937.12
444.698	2987.12
444.919	3038.12
445.14	3104.12
445.361	2947.12
445.582	2915.12
445.803	2848.12
446.024	2817.12
446.245	2852.12
446.466	2795.12
446.687	2759.12
446.908	2769.12
447.129	2677.12
447.35	2620.12
447.571	2656.12
447.792	2604.12
448.013	2599.12
448.234	2572.12
448.455	2583.12
448.675	2655.12
448.896	2698.12
449.117	2782.12
449.338	3060.12
449.559	3132.12
449.779	2815.12
450	2629.12
450.221	2581.12
450.442	2575.12
450.662	2583.12
450.883	2565.12
451.104	2498.12
451.324	2525.12
451.545	2524.12
451.766	2544.12
451.986	2608.12
452.207	2810.12
452.428	3640.12
452.648	5508.12
452.869	4558.12
453.089	3162.12
453.31	2938.12
453.53	2936.12
453.751	3043.12
453.971	3164.12
454.192	3107.12
454.412	2721.12
454.633	2582.12
454.853	2512.12
455.073	2446.12
455.294	2472.12
455.514	2435.12
455.734	2425.12
455.955	2409.12
456.175	2418.12
456.395	2446.12
456.616	2426.12
456.836	2482.12
457.056	2538.12
457.276	2472.12
457.497	2674.12
457.717	2692.12
457.937	2589.12
458.157	2598.12
458.377	2602.12
458.598	2599.12
458.818	2587.12
459.038	2627.12
459.258	2568.12
459.478	2683.12
459.698	2687.12
459.918	2748.12
460.138	2732.12
460.358	2793.12
460.578	2822.12
460.798	2870.12
461.018	2874.12
461.238	2891.12
461.458	2910.12
461.678	2906.12
461.898	3062.12
462.118	3009.12
462.338	3081.12
462.558	3137.12
462.777	3170.12
462.997	3261.12
463.217	3417.12
463.437	3534.12
463.657	3648.12
463.876	3554.12
464.096	3434.12
464.316	3220.12
464.536	3176.12
464.755	3109.12
464.975	2970.12
465.195	2935.12
465.414	2854.12
465.634	2758.12
465.854	2773.12
466.073	2725.12
466.293	2687.12
466.512	2666.12
466.732	2711.12
466.951	2850.12
467.171	2996.12
467.391	2993.12
467.61	2672.12
467.829	2710.12
468.049	2615.12
468.268	2622.12
468.488	2547.12
468.707	2613.12
468.927	2584.12
469.146	2642.12
469.365	2637.12
469.585	2644.12
469.804	2693.12
470.023	2760.12
470.243	2739.12
470.462	2875.12
470.681	2988.12
470.901	3354.12
471.12	3734.12
471.339	3775.12
471.558	3191.12
471.777	2853.12
471.997	2832.12
472.216	2701.12
472.435	2704.12
472.654	2624.12
472.873	2590.12
473.092	2661.12
473.311	2612.12
473.53	2593.12
473.749	2718.12
473.968	2767.12
474.187	2668.12
474.406	2613.12
474.625	2617.12
474.844	2615.12
475.063	2583.12
475.282	2656.12
475.501	2632.12
475.72	2664.12
475.939	2684.12
476.158	2744.12
476.377	2742.12
476.596	2755.12
476.814	2756.12
477.033	2771.12
477.252	2790.12
477.471	2828.12
477.69	2939.12
477.908	2933.12
478.127	2926.12
478.346	2983.12
478.564	2971.12
478.783	3019.12
479.002	3092.12
479.22	3115.12
479.439	3125.12
479.658	3110.12
479.876	3114.12
480.095	3125.12
480.313	3203.12
480.532	3194.12
480.751	3231.12
480.969	3221.12
481.188	3189.12
481.406	3165.12
481.624	3196.12
481.843	3192.12
482.061	3244.12
482.28	3153.12
482.498	3153.12
482.717	3159.12
482.935	3204.12
483.153	3254.12
483.372	3266.12
483.59	3335.12
483.808	3359.12
484.027	3453.12
484.245	3617.12
484.463	4092.12
484.681	4551.12
484.9	4102.12
485.118	3816.12
485.336	3785.12
485.554	3820.12
485.772	4050.12
485.99	4545.12
486.209	4910.12
486.427	4144.12
486.645	3695.12
486.863	3539.12
487.081	3477.12
487.299	3460.12
487.517	3390.12
487.735	3395.12
