Data from SnStandardFlinnAPT0064_LampEnergy10_LIBS07252019.E.O._I.C._HRD10591_15-21-51-494.txt Node
Date: Thu Jul 25 15:21:51 EDT 2019
User: cochatt
Spectrometer: HR+D1059
Trigger mode: 1
Integration Time (sec): 1.000000E-1
Scans to average: 1
Electric dark correction enabled: true
Nonlinearity correction enabled: false
Boxcar width: 0
XAxis mode: Wavelengths
Number of Pixels in Spectrum: 2048
>>>>>Begin Spectral Data<<<<<
223.165	-7.44
223.4	-7.44
223.635	-7.44
223.869	-14.44
224.104	-18.44
224.338	-14.44
224.573	-10.44
224.808	-15.44
225.042	-4.44
225.277	-0.44
225.511	-5.44
225.746	5.56
225.98	13.56
226.215	3.56
226.449	-1.44
226.683	20.56
226.918	23.56
227.152	25.56
227.387	42.56
227.621	31.56
227.856	47.56
228.09	38.56
228.324	49.56
228.559	51.56
228.793	128.56
229.027	317.56
229.262	328.56
229.496	313.56
229.73	294.56
229.964	303.56
230.199	291.56
230.433	296.56
230.667	330.56
230.901	322.56
231.136	318.56
231.37	345.56
231.604	385.56
231.838	433.56
232.072	493.56
232.306	549.56
232.541	471.56
232.775	419.56
233.009	408.56
233.243	404.56
233.477	418.56
233.711	512.56
233.945	557.56
234.179	516.56
234.413	415.56
234.647	429.56
234.881	468.56
235.115	518.56
235.349	604.56
235.583	755.56
235.817	961.56
236.051	945.56
236.285	624.56
236.519	530.56
236.753	485.56
236.987	498.56
237.221	527.56
237.455	527.56
237.689	472.56
237.922	447.56
238.156	462.56
238.39	482.56
238.624	487.56
238.858	481.56
239.091	474.56
239.325	485.56
239.559	490.56
239.793	471.56
240.027	505.56
240.26	528.56
240.494	541.56
240.728	560.56
240.961	575.56
241.195	639.56
241.429	639.56
241.662	691.56
241.896	774.56
242.13	907.56
242.363	1226.56
242.597	1521.56
242.83	1511.56
243.064	1503.56
243.298	1789.56
243.531	1409.56
243.765	930.56
243.998	746.56
244.232	680.56
244.465	645.56
244.699	635.56
244.932	645.56
245.166	662.56
245.399	660.56
245.633	674.56
245.866	681.56
246.099	655.56
246.333	629.56
246.566	620.56
246.8	605.56
247.033	634.56
247.266	614.56
247.5	636.56
247.733	653.56
247.966	676.56
248.2	782.56
248.433	856.56
248.666	953.56
248.899	901.56
249.133	823.56
249.366	879.56
249.599	943.56
249.832	1064.56
250.066	1063.56
250.299	814.56
250.532	755.56
250.765	755.56
250.998	746.56
251.231	728.56
251.465	712.56
251.698	721.56
251.931	717.56
252.164	712.56
252.397	750.56
252.63	797.56
252.863	819.56
253.096	779.56
253.329	770.56
253.562	740.56
253.795	761.56
254.028	781.56
254.261	789.56
254.494	865.56
254.727	964.56
254.96	1195.56
255.193	1230.56
255.426	963.56
255.659	870.56
255.892	879.56
256.124	853.56
256.357	888.56
256.59	893.56
256.823	968.56
257.056	1091.56
257.289	1317.56
257.521	1450.56
257.754	1182.56
257.987	964.56
258.22	905.56
258.452	914.56
258.685	915.56
258.918	907.56
259.151	963.56
259.383	1089.56
259.616	1206.56
259.849	1261.56
260.081	1071.56
260.314	960.56
260.547	946.56
260.779	943.56
261.012	931.56
261.244	941.56
261.477	960.56
261.71	991.56
261.942	971.56
262.175	1023.56
262.407	1010.56
262.64	1030.56
262.872	1071.56
263.105	1124.56
263.337	1201.56
263.57	1220.56
263.802	1283.56
264.035	1286.56
264.267	1342.56
264.499	1375.56
264.732	1400.56
264.964	1441.56
265.197	1446.56
265.429	1431.56
265.661	1423.56
265.894	1549.56
266.126	1754.56
266.358	1923.56
266.591	1864.56
266.823	1617.56
267.055	1450.56
267.287	1389.56
267.52	1299.56
267.752	1288.56
267.984	1227.56
268.216	1257.56
268.448	1220.56
268.681	1227.56
268.913	1189.56
269.145	1231.56
269.377	1200.56
269.609	1229.56
269.841	1267.56
270.073	1343.56
270.306	1599.56
270.538	2089.56
270.77	3143.56
271.002	3749.56
271.234	2717.56
271.466	1827.56
271.698	1465.56
271.93	1400.56
272.162	1297.56
272.394	1250.56
272.626	1222.56
272.858	1199.56
273.09	1178.56
273.322	1211.56
273.553	1180.56
273.785	1185.56
274.017	1179.56
274.249	1182.56
274.481	1203.56
274.713	1181.56
274.945	1205.56
275.176	1224.56
275.408	1206.56
275.64	1218.56
275.872	1229.56
276.104	1275.56
276.335	1252.56
276.567	1249.56
276.799	1268.56
277.031	1341.56
277.262	1311.56
277.494	1363.56
277.726	1520.56
277.957	1778.56
278.189	2106.56
278.421	1957.56
278.652	1741.56
278.884	1625.56
279.115	1501.56
279.347	1401.56
279.579	1387.56
279.81	1397.56
280.042	1387.56
280.273	1409.56
280.505	1433.56
280.736	1464.56
280.968	1542.56
281.199	1723.56
281.431	1990.56
281.662	2066.56
281.894	1762.56
282.125	1606.56
282.356	1596.56
282.588	1647.56
282.819	1690.56
283.051	1774.56
283.282	1967.56
283.513	2422.56
283.745	3461.56
283.976	5372.56
284.207	7697.56
284.439	6960.56
284.67	4397.56
284.901	3674.56
285.132	3702.56
285.364	3477.56
285.595	2615.56
285.826	2379.56
286.057	2751.56
286.288	3773.56
286.52	5041.56
286.751	4731.56
286.982	2949.56
287.213	2246.56
287.444	1958.56
287.675	1851.56
287.906	1753.56
288.138	1691.56
288.369	1681.56
288.6	1635.56
288.831	1651.56
289.062	1612.56
289.293	1619.56
289.524	1666.56
289.755	1659.56
289.986	1638.56
290.217	1710.56
290.448	1666.56
290.679	1664.56
290.91	1727.56
291.141	1864.56
291.371	2023.56
291.602	2111.56
291.833	1918.56
292.064	1726.56
292.295	1656.56
292.526	1638.56
292.757	1613.56
292.987	1532.56
293.218	1552.56
293.449	1610.56
293.68	1587.56
293.91	1560.56
294.141	1560.56
294.372	1525.56
294.603	1557.56
294.833	1562.56
295.064	1529.56
295.295	1533.56
295.525	1524.56
295.756	1539.56
295.987	1533.56
296.217	1552.56
296.448	1606.56
296.679	1572.56
296.909	1585.56
297.14	1562.56
297.37	1589.56
297.601	1606.56
297.831	1594.56
298.062	1580.56
298.292	1612.56
298.523	1658.56
298.753	1665.56
298.984	1700.56
299.214	1753.56
299.445	1737.56
299.675	1745.56
299.905	1803.56
300.136	1859.56
300.366	2104.56
300.597	2710.56
300.827	3690.56
301.057	5079.56
301.288	5022.56
301.518	3206.56
301.748	2528.56
301.979	2268.56
302.209	2244.56
302.439	2220.56
302.669	2389.56
302.9	2917.56
303.13	4053.56
303.36	6063.56
303.59	7927.56
303.82	6933.56
304.051	4086.56
304.281	2929.56
304.511	2449.56
304.741	2272.56
304.971	2186.56
305.201	2053.56
305.431	1998.56
305.661	1935.56
305.891	1878.56
306.121	1872.56
306.352	1873.56
306.582	1808.56
306.812	1818.56
307.042	1828.56
307.272	1797.56
307.502	1809.56
307.731	1816.56
307.961	1797.56
308.191	1794.56
308.421	1792.56
308.651	1761.56
308.881	1752.56
309.111	1730.56
309.341	1824.56
309.571	1817.56
309.8	1818.56
310.03	1853.56
310.26	1862.56
310.49	1834.56
310.72	1801.56
310.949	1860.56
311.179	1897.56
311.409	1855.56
311.639	1887.56
311.868	1895.56
312.098	1920.56
312.328	1901.56
312.557	1922.56
312.787	1931.56
313.017	1945.56
313.246	1995.56
313.476	1998.56
313.706	2090.56
313.935	2193.56
314.165	2351.56
314.394	2458.56
314.624	2271.56
314.853	2156.56
315.083	2103.56
315.312	2158.56
315.542	2139.56
315.771	2224.56
316.001	2198.56
316.23	2257.56
316.46	2349.56
316.689	2584.56
316.919	3127.56
317.148	4474.56
317.377	6923.56
317.607	10106.56
317.836	10474.56
318.065	6284.56
318.295	4146.56
318.524	3370.56
318.753	2929.56
318.983	2747.56
319.212	2525.56
319.441	2437.56
319.67	2353.56
319.9	2314.56
320.129	2313.56
320.358	2324.56
320.587	2333.56
320.816	2303.56
321.046	2338.56
321.275	2342.56
321.504	2358.56
321.733	2403.56
321.962	2469.56
322.191	2479.56
322.42	2522.56
322.649	2460.56
322.878	2444.56
323.108	2463.56
323.337	2485.56
323.566	2487.56
323.795	2554.56
324.024	2626.56
324.253	2671.56
324.482	2744.56
324.71	2983.56
324.939	3167.56
325.168	3176.56
325.397	3344.56
325.626	4004.56
325.855	5426.56
326.084	8419.56
326.313	12261.56
326.542	13052.56
326.77	8711.56
326.999	5785.56
327.228	4787.56
327.457	4607.56
327.686	4704.56
327.914	5043.56
328.143	5835.56
328.372	7006.56
328.6	7501.56
328.829	6752.56
329.058	5658.56
329.287	4971.56
329.515	4507.56
329.744	4193.56
329.972	3933.56
330.201	3764.56
330.43	3680.56
330.658	3536.56
330.887	3558.56
331.115	3449.56
331.344	3417.56
331.572	3371.56
331.801	3398.56
332.03	3459.56
332.258	3515.56
332.486	3665.56
332.715	4258.56
332.943	5180.56
333.172	6461.56
333.4	6327.56
333.629	4878.56
333.857	4389.56
334.085	4403.56
334.314	4648.56
334.542	5004.56
334.771	5929.56
334.999	7236.56
335.227	9109.56
335.455	10197.56
335.684	9063.56
335.912	7437.56
336.14	6259.56
336.369	5536.56
336.597	5117.56
336.825	4683.56
337.053	4407.56
337.281	4192.56
337.51	3985.56
337.738	3816.56
337.966	3605.56
338.194	3543.56
338.422	3442.56
338.65	3337.56
338.878	3263.56
339.106	3219.56
339.334	3161.56
339.562	3119.56
339.79	3042.56
340.018	3036.56
340.246	2975.56
340.474	2975.56
340.702	2951.56
340.93	2977.56
341.158	2969.56
341.386	2973.56
341.614	2937.56
341.842	2881.56
342.07	2782.56
342.298	2800.56
342.526	2728.56
342.754	2737.56
342.981	2673.56
343.209	2698.56
343.437	2687.56
343.665	2771.56
343.893	2767.56
344.12	2749.56
344.348	2729.56
344.576	2695.56
344.804	2650.56
345.031	2613.56
345.259	2619.56
345.487	2602.56
345.714	2539.56
345.942	2502.56
346.17	2503.56
346.397	2480.56
346.625	2512.56
346.853	2464.56
347.08	2492.56
347.308	2467.56
347.535	2549.56
347.763	2467.56
347.99	2474.56
348.218	2456.56
348.445	2419.56
348.673	2422.56
348.9	2429.56
349.128	2392.56
349.355	2449.56
349.583	2411.56
349.81	2423.56
350.037	2391.56
350.265	2351.56
350.492	2331.56
350.72	2374.56
350.947	2356.56
351.174	2335.56
351.402	2410.56
351.629	2376.56
351.856	2356.56
352.083	2365.56
352.311	2318.56
352.538	2329.56
352.765	2334.56
352.992	2329.56
353.22	2376.56
353.447	2342.56
353.674	2346.56
353.901	2339.56
354.128	2370.56
354.355	2369.56
354.583	2393.56
354.81	2334.56
355.037	2376.56
355.264	2417.56
355.491	2401.56
355.718	2393.56
355.945	2432.56
356.172	2409.56
356.399	2451.56
356.626	2443.56
356.853	2461.56
357.08	2461.56
357.307	2563.56
357.534	2585.56
357.761	2581.56
357.988	2545.56
358.215	2559.56
358.441	2561.56
358.668	2507.56
358.895	2500.56
359.122	2490.56
359.349	2500.56
359.576	2508.56
359.802	2526.56
360.029	2492.56
360.256	2508.56
360.483	2522.56
360.709	2507.56
360.936	2501.56
361.163	2472.56
361.39	2524.56
361.616	2529.56
361.843	2574.56
362.07	2471.56
362.296	2513.56
362.523	2479.56
362.749	2505.56
362.976	2539.56
363.203	2483.56
363.429	2512.56
363.656	2500.56
363.882	2486.56
364.109	2498.56
364.335	2480.56
364.562	2515.56
364.788	2535.56
365.015	2580.56
365.241	2609.56
365.468	2789.56
365.694	2925.56
365.92	2776.56
366.147	2573.56
366.373	2585.56
366.599	2592.56
366.826	2571.56
367.052	2564.56
367.278	2602.56
367.505	2562.56
367.731	2603.56
367.957	2564.56
368.184	2591.56
368.41	2657.56
368.636	2625.56
368.862	2603.56
369.089	2598.56
369.315	2578.56
369.541	2593.56
369.767	2661.56
369.993	2597.56
370.219	2612.56
370.445	2589.56
370.672	2624.56
370.898	2638.56
371.124	2621.56
371.35	2690.56
371.576	2706.56
371.802	2788.56
372.028	2784.56
372.254	2698.56
372.48	2760.56
372.706	2763.56
372.932	2825.56
373.158	2805.56
373.384	2760.56
373.61	2725.56
373.835	2788.56
374.061	2783.56
374.287	2817.56
374.513	2854.56
374.739	2878.56
374.965	2864.56
375.191	2874.56
375.416	2868.56
375.642	2844.56
375.868	2849.56
376.094	2771.56
376.319	2768.56
376.545	2728.56
376.771	2721.56
376.997	2779.56
377.222	2709.56
377.448	2680.56
377.674	2687.56
377.899	2682.56
378.125	2704.56
378.35	2722.56
378.576	2717.56
378.802	2728.56
379.027	2801.56
379.253	2863.56
379.478	2966.56
379.704	3594.56
379.929	5117.56
380.155	7731.56
380.38	8372.56
380.606	5127.56
380.831	3631.56
381.057	3176.56
381.282	2916.56
381.507	2827.56
381.733	2771.56
381.958	2742.56
382.184	2663.56
382.409	2657.56
382.634	2651.56
382.86	2652.56
383.085	2631.56
383.31	2629.56
383.535	2703.56
383.761	2697.56
383.986	2640.56
384.211	2723.56
384.436	2736.56
384.662	2763.56
384.887	2759.56
385.112	2761.56
385.337	2722.56
385.562	2722.56
385.787	2749.56
386.013	2719.56
386.238	2761.56
386.463	2729.56
386.688	2720.56
386.913	2696.56
387.138	2709.56
387.363	2784.56
387.588	2692.56
387.813	2738.56
388.038	2694.56
388.263	2762.56
388.488	2749.56
388.713	2769.56
388.938	2726.56
389.163	2746.56
389.387	2780.56
389.612	2690.56
389.837	2758.56
390.062	2744.56
390.287	2776.56
390.512	2741.56
390.736	2794.56
390.961	2835.56
391.186	2858.56
391.411	2905.56
391.636	2875.56
391.86	2827.56
392.085	2918.56
392.31	2875.56
392.534	2881.56
392.759	2843.56
392.984	2813.56
393.208	2852.56
393.433	2774.56
393.658	2833.56
393.882	2764.56
394.107	2714.56
394.331	2777.56
394.556	2778.56
394.78	2798.56
395.005	2847.56
395.229	2787.56
395.454	2894.56
395.678	2892.56
395.903	2872.56
396.127	2879.56
396.352	2825.56
396.576	2856.56
396.801	2846.56
397.025	2845.56
397.249	2955.56
397.474	2903.56
397.698	2900.56
397.922	2898.56
398.147	2899.56
398.371	2941.56
398.595	3094.56
398.82	3037.56
399.044	3174.56
399.268	3313.56
399.492	3510.56
399.717	3615.56
399.941	3629.56
400.165	3474.56
400.389	3363.56
400.613	3285.56
400.837	3121.56
401.062	3114.56
401.286	3038.56
401.51	3045.56
401.734	3019.56
401.958	3055.56
402.182	3063.56
402.406	2985.56
402.63	3036.56
402.854	3055.56
403.078	3121.56
403.302	3110.56
403.526	3164.56
403.75	3097.56
403.974	3163.56
404.198	3149.56
404.422	3175.56
404.645	3139.56
404.869	3150.56
405.093	3155.56
405.317	3110.56
405.541	3206.56
405.765	3222.56
405.988	3294.56
406.212	3203.56
406.436	3208.56
406.66	3271.56
406.883	3235.56
407.107	3299.56
407.331	3418.56
407.555	3448.56
407.778	3400.56
408.002	3311.56
408.226	3353.56
408.449	3368.56
408.673	3327.56
408.896	3175.56
409.12	3155.56
409.344	3210.56
409.567	3110.56
409.791	3203.56
410.014	3142.56
410.238	3105.56
410.461	3149.56
410.685	3099.56
410.908	3107.56
411.132	3069.56
411.355	3016.56
411.578	3036.56
411.802	3015.56
412.025	3007.56
412.249	2998.56
412.472	3059.56
412.695	2989.56
412.919	2984.56
413.142	2962.56
413.365	3001.56
413.589	2954.56
413.812	2962.56
414.035	2988.56
414.258	2996.56
414.482	2971.56
414.705	2965.56
414.928	2965.56
415.151	2964.56
415.374	2962.56
415.597	2894.56
415.821	2883.56
416.044	2875.56
416.267	2847.56
416.49	2889.56
416.713	2837.56
416.936	2870.56
417.159	2816.56
417.382	2833.56
417.605	2806.56
417.828	2822.56
418.051	2822.56
418.274	2906.56
418.497	2851.56
418.72	2912.56
418.943	2869.56
419.166	2970.56
419.389	3169.56
419.611	3131.56
419.834	3002.56
420.057	2962.56
420.28	2899.56
420.503	2835.56
420.726	2846.56
420.948	2834.56
421.171	2821.56
421.394	2850.56
421.617	2837.56
421.839	2839.56
422.062	2878.56
422.285	2803.56
422.507	2929.56
422.73	2868.56
422.953	2906.56
423.175	2997.56
423.398	2942.56
423.621	2827.56
423.843	2857.56
424.066	2852.56
424.288	2877.56
424.511	2846.56
424.733	2841.56
424.956	2846.56
425.178	2771.56
425.401	2816.56
425.623	2810.56
425.846	2725.56
426.068	2763.56
426.291	2748.56
426.513	2749.56
426.735	2767.56
426.958	2721.56
427.18	2665.56
427.402	2696.56
427.625	2723.56
427.847	2631.56
428.069	2605.56
428.292	2658.56
428.514	2611.56
428.736	2605.56
428.958	2685.56
429.181	2595.56
429.403	2575.56
429.625	2639.56
429.847	2608.56
430.069	2675.56
430.292	2774.56
430.514	2802.56
430.736	2819.56
430.958	2667.56
431.18	2618.56
431.402	2630.56
431.624	2563.56
431.846	2598.56
432.068	2606.56
432.29	2643.56
432.512	2570.56
432.734	2659.56
432.956	2602.56
433.178	2648.56
433.4	2624.56
433.622	2589.56
433.844	2630.56
434.066	2609.56
434.287	2594.56
434.509	2686.56
434.731	2717.56
434.953	2709.56
435.175	2760.56
435.397	2750.56
435.618	2699.56
435.84	2591.56
436.062	2633.56
436.284	2597.56
436.505	2625.56
436.727	2605.56
436.949	2587.56
437.17	2580.56
437.392	2583.56
437.614	2558.56
437.835	2474.56
438.057	2510.56
438.278	2510.56
438.5	2541.56
438.721	2577.56
438.943	2666.56
439.165	2698.56
439.386	2687.56
439.608	2693.56
439.829	2667.56
440.05	2757.56
440.272	2868.56
440.493	2688.56
440.715	2671.56
440.936	2706.56
441.158	2735.56
441.379	2733.56
441.6	2795.56
441.822	2897.56
442.043	3026.56
442.264	3174.56
442.486	2916.56
442.707	2819.56
442.928	2730.56
443.149	2730.56
443.371	2784.56
443.592	2814.56
443.813	2777.56
444.034	2824.56
444.255	2867.56
444.476	2954.56
444.698	2985.56
444.919	3016.56
445.14	3046.56
445.361	2936.56
445.582	2875.56
445.803	2823.56
446.024	2751.56
446.245	2713.56
446.466	2725.56
446.687	2704.56
446.908	2771.56
447.129	2662.56
447.35	2623.56
447.571	2582.56
447.792	2530.56
448.013	2579.56
448.234	2565.56
448.455	2578.56
448.675	2544.56
448.896	2677.56
449.117	2752.56
449.338	2974.56
449.559	3061.56
449.779	2766.56
450	2605.56
450.221	2503.56
450.442	2588.56
450.662	2515.56
450.883	2521.56
451.104	2522.56
451.324	2514.56
451.545	2505.56
451.766	2553.56
451.986	2571.56
452.207	2773.56
452.428	3618.56
452.648	5413.56
452.869	4499.56
453.089	3142.56
453.31	2942.56
453.53	2909.56
453.751	2959.56
453.971	3032.56
454.192	2999.56
454.412	2668.56
454.633	2546.56
454.853	2473.56
455.073	2437.56
455.294	2451.56
455.514	2375.56
455.734	2449.56
455.955	2342.56
456.175	2384.56
456.395	2402.56
456.616	2394.56
456.836	2452.56
457.056	2459.56
457.276	2453.56
457.497	2621.56
457.717	2658.56
457.937	2506.56
458.157	2533.56
458.377	2548.56
458.598	2549.56
458.818	2581.56
459.038	2607.56
459.258	2567.56
459.478	2630.56
459.698	2661.56
459.918	2686.56
460.138	2713.56
460.358	2772.56
460.578	2786.56
460.798	2841.56
461.018	2832.56
461.238	2846.56
461.458	2871.56
461.678	2844.56
461.898	2995.56
462.118	2959.56
462.338	3015.56
462.558	3035.56
462.777	3120.56
462.997	3251.56
463.217	3307.56
463.437	3460.56
463.657	3535.56
463.876	3474.56
464.096	3304.56
464.316	3097.56
464.536	3097.56
464.755	3082.56
464.975	3016.56
465.195	2863.56
465.414	2804.56
465.634	2701.56
465.854	2697.56
466.073	2654.56
466.293	2609.56
466.512	2639.56
466.732	2681.56
466.951	2759.56
467.171	2945.56
467.391	2899.56
467.61	2670.56
467.829	2567.56
468.049	2581.56
468.268	2499.56
468.488	2547.56
468.707	2540.56
468.927	2584.56
469.146	2541.56
469.365	2590.56
469.585	2587.56
469.804	2664.56
470.023	2697.56
470.243	2733.56
470.462	2816.56
470.681	2961.56
470.901	3255.56
471.12	3674.56
471.339	3690.56
471.558	3086.56
471.777	2883.56
471.997	2741.56
472.216	2674.56
472.435	2617.56
472.654	2567.56
472.873	2507.56
473.092	2528.56
473.311	2582.56
473.53	2570.56
473.749	2652.56
473.968	2756.56
474.187	2640.56
474.406	2554.56
474.625	2575.56
474.844	2565.56
475.063	2609.56
475.282	2550.56
475.501	2577.56
475.72	2592.56
475.939	2629.56
476.158	2709.56
476.377	2734.56
476.596	2762.56
476.814	2752.56
477.033	2711.56
477.252	2725.56
477.471	2789.56
477.69	2875.56
477.908	2871.56
478.127	2958.56
478.346	2953.56
478.564	3016.56
478.783	2938.56
479.002	3070.56
479.22	3006.56
479.439	3098.56
479.658	3122.56
479.876	3071.56
480.095	3094.56
480.313	3185.56
480.532	3255.56
480.751	3161.56
480.969	3149.56
481.188	3080.56
481.406	3131.56
481.624	3109.56
481.843	3093.56
482.061	3164.56
482.28	3135.56
482.498	3070.56
482.717	3090.56
482.935	3152.56
483.153	3174.56
483.372	3192.56
483.59	3259.56
483.808	3284.56
484.027	3404.56
484.245	3560.56
484.463	4010.56
484.681	4394.56
484.9	4087.56
485.118	3733.56
485.336	3674.56
485.554	3718.56
485.772	3962.56
485.99	4473.56
486.209	4757.56
486.427	4069.56
486.645	3646.56
486.863	3481.56
487.081	3419.56
487.299	3306.56
487.517	3313.56
487.735	3386.56
487.953	3375.56
