Data from SnStandardFlinnAPT0064_QswitchEnergy10_LIBS07252019.E.O._I.C._HRD10591_15-26-57-973.txt Node
Date: Thu Jul 25 15:26:57 EDT 2019
User: cochatt
Spectrometer: HR+D1059
Trigger mode: 1
Integration Time (sec): 1.000000E-1
Scans to average: 1
Electric dark correction enabled: true
Nonlinearity correction enabled: false
Boxcar width: 0
XAxis mode: Wavelengths
Number of Pixels in Spectrum: 2048
>>>>>Begin Spectral Data<<<<<
223.165	-7.44
223.4	-7.44
223.635	-7.44
223.869	-22.44
224.104	-11.44
224.338	-22.44
224.573	-8.44
224.808	-5.44
225.042	-13.44
225.277	-12.44
225.511	-20.44
225.746	9.56
225.98	13.56
226.215	16.56
226.449	24.56
226.683	14.56
226.918	17.56
227.152	27.56
227.387	36.56
227.621	30.56
227.856	29.56
228.09	60.56
228.324	53.56
228.559	52.56
228.793	56.56
229.027	60.56
229.262	72.56
229.496	56.56
229.73	73.56
229.964	57.56
230.199	70.56
230.433	78.56
230.667	81.56
230.901	70.56
231.136	92.56
231.37	72.56
231.604	85.56
231.838	91.56
232.072	117.56
232.306	117.56
232.541	96.56
232.775	78.56
233.009	85.56
233.243	73.56
233.477	87.56
233.711	100.56
233.945	108.56
234.179	93.56
234.413	85.56
234.647	75.56
234.881	89.56
235.115	86.56
235.349	86.56
235.583	101.56
235.817	115.56
236.051	128.56
236.285	85.56
236.519	94.56
236.753	94.56
236.987	74.56
237.221	55.56
237.455	85.56
237.689	76.56
237.922	80.56
238.156	80.56
238.39	84.56
238.624	86.56
238.858	57.56
239.091	75.56
239.325	81.56
239.559	81.56
239.793	82.56
240.027	95.56
240.26	74.56
240.494	83.56
240.728	69.56
240.961	92.56
241.195	91.56
241.429	91.56
241.662	86.56
241.896	100.56
242.13	100.56
242.363	109.56
242.597	149.56
242.83	138.56
243.064	118.56
243.298	159.56
243.531	142.56
243.765	99.56
243.998	90.56
244.232	76.56
244.465	77.56
244.699	70.56
244.932	78.56
245.166	87.56
245.399	74.56
245.633	82.56
245.866	83.56
246.099	75.56
246.333	86.56
246.566	90.56
246.8	77.56
247.033	84.56
247.266	66.56
247.5	93.56
247.733	88.56
247.966	86.56
248.2	103.56
248.433	101.56
248.666	131.56
248.899	124.56
249.133	96.56
249.366	100.56
249.599	100.56
249.832	112.56
250.066	115.56
250.299	100.56
250.532	89.56
250.765	66.56
250.998	81.56
251.231	78.56
251.465	80.56
251.698	82.56
251.931	80.56
252.164	70.56
252.397	73.56
252.63	78.56
252.863	82.56
253.096	88.56
253.329	84.56
253.562	78.56
253.795	91.56
254.028	93.56
254.261	88.56
254.494	79.56
254.727	123.56
254.96	146.56
255.193	124.56
255.426	103.56
255.659	87.56
255.892	95.56
256.124	88.56
256.357	93.56
256.59	70.56
256.823	89.56
257.056	110.56
257.289	140.56
257.521	169.56
257.754	109.56
257.987	95.56
258.22	86.56
258.452	77.56
258.685	80.56
258.918	95.56
259.151	101.56
259.383	124.56
259.616	115.56
259.849	125.56
260.081	84.56
260.314	86.56
260.547	77.56
260.779	87.56
261.012	88.56
261.244	79.56
261.477	72.56
261.71	82.56
261.942	76.56
262.175	64.56
262.407	80.56
262.64	84.56
262.872	81.56
263.105	85.56
263.337	89.56
263.57	83.56
263.802	89.56
264.035	87.56
264.267	79.56
264.499	78.56
264.732	85.56
264.964	88.56
265.197	82.56
265.429	92.56
265.661	71.56
265.894	102.56
266.126	130.56
266.358	139.56
266.591	141.56
266.823	92.56
267.055	87.56
267.287	84.56
267.52	74.56
267.752	96.56
267.984	83.56
268.216	81.56
268.448	93.56
268.681	94.56
268.913	91.56
269.145	91.56
269.377	89.56
269.609	103.56
269.841	103.56
270.073	96.56
270.306	115.56
270.538	172.56
270.77	312.56
271.002	338.56
271.234	199.56
271.466	101.56
271.698	87.56
271.93	87.56
272.162	87.56
272.394	89.56
272.626	82.56
272.858	89.56
273.09	89.56
273.322	89.56
273.553	90.56
273.785	78.56
274.017	90.56
274.249	80.56
274.481	80.56
274.713	76.56
274.945	95.56
275.176	93.56
275.408	77.56
275.64	79.56
275.872	94.56
276.104	86.56
276.335	103.56
276.567	98.56
276.799	86.56
277.031	97.56
277.262	90.56
277.494	96.56
277.726	140.56
277.957	162.56
278.189	221.56
278.421	210.56
278.652	184.56
278.884	162.56
279.115	131.56
279.347	96.56
279.579	89.56
279.81	88.56
280.042	109.56
280.273	98.56
280.505	113.56
280.736	102.56
280.968	113.56
281.199	142.56
281.431	239.56
281.662	233.56
281.894	161.56
282.125	112.56
282.356	106.56
282.588	99.56
282.819	116.56
283.051	105.56
283.282	144.56
283.513	173.56
283.745	270.56
283.976	509.56
284.207	719.56
284.439	549.56
284.67	256.56
284.901	226.56
285.132	319.56
285.364	334.56
285.595	199.56
285.826	158.56
286.057	238.56
286.288	368.56
286.52	563.56
286.751	432.56
286.982	178.56
287.213	108.56
287.444	103.56
287.675	112.56
287.906	103.56
288.138	92.56
288.369	96.56
288.6	100.56
288.831	89.56
289.062	85.56
289.293	95.56
289.524	93.56
289.755	94.56
289.986	87.56
290.217	94.56
290.448	96.56
290.679	95.56
290.91	95.56
291.141	152.56
291.371	210.56
291.602	260.56
291.833	174.56
292.064	108.56
292.295	92.56
292.526	98.56
292.757	112.56
292.987	89.56
293.218	94.56
293.449	91.56
293.68	93.56
293.91	100.56
294.141	94.56
294.372	87.56
294.603	87.56
294.833	99.56
295.064	89.56
295.295	84.56
295.525	101.56
295.756	86.56
295.987	103.56
296.217	103.56
296.448	92.56
296.679	90.56
296.909	90.56
297.14	108.56
297.37	112.56
297.601	102.56
297.831	108.56
298.062	93.56
298.292	101.56
298.523	108.56
298.753	84.56
298.984	94.56
299.214	90.56
299.445	101.56
299.675	103.56
299.905	111.56
300.136	121.56
300.366	151.56
300.597	249.56
300.827	410.56
301.057	622.56
301.288	557.56
301.518	244.56
301.748	136.56
301.979	126.56
302.209	120.56
302.439	139.56
302.669	180.56
302.9	251.56
303.13	467.56
303.36	809.56
303.59	1096.56
303.82	779.56
304.051	261.56
304.281	160.56
304.511	124.56
304.741	116.56
304.971	99.56
305.201	124.56
305.431	114.56
305.661	114.56
305.891	108.56
306.121	110.56
306.352	98.56
306.582	95.56
306.812	114.56
307.042	106.56
307.272	101.56
307.502	105.56
307.731	96.56
307.961	102.56
308.191	109.56
308.421	92.56
308.651	100.56
308.881	99.56
309.111	99.56
309.341	96.56
309.571	112.56
309.8	112.56
310.03	112.56
310.26	93.56
310.49	102.56
310.72	95.56
310.949	116.56
311.179	113.56
311.409	112.56
311.639	112.56
311.868	103.56
312.098	106.56
312.328	93.56
312.557	101.56
312.787	97.56
313.017	104.56
313.246	104.56
313.476	116.56
313.706	128.56
313.935	131.56
314.165	164.56
314.394	202.56
314.624	158.56
314.853	128.56
315.083	135.56
315.312	127.56
315.542	121.56
315.771	124.56
316.001	130.56
316.23	148.56
316.46	135.56
316.689	160.56
316.919	217.56
317.148	464.56
317.377	847.56
317.607	1353.56
317.836	1266.56
318.065	479.56
318.295	211.56
318.524	143.56
318.753	142.56
318.983	128.56
319.212	126.56
319.441	98.56
319.67	120.56
319.9	109.56
320.129	118.56
320.358	118.56
320.587	122.56
320.816	121.56
321.046	114.56
321.275	116.56
321.504	125.56
321.733	127.56
321.962	157.56
322.191	141.56
322.42	125.56
322.649	115.56
322.878	116.56
323.108	117.56
323.337	122.56
323.566	110.56
323.795	125.56
324.024	114.56
324.253	128.56
324.482	159.56
324.71	207.56
324.939	256.56
325.168	211.56
325.397	176.56
325.626	231.56
325.855	453.56
326.084	850.56
326.313	1422.56
326.542	1420.56
326.77	551.56
326.999	232.56
327.228	193.56
327.457	224.56
327.686	199.56
327.914	144.56
328.143	138.56
328.372	126.56
328.6	118.56
328.829	116.56
329.058	104.56
329.287	108.56
329.515	130.56
329.744	121.56
329.972	108.56
330.201	97.56
330.43	113.56
330.658	113.56
330.887	112.56
331.115	103.56
331.344	116.56
331.572	94.56
331.801	104.56
332.03	123.56
332.258	144.56
332.486	164.56
332.715	270.56
332.943	473.56
333.172	702.56
333.4	587.56
333.629	221.56
333.857	136.56
334.085	118.56
334.314	113.56
334.542	114.56
334.771	112.56
334.999	108.56
335.227	125.56
335.455	112.56
335.684	110.56
335.912	108.56
336.14	116.56
336.369	102.56
336.597	117.56
336.825	111.56
337.053	106.56
337.281	109.56
337.51	100.56
337.738	101.56
337.966	97.56
338.194	109.56
338.422	97.56
338.65	119.56
338.878	113.56
339.106	115.56
339.334	113.56
339.562	125.56
339.79	97.56
340.018	107.56
340.246	102.56
340.474	103.56
340.702	87.56
340.93	99.56
341.158	110.56
341.386	118.56
341.614	117.56
341.842	120.56
342.07	117.56
342.298	117.56
342.526	105.56
342.754	116.56
342.981	114.56
343.209	111.56
343.437	110.56
343.665	104.56
343.893	97.56
344.12	100.56
344.348	116.56
344.576	116.56
344.804	119.56
345.031	96.56
345.259	99.56
345.487	117.56
345.714	116.56
345.942	116.56
346.17	106.56
346.397	101.56
346.625	99.56
346.853	102.56
347.08	103.56
347.308	104.56
347.535	99.56
347.763	103.56
347.99	108.56
348.218	128.56
348.445	97.56
348.673	97.56
348.9	121.56
349.128	137.56
349.355	115.56
349.583	119.56
349.81	120.56
350.037	98.56
350.265	110.56
350.492	100.56
350.72	126.56
350.947	109.56
351.174	119.56
351.402	110.56
351.629	106.56
351.856	96.56
352.083	96.56
352.311	107.56
352.538	98.56
352.765	108.56
352.992	102.56
353.22	108.56
353.447	117.56
353.674	100.56
353.901	103.56
354.128	98.56
354.355	112.56
354.583	88.56
354.81	114.56
355.037	104.56
355.264	100.56
355.491	96.56
355.718	87.56
355.945	81.56
356.172	96.56
356.399	100.56
356.626	96.56
356.853	110.56
357.08	96.56
357.307	97.56
357.534	106.56
357.761	104.56
357.988	103.56
358.215	93.56
358.441	105.56
358.668	108.56
358.895	120.56
359.122	117.56
359.349	100.56
359.576	110.56
359.802	118.56
360.029	116.56
360.256	113.56
360.483	100.56
360.709	104.56
360.936	112.56
361.163	118.56
361.39	110.56
361.616	99.56
361.843	103.56
362.07	110.56
362.296	103.56
362.523	102.56
362.749	91.56
362.976	90.56
363.203	117.56
363.429	99.56
363.656	108.56
363.882	98.56
364.109	108.56
364.335	88.56
364.562	104.56
364.788	110.56
365.015	103.56
365.241	137.56
365.468	181.56
365.694	237.56
365.92	186.56
366.147	105.56
366.373	102.56
366.599	93.56
366.826	87.56
367.052	97.56
367.278	89.56
367.505	114.56
367.731	92.56
367.957	102.56
368.184	106.56
368.41	114.56
368.636	121.56
368.862	106.56
369.089	105.56
369.315	93.56
369.541	109.56
369.767	97.56
369.993	101.56
370.219	93.56
370.445	104.56
370.672	107.56
370.898	101.56
371.124	99.56
371.35	106.56
371.576	98.56
371.802	96.56
372.028	111.56
372.254	99.56
372.48	118.56
372.706	108.56
372.932	99.56
373.158	107.56
373.384	108.56
373.61	116.56
373.835	105.56
374.061	116.56
374.287	97.56
374.513	105.56
374.739	109.56
374.965	104.56
375.191	106.56
375.416	101.56
375.642	101.56
375.868	108.56
376.094	109.56
376.319	111.56
376.545	113.56
376.771	99.56
376.997	94.56
377.222	98.56
377.448	120.56
377.674	102.56
377.899	110.56
378.125	102.56
378.35	111.56
378.576	111.56
378.802	117.56
379.027	116.56
379.253	126.56
379.478	176.56
379.704	264.56
379.929	689.56
380.155	1435.56
380.38	1480.56
380.606	474.56
380.831	182.56
381.057	128.56
381.282	112.56
381.507	108.56
381.733	93.56
381.958	104.56
382.184	116.56
382.409	97.56
382.634	92.56
382.86	93.56
383.085	97.56
383.31	101.56
383.535	107.56
383.761	80.56
383.986	94.56
384.211	105.56
384.436	111.56
384.662	106.56
384.887	100.56
385.112	92.56
385.337	99.56
385.562	96.56
385.787	96.56
386.013	108.56
386.238	96.56
386.463	100.56
386.688	105.56
386.913	103.56
387.138	94.56
387.363	99.56
387.588	94.56
387.813	89.56
388.038	102.56
388.263	97.56
388.488	90.56
388.713	95.56
388.938	98.56
389.163	102.56
389.387	102.56
389.612	98.56
389.837	108.56
390.062	93.56
390.287	100.56
390.512	102.56
390.736	105.56
390.961	83.56
391.186	95.56
391.411	95.56
391.636	106.56
391.86	100.56
392.085	96.56
392.31	97.56
392.534	87.56
392.759	87.56
392.984	102.56
393.208	118.56
393.433	126.56
393.658	120.56
393.882	108.56
394.107	95.56
394.331	92.56
394.556	72.56
394.78	101.56
395.005	90.56
395.229	93.56
395.454	89.56
395.678	87.56
395.903	99.56
396.127	88.56
396.352	116.56
396.576	114.56
396.801	108.56
397.025	125.56
397.249	102.56
397.474	96.56
397.698	87.56
397.922	86.56
398.147	88.56
398.371	82.56
398.595	92.56
398.82	101.56
399.044	85.56
399.268	112.56
399.492	97.56
399.717	82.56
399.941	87.56
400.165	90.56
400.389	100.56
400.613	91.56
400.837	100.56
401.062	101.56
401.286	104.56
401.51	94.56
401.734	96.56
401.958	103.56
402.182	88.56
402.406	95.56
402.63	87.56
402.854	95.56
403.078	106.56
403.302	90.56
403.526	88.56
403.75	88.56
403.974	108.56
404.198	91.56
404.422	91.56
404.645	107.56
404.869	92.56
405.093	94.56
405.317	102.56
405.541	109.56
405.765	116.56
405.988	137.56
406.212	110.56
406.436	94.56
406.66	93.56
406.883	87.56
407.107	97.56
407.331	104.56
407.555	96.56
407.778	87.56
408.002	95.56
408.226	87.56
408.449	92.56
408.673	99.56
408.896	98.56
409.12	96.56
409.344	96.56
409.567	90.56
409.791	105.56
410.014	85.56
410.238	88.56
410.461	97.56
410.685	88.56
410.908	93.56
411.132	96.56
411.355	91.56
411.578	97.56
411.802	92.56
412.025	91.56
412.249	102.56
412.472	93.56
412.695	91.56
412.919	101.56
413.142	93.56
413.365	99.56
413.589	84.56
413.812	81.56
414.035	104.56
414.258	115.56
414.482	97.56
414.705	95.56
414.928	120.56
415.151	92.56
415.374	94.56
415.597	90.56
415.821	74.56
416.044	79.56
416.267	96.56
416.49	85.56
416.713	87.56
416.936	85.56
417.159	94.56
417.382	89.56
417.605	95.56
417.828	96.56
418.051	96.56
418.274	102.56
418.497	96.56
418.72	107.56
418.943	101.56
419.166	105.56
419.389	99.56
419.611	103.56
419.834	87.56
420.057	102.56
420.28	98.56
420.503	100.56
420.726	98.56
420.948	90.56
421.171	95.56
421.394	97.56
421.617	88.56
421.839	93.56
422.062	99.56
422.285	92.56
422.507	104.56
422.73	99.56
422.953	131.56
423.175	91.56
423.398	89.56
423.621	100.56
423.843	85.56
424.066	75.56
424.288	95.56
424.511	89.56
424.733	103.56
424.956	87.56
425.178	93.56
425.401	99.56
425.623	86.56
425.846	93.56
426.068	109.56
426.291	96.56
426.513	104.56
426.735	109.56
426.958	94.56
427.18	100.56
427.402	100.56
427.625	85.56
427.847	84.56
428.069	95.56
428.292	96.56
428.514	97.56
428.736	104.56
428.958	87.56
429.181	95.56
429.403	99.56
429.625	83.56
429.847	96.56
430.069	95.56
430.292	108.56
430.514	98.56
430.736	98.56
430.958	104.56
431.18	87.56
431.402	89.56
431.624	79.56
431.846	91.56
432.068	88.56
432.29	76.56
432.512	82.56
432.734	87.56
432.956	108.56
433.178	88.56
433.4	93.56
433.622	87.56
433.844	97.56
434.066	104.56
434.287	93.56
434.509	90.56
434.731	90.56
434.953	94.56
435.175	77.56
435.397	80.56
435.618	97.56
435.84	90.56
436.062	86.56
436.284	102.56
436.505	89.56
436.727	99.56
436.949	100.56
437.17	92.56
437.392	99.56
437.614	93.56
437.835	103.56
438.057	93.56
438.278	89.56
438.5	101.56
438.721	102.56
438.943	104.56
439.165	108.56
439.386	110.56
439.608	95.56
439.829	97.56
440.05	110.56
440.272	118.56
440.493	110.56
440.715	87.56
440.936	94.56
441.158	86.56
441.379	95.56
441.6	86.56
441.822	97.56
442.043	114.56
442.264	121.56
442.486	110.56
442.707	91.56
442.928	99.56
443.149	88.56
443.371	95.56
443.592	96.56
443.813	96.56
444.034	92.56
444.255	100.56
444.476	86.56
444.698	82.56
444.919	95.56
445.14	208.56
445.361	124.56
445.582	96.56
445.803	102.56
446.024	92.56
446.245	93.56
446.466	113.56
446.687	98.56
446.908	91.56
447.129	100.56
447.35	94.56
447.571	100.56
447.792	95.56
448.013	94.56
448.234	81.56
448.455	93.56
448.675	96.56
448.896	102.56
449.117	117.56
449.338	122.56
449.559	133.56
449.779	123.56
450	90.56
450.221	99.56
450.442	100.56
450.662	89.56
450.883	111.56
451.104	102.56
451.324	116.56
451.545	108.56
451.766	122.56
451.986	126.56
452.207	201.56
452.428	504.56
452.648	1222.56
452.869	655.56
453.089	188.56
453.31	128.56
453.53	112.56
453.751	126.56
453.971	135.56
454.192	144.56
454.412	103.56
454.633	93.56
454.853	92.56
455.073	97.56
455.294	98.56
455.514	92.56
455.734	87.56
455.955	91.56
456.175	106.56
456.395	100.56
456.616	89.56
456.836	98.56
457.056	110.56
457.276	90.56
457.497	103.56
457.717	117.56
457.937	102.56
458.157	100.56
458.377	92.56
458.598	79.56
458.818	90.56
459.038	89.56
459.258	79.56
459.478	72.56
459.698	84.56
459.918	88.56
460.138	88.56
460.358	99.56
460.578	95.56
460.798	87.56
461.018	100.56
461.238	84.56
461.458	83.56
461.678	87.56
461.898	108.56
462.118	90.56
462.338	94.56
462.558	71.56
462.777	68.56
462.997	88.56
463.217	88.56
463.437	129.56
463.657	163.56
463.876	168.56
464.096	113.56
464.316	92.56
464.536	88.56
464.755	96.56
464.975	105.56
465.195	96.56
465.414	85.56
465.634	81.56
465.854	87.56
466.073	98.56
466.293	94.56
466.512	101.56
466.732	100.56
466.951	93.56
467.171	130.56
467.391	135.56
467.61	110.56
467.829	94.56
468.049	101.56
468.268	92.56
468.488	86.56
468.707	85.56
468.927	93.56
469.146	92.56
469.365	81.56
469.585	93.56
469.804	87.56
470.023	96.56
470.243	89.56
470.462	108.56
470.681	96.56
470.901	121.56
471.12	185.56
471.339	198.56
471.558	129.56
471.777	107.56
471.997	99.56
472.216	89.56
472.435	97.56
472.654	94.56
472.873	105.56
473.092	94.56
473.311	88.56
473.53	113.56
473.749	100.56
473.968	86.56
474.187	81.56
474.406	93.56
474.625	89.56
474.844	91.56
475.063	86.56
475.282	109.56
475.501	85.56
475.72	94.56
475.939	81.56
476.158	98.56
476.377	111.56
476.596	101.56
476.814	84.56
477.033	101.56
477.252	87.56
477.471	95.56
477.69	96.56
477.908	94.56
478.127	103.56
478.346	98.56
478.564	86.56
478.783	91.56
479.002	94.56
479.22	110.56
479.439	101.56
479.658	85.56
479.876	103.56
480.095	100.56
480.313	87.56
480.532	103.56
480.751	81.56
480.969	88.56
481.188	90.56
481.406	90.56
481.624	92.56
481.843	105.56
482.061	98.56
482.28	103.56
482.498	105.56
482.717	98.56
482.935	100.56
483.153	90.56
483.372	98.56
483.59	94.56
483.808	96.56
484.027	102.56
484.245	116.56
484.463	159.56
484.681	223.56
484.9	129.56
485.118	123.56
485.336	111.56
485.554	111.56
485.772	111.56
485.99	180.56
486.209	227.56
486.427	146.56
486.645	101.56
486.863	96.56
487.081	106.56
487.299	112.56
487.517	96.56
487.735	104.56
487.953	98.56
488.171	109.56
488.389	87.56
488.607	105.56
488.825	86.56
489.043	90.56
489.261	102.56
489.479	98.56
489.696	102.56
489.914	95.56
490.132	85.56
490.35	92.56
490.568	100.56
490.786	96.56
491.003	110.56
491.221	94.56
491.439	120.56
491.657	82.56
491.874	89.56
492.092	91.56
492.31	100.56
492.527	100.56
492.745	96.56
492.963	112.56
493.18	115.56
493.398	98.56
493.615	101.56
493.833	93.56
494.05	93.56
494.268	103.56
494.485	110.56
494.703	105.56
494.92	96.56
495.138	90.56
495.355	102.56
495.573	111.56
495.79	97.56
496.008	89.56
496.225	105.56
496.442	103.56
496.66	118.56
496.877	151.56
497.094	145.56
497.312	117.56
497.529	101.56
497.746	88.56
497.963	103.56
498.181	93.56
498.398	74.56
498.615	100.56
498.832	93.56
499.049	102.56
499.267	129.56
499.484	156.56
499.701	108.56
499.918	106.56
500.135	94.56
500.352	98.56
500.569	97.56
500.786	104.56
501.003	91.56
501.22	99.56
501.437	95.56
501.654	101.56
501.871	86.56
502.088	91.56
502.305	88.56
502.522	110.56
502.739	108.56
502.956	103.56
503.172	103.56
503.389	89.56
503.606	91.56
503.823	97.56
504.04	110.56
504.256	87.56
504.473	89.56
504.69	93.56
504.907	120.56
505.123	108.56
505.34	104.56
505.557	110.56
505.773	103.56
505.99	83.56
506.207	105.56
506.423	96.56
506.64	113.56
506.856	89.56
507.073	110.56
507.289	96.56
507.506	88.56
507.722	91.56
507.939	91.56
508.155	105.56
508.372	105.56
508.588	102.56
508.805	94.56
509.021	93.56
509.238	100.56
509.454	124.56
509.67	149.56
509.887	103.56
510.103	74.56
