Data from SnStandardFlinnAPT0064_QswitchEnergy10_LIBS07252019.E.O._I.C._HRD10591_15-26-19-972.txt Node
Date: Thu Jul 25 15:26:19 EDT 2019
User: cochatt
Spectrometer: HR+D1059
Trigger mode: 1
Integration Time (sec): 1.000000E-1
Scans to average: 1
Electric dark correction enabled: true
Nonlinearity correction enabled: false
Boxcar width: 0
XAxis mode: Wavelengths
Number of Pixels in Spectrum: 2048
>>>>>Begin Spectral Data<<<<<
223.165	-14.25
223.4	-14.25
223.635	-14.25
223.869	-13.25
224.104	-12.25
224.338	-11.25
224.573	-9.25
224.808	-24.25
225.042	-10.25
225.277	-9.25
225.511	-1.25
225.746	8.75
225.98	6.75
226.215	20.75
226.449	20.75
226.683	21.75
226.918	11.75
227.152	14.75
227.387	26.75
227.621	51.75
227.856	43.75
228.09	37.75
228.324	46.75
228.559	65.75
228.793	64.75
229.027	72.75
229.262	62.75
229.496	73.75
229.73	68.75
229.964	79.75
230.199	88.75
230.433	80.75
230.667	75.75
230.901	80.75
231.136	92.75
231.37	72.75
231.604	85.75
231.838	103.75
232.072	112.75
232.306	115.75
232.541	94.75
232.775	92.75
233.009	93.75
233.243	77.75
233.477	92.75
233.711	95.75
233.945	99.75
234.179	83.75
234.413	85.75
234.647	76.75
234.881	96.75
235.115	81.75
235.349	78.75
235.583	88.75
235.817	122.75
236.051	126.75
236.285	85.75
236.519	90.75
236.753	84.75
236.987	75.75
237.221	82.75
237.455	88.75
237.689	64.75
237.922	72.75
238.156	83.75
238.39	79.75
238.624	87.75
238.858	83.75
239.091	69.75
239.325	72.75
239.559	78.75
239.793	60.75
240.027	77.75
240.26	88.75
240.494	84.75
240.728	74.75
240.961	96.75
241.195	96.75
241.429	90.75
241.662	83.75
241.896	81.75
242.13	98.75
242.363	128.75
242.597	152.75
242.83	126.75
243.064	132.75
243.298	154.75
243.531	142.75
243.765	118.75
243.998	79.75
244.232	87.75
244.465	78.75
244.699	77.75
244.932	84.75
245.166	69.75
245.399	84.75
245.633	74.75
245.866	76.75
246.099	81.75
246.333	82.75
246.566	87.75
246.8	82.75
247.033	71.75
247.266	88.75
247.5	78.75
247.733	84.75
247.966	89.75
248.2	93.75
248.433	116.75
248.666	123.75
248.899	124.75
249.133	94.75
249.366	101.75
249.599	95.75
249.832	116.75
250.066	123.75
250.299	96.75
250.532	91.75
250.765	86.75
250.998	86.75
251.231	73.75
251.465	76.75
251.698	77.75
251.931	81.75
252.164	90.75
252.397	86.75
252.63	87.75
252.863	93.75
253.096	81.75
253.329	89.75
253.562	95.75
253.795	88.75
254.028	83.75
254.261	92.75
254.494	98.75
254.727	109.75
254.96	136.75
255.193	131.75
255.426	89.75
255.659	87.75
255.892	97.75
256.124	88.75
256.357	102.75
256.59	87.75
256.823	74.75
257.056	108.75
257.289	146.75
257.521	170.75
257.754	115.75
257.987	97.75
258.22	86.75
258.452	79.75
258.685	90.75
258.918	82.75
259.151	100.75
259.383	95.75
259.616	128.75
259.849	140.75
260.081	116.75
260.314	93.75
260.547	92.75
260.779	82.75
261.012	68.75
261.244	91.75
261.477	96.75
261.71	90.75
261.942	92.75
262.175	105.75
262.407	92.75
262.64	78.75
262.872	86.75
263.105	78.75
263.337	84.75
263.57	69.75
263.802	86.75
264.035	95.75
264.267	91.75
264.499	85.75
264.732	86.75
264.964	71.75
265.197	87.75
265.429	91.75
265.661	93.75
265.894	82.75
266.126	127.75
266.358	155.75
266.591	154.75
266.823	94.75
267.055	81.75
267.287	77.75
267.52	89.75
267.752	87.75
267.984	86.75
268.216	86.75
268.448	93.75
268.681	87.75
268.913	98.75
269.145	85.75
269.377	86.75
269.609	97.75
269.841	89.75
270.073	94.75
270.306	126.75
270.538	182.75
270.77	292.75
271.002	362.75
271.234	169.75
271.466	106.75
271.698	93.75
271.93	97.75
272.162	78.75
272.394	92.75
272.626	84.75
272.858	90.75
273.09	85.75
273.322	92.75
273.553	85.75
273.785	92.75
274.017	94.75
274.249	83.75
274.481	90.75
274.713	95.75
274.945	83.75
275.176	68.75
275.408	84.75
275.64	107.75
275.872	84.75
276.104	108.75
276.335	110.75
276.567	95.75
276.799	99.75
277.031	99.75
277.262	88.75
277.494	105.75
277.726	126.75
277.957	181.75
278.189	234.75
278.421	234.75
278.652	174.75
278.884	177.75
279.115	125.75
279.347	117.75
279.579	93.75
279.81	90.75
280.042	104.75
280.273	110.75
280.505	100.75
280.736	91.75
280.968	114.75
281.199	152.75
281.431	222.75
281.662	261.75
281.894	148.75
282.125	99.75
282.356	104.75
282.588	101.75
282.819	102.75
283.051	122.75
283.282	125.75
283.513	178.75
283.745	304.75
283.976	502.75
284.207	737.75
284.439	555.75
284.67	231.75
284.901	248.75
285.132	322.75
285.364	345.75
285.595	203.75
285.826	168.75
286.057	241.75
286.288	377.75
286.52	577.75
286.751	466.75
286.982	189.75
287.213	124.75
287.444	104.75
287.675	104.75
287.906	100.75
288.138	104.75
288.369	94.75
288.6	108.75
288.831	92.75
289.062	99.75
289.293	99.75
289.524	87.75
289.755	89.75
289.986	93.75
290.217	106.75
290.448	113.75
290.679	96.75
290.91	116.75
291.141	142.75
291.371	212.75
291.602	278.75
291.833	195.75
292.064	112.75
292.295	98.75
292.526	111.75
292.757	107.75
292.987	83.75
293.218	85.75
293.449	93.75
293.68	93.75
293.91	92.75
294.141	92.75
294.372	83.75
294.603	96.75
294.833	92.75
295.064	87.75
295.295	93.75
295.525	82.75
295.756	108.75
295.987	97.75
296.217	87.75
296.448	96.75
296.679	107.75
296.909	100.75
297.14	103.75
297.37	92.75
297.601	100.75
297.831	106.75
298.062	86.75
298.292	111.75
298.523	99.75
298.753	102.75
298.984	107.75
299.214	117.75
299.445	108.75
299.675	96.75
299.905	107.75
300.136	131.75
300.366	163.75
300.597	254.75
300.827	400.75
301.057	665.75
301.288	568.75
301.518	229.75
301.748	156.75
301.979	124.75
302.209	124.75
302.439	122.75
302.669	165.75
302.9	243.75
303.13	449.75
303.36	800.75
303.59	1111.75
303.82	770.75
304.051	284.75
304.281	158.75
304.511	129.75
304.741	116.75
304.971	103.75
305.201	120.75
305.431	98.75
305.661	96.75
305.891	104.75
306.121	106.75
306.352	99.75
306.582	96.75
306.812	111.75
307.042	109.75
307.272	112.75
307.502	104.75
307.731	98.75
307.961	102.75
308.191	106.75
308.421	104.75
308.651	117.75
308.881	114.75
309.111	101.75
309.341	97.75
309.571	105.75
309.8	108.75
310.03	107.75
310.26	112.75
310.49	106.75
310.72	103.75
310.949	97.75
311.179	100.75
311.409	98.75
311.639	106.75
311.868	104.75
312.098	100.75
312.328	108.75
312.557	108.75
312.787	99.75
313.017	104.75
313.246	117.75
313.476	115.75
313.706	132.75
313.935	144.75
314.165	187.75
314.394	201.75
314.624	170.75
314.853	129.75
315.083	124.75
315.312	122.75
315.542	136.75
315.771	129.75
316.001	134.75
316.23	130.75
316.46	135.75
316.689	175.75
316.919	259.75
317.148	452.75
317.377	861.75
317.607	1354.75
317.836	1294.75
318.065	480.75
318.295	212.75
318.524	157.75
318.753	128.75
318.983	114.75
319.212	130.75
319.441	114.75
319.67	108.75
319.9	114.75
320.129	123.75
320.358	116.75
320.587	128.75
320.816	105.75
321.046	94.75
321.275	123.75
321.504	127.75
321.733	142.75
321.962	164.75
322.191	163.75
322.42	133.75
322.649	131.75
322.878	122.75
323.108	123.75
323.337	119.75
323.566	120.75
323.795	123.75
324.024	134.75
324.253	125.75
324.482	165.75
324.71	219.75
324.939	255.75
325.168	220.75
325.397	174.75
325.626	238.75
325.855	437.75
326.084	855.75
326.313	1475.75
326.542	1410.75
326.77	573.75
326.999	249.75
327.228	195.75
327.457	222.75
327.686	201.75
327.914	156.75
328.143	132.75
328.372	129.75
328.6	116.75
328.829	116.75
329.058	115.75
329.287	119.75
329.515	116.75
329.744	116.75
329.972	113.75
330.201	98.75
330.43	115.75
330.658	108.75
330.887	117.75
331.115	118.75
331.344	121.75
331.572	124.75
331.801	119.75
332.03	97.75
332.258	117.75
332.486	169.75
332.715	272.75
332.943	459.75
333.172	698.75
333.4	627.75
333.629	224.75
333.857	128.75
334.085	124.75
334.314	127.75
334.542	120.75
334.771	119.75
334.999	112.75
335.227	123.75
335.455	119.75
335.684	121.75
335.912	123.75
336.14	113.75
336.369	114.75
336.597	115.75
336.825	107.75
337.053	106.75
337.281	92.75
337.51	102.75
337.738	119.75
337.966	107.75
338.194	120.75
338.422	119.75
338.65	102.75
338.878	110.75
339.106	104.75
339.334	117.75
339.562	125.75
339.79	87.75
340.018	100.75
340.246	118.75
340.474	123.75
340.702	114.75
340.93	100.75
341.158	110.75
341.386	117.75
341.614	108.75
341.842	103.75
342.07	110.75
342.298	104.75
342.526	105.75
342.754	103.75
342.981	106.75
343.209	105.75
343.437	105.75
343.665	109.75
343.893	102.75
344.12	105.75
344.348	104.75
344.576	118.75
344.804	122.75
345.031	99.75
345.259	107.75
345.487	94.75
345.714	114.75
345.942	99.75
346.17	93.75
346.397	104.75
346.625	94.75
346.853	92.75
347.08	99.75
347.308	102.75
347.535	114.75
347.763	105.75
347.99	101.75
348.218	91.75
348.445	108.75
348.673	116.75
348.9	105.75
349.128	128.75
349.355	116.75
349.583	125.75
349.81	109.75
350.037	121.75
350.265	102.75
350.492	116.75
350.72	96.75
350.947	116.75
351.174	109.75
351.402	88.75
351.629	93.75
351.856	112.75
352.083	104.75
352.311	104.75
352.538	107.75
352.765	112.75
352.992	108.75
353.22	94.75
353.447	110.75
353.674	96.75
353.901	98.75
354.128	97.75
354.355	100.75
354.583	98.75
354.81	91.75
355.037	97.75
355.264	116.75
355.491	96.75
355.718	118.75
355.945	92.75
356.172	96.75
356.399	100.75
356.626	105.75
356.853	105.75
357.08	109.75
357.307	103.75
357.534	91.75
357.761	104.75
357.988	101.75
358.215	104.75
358.441	97.75
358.668	113.75
358.895	126.75
359.122	122.75
359.349	117.75
359.576	112.75
359.802	108.75
360.029	124.75
360.256	106.75
360.483	99.75
360.709	109.75
360.936	112.75
361.163	106.75
361.39	101.75
361.616	107.75
361.843	115.75
362.07	109.75
362.296	101.75
362.523	98.75
362.749	103.75
362.976	99.75
363.203	117.75
363.429	107.75
363.656	101.75
363.882	97.75
364.109	118.75
364.335	112.75
364.562	103.75
364.788	116.75
365.015	114.75
365.241	129.75
365.468	196.75
365.694	231.75
365.92	197.75
366.147	116.75
366.373	98.75
366.599	98.75
366.826	104.75
367.052	115.75
367.278	90.75
367.505	86.75
367.731	91.75
367.957	99.75
368.184	120.75
368.41	109.75
368.636	114.75
368.862	99.75
369.089	110.75
369.315	115.75
369.541	96.75
369.767	91.75
369.993	99.75
370.219	103.75
370.445	96.75
370.672	103.75
370.898	102.75
371.124	106.75
371.35	92.75
371.576	98.75
371.802	95.75
372.028	94.75
372.254	120.75
372.48	118.75
372.706	105.75
372.932	108.75
373.158	113.75
373.384	105.75
373.61	117.75
373.835	114.75
374.061	118.75
374.287	110.75
374.513	102.75
374.739	120.75
374.965	106.75
375.191	103.75
375.416	113.75
375.642	106.75
375.868	117.75
376.094	96.75
376.319	97.75
376.545	94.75
376.771	120.75
376.997	97.75
377.222	98.75
377.448	106.75
377.674	121.75
377.899	104.75
378.125	108.75
378.35	131.75
378.576	107.75
378.802	122.75
379.027	121.75
379.253	131.75
379.478	181.75
379.704	300.75
379.929	712.75
380.155	1459.75
380.38	1492.75
380.606	480.75
380.831	181.75
381.057	130.75
381.282	122.75
381.507	102.75
381.733	122.75
381.958	99.75
382.184	98.75
382.409	109.75
382.634	101.75
382.86	89.75
383.085	98.75
383.31	109.75
383.535	114.75
383.761	109.75
383.986	88.75
384.211	105.75
384.436	99.75
384.662	97.75
384.887	101.75
385.112	102.75
385.337	96.75
385.562	92.75
385.787	94.75
386.013	93.75
386.238	86.75
386.463	109.75
386.688	95.75
386.913	98.75
387.138	116.75
387.363	116.75
387.588	113.75
387.813	99.75
388.038	92.75
388.263	82.75
388.488	104.75
388.713	90.75
388.938	99.75
389.163	100.75
389.387	103.75
389.612	87.75
389.837	104.75
390.062	97.75
390.287	102.75
390.512	103.75
390.736	97.75
390.961	84.75
391.186	96.75
391.411	98.75
391.636	95.75
391.86	96.75
392.085	108.75
392.31	93.75
392.534	76.75
392.759	97.75
392.984	94.75
393.208	104.75
393.433	130.75
393.658	126.75
393.882	96.75
394.107	91.75
394.331	84.75
394.556	99.75
394.78	89.75
395.005	100.75
395.229	106.75
395.454	100.75
395.678	96.75
395.903	86.75
396.127	110.75
396.352	105.75
396.576	94.75
396.801	108.75
397.025	117.75
397.249	116.75
397.474	100.75
397.698	93.75
397.922	92.75
398.147	96.75
398.371	88.75
398.595	96.75
398.82	100.75
399.044	101.75
399.268	105.75
399.492	106.75
399.717	87.75
399.941	92.75
400.165	98.75
400.389	93.75
400.613	110.75
400.837	105.75
401.062	96.75
401.286	103.75
401.51	98.75
401.734	102.75
401.958	87.75
402.182	94.75
402.406	96.75
402.63	93.75
402.854	94.75
403.078	108.75
403.302	82.75
403.526	94.75
403.75	92.75
403.974	82.75
404.198	93.75
404.422	99.75
404.645	92.75
404.869	89.75
405.093	97.75
405.317	111.75
405.541	107.75
405.765	114.75
405.988	140.75
406.212	123.75
406.436	117.75
406.66	105.75
406.883	92.75
407.107	100.75
407.331	92.75
407.555	94.75
407.778	98.75
408.002	87.75
408.226	108.75
408.449	103.75
408.673	105.75
408.896	112.75
409.12	101.75
409.344	104.75
409.567	100.75
409.791	89.75
410.014	101.75
410.238	115.75
410.461	98.75
410.685	103.75
410.908	98.75
411.132	103.75
411.355	102.75
411.578	89.75
411.802	94.75
412.025	86.75
412.249	108.75
412.472	103.75
412.695	97.75
412.919	85.75
413.142	102.75
413.365	85.75
413.589	87.75
413.812	94.75
414.035	96.75
414.258	104.75
414.482	101.75
414.705	114.75
414.928	96.75
415.151	94.75
415.374	94.75
415.597	92.75
415.821	105.75
416.044	91.75
416.267	96.75
416.49	94.75
416.713	93.75
416.936	101.75
417.159	88.75
417.382	95.75
417.605	90.75
417.828	111.75
418.051	73.75
418.274	101.75
418.497	99.75
418.72	107.75
418.943	99.75
419.166	107.75
419.389	113.75
419.611	108.75
419.834	109.75
420.057	105.75
420.28	105.75
420.503	101.75
420.726	101.75
420.948	98.75
421.171	91.75
421.394	93.75
421.617	93.75
421.839	104.75
422.062	98.75
422.285	91.75
422.507	97.75
422.73	123.75
422.953	125.75
423.175	101.75
423.398	100.75
423.621	76.75
423.843	98.75
424.066	102.75
424.288	103.75
424.511	109.75
424.733	99.75
424.956	99.75
425.178	94.75
425.401	84.75
425.623	89.75
425.846	105.75
426.068	96.75
426.291	105.75
426.513	94.75
426.735	106.75
426.958	95.75
427.18	98.75
427.402	98.75
427.625	94.75
427.847	90.75
428.069	103.75
428.292	93.75
428.514	100.75
428.736	113.75
428.958	92.75
429.181	99.75
429.403	92.75
429.625	116.75
429.847	101.75
430.069	95.75
430.292	105.75
430.514	93.75
430.736	92.75
430.958	99.75
431.18	93.75
431.402	103.75
431.624	105.75
431.846	100.75
432.068	102.75
432.29	92.75
432.512	97.75
432.734	94.75
432.956	90.75
433.178	88.75
433.4	103.75
433.622	102.75
433.844	104.75
434.066	112.75
434.287	101.75
434.509	96.75
434.731	92.75
434.953	81.75
435.175	109.75
435.397	108.75
435.618	78.75
435.84	89.75
436.062	97.75
436.284	97.75
436.505	91.75
436.727	83.75
436.949	93.75
437.17	100.75
437.392	82.75
437.614	77.75
437.835	103.75
438.057	94.75
438.278	96.75
438.5	84.75
438.721	87.75
438.943	93.75
439.165	108.75
439.386	108.75
439.608	91.75
439.829	90.75
440.05	106.75
440.272	123.75
440.493	94.75
440.715	90.75
440.936	99.75
441.158	91.75
441.379	99.75
441.6	89.75
441.822	100.75
442.043	107.75
442.264	118.75
442.486	108.75
442.707	106.75
442.928	92.75
443.149	105.75
443.371	92.75
443.592	110.75
443.813	91.75
444.034	96.75
444.255	102.75
444.476	89.75
444.698	100.75
444.919	98.75
445.14	204.75
445.361	151.75
445.582	101.75
445.803	106.75
446.024	104.75
446.245	99.75
446.466	92.75
446.687	103.75
446.908	94.75
447.129	72.75
447.35	82.75
447.571	89.75
447.792	85.75
448.013	101.75
448.234	91.75
448.455	99.75
448.675	99.75
448.896	111.75
449.117	103.75
449.338	124.75
449.559	142.75
449.779	126.75
450	105.75
450.221	96.75
450.442	121.75
450.662	116.75
450.883	98.75
451.104	113.75
451.324	112.75
451.545	95.75
451.766	113.75
451.986	118.75
452.207	198.75
452.428	488.75
452.648	1276.75
452.869	693.75
453.089	190.75
453.31	128.75
453.53	120.75
453.751	134.75
453.971	171.75
454.192	154.75
454.412	106.75
454.633	86.75
454.853	108.75
455.073	105.75
455.294	95.75
455.514	78.75
455.734	96.75
455.955	80.75
456.175	109.75
456.395	87.75
456.616	84.75
456.836	85.75
457.056	99.75
457.276	100.75
457.497	109.75
457.717	136.75
457.937	90.75
458.157	86.75
458.377	102.75
458.598	84.75
458.818	93.75
459.038	82.75
459.258	96.75
459.478	94.75
459.698	78.75
459.918	89.75
460.138	84.75
460.358	77.75
460.578	91.75
460.798	81.75
461.018	92.75
461.238	102.75
461.458	98.75
461.678	107.75
461.898	88.75
462.118	88.75
462.338	97.75
462.558	108.75
462.777	83.75
462.997	100.75
463.217	100.75
463.437	116.75
463.657	178.75
463.876	192.75
464.096	123.75
464.316	108.75
464.536	89.75
464.755	77.75
464.975	97.75
465.195	94.75
465.414	94.75
465.634	92.75
465.854	101.75
466.073	99.75
466.293	92.75
466.512	103.75
466.732	103.75
466.951	99.75
467.171	140.75
467.391	143.75
467.61	115.75
467.829	112.75
468.049	102.75
468.268	92.75
468.488	82.75
468.707	95.75
468.927	93.75
469.146	94.75
469.365	93.75
469.585	105.75
469.804	91.75
470.023	101.75
470.243	86.75
470.462	100.75
470.681	100.75
470.901	124.75
471.12	182.75
471.339	209.75
471.558	144.75
471.777	102.75
471.997	109.75
472.216	92.75
472.435	106.75
472.654	104.75
472.873	93.75
473.092	90.75
473.311	99.75
473.53	96.75
473.749	98.75
473.968	105.75
474.187	90.75
474.406	97.75
474.625	97.75
474.844	101.75
475.063	92.75
475.282	103.75
475.501	85.75
475.72	94.75
475.939	89.75
476.158	94.75
476.377	104.75
476.596	108.75
476.814	86.75
477.033	88.75
477.252	89.75
477.471	100.75
477.69	108.75
477.908	92.75
478.127	104.75
478.346	85.75
478.564	106.75
478.783	94.75
479.002	92.75
479.22	98.75
479.439	101.75
479.658	94.75
479.876	94.75
480.095	98.75
480.313	107.75
480.532	96.75
480.751	98.75
480.969	90.75
481.188	91.75
481.406	99.75
481.624	104.75
481.843	123.75
482.061	119.75
482.28	89.75
482.498	94.75
482.717	100.75
482.935	104.75
483.153	107.75
483.372	91.75
483.59	94.75
483.808	102.75
484.027	92.75
484.245	118.75
484.463	166.75
484.681	220.75
484.9	134.75
485.118	100.75
485.336	100.75
485.554	113.75
485.772	124.75
485.99	177.75
486.209	259.75
486.427	158.75
486.645	101.75
486.863	122.75
487.081	92.75
487.299	108.75
487.517	94.75
487.735	102.75
487.953	94.75
488.171	92.75
488.389	107.75
488.607	84.75
488.825	101.75
489.043	98.75
489.261	98.75
489.479	100.75
489.696	106.75
489.914	112.75
490.132	97.75
490.35	82.75
490.568	89.75
490.786	97.75
491.003	101.75
491.221	110.75
491.439	117.75
491.657	104.75
491.874	105.75
492.092	101.75
492.31	121.75
492.527	103.75
492.745	94.75
492.963	112.75
493.18	116.75
493.398	107.75
493.615	111.75
493.833	99.75
494.05	106.75
494.268	85.75
494.485	100.75
494.703	106.75
494.92	114.75
495.138	115.75
495.355	108.75
495.573	124.75
495.79	106.75
496.008	105.75
496.225	109.75
496.442	105.75
496.66	121.75
496.877	132.75
497.094	163.75
497.312	116.75
497.529	105.75
497.746	94.75
497.963	100.75
498.181	103.75
498.398	98.75
498.615	105.75
498.832	107.75
499.049	98.75
499.267	137.75
499.484	158.75
499.701	125.75
499.918	109.75
500.135	93.75
500.352	109.75
500.569	96.75
500.786	100.75
501.003	87.75
501.22	95.75
501.437	99.75
501.654	94.75
501.871	84.75
502.088	82.75
502.305	102.75
502.522	116.75
502.739	97.75
502.956	106.75
503.172	108.75
503.389	98.75
503.606	107.75
503.823	108.75
504.04	99.75
504.256	87.75
504.473	90.75
504.69	99.75
504.907	109.75
505.123	107.75
505.34	112.75
505.557	103.75
505.773	93.75
505.99	95.75
506.207	102.75
506.423	103.75
506.64	114.75
506.856	110.75
507.073	114.75
507.289	107.75
507.506	100.75
507.722	88.75
507.939	109.75
508.155	99.75
508.372	96.75
508.588	93.75
508.805	96.75
509.021	104.75
509.238	119.75
