Data from SnStandardFlinnAPT0064_LampEnergy10_LIBS07252019.E.O._I.C._HRD10591_15-20-35-493.txt Node
Date: Thu Jul 25 15:20:35 EDT 2019
User: cochatt
Spectrometer: HR+D1059
Trigger mode: 1
Integration Time (sec): 1.000000E-1
Scans to average: 1
Electric dark correction enabled: true
Nonlinearity correction enabled: false
Boxcar width: 0
XAxis mode: Wavelengths
Number of Pixels in Spectrum: 2048
>>>>>Begin Spectral Data<<<<<
223.165	-12.38
223.4	-12.38
223.635	-12.38
223.869	-16.38
224.104	-26.38
224.338	-32.38
224.573	-5.38
224.808	-15.38
225.042	-1.38
225.277	-11.38
225.511	-7.38
225.746	18.62
225.98	23.62
226.215	11.62
226.449	9.62
226.683	19.62
226.918	15.62
227.152	29.62
227.387	26.62
227.621	34.62
227.856	33.62
228.09	48.62
228.324	45.62
228.559	56.62
228.793	122.62
229.027	308.62
229.262	341.62
229.496	309.62
229.73	295.62
229.964	294.62
230.199	299.62
230.433	304.62
230.667	306.62
230.901	348.62
231.136	317.62
231.37	352.62
231.604	392.62
231.838	452.62
232.072	540.62
232.306	581.62
232.541	498.62
232.775	412.62
233.009	401.62
233.243	432.62
233.477	470.62
233.711	533.62
233.945	603.62
234.179	505.62
234.413	436.62
234.647	468.62
234.881	491.62
235.115	524.62
235.349	642.62
235.583	792.62
235.817	1028.62
236.051	997.62
236.285	664.62
236.519	537.62
236.753	493.62
236.987	487.62
237.221	532.62
237.455	513.62
237.689	440.62
237.922	444.62
238.156	452.62
238.39	494.62
238.624	498.62
238.858	496.62
239.091	486.62
239.325	494.62
239.559	514.62
239.793	486.62
240.027	506.62
240.26	512.62
240.494	557.62
240.728	598.62
240.961	632.62
241.195	632.62
241.429	680.62
241.662	712.62
241.896	806.62
242.13	947.62
242.363	1282.62
242.597	1668.62
242.83	1561.62
243.064	1564.62
243.298	1894.62
243.531	1525.62
243.765	974.62
243.998	782.62
244.232	672.62
244.465	660.62
244.699	653.62
244.932	641.62
245.166	658.62
245.399	683.62
245.633	690.62
245.866	694.62
246.099	652.62
246.333	646.62
246.566	653.62
246.8	625.62
247.033	640.62
247.266	632.62
247.5	639.62
247.733	673.62
247.966	701.62
248.2	740.62
248.433	864.62
248.666	999.62
248.899	966.62
249.133	838.62
249.366	867.62
249.599	938.62
249.832	1080.62
250.066	1066.62
250.299	834.62
250.532	779.62
250.765	746.62
250.998	733.62
251.231	710.62
251.465	712.62
251.698	720.62
251.931	718.62
252.164	720.62
252.397	733.62
252.63	772.62
252.863	799.62
253.096	781.62
253.329	776.62
253.562	755.62
253.795	761.62
254.028	794.62
254.261	818.62
254.494	884.62
254.727	1040.62
254.96	1263.62
255.193	1230.62
255.426	942.62
255.659	856.62
255.892	874.62
256.124	837.62
256.357	852.62
256.59	875.62
256.823	948.62
257.056	1108.62
257.289	1360.62
257.521	1498.62
257.754	1196.62
257.987	979.62
258.22	913.62
258.452	900.62
258.685	918.62
258.918	932.62
259.151	979.62
259.383	1061.62
259.616	1176.62
259.849	1229.62
260.081	1074.62
260.314	992.62
260.547	959.62
260.779	930.62
261.012	957.62
261.244	936.62
261.477	960.62
261.71	942.62
261.942	970.62
262.175	983.62
262.407	1034.62
262.64	1019.62
262.872	1072.62
263.105	1108.62
263.337	1199.62
263.57	1251.62
263.802	1230.62
264.035	1290.62
264.267	1329.62
264.499	1344.62
264.732	1395.62
264.964	1424.62
265.197	1427.62
265.429	1393.62
265.661	1441.62
265.894	1508.62
266.126	1734.62
266.358	1941.62
266.591	1886.62
266.823	1589.62
267.055	1431.62
267.287	1360.62
267.52	1300.62
267.752	1294.62
267.984	1270.62
268.216	1247.62
268.448	1213.62
268.681	1219.62
268.913	1216.62
269.145	1206.62
269.377	1216.62
269.609	1237.62
269.841	1241.62
270.073	1396.62
270.306	1588.62
270.538	2170.62
270.77	3302.62
271.002	4100.62
271.234	2830.62
271.466	1884.62
271.698	1470.62
271.93	1382.62
272.162	1298.62
272.394	1282.62
272.626	1223.62
272.858	1185.62
273.09	1187.62
273.322	1189.62
273.553	1172.62
273.785	1158.62
274.017	1176.62
274.249	1187.62
274.481	1180.62
274.713	1180.62
274.945	1181.62
275.176	1192.62
275.408	1197.62
275.64	1187.62
275.872	1226.62
276.104	1231.62
276.335	1257.62
276.567	1295.62
276.799	1274.62
277.031	1276.62
277.262	1299.62
277.494	1339.62
277.726	1501.62
277.957	1819.62
278.189	2080.62
278.421	1996.62
278.652	1783.62
278.884	1649.62
279.115	1475.62
279.347	1404.62
279.579	1389.62
279.81	1380.62
280.042	1352.62
280.273	1400.62
280.505	1458.62
280.736	1463.62
280.968	1563.62
281.199	1726.62
281.431	1978.62
281.662	2089.62
281.894	1746.62
282.125	1630.62
282.356	1635.62
282.588	1645.62
282.819	1689.62
283.051	1792.62
283.282	1981.62
283.513	2487.62
283.745	3721.62
283.976	5868.62
284.207	8439.62
284.439	7569.62
284.67	4547.62
284.901	3724.62
285.132	3781.62
285.364	3636.62
285.595	2709.62
285.826	2436.62
286.057	2843.62
286.288	4016.62
286.52	5440.62
286.751	5043.62
286.982	3014.62
287.213	2238.62
287.444	1986.62
287.675	1831.62
287.906	1792.62
288.138	1694.62
288.369	1643.62
288.6	1672.62
288.831	1657.62
289.062	1630.62
289.293	1654.62
289.524	1628.62
289.755	1659.62
289.986	1678.62
290.217	1645.62
290.448	1688.62
290.679	1724.62
290.91	1734.62
291.141	1850.62
291.371	1944.62
291.602	2093.62
291.833	1888.62
292.064	1759.62
292.295	1626.62
292.526	1615.62
292.757	1611.62
292.987	1594.62
293.218	1571.62
293.449	1584.62
293.68	1586.62
293.91	1534.62
294.141	1548.62
294.372	1530.62
294.603	1536.62
294.833	1563.62
295.064	1538.62
295.295	1539.62
295.525	1512.62
295.756	1504.62
295.987	1545.62
296.217	1551.62
296.448	1528.62
296.679	1544.62
296.909	1551.62
297.14	1535.62
297.37	1586.62
297.601	1605.62
297.831	1608.62
298.062	1625.62
298.292	1616.62
298.523	1653.62
298.753	1707.62
298.984	1651.62
299.214	1666.62
299.445	1712.62
299.675	1777.62
299.905	1832.62
300.136	1893.62
300.366	2132.62
300.597	2758.62
300.827	3905.62
301.057	5345.62
301.288	5293.62
301.518	3390.62
301.748	2560.62
301.979	2323.62
302.209	2233.62
302.439	2287.62
302.669	2435.62
302.9	2962.62
303.13	4233.62
303.36	6344.62
303.59	8634.62
303.82	7285.62
304.051	4246.62
304.281	3050.62
304.511	2524.62
304.741	2352.62
304.971	2112.62
305.201	2077.62
305.431	1993.62
305.661	1922.62
305.891	1870.62
306.121	1835.62
306.352	1856.62
306.582	1788.62
306.812	1829.62
307.042	1822.62
307.272	1776.62
307.502	1771.62
307.731	1746.62
307.961	1779.62
308.191	1757.62
308.421	1787.62
308.651	1743.62
308.881	1781.62
309.111	1770.62
309.341	1802.62
309.571	1782.62
309.8	1797.62
310.03	1789.62
310.26	1830.62
310.49	1801.62
310.72	1809.62
310.949	1824.62
311.179	1866.62
311.409	1840.62
311.639	1873.62
311.868	1930.62
312.098	1904.62
312.328	1930.62
312.557	1997.62
312.787	1928.62
313.017	1944.62
313.246	2008.62
313.476	1962.62
313.706	2066.62
313.935	2121.62
314.165	2278.62
314.394	2432.62
314.624	2320.62
314.853	2137.62
315.083	2144.62
315.312	2155.62
315.542	2143.62
315.771	2196.62
316.001	2165.62
316.23	2265.62
316.46	2393.62
316.689	2621.62
316.919	3192.62
317.148	4686.62
317.377	7394.62
317.607	10835.62
317.836	11304.62
318.065	6651.62
318.295	4226.62
318.524	3360.62
318.753	2894.62
318.983	2678.62
319.212	2519.62
319.441	2460.62
319.67	2391.62
319.9	2366.62
320.129	2323.62
320.358	2314.62
320.587	2288.62
320.816	2314.62
321.046	2279.62
321.275	2294.62
321.504	2354.62
321.733	2402.62
321.962	2447.62
322.191	2474.62
322.42	2453.62
322.649	2399.62
322.878	2416.62
323.108	2414.62
323.337	2474.62
323.566	2514.62
323.795	2533.62
324.024	2596.62
324.253	2646.62
324.482	2786.62
324.71	2936.62
324.939	3196.62
325.168	3210.62
325.397	3357.62
325.626	4027.62
325.855	5717.62
326.084	8986.62
326.313	13023.62
326.542	13737.62
326.77	9141.62
326.999	5843.62
327.228	4896.62
327.457	4642.62
327.686	4773.62
327.914	5111.62
328.143	5988.62
328.372	7228.62
328.6	7815.62
328.829	6962.62
329.058	5700.62
329.287	4994.62
329.515	4562.62
329.744	4185.62
329.972	3954.62
330.201	3788.62
330.43	3722.62
330.658	3543.62
330.887	3520.62
331.115	3476.62
331.344	3419.62
331.572	3391.62
331.801	3421.62
332.03	3428.62
332.258	3524.62
332.486	3679.62
332.715	4270.62
332.943	5237.62
333.172	6659.62
333.4	6602.62
333.629	4969.62
333.857	4412.62
334.085	4480.62
334.314	4630.62
334.542	5055.62
334.771	5999.62
334.999	7498.62
335.227	9495.62
335.455	10544.62
335.684	9369.62
335.912	7663.62
336.14	6411.62
336.369	5611.62
336.597	5200.62
336.825	4720.62
337.053	4408.62
337.281	4214.62
337.51	3970.62
337.738	3825.62
337.966	3614.62
338.194	3497.62
338.422	3403.62
338.65	3292.62
338.878	3232.62
339.106	3142.62
339.334	3139.62
339.562	3081.62
339.79	3006.62
340.018	3008.62
340.246	3003.62
340.474	2960.62
340.702	2958.62
340.93	2997.62
341.158	2946.62
341.386	2958.62
341.614	2913.62
341.842	2877.62
342.07	2759.62
342.298	2773.62
342.526	2680.62
342.754	2675.62
342.981	2645.62
343.209	2722.62
343.437	2681.62
343.665	2705.62
343.893	2748.62
344.12	2771.62
344.348	2747.62
344.576	2708.62
344.804	2636.62
345.031	2567.62
345.259	2575.62
345.487	2551.62
345.714	2520.62
345.942	2458.62
346.17	2462.62
346.397	2473.62
346.625	2450.62
346.853	2473.62
347.08	2459.62
347.308	2489.62
347.535	2455.62
347.763	2480.62
347.99	2456.62
348.218	2383.62
348.445	2426.62
348.673	2422.62
348.9	2371.62
349.128	2419.62
349.355	2343.62
349.583	2414.62
349.81	2382.62
350.037	2361.62
350.265	2388.62
350.492	2372.62
350.72	2347.62
350.947	2336.62
351.174	2382.62
351.402	2339.62
351.629	2337.62
351.856	2352.62
352.083	2373.62
352.311	2316.62
352.538	2339.62
352.765	2364.62
352.992	2307.62
353.22	2346.62
353.447	2293.62
353.674	2332.62
353.901	2387.62
354.128	2347.62
354.355	2344.62
354.583	2361.62
354.81	2349.62
355.037	2390.62
355.264	2359.62
355.491	2354.62
355.718	2433.62
355.945	2388.62
356.172	2434.62
356.399	2457.62
356.626	2443.62
356.853	2445.62
357.08	2462.62
357.307	2489.62
357.534	2568.62
357.761	2536.62
357.988	2564.62
358.215	2551.62
358.441	2528.62
358.668	2477.62
358.895	2475.62
359.122	2443.62
359.349	2497.62
359.576	2457.62
359.802	2453.62
360.029	2473.62
360.256	2507.62
360.483	2495.62
360.709	2514.62
360.936	2496.62
361.163	2464.62
361.39	2492.62
361.616	2504.62
361.843	2478.62
362.07	2504.62
362.296	2523.62
362.523	2481.62
362.749	2501.62
362.976	2491.62
363.203	2497.62
363.429	2468.62
363.656	2548.62
363.882	2459.62
364.109	2490.62
364.335	2511.62
364.562	2477.62
364.788	2514.62
365.015	2532.62
365.241	2581.62
365.468	2720.62
365.694	2882.62
365.92	2754.62
366.147	2552.62
366.373	2509.62
366.599	2572.62
366.826	2518.62
367.052	2528.62
367.278	2537.62
367.505	2568.62
367.731	2562.62
367.957	2541.62
368.184	2578.62
368.41	2590.62
368.636	2624.62
368.862	2638.62
369.089	2574.62
369.315	2580.62
369.541	2545.62
369.767	2578.62
369.993	2540.62
370.219	2562.62
370.445	2606.62
370.672	2658.62
370.898	2566.62
371.124	2640.62
371.35	2646.62
371.576	2672.62
371.802	2711.62
372.028	2720.62
372.254	2691.62
372.48	2687.62
372.706	2786.62
372.932	2782.62
373.158	2722.62
373.384	2744.62
373.61	2740.62
373.835	2728.62
374.061	2764.62
374.287	2759.62
374.513	2788.62
374.739	2841.62
374.965	2823.62
375.191	2824.62
375.416	2832.62
375.642	2784.62
375.868	2706.62
376.094	2750.62
376.319	2785.62
376.545	2726.62
376.771	2716.62
376.997	2663.62
377.222	2673.62
377.448	2611.62
377.674	2736.62
377.899	2665.62
378.125	2666.62
378.35	2700.62
378.576	2696.62
378.802	2747.62
379.027	2726.62
379.253	2864.62
379.478	3044.62
379.704	3548.62
379.929	5122.62
380.155	7928.62
380.38	8672.62
380.606	5172.62
380.831	3598.62
381.057	3122.62
381.282	2901.62
381.507	2828.62
381.733	2738.62
381.958	2732.62
382.184	2598.62
382.409	2620.62
382.634	2610.62
382.86	2651.62
383.085	2644.62
383.31	2620.62
383.535	2627.62
383.761	2638.62
383.986	2650.62
384.211	2712.62
384.436	2706.62
384.662	2743.62
384.887	2754.62
385.112	2706.62
385.337	2739.62
385.562	2668.62
385.787	2740.62
386.013	2711.62
386.238	2709.62
386.463	2717.62
386.688	2730.62
386.913	2705.62
387.138	2722.62
387.363	2718.62
387.588	2701.62
387.813	2697.62
388.038	2688.62
388.263	2686.62
388.488	2736.62
388.713	2717.62
388.938	2726.62
389.163	2651.62
389.387	2696.62
389.612	2686.62
389.837	2711.62
390.062	2721.62
390.287	2715.62
390.512	2720.62
390.736	2801.62
390.961	2808.62
391.186	2828.62
391.411	2863.62
391.636	2836.62
391.86	2921.62
392.085	2892.62
392.31	2855.62
392.534	2826.62
392.759	2779.62
392.984	2743.62
393.208	2770.62
393.433	2749.62
393.658	2716.62
393.882	2751.62
394.107	2747.62
394.331	2821.62
394.556	2715.62
394.78	2780.62
395.005	2784.62
395.229	2727.62
395.454	2798.62
395.678	2825.62
395.903	2836.62
396.127	2859.62
396.352	2749.62
396.576	2787.62
396.801	2797.62
397.025	2883.62
397.249	2854.62
397.474	2846.62
397.698	2845.62
397.922	2849.62
398.147	2878.62
398.371	2938.62
398.595	2933.62
398.82	3035.62
399.044	3154.62
399.268	3283.62
399.492	3413.62
399.717	3588.62
399.941	3585.62
400.165	3368.62
400.389	3242.62
400.613	3169.62
400.837	3067.62
401.062	3035.62
401.286	3050.62
401.51	3048.62
401.734	2934.62
401.958	2989.62
402.182	2997.62
402.406	2991.62
402.63	3054.62
402.854	3016.62
403.078	3028.62
403.302	3043.62
403.526	3104.62
403.75	3115.62
403.974	3140.62
404.198	3083.62
404.422	3123.62
404.645	3106.62
404.869	3100.62
405.093	3131.62
405.317	3086.62
405.541	3133.62
405.765	3143.62
405.988	3209.62
406.212	3200.62
406.436	3144.62
406.66	3226.62
406.883	3222.62
407.107	3323.62
407.331	3336.62
407.555	3396.62
407.778	3384.62
408.002	3318.62
408.226	3333.62
408.449	3355.62
408.673	3225.62
408.896	3237.62
409.12	3150.62
409.344	3155.62
409.567	3108.62
409.791	3107.62
410.014	3101.62
410.238	3103.62
410.461	3098.62
410.685	3109.62
410.908	3065.62
411.132	3036.62
411.355	3017.62
411.578	2990.62
411.802	3004.62
412.025	2945.62
412.249	2967.62
412.472	3040.62
412.695	2945.62
412.919	2925.62
413.142	2924.62
413.365	2976.62
413.589	2954.62
413.812	2891.62
414.035	2942.62
414.258	2981.62
414.482	2924.62
414.705	2939.62
414.928	2906.62
415.151	2928.62
415.374	2894.62
415.597	2898.62
415.821	2842.62
416.044	2870.62
416.267	2860.62
416.49	2802.62
416.713	2824.62
416.936	2810.62
417.159	2791.62
417.382	2812.62
417.605	2783.62
417.828	2800.62
418.051	2806.62
418.274	2877.62
418.497	2832.62
418.72	2936.62
418.943	2849.62
419.166	3026.62
419.389	3101.62
419.611	3116.62
419.834	3045.62
420.057	2923.62
420.28	2889.62
420.503	2820.62
420.726	2770.62
420.948	2770.62
421.171	2798.62
421.394	2885.62
421.617	2793.62
421.839	2867.62
422.062	2840.62
422.285	2787.62
422.507	2901.62
422.73	2853.62
422.953	2950.62
423.175	2921.62
423.398	2880.62
423.621	2799.62
423.843	2845.62
424.066	2832.62
424.288	2802.62
424.511	2826.62
424.733	2807.62
424.956	2761.62
425.178	2766.62
425.401	2765.62
425.623	2804.62
425.846	2716.62
426.068	2784.62
426.291	2680.62
426.513	2678.62
426.735	2717.62
426.958	2696.62
427.18	2635.62
427.402	2648.62
427.625	2644.62
427.847	2618.62
428.069	2625.62
428.292	2704.62
428.514	2596.62
428.736	2616.62
428.958	2679.62
429.181	2560.62
429.403	2573.62
429.625	2620.62
429.847	2577.62
430.069	2626.62
430.292	2728.62
430.514	2829.62
430.736	2784.62
430.958	2672.62
431.18	2612.62
431.402	2643.62
431.624	2573.62
431.846	2625.62
432.068	2557.62
432.29	2558.62
432.512	2582.62
432.734	2570.62
432.956	2526.62
433.178	2610.62
433.4	2572.62
433.622	2573.62
433.844	2616.62
434.066	2580.62
434.287	2636.62
434.509	2645.62
434.731	2674.62
434.953	2672.62
435.175	2649.62
435.397	2712.62
435.618	2642.62
435.84	2620.62
436.062	2600.62
436.284	2572.62
436.505	2564.62
436.727	2602.62
436.949	2569.62
437.17	2556.62
437.392	2477.62
437.614	2528.62
437.835	2466.62
438.057	2428.62
438.278	2457.62
438.5	2518.62
438.721	2530.62
438.943	2668.62
439.165	2731.62
439.386	2691.62
439.608	2644.62
439.829	2687.62
440.05	2777.62
440.272	2849.62
440.493	2692.62
440.715	2584.62
440.936	2691.62
441.158	2681.62
441.379	2698.62
441.6	2774.62
441.822	2869.62
442.043	3026.62
442.264	3177.62
442.486	2903.62
442.707	2791.62
442.928	2753.62
443.149	2743.62
443.371	2729.62
443.592	2747.62
443.813	2822.62
444.034	2804.62
444.255	2821.62
444.476	2935.62
444.698	2911.62
444.919	2946.62
445.14	3041.62
445.361	2885.62
445.582	2864.62
445.803	2795.62
446.024	2740.62
446.245	2804.62
446.466	2717.62
446.687	2731.62
446.908	2678.62
447.129	2621.62
447.35	2621.62
447.571	2602.62
447.792	2542.62
448.013	2565.62
448.234	2490.62
448.455	2580.62
448.675	2564.62
448.896	2635.62
449.117	2721.62
449.338	2951.62
449.559	3149.62
449.779	2758.62
450	2626.62
450.221	2509.62
450.442	2475.62
450.662	2492.62
450.883	2474.62
451.104	2464.62
451.324	2442.62
451.545	2503.62
451.766	2526.62
451.986	2488.62
452.207	2760.62
452.428	3579.62
452.648	5423.62
452.869	4471.62
453.089	3100.62
453.31	2907.62
453.53	2914.62
453.751	2985.62
453.971	3181.62
454.192	3118.62
454.412	2651.62
454.633	2483.62
454.853	2464.62
455.073	2380.62
455.294	2403.62
455.514	2364.62
455.734	2386.62
455.955	2346.62
456.175	2386.62
456.395	2365.62
456.616	2416.62
456.836	2423.62
457.056	2393.62
457.276	2443.62
457.497	2577.62
457.717	2650.62
457.937	2515.62
458.157	2501.62
458.377	2527.62
458.598	2530.62
458.818	2539.62
459.038	2582.62
459.258	2583.62
459.478	2640.62
459.698	2621.62
459.918	2634.62
460.138	2676.62
460.358	2753.62
460.578	2738.62
460.798	2870.62
461.018	2821.62
461.238	2822.62
461.458	2836.62
461.678	2847.62
461.898	2978.62
462.118	2949.62
462.338	2969.62
462.558	3033.62
462.777	3045.62
462.997	3213.62
463.217	3349.62
463.437	3463.62
463.657	3588.62
463.876	3578.62
464.096	3270.62
464.316	3130.62
464.536	3104.62
464.755	3021.62
464.975	2970.62
465.195	2866.62
465.414	2807.62
465.634	2706.62
465.854	2694.62
466.073	2663.62
466.293	2609.62
466.512	2608.62
466.732	2652.62
466.951	2768.62
467.171	2978.62
467.391	2935.62
467.61	2688.62
467.829	2551.62
468.049	2559.62
468.268	2552.62
468.488	2543.62
468.707	2515.62
468.927	2563.62
469.146	2522.62
469.365	2601.62
469.585	2558.62
469.804	2624.62
470.023	2751.62
470.243	2743.62
470.462	2830.62
470.681	2986.62
470.901	3290.62
471.12	3814.62
471.339	3898.62
471.558	3160.62
471.777	2836.62
471.997	2666.62
472.216	2672.62
472.435	2580.62
472.654	2557.62
472.873	2549.62
473.092	2521.62
473.311	2573.62
473.53	2605.62
473.749	2656.62
473.968	2750.62
474.187	2599.62
474.406	2534.62
474.625	2558.62
474.844	2572.62
475.063	2595.62
475.282	2550.62
475.501	2594.62
475.72	2580.62
475.939	2619.62
476.158	2660.62
476.377	2703.62
476.596	2678.62
476.814	2688.62
477.033	2721.62
477.252	2733.62
477.471	2722.62
477.69	2828.62
477.908	2850.62
478.127	2900.62
478.346	2920.62
478.564	2970.62
478.783	2968.62
479.002	3033.62
479.22	3004.62
479.439	3046.62
479.658	2977.62
479.876	3067.62
480.095	3096.62
480.313	3133.62
480.532	3139.62
480.751	3194.62
480.969	3134.62
481.188	3091.62
481.406	3113.62
481.624	3093.62
481.843	3085.62
482.061	3122.62
482.28	3100.62
482.498	3052.62
482.717	3099.62
482.935	3164.62
483.153	3180.62
483.372	3176.62
483.59	3266.62
483.808	3323.62
484.027	3388.62
484.245	3584.62
484.463	4094.62
484.681	4586.62
484.9	4146.62
485.118	3710.62
485.336	3702.62
485.554	3750.62
485.772	4032.62
485.99	4658.62
486.209	4903.62
486.427	4154.62
486.645	3679.62
486.863	3488.62
487.081	3339.62
487.299	3198.62
487.517	3276.62
487.735	3315.62
