Data from SnStandardFlinnAPT0064_LampEnergy5.5_LIBS07252019.E.O._I.C._HRD10591_15-15-27-491.txt Node
Date: Thu Jul 25 15:15:27 EDT 2019
User: cochatt
Spectrometer: HR+D1059
Trigger mode: 1
Integration Time (sec): 1.000000E-1
Scans to average: 1
Electric dark correction enabled: true
Nonlinearity correction enabled: false
Boxcar width: 0
XAxis mode: Wavelengths
Number of Pixels in Spectrum: 2048
>>>>>Begin Spectral Data<<<<<
223.165	-25.75
223.4	-25.75
223.635	-25.75
223.869	-17.75
224.104	-16.75
224.338	-25.75
224.573	-8.75
224.808	-25.75
225.042	-14.75
225.277	-12.75
225.511	3.25
225.746	3.25
225.98	10.25
226.215	27.25
226.449	19.25
226.683	21.25
226.918	28.25
227.152	35.25
227.387	28.25
227.621	41.25
227.856	51.25
228.09	53.25
228.324	47.25
228.559	48.25
228.793	90.25
229.027	153.25
229.262	182.25
229.496	145.25
229.73	151.25
229.964	159.25
230.199	185.25
230.433	165.25
230.667	183.25
230.901	174.25
231.136	161.25
231.37	177.25
231.604	184.25
231.838	198.25
232.072	241.25
232.306	228.25
232.541	221.25
232.775	213.25
233.009	208.25
233.243	214.25
233.477	199.25
233.711	212.25
233.945	255.25
234.179	232.25
234.413	220.25
234.647	226.25
234.881	219.25
235.115	248.25
235.349	259.25
235.583	316.25
235.817	381.25
236.051	373.25
236.285	273.25
236.519	246.25
236.753	233.25
236.987	232.25
237.221	261.25
237.455	232.25
237.689	203.25
237.922	216.25
238.156	223.25
238.39	232.25
238.624	206.25
238.858	222.25
239.091	239.25
239.325	231.25
239.559	244.25
239.793	242.25
240.027	227.25
240.26	248.25
240.494	258.25
240.728	270.25
240.961	268.25
241.195	294.25
241.429	288.25
241.662	305.25
241.896	349.25
242.13	352.25
242.363	456.25
242.597	555.25
242.83	554.25
243.064	535.25
243.298	649.25
243.531	551.25
243.765	384.25
243.998	341.25
244.232	291.25
244.465	292.25
244.699	305.25
244.932	287.25
245.166	294.25
245.399	303.25
245.633	299.25
245.866	305.25
246.099	292.25
246.333	297.25
246.566	286.25
246.8	275.25
247.033	297.25
247.266	287.25
247.5	301.25
247.733	314.25
247.966	304.25
248.2	312.25
248.433	345.25
248.666	385.25
248.899	387.25
249.133	352.25
249.366	363.25
249.599	385.25
249.832	412.25
250.066	398.25
250.299	356.25
250.532	327.25
250.765	333.25
250.998	333.25
251.231	330.25
251.465	321.25
251.698	335.25
251.931	296.25
252.164	329.25
252.397	337.25
252.63	332.25
252.863	333.25
253.096	348.25
253.329	357.25
253.562	355.25
253.795	353.25
254.028	363.25
254.261	351.25
254.494	397.25
254.727	410.25
254.96	465.25
255.193	473.25
255.426	417.25
255.659	402.25
255.892	377.25
256.124	379.25
256.357	367.25
256.59	385.25
256.823	395.25
257.056	455.25
257.289	493.25
257.521	537.25
257.754	469.25
257.987	399.25
258.22	404.25
258.452	382.25
258.685	404.25
258.918	416.25
259.151	431.25
259.383	441.25
259.616	481.25
259.849	505.25
260.081	439.25
260.314	407.25
260.547	387.25
260.779	399.25
261.012	414.25
261.244	431.25
261.477	454.25
261.71	444.25
261.942	459.25
262.175	450.25
262.407	460.25
262.64	470.25
262.872	479.25
263.105	500.25
263.337	521.25
263.57	541.25
263.802	564.25
264.035	556.25
264.267	592.25
264.499	593.25
264.732	605.25
264.964	639.25
265.197	604.25
265.429	612.25
265.661	619.25
265.894	643.25
266.126	703.25
266.358	744.25
266.591	763.25
266.823	669.25
267.055	611.25
267.287	620.25
267.52	575.25
267.752	566.25
267.984	585.25
268.216	547.25
268.448	537.25
268.681	553.25
268.913	527.25
269.145	552.25
269.377	544.25
269.609	517.25
269.841	534.25
270.073	573.25
270.306	652.25
270.538	823.25
270.77	1139.25
271.002	1326.25
271.234	996.25
271.466	703.25
271.698	603.25
271.93	592.25
272.162	555.25
272.394	542.25
272.626	538.25
272.858	529.25
273.09	509.25
273.322	528.25
273.553	534.25
273.785	541.25
274.017	523.25
274.249	527.25
274.481	537.25
274.713	507.25
274.945	542.25
275.176	540.25
275.408	548.25
275.64	540.25
275.872	526.25
276.104	527.25
276.335	576.25
276.567	551.25
276.799	524.25
277.031	551.25
277.262	545.25
277.494	588.25
277.726	604.25
277.957	692.25
278.189	747.25
278.421	709.25
278.652	670.25
278.884	639.25
279.115	588.25
279.347	581.25
279.579	583.25
279.81	584.25
280.042	571.25
280.273	600.25
280.505	582.25
280.736	598.25
280.968	631.25
281.199	686.25
281.431	734.25
281.662	742.25
281.894	696.25
282.125	668.25
282.356	669.25
282.588	666.25
282.819	688.25
283.051	710.25
283.282	773.25
283.513	936.25
283.745	1267.25
283.976	1927.25
284.207	2647.25
284.439	2458.25
284.67	1567.25
284.901	1269.25
285.132	1196.25
285.364	1128.25
285.595	968.25
285.826	902.25
286.057	1019.25
286.288	1338.25
286.52	1701.25
286.751	1616.25
286.982	1072.25
287.213	862.25
287.444	803.25
287.675	751.25
287.906	727.25
288.138	699.25
288.369	692.25
288.6	725.25
288.831	699.25
289.062	684.25
289.293	693.25
289.524	709.25
289.755	689.25
289.986	718.25
290.217	695.25
290.448	713.25
290.679	711.25
290.91	724.25
291.141	733.25
291.371	760.25
291.602	775.25
291.833	729.25
292.064	700.25
292.295	691.25
292.526	685.25
292.757	691.25
292.987	664.25
293.218	665.25
293.449	668.25
293.68	669.25
293.91	658.25
294.141	655.25
294.372	665.25
294.603	665.25
294.833	679.25
295.064	667.25
295.295	658.25
295.525	679.25
295.756	633.25
295.987	667.25
296.217	653.25
296.448	653.25
296.679	652.25
296.909	656.25
297.14	650.25
297.37	683.25
297.601	666.25
297.831	656.25
298.062	676.25
298.292	666.25
298.523	701.25
298.753	706.25
298.984	687.25
299.214	715.25
299.445	720.25
299.675	725.25
299.905	724.25
300.136	763.25
300.366	820.25
300.597	1012.25
300.827	1316.25
301.057	1729.25
301.288	1755.25
301.518	1168.25
301.748	969.25
301.979	903.25
302.209	894.25
302.439	896.25
302.669	923.25
302.9	1059.25
303.13	1419.25
303.36	1971.25
303.59	2588.25
303.82	2266.25
304.051	1483.25
304.281	1086.25
304.511	942.25
304.741	887.25
304.971	835.25
305.201	824.25
305.431	799.25
305.661	789.25
305.891	797.25
306.121	792.25
306.352	792.25
306.582	774.25
306.812	781.25
307.042	749.25
307.272	761.25
307.502	787.25
307.731	767.25
307.961	748.25
308.191	747.25
308.421	742.25
308.651	736.25
308.881	725.25
309.111	780.25
309.341	766.25
309.571	771.25
309.8	777.25
310.03	781.25
310.26	795.25
310.49	789.25
310.72	792.25
310.949	807.25
311.179	779.25
311.409	794.25
311.639	797.25
311.868	810.25
312.098	803.25
312.328	829.25
312.557	792.25
312.787	849.25
313.017	814.25
313.246	829.25
313.476	842.25
313.706	840.25
313.935	878.25
314.165	897.25
314.394	952.25
314.624	925.25
314.853	857.25
315.083	893.25
315.312	879.25
315.542	897.25
315.771	927.25
316.001	895.25
316.23	915.25
316.46	945.25
316.689	1007.25
316.919	1173.25
317.148	1626.25
317.377	2414.25
317.607	3431.25
317.836	3524.25
318.065	2183.25
318.295	1485.25
318.524	1219.25
318.753	1120.25
318.983	1079.25
319.212	1045.25
319.441	998.25
319.67	967.25
319.9	963.25
320.129	957.25
320.358	955.25
320.587	968.25
320.816	958.25
321.046	964.25
321.275	957.25
321.504	990.25
321.733	975.25
321.962	996.25
322.191	988.25
322.42	1011.25
322.649	981.25
322.878	1011.25
323.108	1000.25
323.337	1007.25
323.566	1021.25
323.795	1069.25
324.024	1080.25
324.253	1098.25
324.482	1131.25
324.71	1193.25
324.939	1202.25
325.168	1243.25
325.397	1301.25
325.626	1462.25
325.855	1943.25
326.084	2897.25
326.313	4250.25
326.542	4439.25
326.77	2985.25
326.999	2074.25
327.228	1791.25
327.457	1686.25
327.686	1723.25
327.914	1831.25
328.143	2069.25
328.372	2315.25
328.6	2528.25
328.829	2327.25
329.058	2141.25
329.287	1947.25
329.515	1779.25
329.744	1656.25
329.972	1579.25
330.201	1479.25
330.43	1429.25
330.658	1428.25
330.887	1402.25
331.115	1381.25
331.344	1381.25
331.572	1361.25
331.801	1398.25
332.03	1403.25
332.258	1409.25
332.486	1466.25
332.715	1637.25
332.943	1880.25
333.172	2229.25
333.4	2227.25
333.629	1807.25
333.857	1699.25
334.085	1726.25
334.314	1783.25
334.542	1897.25
334.771	2126.25
334.999	2561.25
335.227	2974.25
335.455	3342.25
335.684	3137.25
335.912	2825.25
336.14	2447.25
336.369	2176.25
336.597	2022.25
336.825	1877.25
337.053	1793.25
337.281	1668.25
337.51	1595.25
337.738	1525.25
337.966	1465.25
338.194	1455.25
338.422	1373.25
338.65	1378.25
338.878	1319.25
339.106	1284.25
339.334	1298.25
339.562	1283.25
339.79	1246.25
340.018	1215.25
340.246	1272.25
340.474	1255.25
340.702	1242.25
340.93	1237.25
341.158	1257.25
341.386	1219.25
341.614	1206.25
341.842	1200.25
342.07	1198.25
342.298	1143.25
342.526	1134.25
342.754	1161.25
342.981	1112.25
343.209	1111.25
343.437	1141.25
343.665	1140.25
343.893	1152.25
344.12	1185.25
344.348	1159.25
344.576	1147.25
344.804	1122.25
345.031	1079.25
345.259	1072.25
345.487	1070.25
345.714	1073.25
345.942	1068.25
346.17	1035.25
346.397	1036.25
346.625	1032.25
346.853	1041.25
347.08	1035.25
347.308	1022.25
347.535	1032.25
347.763	1038.25
347.99	1037.25
348.218	1028.25
348.445	1020.25
348.673	1006.25
348.9	1027.25
349.128	1027.25
349.355	1060.25
349.583	1002.25
349.81	996.25
350.037	1002.25
350.265	1012.25
350.492	1011.25
350.72	1009.25
350.947	993.25
351.174	1003.25
351.402	993.25
351.629	992.25
351.856	1001.25
352.083	983.25
352.311	999.25
352.538	993.25
352.765	999.25
352.992	988.25
353.22	995.25
353.447	1007.25
353.674	1025.25
353.901	1006.25
354.128	1011.25
354.355	983.25
354.583	998.25
354.81	1027.25
355.037	1019.25
355.264	1038.25
355.491	999.25
355.718	1011.25
355.945	1000.25
356.172	1041.25
356.399	999.25
356.626	1053.25
356.853	1032.25
357.08	1029.25
357.307	1064.25
357.534	1039.25
357.761	1073.25
357.988	1060.25
358.215	1058.25
358.441	1076.25
358.668	1043.25
358.895	1029.25
359.122	1006.25
359.349	1031.25
359.576	1062.25
359.802	1048.25
360.029	1076.25
360.256	1054.25
360.483	1080.25
360.709	1040.25
360.936	1063.25
361.163	1071.25
361.39	1077.25
361.616	1057.25
361.843	1050.25
362.07	1086.25
362.296	1051.25
362.523	1058.25
362.749	1074.25
362.976	1043.25
363.203	1095.25
363.429	1061.25
363.656	1073.25
363.882	1072.25
364.109	1076.25
364.335	1045.25
364.562	1072.25
364.788	1036.25
365.015	1065.25
365.241	1088.25
365.468	1108.25
365.694	1157.25
365.92	1145.25
366.147	1116.25
366.373	1074.25
366.599	1102.25
366.826	1115.25
367.052	1057.25
367.278	1096.25
367.505	1087.25
367.731	1100.25
367.957	1078.25
368.184	1075.25
368.41	1132.25
368.636	1108.25
368.862	1105.25
369.089	1102.25
369.315	1097.25
369.541	1110.25
369.767	1113.25
369.993	1090.25
370.219	1127.25
370.445	1111.25
370.672	1103.25
370.898	1115.25
371.124	1119.25
371.35	1129.25
371.576	1127.25
371.802	1134.25
372.028	1117.25
372.254	1138.25
372.48	1149.25
372.706	1171.25
372.932	1188.25
373.158	1166.25
373.384	1167.25
373.61	1175.25
373.835	1166.25
374.061	1151.25
374.287	1173.25
374.513	1175.25
374.739	1198.25
374.965	1207.25
375.191	1209.25
375.416	1223.25
375.642	1196.25
375.868	1175.25
376.094	1160.25
376.319	1205.25
376.545	1134.25
376.771	1140.25
376.997	1153.25
377.222	1149.25
377.448	1170.25
377.674	1149.25
377.899	1107.25
378.125	1141.25
378.35	1120.25
378.576	1153.25
378.802	1148.25
379.027	1163.25
379.253	1181.25
379.478	1213.25
379.704	1369.25
379.929	1831.25
380.155	2581.25
380.38	2715.25
380.606	1819.25
380.831	1418.25
381.057	1288.25
381.282	1177.25
381.507	1178.25
381.733	1180.25
381.958	1149.25
382.184	1136.25
382.409	1156.25
382.634	1139.25
382.86	1120.25
383.085	1141.25
383.31	1152.25
383.535	1109.25
383.761	1139.25
383.986	1152.25
384.211	1144.25
384.436	1165.25
384.662	1173.25
384.887	1184.25
385.112	1141.25
385.337	1174.25
385.562	1179.25
385.787	1183.25
386.013	1204.25
386.238	1177.25
386.463	1186.25
386.688	1175.25
386.913	1161.25
387.138	1194.25
387.363	1174.25
387.588	1162.25
387.813	1147.25
388.038	1127.25
388.263	1165.25
388.488	1187.25
388.713	1183.25
388.938	1185.25
389.163	1179.25
389.387	1165.25
389.612	1157.25
389.837	1155.25
390.062	1162.25
390.287	1189.25
390.512	1211.25
390.736	1208.25
390.961	1223.25
391.186	1245.25
391.411	1232.25
391.636	1257.25
391.86	1254.25
392.085	1253.25
392.31	1229.25
392.534	1220.25
392.759	1207.25
392.984	1198.25
393.208	1185.25
393.433	1199.25
393.658	1201.25
393.882	1191.25
394.107	1209.25
394.331	1199.25
394.556	1186.25
394.78	1212.25
395.005	1219.25
395.229	1222.25
395.454	1231.25
395.678	1241.25
395.903	1210.25
396.127	1241.25
396.352	1233.25
396.576	1200.25
396.801	1229.25
397.025	1244.25
397.249	1198.25
397.474	1235.25
397.698	1265.25
397.922	1264.25
398.147	1245.25
398.371	1284.25
398.595	1291.25
398.82	1333.25
399.044	1354.25
399.268	1453.25
399.492	1539.25
399.717	1576.25
399.941	1562.25
400.165	1511.25
400.389	1461.25
400.613	1428.25
400.837	1383.25
401.062	1321.25
401.286	1291.25
401.51	1320.25
401.734	1296.25
401.958	1344.25
402.182	1311.25
402.406	1331.25
402.63	1357.25
402.854	1342.25
403.078	1385.25
403.302	1320.25
403.526	1340.25
403.75	1355.25
403.974	1364.25
404.198	1373.25
404.422	1382.25
404.645	1374.25
404.869	1339.25
405.093	1390.25
405.317	1385.25
405.541	1407.25
405.765	1373.25
405.988	1374.25
406.212	1369.25
406.436	1386.25
406.66	1415.25
406.883	1383.25
407.107	1452.25
407.331	1437.25
407.555	1480.25
407.778	1448.25
408.002	1447.25
408.226	1439.25
408.449	1425.25
408.673	1411.25
408.896	1398.25
409.12	1346.25
409.344	1365.25
409.567	1357.25
409.791	1367.25
410.014	1369.25
410.238	1324.25
410.461	1355.25
410.685	1324.25
410.908	1349.25
411.132	1321.25
411.355	1315.25
411.578	1293.25
411.802	1307.25
412.025	1323.25
412.249	1338.25
412.472	1292.25
412.695	1281.25
412.919	1303.25
413.142	1273.25
413.365	1285.25
413.589	1294.25
413.812	1278.25
414.035	1247.25
414.258	1322.25
414.482	1306.25
414.705	1273.25
414.928	1255.25
415.151	1285.25
415.374	1277.25
415.597	1252.25
415.821	1252.25
416.044	1232.25
416.267	1228.25
416.49	1241.25
416.713	1183.25
416.936	1234.25
417.159	1223.25
417.382	1206.25
417.605	1240.25
417.828	1235.25
418.051	1269.25
418.274	1263.25
418.497	1253.25
418.72	1275.25
418.943	1258.25
419.166	1299.25
419.389	1374.25
419.611	1366.25
419.834	1321.25
420.057	1297.25
420.28	1254.25
420.503	1232.25
420.726	1225.25
420.948	1224.25
421.171	1232.25
421.394	1245.25
421.617	1211.25
421.839	1269.25
422.062	1259.25
422.285	1217.25
422.507	1273.25
422.73	1270.25
422.953	1277.25
423.175	1289.25
423.398	1269.25
423.621	1227.25
423.843	1267.25
424.066	1285.25
424.288	1244.25
424.511	1228.25
424.733	1240.25
424.956	1251.25
425.178	1241.25
425.401	1229.25
425.623	1232.25
425.846	1211.25
426.068	1196.25
426.291	1205.25
426.513	1195.25
426.735	1195.25
426.958	1206.25
427.18	1165.25
427.402	1186.25
427.625	1178.25
427.847	1134.25
428.069	1146.25
428.292	1175.25
428.514	1176.25
428.736	1169.25
428.958	1184.25
429.181	1155.25
429.403	1123.25
429.625	1121.25
429.847	1125.25
430.069	1177.25
430.292	1195.25
430.514	1222.25
430.736	1230.25
430.958	1165.25
431.18	1141.25
431.402	1148.25
431.624	1134.25
431.846	1145.25
432.068	1121.25
432.29	1152.25
432.512	1126.25
432.734	1123.25
432.956	1119.25
433.178	1173.25
433.4	1153.25
433.622	1176.25
433.844	1156.25
434.066	1135.25
434.287	1109.25
434.509	1173.25
434.731	1171.25
434.953	1193.25
435.175	1214.25
435.397	1187.25
435.618	1183.25
435.84	1167.25
436.062	1140.25
436.284	1141.25
436.505	1108.25
436.727	1173.25
436.949	1133.25
437.17	1121.25
437.392	1141.25
437.614	1134.25
437.835	1093.25
438.057	1110.25
438.278	1055.25
438.5	1132.25
438.721	1132.25
438.943	1167.25
439.165	1187.25
439.386	1151.25
439.608	1179.25
439.829	1186.25
440.05	1206.25
440.272	1202.25
440.493	1182.25
440.715	1179.25
440.936	1187.25
441.158	1224.25
441.379	1211.25
441.6	1210.25
441.822	1291.25
442.043	1292.25
442.264	1336.25
442.486	1264.25
442.707	1238.25
442.928	1233.25
443.149	1229.25
443.371	1231.25
443.592	1233.25
443.813	1240.25
444.034	1257.25
444.255	1254.25
444.476	1269.25
444.698	1285.25
444.919	1324.25
445.14	1374.25
445.361	1313.25
445.582	1249.25
445.803	1213.25
446.024	1226.25
446.245	1212.25
446.466	1232.25
446.687	1213.25
446.908	1208.25
447.129	1164.25
447.35	1163.25
447.571	1181.25
447.792	1134.25
448.013	1136.25
448.234	1121.25
448.455	1111.25
448.675	1121.25
448.896	1156.25
449.117	1175.25
449.338	1262.25
449.559	1259.25
449.779	1182.25
450	1102.25
450.221	1108.25
450.442	1079.25
450.662	1099.25
450.883	1121.25
451.104	1089.25
451.324	1116.25
451.545	1085.25
451.766	1090.25
451.986	1099.25
452.207	1151.25
452.428	1319.25
452.648	1758.25
452.869	1512.25
453.089	1211.25
453.31	1175.25
453.53	1178.25
453.751	1221.25
453.971	1240.25
454.192	1204.25
454.412	1142.25
454.633	1039.25
454.853	1054.25
455.073	1051.25
455.294	1062.25
455.514	1054.25
455.734	1039.25
455.955	1024.25
456.175	1021.25
456.395	1059.25
456.616	1036.25
456.836	1052.25
457.056	1036.25
457.276	1059.25
457.497	1077.25
457.717	1087.25
457.937	1095.25
458.157	1089.25
458.377	1091.25
458.598	1113.25
458.818	1121.25
459.038	1104.25
459.258	1091.25
459.478	1116.25
459.698	1143.25
459.918	1158.25
460.138	1183.25
460.358	1205.25
460.578	1220.25
460.798	1241.25
461.018	1264.25
461.238	1231.25
461.458	1255.25
461.678	1249.25
461.898	1274.25
462.118	1247.25
462.338	1313.25
462.558	1342.25
462.777	1331.25
462.997	1389.25
463.217	1454.25
463.437	1493.25
463.657	1465.25
463.876	1452.25
464.096	1403.25
464.316	1349.25
464.536	1345.25
464.755	1327.25
464.975	1296.25
465.195	1245.25
465.414	1217.25
465.634	1193.25
465.854	1168.25
466.073	1160.25
466.293	1156.25
466.512	1183.25
466.732	1157.25
466.951	1191.25
467.171	1261.25
467.391	1202.25
467.61	1164.25
467.829	1133.25
468.049	1124.25
468.268	1104.25
468.488	1111.25
468.707	1109.25
468.927	1131.25
469.146	1127.25
469.365	1144.25
469.585	1120.25
469.804	1155.25
470.023	1163.25
470.243	1190.25
470.462	1210.25
470.681	1271.25
470.901	1307.25
471.12	1468.25
471.339	1483.25
471.558	1251.25
471.777	1212.25
471.997	1189.25
472.216	1169.25
472.435	1132.25
472.654	1126.25
472.873	1111.25
473.092	1100.25
473.311	1149.25
473.53	1146.25
473.749	1165.25
473.968	1153.25
474.187	1146.25
474.406	1131.25
474.625	1155.25
474.844	1130.25
475.063	1145.25
475.282	1138.25
475.501	1155.25
475.72	1117.25
475.939	1135.25
476.158	1140.25
476.377	1191.25
476.596	1175.25
476.814	1186.25
477.033	1159.25
477.252	1203.25
477.471	1215.25
477.69	1214.25
477.908	1265.25
478.127	1285.25
478.346	1293.25
478.564	1281.25
478.783	1309.25
479.002	1334.25
479.22	1351.25
479.439	1341.25
479.658	1326.25
479.876	1360.25
480.095	1352.25
480.313	1385.25
480.532	1402.25
480.751	1386.25
480.969	1327.25
481.188	1309.25
481.406	1322.25
481.624	1310.25
481.843	1391.25
482.061	1319.25
482.28	1322.25
482.498	1343.25
482.717	1314.25
482.935	1374.25
483.153	1331.25
483.372	1404.25
483.59	1437.25
483.808	1430.25
484.027	1425.25
484.245	1494.25
484.463	1605.25
484.681	1705.25
484.9	1607.25
485.118	1548.25
485.336	1523.25
485.554	1537.25
485.772	1608.25
485.99	1767.25
486.209	1910.25
486.427	1653.25
486.645	1499.25
486.863	1473.25
487.081	1465.25
487.299	1447.25
487.517	1433.25
487.735	1440.25
487.953	1461.25
488.171	1427.25
488.389	1437.25
488.607	1395.25
488.825	1424.25
489.043	1368.25
489.261	1400.25
489.479	1383.25
489.696	1369.25
489.914	1433.25
490.132	1395.25
490.35	1400.25
490.568	1440.25
490.786	1448.25
491.003	1440.25
491.221	1480.25
