Data from SnStandardFlinnAPT0064_LampEnergy5.5_LIBS07252019.E.O._I.C._HRD10591_15-15-44-491.txt Node
Date: Thu Jul 25 15:15:44 EDT 2019
User: cochatt
Spectrometer: HR+D1059
Trigger mode: 1
Integration Time (sec): 1.000000E-1
Scans to average: 1
Electric dark correction enabled: true
Nonlinearity correction enabled: false
Boxcar width: 0
XAxis mode: Wavelengths
Number of Pixels in Spectrum: 2048
>>>>>Begin Spectral Data<<<<<
223.165	-32
223.4	-32
223.635	-32
223.869	-19
224.104	-10
224.338	-11
224.573	-15
224.808	-11
225.042	-2
225.277	3
225.511	-6
225.746	2
225.98	2
226.215	24
226.449	5
226.683	21
226.918	24
227.152	25
227.387	32
227.621	45
227.856	42
228.09	42
228.324	60
228.559	46
228.793	94
229.027	145
229.262	153
229.496	131
229.73	152
229.964	145
230.199	151
230.433	153
230.667	155
230.901	162
231.136	165
231.37	174
231.604	185
231.838	181
232.072	213
232.306	227
232.541	209
232.775	182
233.009	196
233.243	199
233.477	199
233.711	225
233.945	243
234.179	215
234.413	202
234.647	208
234.881	209
235.115	205
235.349	273
235.583	318
235.817	373
236.051	376
236.285	280
236.519	234
236.753	232
236.987	215
237.221	225
237.455	222
237.689	211
237.922	212
238.156	229
238.39	227
238.624	222
238.858	237
239.091	213
239.325	234
239.559	214
239.793	226
240.027	237
240.26	241
240.494	233
240.728	243
240.961	276
241.195	279
241.429	259
241.662	281
241.896	309
242.13	367
242.363	465
242.597	542
242.83	561
243.064	542
243.298	655
243.531	549
243.765	357
243.998	337
244.232	305
244.465	288
244.699	285
244.932	271
245.166	311
245.399	296
245.633	279
245.866	278
246.099	295
246.333	297
246.566	292
246.8	259
247.033	280
247.266	273
247.5	271
247.733	294
247.966	293
248.2	318
248.433	358
248.666	389
248.899	360
249.133	337
249.366	356
249.599	369
249.832	425
250.066	390
250.299	346
250.532	337
250.765	325
250.998	321
251.231	328
251.465	318
251.698	306
251.931	303
252.164	320
252.397	347
252.63	326
252.863	335
253.096	329
253.329	335
253.562	351
253.795	334
254.028	330
254.261	348
254.494	378
254.727	433
254.96	489
255.193	459
255.426	385
255.659	372
255.892	353
256.124	354
256.357	376
256.59	365
256.823	383
257.056	433
257.289	493
257.521	498
257.754	449
257.987	399
258.22	393
258.452	371
258.685	409
258.918	398
259.151	409
259.383	436
259.616	472
259.849	455
260.081	430
260.314	405
260.547	414
260.779	405
261.012	425
261.244	433
261.477	424
261.71	425
261.942	443
262.175	449
262.407	443
262.64	447
262.872	493
263.105	494
263.337	509
263.57	534
263.802	535
264.035	568
264.267	575
264.499	559
264.732	601
264.964	616
265.197	611
265.429	633
265.661	607
265.894	657
266.126	709
266.358	775
266.591	720
266.823	659
267.055	615
267.287	569
267.52	551
267.752	559
267.984	522
268.216	538
268.448	530
268.681	526
268.913	531
269.145	514
269.377	500
269.609	541
269.841	546
270.073	557
270.306	609
270.538	828
270.77	1145
271.002	1348
271.234	994
271.466	711
271.698	623
271.93	555
272.162	559
272.394	534
272.626	535
272.858	513
273.09	520
273.322	508
273.553	494
273.785	519
274.017	497
274.249	490
274.481	526
274.713	517
274.945	517
275.176	515
275.408	531
275.64	507
275.872	511
276.104	540
276.335	541
276.567	533
276.799	538
277.031	521
277.262	551
277.494	543
277.726	600
277.957	682
278.189	727
278.421	691
278.652	627
278.884	603
279.115	578
279.347	573
279.579	553
279.81	547
280.042	571
280.273	579
280.505	572
280.736	607
280.968	608
281.199	644
281.431	727
281.662	745
281.894	662
282.125	646
282.356	647
282.588	653
282.819	641
283.051	714
283.282	774
283.513	901
283.745	1299
283.976	1998
284.207	2740
284.439	2471
284.67	1549
284.901	1250
285.132	1223
285.364	1170
285.595	961
285.826	893
286.057	1052
286.288	1344
286.52	1746
286.751	1643
286.982	1090
287.213	847
287.444	767
287.675	728
287.906	712
288.138	702
288.369	688
288.6	702
288.831	669
289.062	682
289.293	684
289.524	673
289.755	694
289.986	715
290.217	702
290.448	663
290.679	687
290.91	707
291.141	728
291.371	737
291.602	751
291.833	712
292.064	691
292.295	669
292.526	672
292.757	659
292.987	659
293.218	661
293.449	629
293.68	636
293.91	682
294.141	666
294.372	654
294.603	639
294.833	644
295.064	644
295.295	665
295.525	624
295.756	635
295.987	635
296.217	656
296.448	637
296.679	667
296.909	633
297.14	664
297.37	682
297.601	676
297.831	663
298.062	668
298.292	677
298.523	674
298.753	651
298.984	681
299.214	709
299.445	676
299.675	703
299.905	767
300.136	760
300.366	799
300.597	1018
300.827	1355
301.057	1793
301.288	1747
301.518	1177
301.748	928
301.979	886
302.209	849
302.439	889
302.669	911
302.9	1034
303.13	1411
303.36	2002
303.59	2682
303.82	2349
304.051	1423
304.281	1080
304.511	899
304.741	861
304.971	821
305.201	824
305.431	789
305.661	773
305.891	765
306.121	786
306.352	759
306.582	753
306.812	746
307.042	761
307.272	727
307.502	729
307.731	722
307.961	747
308.191	763
308.421	736
308.651	733
308.881	747
309.111	742
309.341	745
309.571	753
309.8	758
310.03	766
310.26	775
310.49	752
310.72	754
310.949	762
311.179	757
311.409	777
311.639	789
311.868	793
312.098	798
312.328	805
312.557	809
312.787	803
313.017	806
313.246	810
313.476	815
313.706	809
313.935	858
314.165	907
314.394	895
314.624	907
314.853	842
315.083	862
315.312	864
315.542	891
315.771	879
316.001	871
316.23	913
316.46	951
316.689	1005
316.919	1201
317.148	1603
317.377	2453
317.607	3507
317.836	3672
318.065	2210
318.295	1489
318.524	1221
318.753	1094
318.983	1028
319.212	968
319.441	971
319.67	952
319.9	961
320.129	946
320.358	953
320.587	929
320.816	932
321.046	908
321.275	926
321.504	929
321.733	955
321.962	960
322.191	980
322.42	982
322.649	995
322.878	979
323.108	973
323.337	973
323.566	997
323.795	1030
324.024	1034
324.253	1058
324.482	1059
324.71	1126
324.939	1187
325.168	1170
325.397	1218
325.626	1442
325.855	1942
326.084	2930
326.313	4365
326.542	4613
326.77	3011
326.999	2044
327.228	1705
327.457	1693
327.686	1659
327.914	1830
328.143	2053
328.372	2361
328.6	2469
328.829	2372
329.058	2104
329.287	1864
329.515	1743
329.744	1635
329.972	1574
330.201	1475
330.43	1459
330.658	1385
330.887	1370
331.115	1368
331.344	1332
331.572	1303
331.801	1339
332.03	1354
332.258	1375
332.486	1447
332.715	1586
332.943	1871
333.172	2171
333.4	2193
333.629	1765
333.857	1638
334.085	1695
334.314	1737
334.542	1941
334.771	2099
334.999	2527
335.227	3062
335.455	3381
335.684	3162
335.912	2756
336.14	2392
336.369	2157
336.597	2002
336.825	1851
337.053	1752
337.281	1632
337.51	1527
337.738	1514
337.966	1408
338.194	1391
338.422	1341
338.65	1359
338.878	1291
339.106	1320
339.334	1253
339.562	1254
339.79	1225
340.018	1201
340.246	1209
340.474	1221
340.702	1213
340.93	1200
341.158	1187
341.386	1196
341.614	1182
341.842	1175
342.07	1151
342.298	1117
342.526	1134
342.754	1097
342.981	1117
343.209	1117
343.437	1139
343.665	1109
343.893	1141
344.12	1167
344.348	1129
344.576	1123
344.804	1063
345.031	1058
345.259	1050
345.487	1052
345.714	1050
345.942	1039
346.17	1031
346.397	1032
346.625	1024
346.853	1031
347.08	1024
347.308	1006
347.535	1013
347.763	1005
347.99	1027
348.218	1031
348.445	992
348.673	1012
348.9	1002
349.128	993
349.355	999
349.583	999
349.81	996
350.037	970
350.265	1003
350.492	1005
350.72	977
350.947	986
351.174	989
351.402	967
351.629	994
351.856	959
352.083	995
352.311	970
352.538	989
352.765	975
352.992	979
353.22	957
353.447	953
353.674	968
353.901	978
354.128	977
354.355	967
354.583	945
354.81	993
355.037	999
355.264	996
355.491	970
355.718	1008
355.945	1005
356.172	1002
356.399	998
356.626	1010
356.853	1005
357.08	986
357.307	1017
357.534	1039
357.761	1005
357.988	1039
358.215	1045
358.441	1034
358.668	1027
358.895	1010
359.122	1010
359.349	1029
359.576	1005
359.802	998
360.029	994
360.256	1035
360.483	1030
360.709	1036
360.936	1030
361.163	1024
361.39	1035
361.616	1062
361.843	1038
362.07	1054
362.296	1062
362.523	1027
362.749	1040
362.976	1048
363.203	1030
363.429	1020
363.656	1022
363.882	1034
364.109	1026
364.335	1018
364.562	1043
364.788	1041
365.015	1052
365.241	1065
365.468	1105
365.694	1101
365.92	1107
366.147	1043
366.373	1042
366.599	1066
366.826	1078
367.052	1074
367.278	1072
367.505	1069
367.731	1076
367.957	1081
368.184	1040
368.41	1063
368.636	1069
368.862	1095
369.089	1077
369.315	1074
369.541	1073
369.767	1071
369.993	1082
370.219	1078
370.445	1058
370.672	1091
370.898	1096
371.124	1089
371.35	1118
371.576	1114
371.802	1095
372.028	1125
372.254	1106
372.48	1146
372.706	1128
372.932	1134
373.158	1132
373.384	1146
373.61	1118
373.835	1144
374.061	1147
374.287	1162
374.513	1151
374.739	1217
374.965	1186
375.191	1202
375.416	1177
375.642	1159
375.868	1150
376.094	1138
376.319	1143
376.545	1123
376.771	1141
376.997	1117
377.222	1129
377.448	1076
377.674	1109
377.899	1110
378.125	1127
378.35	1110
378.576	1138
378.802	1113
379.027	1111
379.253	1171
379.478	1213
379.704	1376
379.929	1825
380.155	2592
380.38	2803
380.606	1852
380.831	1357
381.057	1262
381.282	1187
381.507	1142
381.733	1129
381.958	1105
382.184	1114
382.409	1106
382.634	1139
382.86	1083
383.085	1079
383.31	1084
383.535	1117
383.761	1126
383.986	1104
384.211	1141
384.436	1161
384.662	1122
384.887	1135
385.112	1145
385.337	1151
385.562	1149
385.787	1134
386.013	1179
386.238	1132
386.463	1127
386.688	1145
386.913	1139
387.138	1145
387.363	1147
387.588	1148
387.813	1161
388.038	1120
388.263	1141
388.488	1130
388.713	1139
388.938	1123
389.163	1130
389.387	1143
389.612	1139
389.837	1123
390.062	1157
390.287	1157
390.512	1159
390.736	1183
390.961	1209
391.186	1175
391.411	1224
391.636	1229
391.86	1221
392.085	1213
392.31	1216
392.534	1192
392.759	1191
392.984	1178
393.208	1172
393.433	1182
393.658	1146
393.882	1153
394.107	1132
394.331	1157
394.556	1179
394.78	1171
395.005	1190
395.229	1156
395.454	1212
395.678	1197
395.903	1195
396.127	1216
396.352	1177
396.576	1167
396.801	1238
397.025	1216
397.249	1177
397.474	1207
397.698	1236
397.922	1227
398.147	1187
398.371	1243
398.595	1271
398.82	1279
399.044	1353
399.268	1399
399.492	1483
399.717	1523
399.941	1562
400.165	1450
400.389	1427
400.613	1356
400.837	1309
401.062	1296
401.286	1298
401.51	1272
401.734	1251
401.958	1277
402.182	1312
402.406	1238
402.63	1287
402.854	1273
403.078	1299
403.302	1280
403.526	1306
403.75	1317
403.974	1335
404.198	1344
404.422	1338
404.645	1336
404.869	1324
405.093	1308
405.317	1334
405.541	1347
405.765	1341
405.988	1329
406.212	1349
406.436	1312
406.66	1345
406.883	1344
407.107	1398
407.331	1429
407.555	1450
407.778	1450
408.002	1397
408.226	1387
408.449	1409
408.673	1369
408.896	1361
409.12	1366
409.344	1351
409.567	1333
409.791	1337
410.014	1322
410.238	1273
410.461	1326
410.685	1297
410.908	1293
411.132	1266
411.355	1259
411.578	1278
411.802	1249
412.025	1255
412.249	1305
412.472	1252
412.695	1247
412.919	1232
413.142	1242
413.365	1236
413.589	1266
413.812	1222
414.035	1255
414.258	1239
414.482	1258
414.705	1235
414.928	1239
415.151	1255
415.374	1224
415.597	1210
415.821	1206
416.044	1180
416.267	1212
416.49	1197
416.713	1200
416.936	1225
417.159	1186
417.382	1188
417.605	1208
417.828	1210
418.051	1227
418.274	1187
418.497	1204
418.72	1263
418.943	1215
419.166	1294
419.389	1308
419.611	1299
419.834	1271
420.057	1272
420.28	1222
420.503	1182
420.726	1169
420.948	1199
421.171	1221
421.394	1226
421.617	1217
421.839	1220
422.062	1236
422.285	1203
422.507	1244
422.73	1242
422.953	1229
423.175	1213
423.398	1247
423.621	1236
423.843	1227
424.066	1252
424.288	1241
424.511	1214
424.733	1199
424.956	1175
425.178	1178
425.401	1199
425.623	1207
425.846	1184
426.068	1167
426.291	1167
426.513	1155
426.735	1179
426.958	1197
427.18	1157
427.402	1149
427.625	1144
427.847	1117
428.069	1135
428.292	1123
428.514	1138
428.736	1141
428.958	1124
429.181	1130
429.403	1077
429.625	1158
429.847	1117
430.069	1161
430.292	1159
430.514	1169
430.736	1181
430.958	1136
431.18	1099
431.402	1100
431.624	1114
431.846	1125
432.068	1103
432.29	1110
432.512	1098
432.734	1096
432.956	1106
433.178	1117
433.4	1120
433.622	1123
433.844	1128
434.066	1108
434.287	1108
434.509	1126
434.731	1139
434.953	1174
435.175	1143
435.397	1191
435.618	1135
435.84	1140
436.062	1110
436.284	1110
436.505	1111
436.727	1117
436.949	1105
437.17	1116
437.392	1071
437.614	1105
437.835	1055
438.057	1078
438.278	1082
438.5	1083
438.721	1091
438.943	1145
439.165	1115
439.386	1157
439.608	1153
439.829	1131
440.05	1169
440.272	1166
440.493	1149
440.715	1151
440.936	1153
441.158	1171
441.379	1140
441.6	1227
441.822	1230
442.043	1287
442.264	1271
442.486	1240
442.707	1199
442.928	1215
443.149	1197
443.371	1173
443.592	1194
443.813	1211
444.034	1234
444.255	1233
444.476	1227
444.698	1284
444.919	1269
445.14	1355
445.361	1252
445.582	1237
445.803	1193
446.024	1234
446.245	1175
446.466	1176
446.687	1145
446.908	1189
447.129	1153
447.35	1139
447.571	1118
447.792	1107
448.013	1092
448.234	1135
448.455	1087
448.675	1105
448.896	1130
449.117	1128
449.338	1227
449.559	1233
449.779	1187
450	1067
450.221	1063
450.442	1065
450.662	1057
450.883	1079
451.104	1071
451.324	1072
451.545	1058
451.766	1076
451.986	1056
452.207	1162
452.428	1323
452.648	1758
452.869	1527
453.089	1206
453.31	1129
453.53	1161
453.751	1173
453.971	1256
454.192	1218
454.412	1104
454.633	1051
454.853	1025
455.073	1017
455.294	1033
455.514	1011
455.734	1029
455.955	1008
456.175	996
456.395	1021
456.616	1029
456.836	1036
457.056	1032
457.276	1008
457.497	1073
457.717	1055
457.937	1066
458.157	1053
458.377	1055
458.598	1057
458.818	1081
459.038	1090
459.258	1088
459.478	1103
459.698	1124
459.918	1151
460.138	1136
460.358	1181
460.578	1210
460.798	1191
461.018	1216
461.238	1189
461.458	1213
461.678	1227
461.898	1235
462.118	1248
462.338	1267
462.558	1285
462.777	1302
462.997	1375
463.217	1386
463.437	1441
463.657	1417
463.876	1426
464.096	1339
464.316	1318
464.536	1320
464.755	1281
464.975	1222
465.195	1203
465.414	1203
465.634	1141
465.854	1152
466.073	1134
466.293	1121
466.512	1149
466.732	1111
466.951	1186
467.171	1229
467.391	1186
467.61	1144
467.829	1126
468.049	1089
468.268	1119
468.488	1099
468.707	1092
468.927	1082
469.146	1093
469.365	1117
469.585	1091
469.804	1143
470.023	1175
470.243	1179
470.462	1193
470.681	1218
470.901	1300
471.12	1517
471.339	1503
471.558	1285
471.777	1211
471.997	1135
472.216	1104
472.435	1128
472.654	1118
472.873	1080
473.092	1082
473.311	1095
473.53	1119
473.749	1139
473.968	1131
474.187	1085
474.406	1082
474.625	1111
474.844	1090
475.063	1120
475.282	1106
475.501	1109
475.72	1112
475.939	1124
476.158	1146
476.377	1148
476.596	1145
476.814	1138
477.033	1137
477.252	1152
477.471	1194
477.69	1200
477.908	1218
478.127	1240
478.346	1296
478.564	1299
478.783	1222
479.002	1290
479.22	1295
479.439	1311
479.658	1292
479.876	1292
480.095	1295
480.313	1316
480.532	1322
480.751	1322
480.969	1313
481.188	1252
481.406	1299
481.624	1261
481.843	1307
482.061	1262
482.28	1304
482.498	1305
482.717	1261
482.935	1306
483.153	1401
483.372	1378
483.59	1371
483.808	1383
484.027	1380
484.245	1458
484.463	1629
484.681	1731
484.9	1575
485.118	1526
485.336	1498
485.554	1517
485.772	1600
485.99	1747
486.209	1904
486.427	1613
486.645	1477
486.863	1464
487.081	1421
487.299	1429
487.517	1385
487.735	1403
487.953	1439
488.171	1411
488.389	1384
488.607	1362
488.825	1372
489.043	1358
489.261	1340
489.479	1359
489.696	1354
489.914	1337
490.132	1389
490.35	1390
490.568	1414
490.786	1378
491.003	1443
491.221	1456
491.439	1447
491.657	1449
491.874	1443
492.092	1483
492.31	1501
492.527	1494
492.745	1439
492.963	1470
493.18	1468
493.398	1469
493.615	1449
493.833	1465
494.05	1463
494.268	1466
494.485	1451
494.703	1456
494.92	1429
495.138	1474
495.355	1475
495.573	1456
495.79	1441
496.008	1435
496.225	1446
496.442	1487
496.66	1517
496.877	1585
497.094	1595
497.312	1491
497.529	1542
497.746	1562
497.963	1577
498.181	1599
498.398	1601
498.615	1725
498.832	1794
499.049	1849
499.267	1882
499.484	2058
499.701	2127
499.918	2187
500.135	2325
500.352	2465
500.569	2503
500.786	2441
501.003	2387
501.22	2277
501.437	2105
501.654	2000
501.871	1943
502.088	1829
502.305	1741
502.522	1715
502.739	1683
502.956	1623
503.172	1572
503.389	1504
503.606	1535
503.823	1490
504.04	1501
504.256	1496
504.473	1477
504.69	1506
504.907	1451
505.123	1427
505.34	1420
505.557	1364
505.773	1373
505.99	1358
506.207	1301
506.423	1286
506.64	1310
506.856	1307
507.073	1255
507.289	1297
507.506	1262
507.722	1267
507.939	1251
508.155	1269
508.372	1245
508.588	1237
508.805	1280
509.021	1247
509.238	1247
509.454	1261
509.67	1338
509.887	1261
510.103	1231
510.319	1233
510.536	1237
510.752	1191
510.968	1176
511.184	1201
511.401	1187
511.617	1172
511.833	1151
512.049	1141
512.265	1175
512.481	1171
512.698	1113
512.914	1171
513.13	1184
513.346	1171
513.562	1153
513.778	1165
513.994	1197
514.21	1239
514.426	1233
514.642	1283
514.858	1225
515.074	1205
515.29	1180
515.506	1189
515.721	1213
515.937	1255
516.153	1185
516.369	1229
516.585	1237
516.801	1236
517.016	1266
517.232	1330
517.448	1370
517.664	1362
517.879	1320
518.095	1332
518.311	1310
518.527	1337
518.742	1305
518.958	1300
519.173	1313
519.389	1267
519.605	1218
519.82	1203
520.036	1198
520.251	1186
520.467	1200
520.682	1177
520.898	1154
521.113	1176
521.329	1143
521.544	1174
521.76	1176
521.975	1158
522.19	1171
522.406	1160
522.621	1203
522.836	1156
523.052	1122
523.267	1134
523.482	1140
523.698	1154
523.913	1123
524.128	1137
524.343	1156
524.559	1151
524.774	1144
524.989	1133
525.204	1144
525.419	1118
525.634	1133
525.849	1142
526.064	1139
526.28	1122
526.495	1114
526.71	1136
526.925	1127
527.14	1125
527.355	1101
527.57	1127
527.785	1139
527.999	1155
528.214	1184
528.429	1167
528.644	1160
528.859	1205
529.074	1205
529.289	1240
529.503	1233
529.718	1210
529.933	1188
530.148	1173
530.363	1173
530.577	1175
530.792	1209
531.007	1171
531.221	1181
531.436	1175
531.651	1219
531.865	1240
532.08	1279
532.295	1294
532.509	1339
532.724	1314
532.938	1331
533.153	1335
533.367	1431
533.582	1462
533.796	1480
534.011	1399
534.225	1397
534.44	1350
534.654	1378
534.868	1326
535.083	1316
535.297	1285
535.511	1266
535.726	1243
535.94	1233
536.154	1236
536.369	1243
536.583	1190
536.797	1188
537.011	1171
537.225	1149
537.44	1164
537.654	1146
537.868	1149
538.082	1126
538.296	1135
538.51	1129
538.724	1129
538.938	1112
539.153	1135
539.367	1115
539.581	1110
539.795	1092
540.009	1105
540.222	1097
540.436	1095
540.65	1122
540.864	1079
541.078	1116
541.292	1181
541.506	1377
541.72	1406
541.934	1308
542.147	1251
542.361	1201
542.575	1129
542.789	1134
543.002	1063
543.216	1072
543.43	1072
543.644	1053
543.857	1083
544.071	1113
544.285	1105
544.498	1117
544.712	1100
544.925	1106
545.139	1101
545.352	1093
545.566	1114
545.779	1110
545.993	1154
546.206	1118
546.42	1134
546.633	1134
546.847	1119
