Data from SnStandardFlinnAPT0064_LampEnergy5.5_LIBS07252019.E.O._I.C._HRD10591_15-15-00-491.txt Node
Date: Thu Jul 25 15:15:00 EDT 2019
User: cochatt
Spectrometer: HR+D1059
Trigger mode: 1
Integration Time (sec): 1.000000E-1
Scans to average: 1
Electric dark correction enabled: true
Nonlinearity correction enabled: false
Boxcar width: 0
XAxis mode: Wavelengths
Number of Pixels in Spectrum: 2048
>>>>>Begin Spectral Data<<<<<
223.165	-26.12
223.4	-26.12
223.635	-26.12
223.869	-27.12
224.104	-26.12
224.338	-17.12
224.573	-13.12
224.808	-4.12
225.042	-12.12
225.277	-8.12
225.511	10.88
225.746	8.88
225.98	6.88
226.215	-5.12
226.449	3.88
226.683	25.88
226.918	39.88
227.152	42.88
227.387	38.88
227.621	18.88
227.856	49.88
228.09	32.88
228.324	51.88
228.559	51.88
228.793	95.88
229.027	133.88
229.262	140.88
229.496	143.88
229.73	126.88
229.964	138.88
230.199	156.88
230.433	150.88
230.667	158.88
230.901	155.88
231.136	158.88
231.37	166.88
231.604	173.88
231.838	186.88
232.072	203.88
232.306	226.88
232.541	211.88
232.775	178.88
233.009	201.88
233.243	174.88
233.477	193.88
233.711	222.88
233.945	235.88
234.179	223.88
234.413	200.88
234.647	197.88
234.881	221.88
235.115	219.88
235.349	259.88
235.583	314.88
235.817	368.88
236.051	367.88
236.285	259.88
236.519	224.88
236.753	209.88
236.987	207.88
237.221	210.88
237.455	226.88
237.689	218.88
237.922	196.88
238.156	209.88
238.39	216.88
238.624	204.88
238.858	228.88
239.091	189.88
239.325	227.88
239.559	207.88
239.793	220.88
240.027	238.88
240.26	235.88
240.494	239.88
240.728	240.88
240.961	272.88
241.195	263.88
241.429	271.88
241.662	274.88
241.896	330.88
242.13	360.88
242.363	443.88
242.597	551.88
242.83	543.88
243.064	545.88
243.298	642.88
243.531	523.88
243.765	367.88
243.998	302.88
244.232	291.88
244.465	282.88
244.699	291.88
244.932	274.88
245.166	265.88
245.399	265.88
245.633	287.88
245.866	294.88
246.099	289.88
246.333	294.88
246.566	277.88
246.8	266.88
247.033	286.88
247.266	284.88
247.5	296.88
247.733	308.88
247.966	322.88
248.2	304.88
248.433	335.88
248.666	356.88
248.899	377.88
249.133	347.88
249.366	356.88
249.599	357.88
249.832	383.88
250.066	382.88
250.299	351.88
250.532	329.88
250.765	313.88
250.998	311.88
251.231	307.88
251.465	304.88
251.698	323.88
251.931	313.88
252.164	318.88
252.397	330.88
252.63	330.88
252.863	322.88
253.096	327.88
253.329	334.88
253.562	334.88
253.795	320.88
254.028	334.88
254.261	331.88
254.494	361.88
254.727	388.88
254.96	452.88
255.193	448.88
255.426	364.88
255.659	354.88
255.892	333.88
256.124	344.88
256.357	344.88
256.59	368.88
256.823	388.88
257.056	416.88
257.289	462.88
257.521	508.88
257.754	438.88
257.987	383.88
258.22	382.88
258.452	363.88
258.685	376.88
258.918	364.88
259.151	406.88
259.383	414.88
259.616	478.88
259.849	479.88
260.081	418.88
260.314	400.88
260.547	398.88
260.779	376.88
261.012	414.88
261.244	391.88
261.477	394.88
261.71	411.88
261.942	430.88
262.175	410.88
262.407	446.88
262.64	455.88
262.872	439.88
263.105	474.88
263.337	486.88
263.57	521.88
263.802	534.88
264.035	546.88
264.267	527.88
264.499	550.88
264.732	586.88
264.964	595.88
265.197	589.88
265.429	599.88
265.661	599.88
265.894	631.88
266.126	671.88
266.358	743.88
266.591	689.88
266.823	628.88
267.055	602.88
267.287	576.88
267.52	550.88
267.752	553.88
267.984	535.88
268.216	507.88
268.448	506.88
268.681	520.88
268.913	526.88
269.145	504.88
269.377	510.88
269.609	527.88
269.841	523.88
270.073	535.88
270.306	622.88
270.538	785.88
270.77	1048.88
271.002	1297.88
271.234	940.88
271.466	679.88
271.698	588.88
271.93	564.88
272.162	546.88
272.394	518.88
272.626	510.88
272.858	517.88
273.09	529.88
273.322	495.88
273.553	495.88
273.785	507.88
274.017	481.88
274.249	473.88
274.481	485.88
274.713	480.88
274.945	490.88
275.176	474.88
275.408	468.88
275.64	480.88
275.872	499.88
276.104	534.88
276.335	490.88
276.567	522.88
276.799	501.88
277.031	512.88
277.262	544.88
277.494	531.88
277.726	604.88
277.957	643.88
278.189	720.88
278.421	666.88
278.652	627.88
278.884	624.88
279.115	568.88
279.347	549.88
279.579	524.88
279.81	526.88
280.042	555.88
280.273	558.88
280.505	549.88
280.736	567.88
280.968	606.88
281.199	638.88
281.431	723.88
281.662	716.88
281.894	688.88
282.125	604.88
282.356	628.88
282.588	632.88
282.819	648.88
283.051	679.88
283.282	730.88
283.513	885.88
283.745	1232.88
283.976	1862.88
284.207	2642.88
284.439	2356.88
284.67	1486.88
284.901	1232.88
285.132	1180.88
285.364	1120.88
285.595	907.88
285.826	858.88
286.057	985.88
286.288	1297.88
286.52	1660.88
286.751	1578.88
286.982	1028.88
287.213	816.88
287.444	752.88
287.675	691.88
287.906	680.88
288.138	644.88
288.369	676.88
288.6	677.88
288.831	667.88
289.062	655.88
289.293	652.88
289.524	670.88
289.755	680.88
289.986	663.88
290.217	671.88
290.448	664.88
290.679	675.88
290.91	667.88
291.141	676.88
291.371	737.88
291.602	731.88
291.833	715.88
292.064	666.88
292.295	653.88
292.526	642.88
292.757	630.88
292.987	623.88
293.218	611.88
293.449	641.88
293.68	627.88
293.91	627.88
294.141	609.88
294.372	632.88
294.603	610.88
294.833	624.88
295.064	609.88
295.295	612.88
295.525	613.88
295.756	630.88
295.987	606.88
296.217	640.88
296.448	625.88
296.679	644.88
296.909	624.88
297.14	640.88
297.37	654.88
297.601	648.88
297.831	655.88
298.062	641.88
298.292	635.88
298.523	647.88
298.753	657.88
298.984	660.88
299.214	672.88
299.445	679.88
299.675	688.88
299.905	700.88
300.136	725.88
300.366	795.88
300.597	969.88
300.827	1267.88
301.057	1656.88
301.288	1622.88
301.518	1140.88
301.748	914.88
301.979	847.88
302.209	807.88
302.439	827.88
302.669	891.88
302.9	1032.88
303.13	1330.88
303.36	1919.88
303.59	2450.88
303.82	2190.88
304.051	1398.88
304.281	1057.88
304.511	915.88
304.741	862.88
304.971	811.88
305.201	790.88
305.431	751.88
305.661	747.88
305.891	747.88
306.121	741.88
306.352	730.88
306.582	711.88
306.812	691.88
307.042	737.88
307.272	730.88
307.502	703.88
307.731	709.88
307.961	726.88
308.191	711.88
308.421	699.88
308.651	727.88
308.881	716.88
309.111	709.88
309.341	742.88
309.571	713.88
309.8	707.88
310.03	729.88
310.26	739.88
310.49	739.88
310.72	743.88
310.949	731.88
311.179	771.88
311.409	741.88
311.639	747.88
311.868	740.88
312.098	737.88
312.328	773.88
312.557	764.88
312.787	750.88
313.017	781.88
313.246	796.88
313.476	778.88
313.706	805.88
313.935	798.88
314.165	863.88
314.394	857.88
314.624	858.88
314.853	806.88
315.083	833.88
315.312	835.88
315.542	834.88
315.771	836.88
316.001	846.88
316.23	884.88
316.46	928.88
316.689	997.88
316.919	1140.88
317.148	1550.88
317.377	2267.88
317.607	3313.88
317.836	3385.88
318.065	2079.88
318.295	1424.88
318.524	1190.88
318.753	1053.88
318.983	1007.88
319.212	946.88
319.441	948.88
319.67	912.88
319.9	888.88
320.129	897.88
320.358	924.88
320.587	898.88
320.816	904.88
321.046	899.88
321.275	908.88
321.504	931.88
321.733	928.88
321.962	955.88
322.191	954.88
322.42	921.88
322.649	937.88
322.878	940.88
323.108	947.88
323.337	983.88
323.566	981.88
323.795	1000.88
324.024	1004.88
324.253	983.88
324.482	1042.88
324.71	1067.88
324.939	1148.88
325.168	1167.88
325.397	1211.88
325.626	1408.88
325.855	1846.88
326.084	2772.88
326.313	4078.88
326.542	4340.88
326.77	2874.88
326.999	1970.88
327.228	1682.88
327.457	1633.88
327.686	1642.88
327.914	1760.88
328.143	2007.88
328.372	2267.88
328.6	2445.88
328.829	2306.88
329.058	2050.88
329.287	1804.88
329.515	1707.88
329.744	1566.88
329.972	1526.88
330.201	1441.88
330.43	1383.88
330.658	1370.88
330.887	1329.88
331.115	1313.88
331.344	1302.88
331.572	1350.88
331.801	1314.88
332.03	1299.88
332.258	1314.88
332.486	1370.88
332.715	1508.88
332.943	1798.88
333.172	2121.88
333.4	2112.88
333.629	1716.88
333.857	1614.88
334.085	1656.88
334.314	1703.88
334.542	1805.88
334.771	2084.88
334.999	2439.88
335.227	2968.88
335.455	3274.88
335.684	3077.88
335.912	2683.88
336.14	2347.88
336.369	2071.88
336.597	1946.88
336.825	1766.88
337.053	1672.88
337.281	1567.88
337.51	1494.88
337.738	1475.88
337.966	1411.88
338.194	1372.88
338.422	1322.88
338.65	1291.88
338.878	1267.88
339.106	1217.88
339.334	1224.88
339.562	1209.88
339.79	1206.88
340.018	1193.88
340.246	1158.88
340.474	1141.88
340.702	1146.88
340.93	1176.88
341.158	1150.88
341.386	1163.88
341.614	1168.88
341.842	1138.88
342.07	1130.88
342.298	1092.88
342.526	1090.88
342.754	1066.88
342.981	1063.88
343.209	1074.88
343.437	1096.88
343.665	1101.88
343.893	1114.88
344.12	1117.88
344.348	1059.88
344.576	1070.88
344.804	1054.88
345.031	1033.88
345.259	1024.88
345.487	995.88
345.714	999.88
345.942	1002.88
346.17	1015.88
346.397	995.88
346.625	994.88
346.853	977.88
347.08	972.88
347.308	1006.88
347.535	1003.88
347.763	999.88
347.99	985.88
348.218	971.88
348.445	970.88
348.673	960.88
348.9	965.88
349.128	963.88
349.355	993.88
349.583	984.88
349.81	950.88
350.037	935.88
350.265	955.88
350.492	946.88
350.72	930.88
350.947	939.88
351.174	940.88
351.402	952.88
351.629	968.88
351.856	927.88
352.083	971.88
352.311	939.88
352.538	952.88
352.765	967.88
352.992	944.88
353.22	944.88
353.447	967.88
353.674	950.88
353.901	969.88
354.128	919.88
354.355	938.88
354.583	924.88
354.81	939.88
355.037	961.88
355.264	962.88
355.491	946.88
355.718	959.88
355.945	956.88
356.172	981.88
356.399	963.88
356.626	958.88
356.853	990.88
357.08	990.88
357.307	972.88
357.534	977.88
357.761	998.88
357.988	1020.88
358.215	981.88
358.441	1007.88
358.668	998.88
358.895	993.88
359.122	1009.88
359.349	992.88
359.576	970.88
359.802	1008.88
360.029	1006.88
360.256	999.88
360.483	1008.88
360.709	983.88
360.936	998.88
361.163	991.88
361.39	1013.88
361.616	1006.88
361.843	994.88
362.07	1028.88
362.296	1025.88
362.523	990.88
362.749	1015.88
362.976	1010.88
363.203	1032.88
363.429	995.88
363.656	1002.88
363.882	1046.88
364.109	1003.88
364.335	980.88
364.562	995.88
364.788	1003.88
365.015	1014.88
365.241	1040.88
365.468	1063.88
365.694	1101.88
365.92	1082.88
366.147	1006.88
366.373	1004.88
366.599	1026.88
366.826	1030.88
367.052	1040.88
367.278	1056.88
367.505	1017.88
367.731	1039.88
367.957	984.88
368.184	1035.88
368.41	1038.88
368.636	1051.88
368.862	1043.88
369.089	1032.88
369.315	1092.88
369.541	1050.88
369.767	1032.88
369.993	1028.88
370.219	1047.88
370.445	1050.88
370.672	1079.88
370.898	1050.88
371.124	1071.88
371.35	1075.88
371.576	1084.88
371.802	1100.88
372.028	1099.88
372.254	1090.88
372.48	1105.88
372.706	1070.88
372.932	1099.88
373.158	1116.88
373.384	1117.88
373.61	1106.88
373.835	1083.88
374.061	1134.88
374.287	1132.88
374.513	1146.88
374.739	1135.88
374.965	1139.88
375.191	1131.88
375.416	1171.88
375.642	1152.88
375.868	1106.88
376.094	1120.88
376.319	1080.88
376.545	1092.88
376.771	1093.88
376.997	1090.88
377.222	1106.88
377.448	1065.88
377.674	1090.88
377.899	1063.88
378.125	1081.88
378.35	1098.88
378.576	1082.88
378.802	1080.88
379.027	1103.88
379.253	1119.88
379.478	1147.88
379.704	1329.88
379.929	1748.88
380.155	2457.88
380.38	2627.88
380.606	1718.88
380.831	1319.88
381.057	1218.88
381.282	1138.88
381.507	1128.88
381.733	1126.88
381.958	1097.88
382.184	1091.88
382.409	1082.88
382.634	1064.88
382.86	1062.88
383.085	1055.88
383.31	1089.88
383.535	1093.88
383.761	1104.88
383.986	1114.88
384.211	1130.88
384.436	1107.88
384.662	1094.88
384.887	1111.88
385.112	1093.88
385.337	1099.88
385.562	1094.88
385.787	1074.88
386.013	1115.88
386.238	1115.88
386.463	1094.88
386.688	1129.88
386.913	1110.88
387.138	1101.88
387.363	1105.88
387.588	1119.88
387.813	1106.88
388.038	1096.88
388.263	1113.88
388.488	1087.88
388.713	1109.88
388.938	1110.88
389.163	1113.88
389.387	1130.88
389.612	1114.88
389.837	1110.88
390.062	1132.88
390.287	1116.88
390.512	1111.88
390.736	1119.88
390.961	1151.88
391.186	1152.88
391.411	1166.88
391.636	1162.88
391.86	1182.88
392.085	1170.88
392.31	1162.88
392.534	1169.88
392.759	1120.88
392.984	1154.88
393.208	1112.88
393.433	1112.88
393.658	1120.88
393.882	1118.88
394.107	1128.88
394.331	1135.88
394.556	1129.88
394.78	1128.88
395.005	1123.88
395.229	1109.88
395.454	1147.88
395.678	1157.88
395.903	1168.88
396.127	1150.88
396.352	1111.88
396.576	1140.88
396.801	1154.88
397.025	1174.88
397.249	1178.88
397.474	1171.88
397.698	1170.88
397.922	1199.88
398.147	1194.88
398.371	1187.88
398.595	1220.88
398.82	1258.88
399.044	1247.88
399.268	1372.88
399.492	1413.88
399.717	1466.88
399.941	1472.88
400.165	1425.88
400.389	1379.88
400.613	1310.88
400.837	1238.88
401.062	1260.88
401.286	1260.88
401.51	1272.88
401.734	1234.88
401.958	1231.88
402.182	1218.88
402.406	1238.88
402.63	1246.88
402.854	1241.88
403.078	1271.88
403.302	1259.88
403.526	1273.88
403.75	1275.88
403.974	1273.88
404.198	1283.88
404.422	1276.88
404.645	1283.88
404.869	1290.88
405.093	1286.88
405.317	1293.88
405.541	1335.88
405.765	1344.88
405.988	1310.88
406.212	1302.88
406.436	1303.88
406.66	1346.88
406.883	1334.88
407.107	1369.88
407.331	1388.88
407.555	1391.88
407.778	1390.88
408.002	1385.88
408.226	1351.88
408.449	1333.88
408.673	1310.88
408.896	1300.88
409.12	1303.88
409.344	1311.88
409.567	1317.88
409.791	1312.88
410.014	1280.88
410.238	1260.88
410.461	1278.88
410.685	1232.88
410.908	1281.88
411.132	1246.88
411.355	1214.88
411.578	1231.88
411.802	1255.88
412.025	1202.88
412.249	1258.88
412.472	1283.88
412.695	1209.88
412.919	1235.88
413.142	1216.88
413.365	1217.88
413.589	1215.88
413.812	1186.88
414.035	1223.88
414.258	1211.88
414.482	1179.88
414.705	1204.88
414.928	1235.88
415.151	1214.88
415.374	1204.88
415.597	1194.88
415.821	1193.88
416.044	1212.88
416.267	1205.88
416.49	1147.88
416.713	1169.88
416.936	1174.88
417.159	1188.88
417.382	1143.88
417.605	1147.88
417.828	1178.88
418.051	1174.88
418.274	1179.88
418.497	1181.88
418.72	1202.88
418.943	1170.88
419.166	1226.88
419.389	1291.88
419.611	1291.88
419.834	1220.88
420.057	1231.88
420.28	1233.88
420.503	1187.88
420.726	1149.88
420.948	1162.88
421.171	1182.88
421.394	1180.88
421.617	1177.88
421.839	1175.88
422.062	1179.88
422.285	1186.88
422.507	1174.88
422.73	1202.88
422.953	1186.88
423.175	1188.88
423.398	1207.88
423.621	1198.88
423.843	1179.88
424.066	1193.88
424.288	1191.88
424.511	1176.88
424.733	1206.88
424.956	1163.88
425.178	1186.88
425.401	1138.88
425.623	1175.88
425.846	1152.88
426.068	1145.88
426.291	1164.88
426.513	1123.88
426.735	1124.88
426.958	1152.88
427.18	1089.88
427.402	1129.88
427.625	1098.88
427.847	1129.88
428.069	1091.88
428.292	1117.88
428.514	1088.88
428.736	1082.88
428.958	1100.88
429.181	1074.88
429.403	1036.88
429.625	1072.88
429.847	1075.88
430.069	1101.88
430.292	1132.88
430.514	1160.88
430.736	1142.88
430.958	1119.88
431.18	1090.88
431.402	1084.88
431.624	1070.88
431.846	1054.88
432.068	1056.88
432.29	1060.88
432.512	1022.88
432.734	1106.88
432.956	1100.88
433.178	1112.88
433.4	1086.88
433.622	1126.88
433.844	1122.88
434.066	1090.88
434.287	1076.88
434.509	1099.88
434.731	1113.88
434.953	1130.88
435.175	1136.88
435.397	1136.88
435.618	1090.88
435.84	1080.88
436.062	1061.88
436.284	1089.88
436.505	1068.88
436.727	1076.88
436.949	1062.88
437.17	1066.88
437.392	1072.88
437.614	1058.88
437.835	1024.88
438.057	1019.88
438.278	1064.88
438.5	1045.88
438.721	1089.88
438.943	1097.88
439.165	1117.88
439.386	1114.88
439.608	1068.88
439.829	1140.88
440.05	1120.88
440.272	1168.88
440.493	1119.88
440.715	1105.88
440.936	1132.88
441.158	1152.88
441.379	1130.88
441.6	1184.88
441.822	1211.88
442.043	1235.88
442.264	1256.88
442.486	1176.88
442.707	1167.88
442.928	1182.88
443.149	1159.88
443.371	1163.88
443.592	1171.88
443.813	1157.88
444.034	1171.88
444.255	1194.88
444.476	1232.88
444.698	1227.88
444.919	1271.88
445.14	1320.88
445.361	1259.88
445.582	1211.88
445.803	1175.88
446.024	1156.88
446.245	1152.88
446.466	1175.88
446.687	1126.88
446.908	1108.88
447.129	1122.88
447.35	1108.88
447.571	1096.88
447.792	1084.88
448.013	1068.88
448.234	1046.88
448.455	1042.88
448.675	1052.88
448.896	1085.88
449.117	1108.88
449.338	1174.88
449.559	1210.88
449.779	1094.88
450	1060.88
450.221	1059.88
450.442	1046.88
450.662	1048.88
450.883	999.88
451.104	1059.88
451.324	1023.88
451.545	1050.88
451.766	1046.88
451.986	1044.88
452.207	1073.88
452.428	1260.88
452.648	1694.88
452.869	1464.88
453.089	1143.88
453.31	1110.88
453.53	1136.88
453.751	1138.88
453.971	1185.88
454.192	1192.88
454.412	1052.88
454.633	1018.88
454.853	1005.88
455.073	1006.88
455.294	993.88
455.514	1005.88
455.734	998.88
455.955	965.88
456.175	972.88
456.395	987.88
456.616	986.88
456.836	994.88
457.056	986.88
457.276	1012.88
457.497	1047.88
457.717	1054.88
457.937	1043.88
458.157	1032.88
458.377	1038.88
458.598	1073.88
458.818	1070.88
459.038	1037.88
459.258	1063.88
459.478	1087.88
459.698	1096.88
459.918	1114.88
460.138	1088.88
460.358	1145.88
460.578	1142.88
460.798	1160.88
461.018	1168.88
461.238	1167.88
461.458	1180.88
461.678	1184.88
461.898	1186.88
462.118	1223.88
462.338	1225.88
462.558	1257.88
462.777	1236.88
462.997	1288.88
463.217	1381.88
463.437	1382.88
463.657	1396.88
463.876	1374.88
464.096	1317.88
464.316	1280.88
464.536	1268.88
464.755	1274.88
464.975	1242.88
465.195	1168.88
465.414	1138.88
465.634	1102.88
465.854	1112.88
466.073	1110.88
466.293	1112.88
466.512	1078.88
466.732	1126.88
466.951	1104.88
467.171	1210.88
467.391	1161.88
467.61	1129.88
467.829	1081.88
468.049	1066.88
468.268	1030.88
468.488	1061.88
468.707	1064.88
468.927	1072.88
469.146	1056.88
469.365	1070.88
469.585	1063.88
469.804	1113.88
470.023	1125.88
470.243	1157.88
470.462	1153.88
470.681	1163.88
470.901	1262.88
471.12	1448.88
471.339	1426.88
471.558	1231.88
471.777	1127.88
471.997	1112.88
472.216	1064.88
472.435	1058.88
472.654	1059.88
472.873	1042.88
473.092	1058.88
473.311	1068.88
473.53	1072.88
473.749	1065.88
473.968	1112.88
474.187	1072.88
474.406	1034.88
474.625	1072.88
474.844	1073.88
475.063	1041.88
475.282	1077.88
475.501	1090.88
475.72	1074.88
475.939	1089.88
476.158	1123.88
476.377	1124.88
476.596	1113.88
476.814	1125.88
477.033	1083.88
477.252	1102.88
477.471	1120.88
477.69	1179.88
477.908	1194.88
478.127	1249.88
478.346	1218.88
478.564	1251.88
478.783	1231.88
479.002	1264.88
479.22	1282.88
479.439	1274.88
479.658	1258.88
479.876	1284.88
480.095	1277.88
480.313	1280.88
480.532	1333.88
480.751	1324.88
480.969	1270.88
481.188	1218.88
481.406	1231.88
481.624	1246.88
481.843	1240.88
482.061	1264.88
482.28	1266.88
482.498	1268.88
482.717	1252.88
482.935	1299.88
483.153	1301.88
483.372	1331.88
483.59	1307.88
483.808	1308.88
484.027	1335.88
484.245	1387.88
484.463	1524.88
484.681	1656.88
484.9	1521.88
485.118	1459.88
485.336	1403.88
485.554	1472.88
485.772	1529.88
485.99	1674.88
486.209	1799.88
486.427	1538.88
486.645	1419.88
486.863	1433.88
487.081	1398.88
487.299	1342.88
487.517	1361.88
487.735	1402.88
487.953	1418.88
488.171	1412.88
488.389	1361.88
488.607	1346.88
488.825	1322.88
489.043	1318.88
489.261	1298.88
489.479	1348.88
489.696	1345.88
489.914	1324.88
490.132	1356.88
490.35	1354.88
490.568	1377.88
490.786	1370.88
491.003	1391.88
491.221	1399.88
491.439	1407.88
491.657	1415.88
491.874	1442.88
492.092	1444.88
