Data from SnStandardFlinnAPT0064_LampEnergy10_LIBS07252019.E.O._I.C._HRD10591_15-22-03-494.txt Node
Date: Thu Jul 25 15:22:03 EDT 2019
User: cochatt
Spectrometer: HR+D1059
Trigger mode: 1
Integration Time (sec): 1.000000E-1
Scans to average: 1
Electric dark correction enabled: true
Nonlinearity correction enabled: false
Boxcar width: 0
XAxis mode: Wavelengths
Number of Pixels in Spectrum: 2048
>>>>>Begin Spectral Data<<<<<
223.165	-12.62
223.4	-12.62
223.635	-12.62
223.869	-8.62
224.104	-17.62
224.338	-15.62
224.573	-24.62
224.808	-19.62
225.042	13.38
225.277	-5.62
225.511	2.38
225.746	-4.62
225.98	9.38
226.215	5.38
226.449	25.38
226.683	13.38
226.918	17.38
227.152	22.38
227.387	30.38
227.621	18.38
227.856	45.38
228.09	47.38
228.324	40.38
228.559	62.38
228.793	104.38
229.027	305.38
229.262	322.38
229.496	308.38
229.73	292.38
229.964	296.38
230.199	314.38
230.433	305.38
230.667	323.38
230.901	316.38
231.136	335.38
231.37	371.38
231.604	386.38
231.838	452.38
232.072	531.38
232.306	557.38
232.541	476.38
232.775	422.38
233.009	410.38
233.243	421.38
233.477	447.38
233.711	493.38
233.945	574.38
234.179	538.38
234.413	446.38
234.647	457.38
234.881	471.38
235.115	531.38
235.349	607.38
235.583	775.38
235.817	999.38
236.051	981.38
236.285	664.38
236.519	547.38
236.753	522.38
236.987	505.38
237.221	530.38
237.455	523.38
237.689	457.38
237.922	472.38
238.156	486.38
238.39	502.38
238.624	487.38
238.858	469.38
239.091	468.38
239.325	487.38
239.559	515.38
239.793	509.38
240.027	516.38
240.26	533.38
240.494	549.38
240.728	570.38
240.961	591.38
241.195	649.38
241.429	657.38
241.662	698.38
241.896	775.38
242.13	981.38
242.363	1246.38
242.597	1633.38
242.83	1557.38
243.064	1546.38
243.298	1827.38
243.531	1484.38
243.765	954.38
243.998	771.38
244.232	728.38
244.465	643.38
244.699	657.38
244.932	647.38
245.166	676.38
245.399	669.38
245.633	691.38
245.866	695.38
246.099	682.38
246.333	650.38
246.566	658.38
246.8	625.38
247.033	637.38
247.266	639.38
247.5	643.38
247.733	670.38
247.966	716.38
248.2	783.38
248.433	888.38
248.666	998.38
248.899	947.38
249.133	845.38
249.366	865.38
249.599	955.38
249.832	1083.38
250.066	1157.38
250.299	842.38
250.532	790.38
250.765	781.38
250.998	761.38
251.231	726.38
251.465	718.38
251.698	727.38
251.931	741.38
252.164	739.38
252.397	767.38
252.63	772.38
252.863	799.38
253.096	785.38
253.329	805.38
253.562	785.38
253.795	801.38
254.028	824.38
254.261	834.38
254.494	899.38
254.727	1053.38
254.96	1256.38
255.193	1257.38
255.426	961.38
255.659	870.38
255.892	856.38
256.124	873.38
256.357	906.38
256.59	917.38
256.823	966.38
257.056	1103.38
257.289	1362.38
257.521	1470.38
257.754	1197.38
257.987	957.38
258.22	922.38
258.452	906.38
258.685	936.38
258.918	963.38
259.151	1007.38
259.383	1057.38
259.616	1213.38
259.849	1300.38
260.081	1093.38
260.314	983.38
260.547	959.38
260.779	926.38
261.012	948.38
261.244	948.38
261.477	969.38
261.71	980.38
261.942	1008.38
262.175	1028.38
262.407	1056.38
262.64	1069.38
262.872	1098.38
263.105	1139.38
263.337	1237.38
263.57	1284.38
263.802	1312.38
264.035	1305.38
264.267	1340.38
264.499	1366.38
264.732	1431.38
264.964	1470.38
265.197	1440.38
265.429	1450.38
265.661	1482.38
265.894	1585.38
266.126	1785.38
266.358	2005.38
266.591	1913.38
266.823	1629.38
267.055	1453.38
267.287	1410.38
267.52	1360.38
267.752	1306.38
267.984	1277.38
268.216	1278.38
268.448	1275.38
268.681	1256.38
268.913	1234.38
269.145	1187.38
269.377	1239.38
269.609	1262.38
269.841	1296.38
270.073	1366.38
270.306	1585.38
270.538	2187.38
270.77	3249.38
271.002	4012.38
271.234	2801.38
271.466	1871.38
271.698	1551.38
271.93	1394.38
272.162	1342.38
272.394	1280.38
272.626	1257.38
272.858	1195.38
273.09	1233.38
273.322	1228.38
273.553	1209.38
273.785	1204.38
274.017	1190.38
274.249	1237.38
274.481	1241.38
274.713	1198.38
274.945	1245.38
275.176	1210.38
275.408	1201.38
275.64	1216.38
275.872	1233.38
276.104	1267.38
276.335	1302.38
276.567	1263.38
276.799	1277.38
277.031	1294.38
277.262	1357.38
277.494	1398.38
277.726	1535.38
277.957	1860.38
278.189	2083.38
278.421	2004.38
278.652	1768.38
278.884	1688.38
279.115	1505.38
279.347	1469.38
279.579	1413.38
279.81	1389.38
280.042	1383.38
280.273	1420.38
280.505	1433.38
280.736	1499.38
280.968	1595.38
281.199	1811.38
281.431	2080.38
281.662	2080.38
281.894	1770.38
282.125	1640.38
282.356	1632.38
282.588	1643.38
282.819	1712.38
283.051	1817.38
283.282	1992.38
283.513	2498.38
283.745	3680.38
283.976	5820.38
284.207	8153.38
284.439	7471.38
284.67	4485.38
284.901	3729.38
285.132	3749.38
285.364	3636.38
285.595	2734.38
285.826	2470.38
286.057	2861.38
286.288	3945.38
286.52	5249.38
286.751	4803.38
286.982	3009.38
287.213	2313.38
287.444	1941.38
287.675	1849.38
287.906	1743.38
288.138	1729.38
288.369	1710.38
288.6	1697.38
288.831	1652.38
289.062	1667.38
289.293	1687.38
289.524	1652.38
289.755	1698.38
289.986	1731.38
290.217	1686.38
290.448	1736.38
290.679	1744.38
290.91	1797.38
291.141	1898.38
291.371	2043.38
291.602	2177.38
291.833	1957.38
292.064	1791.38
292.295	1707.38
292.526	1654.38
292.757	1615.38
292.987	1591.38
293.218	1608.38
293.449	1631.38
293.68	1601.38
293.91	1566.38
294.141	1610.38
294.372	1560.38
294.603	1566.38
294.833	1565.38
295.064	1578.38
295.295	1533.38
295.525	1557.38
295.756	1562.38
295.987	1574.38
296.217	1579.38
296.448	1600.38
296.679	1572.38
296.909	1599.38
297.14	1595.38
297.37	1615.38
297.601	1637.38
297.831	1661.38
298.062	1648.38
298.292	1641.38
298.523	1699.38
298.753	1693.38
298.984	1693.38
299.214	1712.38
299.445	1733.38
299.675	1788.38
299.905	1855.38
300.136	1893.38
300.366	2141.38
300.597	2766.38
300.827	3897.38
301.057	5284.38
301.288	5245.38
301.518	3338.38
301.748	2537.38
301.979	2383.38
302.209	2265.38
302.439	2325.38
302.669	2477.38
302.9	2951.38
303.13	4285.38
303.36	6294.38
303.59	8380.38
303.82	7235.38
304.051	4233.38
304.281	2960.38
304.511	2501.38
304.741	2345.38
304.971	2241.38
305.201	2105.38
305.431	2004.38
305.661	1958.38
305.891	1908.38
306.121	1894.38
306.352	1881.38
306.582	1833.38
306.812	1833.38
307.042	1885.38
307.272	1859.38
307.502	1817.38
307.731	1848.38
307.961	1815.38
308.191	1802.38
308.421	1834.38
308.651	1820.38
308.881	1825.38
309.111	1861.38
309.341	1843.38
309.571	1858.38
309.8	1855.38
310.03	1882.38
310.26	1883.38
310.49	1849.38
310.72	1870.38
310.949	1883.38
311.179	1921.38
311.409	1932.38
311.639	1970.38
311.868	1953.38
312.098	1975.38
312.328	1944.38
312.557	1956.38
312.787	1975.38
313.017	1941.38
313.246	1972.38
313.476	2030.38
313.706	2139.38
313.935	2226.38
314.165	2378.38
314.394	2517.38
314.624	2375.38
314.853	2191.38
315.083	2132.38
315.312	2205.38
315.542	2221.38
315.771	2246.38
316.001	2246.38
316.23	2343.38
316.46	2421.38
316.689	2666.38
316.919	3221.38
317.148	4673.38
317.377	7235.38
317.607	10639.38
317.836	10945.38
318.065	6617.38
318.295	4213.38
318.524	3418.38
318.753	2961.38
318.983	2773.38
319.212	2588.38
319.441	2523.38
319.67	2435.38
319.9	2351.38
320.129	2371.38
320.358	2385.38
320.587	2377.38
320.816	2358.38
321.046	2370.38
321.275	2410.38
321.504	2394.38
321.733	2455.38
321.962	2529.38
322.191	2586.38
322.42	2517.38
322.649	2486.38
322.878	2548.38
323.108	2522.38
323.337	2556.38
323.566	2591.38
323.795	2625.38
324.024	2670.38
324.253	2735.38
324.482	2819.38
324.71	3015.38
324.939	3216.38
325.168	3281.38
325.397	3402.38
325.626	4015.38
325.855	5705.38
326.084	8861.38
326.313	12818.38
326.542	13569.38
326.77	9109.38
326.999	5993.38
327.228	5027.38
327.457	4799.38
327.686	4786.38
327.914	5178.38
328.143	6098.38
328.372	7284.38
328.6	7963.38
328.829	7147.38
329.058	5947.38
329.287	5069.38
329.515	4703.38
329.744	4289.38
329.972	4104.38
330.201	3943.38
330.43	3727.38
330.658	3682.38
330.887	3607.38
331.115	3514.38
331.344	3605.38
331.572	3453.38
331.801	3530.38
332.03	3559.38
332.258	3662.38
332.486	3803.38
332.715	4319.38
332.943	5372.38
333.172	6653.38
333.4	6566.38
333.629	4979.38
333.857	4520.38
334.085	4553.38
334.314	4783.38
334.542	5219.38
334.771	6168.38
334.999	7608.38
335.227	9562.38
335.455	10701.38
335.684	9434.38
335.912	7831.38
336.14	6567.38
336.369	5768.38
336.597	5313.38
336.825	4847.38
337.053	4600.38
337.281	4317.38
337.51	4023.38
337.738	3933.38
337.966	3694.38
338.194	3637.38
338.422	3479.38
338.65	3462.38
338.878	3373.38
339.106	3276.38
339.334	3237.38
339.562	3201.38
339.79	3097.38
340.018	3126.38
340.246	3092.38
340.474	3077.38
340.702	3050.38
340.93	3080.38
341.158	3090.38
341.386	3093.38
341.614	2995.38
341.842	2946.38
342.07	2877.38
342.298	2875.38
342.526	2794.38
342.754	2774.38
342.981	2758.38
343.209	2712.38
343.437	2764.38
343.665	2827.38
343.893	2841.38
344.12	2886.38
344.348	2813.38
344.576	2781.38
344.804	2720.38
345.031	2670.38
345.259	2619.38
345.487	2628.38
345.714	2592.38
345.942	2583.38
346.17	2598.38
346.397	2589.38
346.625	2575.38
346.853	2523.38
347.08	2573.38
347.308	2536.38
347.535	2543.38
347.763	2540.38
347.99	2482.38
348.218	2524.38
348.445	2496.38
348.673	2481.38
348.9	2471.38
349.128	2463.38
349.355	2487.38
349.583	2444.38
349.81	2433.38
350.037	2395.38
350.265	2416.38
350.492	2411.38
350.72	2403.38
350.947	2445.38
351.174	2425.38
351.402	2441.38
351.629	2410.38
351.856	2419.38
352.083	2444.38
352.311	2424.38
352.538	2325.38
352.765	2440.38
352.992	2376.38
353.22	2419.38
353.447	2413.38
353.674	2420.38
353.901	2425.38
354.128	2410.38
354.355	2408.38
354.583	2467.38
354.81	2465.38
355.037	2406.38
355.264	2479.38
355.491	2451.38
355.718	2453.38
355.945	2450.38
356.172	2500.38
356.399	2483.38
356.626	2507.38
356.853	2570.38
357.08	2584.38
357.307	2600.38
357.534	2633.38
357.761	2585.38
357.988	2560.38
358.215	2589.38
358.441	2575.38
358.668	2562.38
358.895	2574.38
359.122	2576.38
359.349	2576.38
359.576	2517.38
359.802	2564.38
360.029	2534.38
360.256	2571.38
360.483	2575.38
360.709	2610.38
360.936	2577.38
361.163	2597.38
361.39	2584.38
361.616	2606.38
361.843	2642.38
362.07	2626.38
362.296	2630.38
362.523	2611.38
362.749	2593.38
362.976	2583.38
363.203	2581.38
363.429	2541.38
363.656	2630.38
363.882	2580.38
364.109	2589.38
364.335	2490.38
364.562	2551.38
364.788	2569.38
365.015	2625.38
365.241	2689.38
365.468	2828.38
365.694	2968.38
365.92	2844.38
366.147	2651.38
366.373	2641.38
366.599	2673.38
366.826	2624.38
367.052	2645.38
367.278	2677.38
367.505	2654.38
367.731	2653.38
367.957	2669.38
368.184	2681.38
368.41	2706.38
368.636	2681.38
368.862	2689.38
369.089	2697.38
369.315	2663.38
369.541	2637.38
369.767	2690.38
369.993	2609.38
370.219	2612.38
370.445	2683.38
370.672	2717.38
370.898	2682.38
371.124	2735.38
371.35	2747.38
371.576	2771.38
371.802	2722.38
372.028	2803.38
372.254	2794.38
372.48	2849.38
372.706	2845.38
372.932	2828.38
373.158	2819.38
373.384	2780.38
373.61	2795.38
373.835	2857.38
374.061	2827.38
374.287	2868.38
374.513	2869.38
374.739	2878.38
374.965	2964.38
375.191	2973.38
375.416	2943.38
375.642	2903.38
375.868	2828.38
376.094	2875.38
376.319	2833.38
376.545	2813.38
376.771	2842.38
376.997	2856.38
377.222	2767.38
377.448	2744.38
377.674	2770.38
377.899	2768.38
378.125	2786.38
378.35	2761.38
378.576	2745.38
378.802	2755.38
379.027	2848.38
379.253	2947.38
379.478	3097.38
379.704	3711.38
379.929	5273.38
380.155	8085.38
380.38	8731.38
380.606	5248.38
380.831	3658.38
381.057	3238.38
381.282	2984.38
381.507	2921.38
381.733	2841.38
381.958	2802.38
382.184	2747.38
382.409	2786.38
382.634	2703.38
382.86	2757.38
383.085	2687.38
383.31	2722.38
383.535	2720.38
383.761	2719.38
383.986	2749.38
384.211	2793.38
384.436	2840.38
384.662	2801.38
384.887	2802.38
385.112	2774.38
385.337	2819.38
385.562	2865.38
385.787	2844.38
386.013	2819.38
386.238	2834.38
386.463	2831.38
386.688	2776.38
386.913	2797.38
387.138	2822.38
387.363	2771.38
387.588	2745.38
387.813	2766.38
388.038	2730.38
388.263	2774.38
388.488	2770.38
388.713	2826.38
388.938	2842.38
389.163	2768.38
389.387	2819.38
389.612	2811.38
389.837	2848.38
390.062	2781.38
390.287	2825.38
390.512	2859.38
390.736	2890.38
390.961	2922.38
391.186	2907.38
391.411	2947.38
391.636	2975.38
391.86	2954.38
392.085	2965.38
392.31	2942.38
392.534	2875.38
392.759	2927.38
392.984	2894.38
393.208	2891.38
393.433	2927.38
393.658	2869.38
393.882	2830.38
394.107	2848.38
394.331	2842.38
394.556	2827.38
394.78	2836.38
395.005	2820.38
395.229	2843.38
395.454	2915.38
395.678	2927.38
395.903	2925.38
396.127	2892.38
396.352	2909.38
396.576	2915.38
396.801	2919.38
397.025	2954.38
397.249	2955.38
397.474	2985.38
397.698	2957.38
397.922	2979.38
398.147	2961.38
398.371	3068.38
398.595	3053.38
398.82	3093.38
399.044	3243.38
399.268	3402.38
399.492	3540.38
399.717	3747.38
399.941	3663.38
400.165	3586.38
400.389	3450.38
400.613	3322.38
400.837	3187.38
401.062	3141.38
401.286	3133.38
401.51	3101.38
401.734	3018.38
401.958	3098.38
402.182	3099.38
402.406	3048.38
402.63	3082.38
402.854	3105.38
403.078	3129.38
403.302	3193.38
403.526	3209.38
403.75	3166.38
403.974	3205.38
404.198	3215.38
404.422	3190.38
404.645	3141.38
404.869	3153.38
405.093	3217.38
405.317	3169.38
405.541	3240.38
405.765	3312.38
405.988	3298.38
406.212	3297.38
406.436	3309.38
406.66	3339.38
406.883	3265.38
407.107	3389.38
407.331	3408.38
407.555	3571.38
407.778	3486.38
408.002	3479.38
408.226	3432.38
408.449	3392.38
408.673	3346.38
408.896	3256.38
409.12	3278.38
409.344	3257.38
409.567	3160.38
409.791	3205.38
410.014	3210.38
410.238	3215.38
410.461	3257.38
410.685	3120.38
410.908	3149.38
411.132	3212.38
411.355	3062.38
411.578	3090.38
411.802	3117.38
412.025	3038.38
412.249	3019.38
412.472	3075.38
412.695	3056.38
412.919	3047.38
413.142	3064.38
413.365	3045.38
413.589	3069.38
413.812	2977.38
414.035	3025.38
414.258	3048.38
414.482	3023.38
414.705	3015.38
414.928	3026.38
415.151	2969.38
415.374	2989.38
415.597	2966.38
415.821	2904.38
416.044	2934.38
416.267	2895.38
416.49	2948.38
416.713	2857.38
416.936	2915.38
417.159	2899.38
417.382	2879.38
417.605	2909.38
417.828	2849.38
418.051	2866.38
418.274	2936.38
418.497	2982.38
418.72	3009.38
418.943	2953.38
419.166	3041.38
419.389	3236.38
419.611	3165.38
419.834	3117.38
420.057	3021.38
420.28	2997.38
420.503	2904.38
420.726	2911.38
420.948	2845.38
421.171	2927.38
421.394	2871.38
421.617	2883.38
421.839	2941.38
422.062	2889.38
422.285	2908.38
422.507	2999.38
422.73	2977.38
422.953	3014.38
423.175	3034.38
423.398	2975.38
423.621	2887.38
423.843	2902.38
424.066	2921.38
424.288	2888.38
424.511	2902.38
424.733	2885.38
424.956	2825.38
425.178	2856.38
425.401	2843.38
425.623	2871.38
425.846	2826.38
426.068	2811.38
426.291	2860.38
426.513	2787.38
426.735	2754.38
426.958	2767.38
427.18	2733.38
427.402	2754.38
427.625	2770.38
427.847	2687.38
428.069	2685.38
428.292	2746.38
428.514	2753.38
428.736	2689.38
428.958	2674.38
429.181	2662.38
429.403	2645.38
429.625	2649.38
429.847	2702.38
430.069	2747.38
430.292	2874.38
430.514	2873.38
430.736	2912.38
430.958	2763.38
431.18	2622.38
431.402	2653.38
431.624	2622.38
431.846	2644.38
432.068	2637.38
432.29	2633.38
432.512	2609.38
432.734	2701.38
432.956	2613.38
433.178	2669.38
433.4	2674.38
433.622	2659.38
433.844	2666.38
434.066	2685.38
434.287	2681.38
434.509	2706.38
434.731	2759.38
434.953	2687.38
435.175	2753.38
435.397	2778.38
435.618	2700.38
435.84	2661.38
436.062	2626.38
436.284	2658.38
436.505	2597.38
436.727	2645.38
436.949	2687.38
437.17	2617.38
437.392	2607.38
437.614	2575.38
437.835	2529.38
438.057	2566.38
438.278	2552.38
438.5	2594.38
438.721	2623.38
438.943	2717.38
439.165	2715.38
439.386	2773.38
439.608	2728.38
439.829	2803.38
440.05	2825.38
440.272	2895.38
440.493	2766.38
440.715	2735.38
440.936	2722.38
441.158	2759.38
441.379	2813.38
441.6	2869.38
441.822	2946.38
442.043	3103.38
442.264	3256.38
442.486	2993.38
442.707	2893.38
442.928	2813.38
443.149	2840.38
443.371	2803.38
443.592	2858.38
443.813	2893.38
444.034	2908.38
444.255	2877.38
444.476	2980.38
444.698	3014.38
444.919	3037.38
445.14	3101.38
445.361	3002.38
445.582	2910.38
445.803	2851.38
446.024	2784.38
446.245	2834.38
446.466	2826.38
446.687	2785.38
446.908	2776.38
447.129	2713.38
447.35	2721.38
447.571	2656.38
447.792	2596.38
448.013	2616.38
448.234	2548.38
448.455	2620.38
448.675	2597.38
448.896	2713.38
449.117	2777.38
449.338	3046.38
449.559	3174.38
449.779	2837.38
450	2636.38
450.221	2568.38
450.442	2599.38
450.662	2606.38
450.883	2571.38
451.104	2564.38
451.324	2561.38
451.545	2567.38
451.766	2574.38
451.986	2602.38
452.207	2867.38
452.428	3643.38
452.648	5554.38
452.869	4574.38
453.089	3171.38
453.31	2986.38
453.53	3005.38
453.751	3055.38
453.971	3252.38
454.192	3119.38
454.412	2701.38
454.633	2561.38
454.853	2457.38
455.073	2486.38
455.294	2485.38
455.514	2497.38
455.734	2438.38
455.955	2405.38
456.175	2418.38
456.395	2433.38
456.616	2458.38
456.836	2550.38
457.056	2493.38
457.276	2507.38
457.497	2684.38
457.717	2699.38
457.937	2588.38
458.157	2587.38
458.377	2596.38
458.598	2637.38
458.818	2673.38
459.038	2637.38
459.258	2634.38
459.478	2645.38
459.698	2696.38
459.918	2739.38
460.138	2771.38
460.358	2893.38
460.578	2866.38
460.798	2850.38
461.018	2941.38
461.238	2943.38
461.458	2952.38
461.678	2891.38
461.898	2991.38
462.118	3025.38
462.338	3104.38
462.558	3149.38
462.777	3181.38
462.997	3326.38
463.217	3413.38
463.437	3538.38
463.657	3605.38
463.876	3651.38
464.096	3367.38
464.316	3253.38
464.536	3204.38
464.755	3145.38
464.975	3010.38
465.195	2944.38
465.414	2925.38
465.634	2814.38
465.854	2723.38
466.073	2697.38
466.293	2713.38
466.512	2654.38
466.732	2741.38
466.951	2824.38
467.171	3073.38
467.391	2981.38
467.61	2706.38
467.829	2682.38
468.049	2602.38
468.268	2578.38
468.488	2548.38
468.707	2583.38
468.927	2617.38
469.146	2562.38
469.365	2615.38
469.585	2641.38
469.804	2708.38
470.023	2761.38
470.243	2767.38
470.462	2866.38
470.681	3036.38
470.901	3397.38
471.12	3731.38
471.339	3796.38
471.558	3109.38
471.777	2880.38
471.997	2765.38
472.216	2721.38
472.435	2697.38
472.654	2665.38
472.873	2621.38
473.092	2674.38
473.311	2667.38
473.53	2647.38
473.749	2697.38
473.968	2757.38
474.187	2656.38
474.406	2619.38
474.625	2651.38
474.844	2655.38
475.063	2661.38
475.282	2661.38
475.501	2641.38
475.72	2660.38
475.939	2663.38
476.158	2741.38
476.377	2819.38
476.596	2771.38
476.814	2752.38
477.033	2789.38
477.252	2823.38
477.471	2838.38
477.69	2874.38
477.908	2961.38
478.127	2982.38
478.346	3010.38
478.564	3036.38
478.783	3045.38
479.002	3062.38
479.22	3123.38
479.439	3133.38
479.658	3123.38
479.876	3157.38
480.095	3176.38
480.313	3248.38
480.532	3260.38
480.751	3219.38
480.969	3174.38
481.188	3142.38
481.406	3197.38
481.624	3174.38
481.843	3169.38
482.061	3223.38
482.28	3181.38
482.498	3175.38
482.717	3211.38
482.935	3223.38
483.153	3193.38
483.372	3325.38
483.59	3274.38
483.808	3379.38
484.027	3463.38
484.245	3682.38
484.463	4191.38
484.681	4590.38
484.9	4131.38
485.118	3833.38
485.336	3757.38
485.554	3805.38
485.772	4099.38
485.99	4622.38
486.209	4897.38
486.427	4135.38
486.645	3707.38
486.863	3581.38
487.081	3501.38
487.299	3354.38
487.517	3352.38
487.735	3378.38
