Data from SnStandardFlinnAPT0064_LampEnergy5.5_LIBS07252019.E.O._I.C._HRD10591_15-17-13-492.txt Node
Date: Thu Jul 25 15:17:13 EDT 2019
User: cochatt
Spectrometer: HR+D1059
Trigger mode: 1
Integration Time (sec): 1.000000E-1
Scans to average: 1
Electric dark correction enabled: true
Nonlinearity correction enabled: false
Boxcar width: 0
XAxis mode: Wavelengths
Number of Pixels in Spectrum: 2048
>>>>>Begin Spectral Data<<<<<
223.165	-7.44
223.4	-7.44
223.635	-7.44
223.869	-13.44
224.104	-17.44
224.338	-16.44
224.573	-12.44
224.808	-12.44
225.042	-4.44
225.277	-16.44
225.511	-6.44
225.746	11.56
225.98	3.56
226.215	18.56
226.449	7.56
226.683	15.56
226.918	17.56
227.152	32.56
227.387	30.56
227.621	49.56
227.856	59.56
228.09	47.56
228.324	57.56
228.559	68.56
228.793	92.56
229.027	144.56
229.262	180.56
229.496	161.56
229.73	157.56
229.964	162.56
230.199	170.56
230.433	178.56
230.667	179.56
230.901	163.56
231.136	189.56
231.37	190.56
231.604	201.56
231.838	223.56
232.072	252.56
232.306	285.56
232.541	219.56
232.775	214.56
233.009	227.56
233.243	207.56
233.477	243.56
233.711	263.56
233.945	294.56
234.179	261.56
234.413	240.56
234.647	232.56
234.881	235.56
235.115	267.56
235.349	304.56
235.583	366.56
235.817	479.56
236.051	477.56
236.285	323.56
236.519	256.56
236.753	233.56
236.987	263.56
237.221	268.56
237.455	240.56
237.689	244.56
237.922	227.56
238.156	223.56
238.39	232.56
238.624	235.56
238.858	249.56
239.091	243.56
239.325	236.56
239.559	240.56
239.793	264.56
240.027	259.56
240.26	261.56
240.494	279.56
240.728	297.56
240.961	297.56
241.195	308.56
241.429	329.56
241.662	327.56
241.896	364.56
242.13	444.56
242.363	547.56
242.597	698.56
242.83	687.56
243.064	688.56
243.298	802.56
243.531	682.56
243.765	432.56
243.998	358.56
244.232	335.56
244.465	324.56
244.699	311.56
244.932	319.56
245.166	304.56
245.399	313.56
245.633	320.56
245.866	324.56
246.099	319.56
246.333	326.56
246.566	319.56
246.8	313.56
247.033	316.56
247.266	296.56
247.5	318.56
247.733	336.56
247.966	320.56
248.2	355.56
248.433	409.56
248.666	439.56
248.899	394.56
249.133	384.56
249.366	388.56
249.599	434.56
249.832	456.56
250.066	471.56
250.299	397.56
250.532	373.56
250.765	332.56
250.998	370.56
251.231	340.56
251.465	345.56
251.698	345.56
251.931	345.56
252.164	355.56
252.397	354.56
252.63	359.56
252.863	372.56
253.096	367.56
253.329	356.56
253.562	379.56
253.795	369.56
254.028	370.56
254.261	363.56
254.494	420.56
254.727	456.56
254.96	544.56
255.193	551.56
255.426	441.56
255.659	392.56
255.892	382.56
256.124	404.56
256.357	400.56
256.59	400.56
256.823	449.56
257.056	506.56
257.289	590.56
257.521	629.56
257.754	545.56
257.987	454.56
258.22	430.56
258.452	418.56
258.685	464.56
258.918	442.56
259.151	471.56
259.383	478.56
259.616	534.56
259.849	552.56
260.081	478.56
260.314	468.56
260.547	442.56
260.779	448.56
261.012	467.56
261.244	450.56
261.477	469.56
261.71	450.56
261.942	472.56
262.175	495.56
262.407	488.56
262.64	495.56
262.872	508.56
263.105	527.56
263.337	561.56
263.57	594.56
263.802	601.56
264.035	612.56
264.267	630.56
264.499	629.56
264.732	650.56
264.964	678.56
265.197	676.56
265.429	648.56
265.661	636.56
265.894	719.56
266.126	784.56
266.358	866.56
266.591	866.56
266.823	726.56
267.055	670.56
267.287	614.56
267.52	610.56
267.752	626.56
267.984	596.56
268.216	580.56
268.448	583.56
268.681	567.56
268.913	580.56
269.145	582.56
269.377	568.56
269.609	583.56
269.841	592.56
270.073	611.56
270.306	731.56
270.538	946.56
270.77	1390.56
271.002	1718.56
271.234	1211.56
271.466	793.56
271.698	673.56
271.93	615.56
272.162	580.56
272.394	593.56
272.626	560.56
272.858	554.56
273.09	595.56
273.322	553.56
273.553	562.56
273.785	584.56
274.017	565.56
274.249	550.56
274.481	550.56
274.713	558.56
274.945	560.56
275.176	572.56
275.408	560.56
275.64	577.56
275.872	563.56
276.104	582.56
276.335	577.56
276.567	579.56
276.799	588.56
277.031	571.56
277.262	603.56
277.494	616.56
277.726	668.56
277.957	787.56
278.189	875.56
278.421	817.56
278.652	754.56
278.884	726.56
279.115	640.56
279.347	652.56
279.579	620.56
279.81	615.56
280.042	607.56
280.273	639.56
280.505	650.56
280.736	659.56
280.968	702.56
281.199	747.56
281.431	835.56
281.662	866.56
281.894	757.56
282.125	687.56
282.356	730.56
282.588	744.56
282.819	747.56
283.051	802.56
283.282	885.56
283.513	1090.56
283.745	1542.56
283.976	2496.56
284.207	3606.56
284.439	3164.56
284.67	1889.56
284.901	1504.56
285.132	1457.56
285.364	1410.56
285.595	1134.56
285.826	1040.56
286.057	1247.56
286.288	1685.56
286.52	2250.56
286.751	2094.56
286.982	1264.56
287.213	937.56
287.444	844.56
287.675	812.56
287.906	786.56
288.138	779.56
288.369	743.56
288.6	750.56
288.831	770.56
289.062	746.56
289.293	752.56
289.524	738.56
289.755	735.56
289.986	734.56
290.217	750.56
290.448	754.56
290.679	753.56
290.91	788.56
291.141	808.56
291.371	832.56
291.602	852.56
291.833	827.56
292.064	770.56
292.295	724.56
292.526	726.56
292.757	714.56
292.987	720.56
293.218	700.56
293.449	700.56
293.68	694.56
293.91	699.56
294.141	705.56
294.372	710.56
294.603	707.56
294.833	702.56
295.064	688.56
295.295	707.56
295.525	696.56
295.756	696.56
295.987	720.56
296.217	700.56
296.448	696.56
296.679	696.56
296.909	699.56
297.14	714.56
297.37	727.56
297.601	739.56
297.831	726.56
298.062	734.56
298.292	731.56
298.523	737.56
298.753	745.56
298.984	748.56
299.214	750.56
299.445	772.56
299.675	777.56
299.905	796.56
300.136	847.56
300.366	956.56
300.597	1164.56
300.827	1664.56
301.057	2214.56
301.288	2219.56
301.518	1398.56
301.748	1080.56
301.979	976.56
302.209	960.56
302.439	995.56
302.669	1023.56
302.9	1235.56
303.13	1729.56
303.36	2575.56
303.59	3478.56
303.82	3003.56
304.051	1716.56
304.281	1229.56
304.511	1034.56
304.741	950.56
304.971	908.56
305.201	874.56
305.431	879.56
305.661	866.56
305.891	848.56
306.121	823.56
306.352	827.56
306.582	830.56
306.812	830.56
307.042	829.56
307.272	807.56
307.502	818.56
307.731	800.56
307.961	812.56
308.191	804.56
308.421	809.56
308.651	832.56
308.881	823.56
309.111	820.56
309.341	832.56
309.571	822.56
309.8	834.56
310.03	810.56
310.26	849.56
310.49	820.56
310.72	845.56
310.949	852.56
311.179	848.56
311.409	829.56
311.639	852.56
311.868	850.56
312.098	875.56
312.328	870.56
312.557	865.56
312.787	874.56
313.017	886.56
313.246	888.56
313.476	891.56
313.706	929.56
313.935	971.56
314.165	986.56
314.394	1045.56
314.624	989.56
314.853	964.56
315.083	963.56
315.312	951.56
315.542	948.56
315.771	960.56
316.001	987.56
316.23	1000.56
316.46	1036.56
316.689	1137.56
316.919	1344.56
317.148	1984.56
317.377	3059.56
317.607	4600.56
317.836	4694.56
318.065	2671.56
318.295	1790.56
318.524	1399.56
318.753	1228.56
318.983	1128.56
319.212	1055.56
319.441	1066.56
319.67	1064.56
319.9	1047.56
320.129	983.56
320.358	1028.56
320.587	1015.56
320.816	1023.56
321.046	1048.56
321.275	1032.56
321.504	1030.56
321.733	1068.56
321.962	1063.56
322.191	1108.56
322.42	1074.56
322.649	1099.56
322.878	1078.56
323.108	1048.56
323.337	1101.56
323.566	1123.56
323.795	1116.56
324.024	1126.56
324.253	1146.56
324.482	1191.56
324.71	1254.56
324.939	1367.56
325.168	1354.56
325.397	1430.56
325.626	1655.56
325.855	2340.56
326.084	3762.56
326.313	5580.56
326.542	5899.56
326.77	3729.56
326.999	2352.56
327.228	1959.56
327.457	1891.56
327.686	1926.56
327.914	2048.56
328.143	2319.56
328.372	2714.56
328.6	2956.56
328.829	2712.56
329.058	2292.56
329.287	2058.56
329.515	1918.56
329.744	1734.56
329.972	1693.56
330.201	1622.56
330.43	1524.56
330.658	1520.56
330.887	1511.56
331.115	1486.56
331.344	1470.56
331.572	1477.56
331.801	1478.56
332.03	1477.56
332.258	1499.56
332.486	1569.56
332.715	1808.56
332.943	2174.56
333.172	2660.56
333.4	2694.56
333.629	2053.56
333.857	1858.56
334.085	1882.56
334.314	1913.56
334.542	2107.56
334.771	2424.56
334.999	2893.56
335.227	3530.56
335.455	3944.56
335.684	3636.56
335.912	3030.56
336.14	2670.56
336.369	2386.56
336.597	2165.56
336.825	2010.56
337.053	1875.56
337.281	1790.56
337.51	1706.56
337.738	1641.56
337.966	1624.56
338.194	1543.56
338.422	1501.56
338.65	1468.56
338.878	1422.56
339.106	1426.56
339.334	1383.56
339.562	1375.56
339.79	1346.56
340.018	1323.56
340.246	1352.56
340.474	1292.56
340.702	1293.56
340.93	1311.56
341.158	1305.56
341.386	1281.56
341.614	1289.56
341.842	1275.56
342.07	1217.56
342.298	1238.56
342.526	1212.56
342.754	1206.56
342.981	1191.56
343.209	1220.56
343.437	1200.56
343.665	1209.56
343.893	1238.56
344.12	1213.56
344.348	1218.56
344.576	1182.56
344.804	1190.56
345.031	1190.56
345.259	1162.56
345.487	1149.56
345.714	1122.56
345.942	1141.56
346.17	1115.56
346.397	1128.56
346.625	1138.56
346.853	1100.56
347.08	1098.56
347.308	1141.56
347.535	1092.56
347.763	1140.56
347.99	1125.56
348.218	1097.56
348.445	1096.56
348.673	1099.56
348.9	1112.56
349.128	1081.56
349.355	1046.56
349.583	1059.56
349.81	1074.56
350.037	1056.56
350.265	1078.56
350.492	1058.56
350.72	1078.56
350.947	1053.56
351.174	1087.56
351.402	1099.56
351.629	1061.56
351.856	1052.56
352.083	1076.56
352.311	1074.56
352.538	1071.56
352.765	1064.56
352.992	1030.56
353.22	1046.56
353.447	1061.56
353.674	1066.56
353.901	1079.56
354.128	1070.56
354.355	1070.56
354.583	1077.56
354.81	1080.56
355.037	1053.56
355.264	1072.56
355.491	1084.56
355.718	1096.56
355.945	1093.56
356.172	1097.56
356.399	1107.56
356.626	1122.56
356.853	1117.56
357.08	1086.56
357.307	1112.56
357.534	1130.56
357.761	1109.56
357.988	1129.56
358.215	1161.56
358.441	1143.56
358.668	1114.56
358.895	1107.56
359.122	1134.56
359.349	1128.56
359.576	1119.56
359.802	1123.56
360.029	1134.56
360.256	1114.56
360.483	1129.56
360.709	1124.56
360.936	1159.56
361.163	1137.56
361.39	1134.56
361.616	1158.56
361.843	1157.56
362.07	1150.56
362.296	1139.56
362.523	1118.56
362.749	1158.56
362.976	1139.56
363.203	1124.56
363.429	1123.56
363.656	1130.56
363.882	1118.56
364.109	1134.56
364.335	1138.56
364.562	1139.56
364.788	1115.56
365.015	1157.56
365.241	1161.56
365.468	1202.56
365.694	1252.56
365.92	1222.56
366.147	1162.56
366.373	1159.56
366.599	1135.56
366.826	1128.56
367.052	1147.56
367.278	1158.56
367.505	1139.56
367.731	1156.56
367.957	1155.56
368.184	1166.56
368.41	1158.56
368.636	1187.56
368.862	1139.56
369.089	1177.56
369.315	1198.56
369.541	1178.56
369.767	1157.56
369.993	1155.56
370.219	1164.56
370.445	1219.56
370.672	1224.56
370.898	1204.56
371.124	1187.56
371.35	1191.56
371.576	1201.56
371.802	1225.56
372.028	1214.56
372.254	1214.56
372.48	1239.56
372.706	1234.56
372.932	1270.56
373.158	1239.56
373.384	1237.56
373.61	1233.56
373.835	1236.56
374.061	1249.56
374.287	1248.56
374.513	1270.56
374.739	1272.56
374.965	1271.56
375.191	1296.56
375.416	1267.56
375.642	1268.56
375.868	1274.56
376.094	1221.56
376.319	1250.56
376.545	1243.56
376.771	1218.56
376.997	1242.56
377.222	1208.56
377.448	1209.56
377.674	1205.56
377.899	1234.56
378.125	1227.56
378.35	1198.56
378.576	1232.56
378.802	1209.56
379.027	1252.56
379.253	1252.56
379.478	1355.56
379.704	1553.56
379.929	2188.56
380.155	3338.56
380.38	3613.56
380.606	2170.56
380.831	1530.56
381.057	1362.56
381.282	1284.56
381.507	1252.56
381.733	1230.56
381.958	1238.56
382.184	1191.56
382.409	1198.56
382.634	1200.56
382.86	1201.56
383.085	1179.56
383.31	1226.56
383.535	1219.56
383.761	1212.56
383.986	1204.56
384.211	1206.56
384.436	1214.56
384.662	1208.56
384.887	1212.56
385.112	1251.56
385.337	1253.56
385.562	1226.56
385.787	1254.56
386.013	1289.56
386.238	1254.56
386.463	1249.56
386.688	1273.56
386.913	1212.56
387.138	1270.56
387.363	1248.56
387.588	1217.56
387.813	1259.56
388.038	1169.56
388.263	1242.56
388.488	1243.56
388.713	1223.56
388.938	1245.56
389.163	1258.56
389.387	1284.56
389.612	1251.56
389.837	1283.56
390.062	1248.56
390.287	1253.56
390.512	1253.56
390.736	1272.56
390.961	1275.56
391.186	1306.56
391.411	1294.56
391.636	1332.56
391.86	1310.56
392.085	1316.56
392.31	1298.56
392.534	1322.56
392.759	1244.56
392.984	1268.56
393.208	1302.56
393.433	1347.56
393.658	1297.56
393.882	1255.56
394.107	1278.56
394.331	1274.56
394.556	1303.56
394.78	1275.56
395.005	1278.56
395.229	1276.56
395.454	1276.56
395.678	1291.56
395.903	1301.56
396.127	1318.56
396.352	1266.56
396.576	1307.56
396.801	1279.56
397.025	1304.56
397.249	1273.56
397.474	1315.56
397.698	1358.56
397.922	1318.56
398.147	1308.56
398.371	1332.56
398.595	1362.56
398.82	1388.56
399.044	1447.56
399.268	1481.56
399.492	1576.56
399.717	1666.56
399.941	1650.56
400.165	1584.56
400.389	1536.56
400.613	1468.56
400.837	1408.56
401.062	1403.56
401.286	1413.56
401.51	1413.56
401.734	1357.56
401.958	1374.56
402.182	1370.56
402.406	1369.56
402.63	1386.56
402.854	1412.56
403.078	1414.56
403.302	1417.56
403.526	1425.56
403.75	1393.56
403.974	1407.56
404.198	1407.56
404.422	1466.56
404.645	1420.56
404.869	1434.56
405.093	1426.56
405.317	1409.56
405.541	1414.56
405.765	1449.56
405.988	1444.56
406.212	1475.56
406.436	1462.56
406.66	1469.56
406.883	1446.56
407.107	1521.56
407.331	1538.56
407.555	1567.56
407.778	1490.56
408.002	1476.56
408.226	1525.56
408.449	1517.56
408.673	1458.56
408.896	1444.56
409.12	1419.56
409.344	1458.56
409.567	1428.56
409.791	1411.56
410.014	1458.56
410.238	1415.56
410.461	1406.56
410.685	1399.56
410.908	1422.56
411.132	1391.56
411.355	1371.56
411.578	1394.56
411.802	1367.56
412.025	1364.56
412.249	1373.56
412.472	1393.56
412.695	1376.56
412.919	1380.56
413.142	1354.56
413.365	1376.56
413.589	1340.56
413.812	1352.56
414.035	1364.56
414.258	1376.56
414.482	1360.56
414.705	1350.56
414.928	1339.56
415.151	1354.56
415.374	1343.56
415.597	1363.56
415.821	1323.56
416.044	1319.56
416.267	1310.56
416.49	1305.56
416.713	1296.56
416.936	1296.56
417.159	1280.56
417.382	1277.56
417.605	1286.56
417.828	1295.56
418.051	1321.56
418.274	1302.56
418.497	1303.56
418.72	1344.56
418.943	1353.56
419.166	1382.56
419.389	1447.56
419.611	1435.56
419.834	1375.56
420.057	1394.56
420.28	1325.56
420.503	1318.56
420.726	1319.56
420.948	1301.56
421.171	1295.56
421.394	1291.56
421.617	1328.56
421.839	1328.56
422.062	1340.56
422.285	1297.56
422.507	1307.56
422.73	1339.56
422.953	1348.56
423.175	1357.56
423.398	1311.56
423.621	1347.56
423.843	1321.56
424.066	1339.56
424.288	1328.56
424.511	1321.56
424.733	1317.56
424.956	1295.56
425.178	1312.56
425.401	1281.56
425.623	1305.56
425.846	1253.56
426.068	1285.56
426.291	1280.56
426.513	1246.56
426.735	1235.56
426.958	1227.56
427.18	1204.56
427.402	1224.56
427.625	1260.56
427.847	1228.56
428.069	1195.56
428.292	1225.56
428.514	1217.56
428.736	1236.56
428.958	1248.56
429.181	1195.56
429.403	1198.56
429.625	1204.56
429.847	1209.56
430.069	1206.56
430.292	1249.56
430.514	1296.56
430.736	1272.56
430.958	1255.56
431.18	1201.56
431.402	1223.56
431.624	1190.56
431.846	1176.56
432.068	1170.56
432.29	1206.56
432.512	1189.56
432.734	1182.56
432.956	1195.56
433.178	1243.56
433.4	1207.56
433.622	1206.56
433.844	1191.56
434.066	1194.56
434.287	1186.56
434.509	1222.56
434.731	1184.56
434.953	1227.56
435.175	1263.56
435.397	1250.56
435.618	1192.56
435.84	1176.56
436.062	1217.56
436.284	1187.56
436.505	1190.56
436.727	1176.56
436.949	1180.56
437.17	1186.56
437.392	1186.56
437.614	1165.56
437.835	1153.56
438.057	1142.56
438.278	1130.56
438.5	1186.56
438.721	1214.56
438.943	1225.56
439.165	1239.56
439.386	1227.56
439.608	1251.56
439.829	1233.56
440.05	1279.56
440.272	1278.56
440.493	1254.56
440.715	1254.56
440.936	1251.56
441.158	1262.56
441.379	1258.56
441.6	1321.56
441.822	1350.56
442.043	1403.56
442.264	1481.56
442.486	1363.56
442.707	1292.56
442.928	1291.56
443.149	1289.56
443.371	1289.56
443.592	1304.56
443.813	1291.56
444.034	1293.56
444.255	1318.56
444.476	1321.56
444.698	1352.56
444.919	1368.56
445.14	1488.56
445.361	1401.56
445.582	1313.56
445.803	1261.56
446.024	1294.56
446.245	1280.56
446.466	1286.56
446.687	1253.56
446.908	1280.56
447.129	1236.56
447.35	1203.56
447.571	1197.56
447.792	1198.56
448.013	1200.56
448.234	1182.56
448.455	1178.56
448.675	1216.56
448.896	1211.56
449.117	1254.56
449.338	1365.56
449.559	1427.56
449.779	1246.56
450	1154.56
450.221	1167.56
450.442	1169.56
450.662	1150.56
450.883	1164.56
451.104	1163.56
451.324	1131.56
451.545	1166.56
451.766	1172.56
451.986	1159.56
452.207	1230.56
452.428	1532.56
452.648	2154.56
452.869	1823.56
453.089	1350.56
453.31	1269.56
453.53	1278.56
453.751	1316.56
453.971	1390.56
454.192	1396.56
454.412	1198.56
454.633	1133.56
454.853	1118.56
455.073	1100.56
455.294	1123.56
455.514	1114.56
455.734	1089.56
455.955	1082.56
456.175	1080.56
456.395	1082.56
456.616	1091.56
456.836	1132.56
457.056	1107.56
457.276	1127.56
457.497	1179.56
457.717	1194.56
457.937	1152.56
458.157	1156.56
458.377	1167.56
458.598	1146.56
458.818	1187.56
459.038	1162.56
459.258	1180.56
459.478	1186.56
459.698	1185.56
459.918	1239.56
460.138	1274.56
460.358	1241.56
460.578	1264.56
460.798	1293.56
461.018	1264.56
461.238	1286.56
461.458	1282.56
461.678	1305.56
461.898	1360.56
462.118	1324.56
462.338	1351.56
462.558	1402.56
462.777	1410.56
462.997	1464.56
463.217	1521.56
463.437	1584.56
463.657	1589.56
463.876	1574.56
464.096	1495.56
464.316	1419.56
464.536	1439.56
464.755	1373.56
464.975	1366.56
465.195	1328.56
465.414	1278.56
465.634	1257.56
465.854	1202.56
466.073	1214.56
466.293	1233.56
466.512	1188.56
466.732	1233.56
466.951	1285.56
467.171	1337.56
467.391	1291.56
467.61	1231.56
467.829	1177.56
468.049	1209.56
468.268	1155.56
468.488	1170.56
468.707	1170.56
468.927	1144.56
469.146	1215.56
469.365	1190.56
469.585	1185.56
469.804	1198.56
470.023	1236.56
470.243	1232.56
470.462	1271.56
470.681	1316.56
470.901	1438.56
471.12	1696.56
471.339	1728.56
471.558	1438.56
471.777	1306.56
471.997	1232.56
472.216	1195.56
472.435	1188.56
472.654	1187.56
472.873	1147.56
473.092	1164.56
473.311	1200.56
473.53	1186.56
473.749	1233.56
473.968	1219.56
474.187	1223.56
474.406	1182.56
474.625	1175.56
474.844	1201.56
475.063	1218.56
475.282	1164.56
475.501	1206.56
475.72	1204.56
475.939	1199.56
476.158	1213.56
476.377	1247.56
476.596	1235.56
476.814	1226.56
477.033	1229.56
477.252	1237.56
477.471	1249.56
477.69	1319.56
477.908	1310.56
478.127	1302.56
478.346	1356.56
478.564	1365.56
478.783	1376.56
479.002	1384.56
479.22	1394.56
479.439	1396.56
479.658	1383.56
479.876	1407.56
480.095	1383.56
480.313	1404.56
480.532	1474.56
480.751	1433.56
480.969	1408.56
481.188	1392.56
481.406	1377.56
481.624	1392.56
481.843	1406.56
482.061	1391.56
482.28	1409.56
482.498	1391.56
482.717	1397.56
482.935	1465.56
483.153	1458.56
483.372	1483.56
483.59	1478.56
483.808	1475.56
484.027	1542.56
484.245	1603.56
484.463	1797.56
484.681	2034.56
484.9	1786.56
485.118	1676.56
485.336	1625.56
485.554	1672.56
485.772	1730.56
485.99	2007.56
486.209	2178.56
486.427	1784.56
486.645	1623.56
486.863	1589.56
487.081	1544.56
487.299	1528.56
487.517	1520.56
487.735	1473.56
487.953	1544.56
488.171	1532.56
488.389	1503.56
488.607	1483.56
488.825	1472.56
489.043	1431.56
489.261	1443.56
489.479	1438.56
489.696	1461.56
489.914	1480.56
490.132	1490.56
490.35	1498.56
490.568	1475.56
490.786	1487.56
