Data from SnStandardFlinnAPT0064_LampEnergy5.5_LIBS07252019.E.O._I.C._HRD10591_15-15-26-491.txt Node
Date: Thu Jul 25 15:15:26 EDT 2019
User: cochatt
Spectrometer: HR+D1059
Trigger mode: 1
Integration Time (sec): 1.000000E-1
Scans to average: 1
Electric dark correction enabled: true
Nonlinearity correction enabled: false
Boxcar width: 0
XAxis mode: Wavelengths
Number of Pixels in Spectrum: 2048
>>>>>Begin Spectral Data<<<<<
223.165	-5.56
223.4	-5.56
223.635	-5.56
223.869	-17.56
224.104	-34.56
224.338	-28.56
224.573	-6.56
224.808	-11.56
225.042	-6.56
225.277	2.44
225.511	4.44
225.746	7.44
225.98	-5.56
226.215	12.44
226.449	19.44
226.683	15.44
226.918	24.44
227.152	30.44
227.387	30.44
227.621	26.44
227.856	40.44
228.09	53.44
228.324	50.44
228.559	63.44
228.793	89.44
229.027	127.44
229.262	150.44
229.496	161.44
229.73	140.44
229.964	164.44
230.199	154.44
230.433	168.44
230.667	169.44
230.901	177.44
231.136	160.44
231.37	162.44
231.604	182.44
231.838	217.44
232.072	214.44
232.306	227.44
232.541	202.44
232.775	201.44
233.009	206.44
233.243	216.44
233.477	220.44
233.711	244.44
233.945	256.44
234.179	233.44
234.413	208.44
234.647	206.44
234.881	216.44
235.115	257.44
235.349	276.44
235.583	324.44
235.817	396.44
236.051	394.44
236.285	271.44
236.519	263.44
236.753	216.44
236.987	239.44
237.221	226.44
237.455	233.44
237.689	218.44
237.922	228.44
238.156	214.44
238.39	212.44
238.624	230.44
238.858	225.44
239.091	238.44
239.325	220.44
239.559	224.44
239.793	221.44
240.027	252.44
240.26	270.44
240.494	267.44
240.728	268.44
240.961	261.44
241.195	260.44
241.429	286.44
241.662	299.44
241.896	318.44
242.13	374.44
242.363	459.44
242.597	571.44
242.83	564.44
243.064	551.44
243.298	637.44
243.531	558.44
243.765	366.44
243.998	321.44
244.232	300.44
244.465	285.44
244.699	281.44
244.932	295.44
245.166	288.44
245.399	319.44
245.633	302.44
245.866	300.44
246.099	287.44
246.333	282.44
246.566	286.44
246.8	294.44
247.033	283.44
247.266	299.44
247.5	283.44
247.733	307.44
247.966	300.44
248.2	307.44
248.433	360.44
248.666	391.44
248.899	389.44
249.133	354.44
249.366	354.44
249.599	368.44
249.832	403.44
250.066	393.44
250.299	358.44
250.532	348.44
250.765	337.44
250.998	312.44
251.231	334.44
251.465	327.44
251.698	308.44
251.931	335.44
252.164	338.44
252.397	350.44
252.63	339.44
252.863	350.44
253.096	326.44
253.329	330.44
253.562	345.44
253.795	335.44
254.028	339.44
254.261	354.44
254.494	358.44
254.727	424.44
254.96	467.44
255.193	470.44
255.426	410.44
255.659	382.44
255.892	352.44
256.124	374.44
256.357	379.44
256.59	376.44
256.823	399.44
257.056	443.44
257.289	500.44
257.521	542.44
257.754	457.44
257.987	404.44
258.22	404.44
258.452	395.44
258.685	400.44
258.918	423.44
259.151	411.44
259.383	443.44
259.616	472.44
259.849	496.44
260.081	442.44
260.314	416.44
260.547	401.44
260.779	409.44
261.012	435.44
261.244	448.44
261.477	429.44
261.71	443.44
261.942	432.44
262.175	420.44
262.407	454.44
262.64	444.44
262.872	483.44
263.105	508.44
263.337	499.44
263.57	545.44
263.802	565.44
264.035	550.44
264.267	578.44
264.499	570.44
264.732	615.44
264.964	603.44
265.197	594.44
265.429	619.44
265.661	612.44
265.894	652.44
266.126	676.44
266.358	751.44
266.591	720.44
266.823	675.44
267.055	623.44
267.287	610.44
267.52	582.44
267.752	565.44
267.984	556.44
268.216	532.44
268.448	523.44
268.681	535.44
268.913	550.44
269.145	511.44
269.377	536.44
269.609	534.44
269.841	539.44
270.073	575.44
270.306	635.44
270.538	811.44
270.77	1111.44
271.002	1306.44
271.234	972.44
271.466	721.44
271.698	576.44
271.93	576.44
272.162	548.44
272.394	554.44
272.626	534.44
272.858	533.44
273.09	532.44
273.322	539.44
273.553	505.44
273.785	522.44
274.017	519.44
274.249	515.44
274.481	524.44
274.713	514.44
274.945	501.44
275.176	534.44
275.408	522.44
275.64	519.44
275.872	488.44
276.104	516.44
276.335	530.44
276.567	531.44
276.799	543.44
277.031	550.44
277.262	547.44
277.494	571.44
277.726	618.44
277.957	683.44
278.189	720.44
278.421	705.44
278.652	652.44
278.884	652.44
279.115	600.44
279.347	581.44
279.579	580.44
279.81	588.44
280.042	580.44
280.273	616.44
280.505	590.44
280.736	611.44
280.968	624.44
281.199	665.44
281.431	740.44
281.662	760.44
281.894	671.44
282.125	656.44
282.356	666.44
282.588	666.44
282.819	680.44
283.051	690.44
283.282	765.44
283.513	927.44
283.745	1269.44
283.976	1974.44
284.207	2736.44
284.439	2469.44
284.67	1568.44
284.901	1265.44
285.132	1236.44
285.364	1154.44
285.595	961.44
285.826	905.44
286.057	1072.44
286.288	1351.44
286.52	1748.44
286.751	1636.44
286.982	1091.44
287.213	880.44
287.444	798.44
287.675	739.44
287.906	716.44
288.138	680.44
288.369	690.44
288.6	717.44
288.831	707.44
289.062	673.44
289.293	672.44
289.524	694.44
289.755	709.44
289.986	697.44
290.217	724.44
290.448	699.44
290.679	699.44
290.91	697.44
291.141	724.44
291.371	752.44
291.602	759.44
291.833	742.44
292.064	683.44
292.295	671.44
292.526	668.44
292.757	678.44
292.987	663.44
293.218	641.44
293.449	670.44
293.68	666.44
293.91	644.44
294.141	664.44
294.372	659.44
294.603	656.44
294.833	653.44
295.064	636.44
295.295	688.44
295.525	659.44
295.756	651.44
295.987	657.44
296.217	664.44
296.448	652.44
296.679	651.44
296.909	663.44
297.14	657.44
297.37	675.44
297.601	671.44
297.831	658.44
298.062	696.44
298.292	676.44
298.523	682.44
298.753	680.44
298.984	691.44
299.214	726.44
299.445	721.44
299.675	703.44
299.905	738.44
300.136	757.44
300.366	835.44
300.597	1000.44
300.827	1355.44
301.057	1686.44
301.288	1708.44
301.518	1224.44
301.748	942.44
301.979	902.44
302.209	860.44
302.439	848.44
302.669	906.44
302.9	1063.44
303.13	1434.44
303.36	1940.44
303.59	2592.44
303.82	2320.44
304.051	1420.44
304.281	1090.44
304.511	968.44
304.741	874.44
304.971	855.44
305.201	831.44
305.431	797.44
305.661	795.44
305.891	758.44
306.121	759.44
306.352	788.44
306.582	745.44
306.812	750.44
307.042	778.44
307.272	765.44
307.502	762.44
307.731	730.44
307.961	778.44
308.191	725.44
308.421	763.44
308.651	743.44
308.881	754.44
309.111	755.44
309.341	783.44
309.571	775.44
309.8	763.44
310.03	786.44
310.26	779.44
310.49	774.44
310.72	767.44
310.949	768.44
311.179	784.44
311.409	778.44
311.639	799.44
311.868	789.44
312.098	792.44
312.328	816.44
312.557	810.44
312.787	822.44
313.017	794.44
313.246	821.44
313.476	806.44
313.706	831.44
313.935	864.44
314.165	894.44
314.394	910.44
314.624	888.44
314.853	870.44
315.083	862.44
315.312	883.44
315.542	878.44
315.771	858.44
316.001	890.44
316.23	905.44
316.46	957.44
316.689	996.44
316.919	1163.44
317.148	1622.44
317.377	2358.44
317.607	3432.44
317.836	3528.44
318.065	2211.44
318.295	1492.44
318.524	1223.44
318.753	1097.44
318.983	1027.44
319.212	992.44
319.441	991.44
319.67	969.44
319.9	943.44
320.129	963.44
320.358	964.44
320.587	975.44
320.816	979.44
321.046	943.44
321.275	950.44
321.504	940.44
321.733	957.44
321.962	978.44
322.191	954.44
322.42	994.44
322.649	985.44
322.878	984.44
323.108	990.44
323.337	1020.44
323.566	1009.44
323.795	1047.44
324.024	1060.44
324.253	1065.44
324.482	1096.44
324.71	1145.44
324.939	1188.44
325.168	1206.44
325.397	1257.44
325.626	1451.44
325.855	1919.44
326.084	2936.44
326.313	4216.44
326.542	4567.44
326.77	2985.44
326.999	2062.44
327.228	1766.44
327.457	1742.44
327.686	1713.44
327.914	1827.44
328.143	2112.44
328.372	2374.44
328.6	2551.44
328.829	2404.44
329.058	2140.44
329.287	1889.44
329.515	1778.44
329.744	1652.44
329.972	1559.44
330.201	1502.44
330.43	1439.44
330.658	1432.44
330.887	1382.44
331.115	1415.44
331.344	1387.44
331.572	1346.44
331.801	1366.44
332.03	1387.44
332.258	1410.44
332.486	1443.44
332.715	1587.44
332.943	1880.44
333.172	2234.44
333.4	2209.44
333.629	1823.44
333.857	1652.44
334.085	1702.44
334.314	1820.44
334.542	1932.44
334.771	2194.44
334.999	2582.44
335.227	3124.44
335.455	3484.44
335.684	3186.44
335.912	2770.44
336.14	2435.44
336.369	2187.44
336.597	1981.44
336.825	1875.44
337.053	1790.44
337.281	1655.44
337.51	1558.44
337.738	1544.44
337.966	1470.44
338.194	1440.44
338.422	1391.44
338.65	1371.44
338.878	1361.44
339.106	1298.44
339.334	1314.44
339.562	1246.44
339.79	1237.44
340.018	1238.44
340.246	1213.44
340.474	1246.44
340.702	1223.44
340.93	1221.44
341.158	1247.44
341.386	1226.44
341.614	1218.44
341.842	1219.44
342.07	1170.44
342.298	1148.44
342.526	1119.44
342.754	1108.44
342.981	1131.44
343.209	1104.44
343.437	1115.44
343.665	1160.44
343.893	1138.44
344.12	1195.44
344.348	1151.44
344.576	1154.44
344.804	1131.44
345.031	1102.44
345.259	1091.44
345.487	1082.44
345.714	1057.44
345.942	1057.44
346.17	1047.44
346.397	1036.44
346.625	1027.44
346.853	1030.44
347.08	1039.44
347.308	1060.44
347.535	1029.44
347.763	1021.44
347.99	1028.44
348.218	1012.44
348.445	1016.44
348.673	1020.44
348.9	1027.44
349.128	1009.44
349.355	994.44
349.583	1024.44
349.81	995.44
350.037	1005.44
350.265	1001.44
350.492	1026.44
350.72	1030.44
350.947	971.44
351.174	986.44
351.402	999.44
351.629	1009.44
351.856	985.44
352.083	1015.44
352.311	959.44
352.538	985.44
352.765	981.44
352.992	954.44
353.22	997.44
353.447	986.44
353.674	979.44
353.901	983.44
354.128	1006.44
354.355	969.44
354.583	997.44
354.81	983.44
355.037	1025.44
355.264	1030.44
355.491	994.44
355.718	1029.44
355.945	1008.44
356.172	1028.44
356.399	1003.44
356.626	1012.44
356.853	1030.44
357.08	1010.44
357.307	1036.44
357.534	1057.44
357.761	1065.44
357.988	1058.44
358.215	1053.44
358.441	1070.44
358.668	1050.44
358.895	1066.44
359.122	1047.44
359.349	1041.44
359.576	1055.44
359.802	1044.44
360.029	1035.44
360.256	1046.44
360.483	1063.44
360.709	1037.44
360.936	1092.44
361.163	1087.44
361.39	1048.44
361.616	1063.44
361.843	1063.44
362.07	1071.44
362.296	1070.44
362.523	1074.44
362.749	1078.44
362.976	1073.44
363.203	1042.44
363.429	1030.44
363.656	1028.44
363.882	1063.44
364.109	1063.44
364.335	1022.44
364.562	1048.44
364.788	1028.44
365.015	1047.44
365.241	1051.44
365.468	1099.44
365.694	1162.44
365.92	1140.44
366.147	1063.44
366.373	1099.44
366.599	1087.44
366.826	1058.44
367.052	1064.44
367.278	1090.44
367.505	1067.44
367.731	1097.44
367.957	1065.44
368.184	1057.44
368.41	1110.44
368.636	1100.44
368.862	1137.44
369.089	1096.44
369.315	1091.44
369.541	1091.44
369.767	1087.44
369.993	1104.44
370.219	1096.44
370.445	1116.44
370.672	1105.44
370.898	1103.44
371.124	1100.44
371.35	1106.44
371.576	1132.44
371.802	1131.44
372.028	1119.44
372.254	1123.44
372.48	1139.44
372.706	1178.44
372.932	1150.44
373.158	1177.44
373.384	1147.44
373.61	1124.44
373.835	1168.44
374.061	1160.44
374.287	1149.44
374.513	1158.44
374.739	1206.44
374.965	1193.44
375.191	1192.44
375.416	1206.44
375.642	1188.44
375.868	1140.44
376.094	1153.44
376.319	1148.44
376.545	1152.44
376.771	1158.44
376.997	1138.44
377.222	1154.44
377.448	1152.44
377.674	1135.44
377.899	1130.44
378.125	1121.44
378.35	1098.44
378.576	1107.44
378.802	1148.44
379.027	1135.44
379.253	1157.44
379.478	1192.44
379.704	1363.44
379.929	1812.44
380.155	2599.44
380.38	2706.44
380.606	1784.44
380.831	1388.44
381.057	1255.44
381.282	1189.44
381.507	1146.44
381.733	1164.44
381.958	1127.44
382.184	1151.44
382.409	1100.44
382.634	1114.44
382.86	1101.44
383.085	1113.44
383.31	1132.44
383.535	1153.44
383.761	1146.44
383.986	1154.44
384.211	1151.44
384.436	1165.44
384.662	1161.44
384.887	1160.44
385.112	1179.44
385.337	1147.44
385.562	1174.44
385.787	1198.44
386.013	1201.44
386.238	1163.44
386.463	1201.44
386.688	1189.44
386.913	1177.44
387.138	1158.44
387.363	1176.44
387.588	1165.44
387.813	1158.44
388.038	1135.44
388.263	1185.44
388.488	1157.44
388.713	1153.44
388.938	1161.44
389.163	1149.44
389.387	1158.44
389.612	1170.44
389.837	1168.44
390.062	1150.44
390.287	1179.44
390.512	1170.44
390.736	1169.44
390.961	1200.44
391.186	1241.44
391.411	1204.44
391.636	1224.44
391.86	1229.44
392.085	1232.44
392.31	1206.44
392.534	1185.44
392.759	1211.44
392.984	1169.44
393.208	1200.44
393.433	1162.44
393.658	1170.44
393.882	1179.44
394.107	1165.44
394.331	1201.44
394.556	1205.44
394.78	1223.44
395.005	1202.44
395.229	1178.44
395.454	1174.44
395.678	1224.44
395.903	1189.44
396.127	1195.44
396.352	1183.44
396.576	1199.44
396.801	1186.44
397.025	1210.44
397.249	1246.44
397.474	1226.44
397.698	1216.44
397.922	1254.44
398.147	1263.44
398.371	1282.44
398.595	1324.44
398.82	1310.44
399.044	1343.44
399.268	1426.44
399.492	1520.44
399.717	1571.44
399.941	1560.44
400.165	1487.44
400.389	1408.44
400.613	1360.44
400.837	1330.44
401.062	1331.44
401.286	1316.44
401.51	1307.44
401.734	1310.44
401.958	1310.44
402.182	1313.44
402.406	1315.44
402.63	1299.44
402.854	1319.44
403.078	1313.44
403.302	1361.44
403.526	1345.44
403.75	1344.44
403.974	1353.44
404.198	1351.44
404.422	1357.44
404.645	1371.44
404.869	1318.44
405.093	1374.44
405.317	1352.44
405.541	1359.44
405.765	1360.44
405.988	1388.44
406.212	1370.44
406.436	1376.44
406.66	1399.44
406.883	1408.44
407.107	1418.44
407.331	1414.44
407.555	1477.44
407.778	1489.44
408.002	1474.44
408.226	1404.44
408.449	1400.44
408.673	1376.44
408.896	1383.44
409.12	1361.44
409.344	1348.44
409.567	1350.44
409.791	1387.44
410.014	1322.44
410.238	1345.44
410.461	1344.44
410.685	1298.44
410.908	1300.44
411.132	1324.44
411.355	1289.44
411.578	1335.44
411.802	1264.44
412.025	1286.44
412.249	1289.44
412.472	1317.44
412.695	1300.44
412.919	1238.44
413.142	1268.44
413.365	1254.44
413.589	1275.44
413.812	1236.44
414.035	1279.44
414.258	1231.44
414.482	1286.44
414.705	1296.44
414.928	1296.44
415.151	1281.44
415.374	1254.44
415.597	1239.44
415.821	1216.44
416.044	1212.44
416.267	1209.44
416.49	1195.44
416.713	1254.44
416.936	1206.44
417.159	1233.44
417.382	1225.44
417.605	1212.44
417.828	1221.44
418.051	1198.44
418.274	1195.44
418.497	1231.44
418.72	1239.44
418.943	1266.44
419.166	1283.44
419.389	1381.44
419.611	1341.44
419.834	1297.44
420.057	1264.44
420.28	1239.44
420.503	1219.44
420.726	1243.44
420.948	1248.44
421.171	1253.44
421.394	1237.44
421.617	1258.44
421.839	1270.44
422.062	1250.44
422.285	1197.44
422.507	1263.44
422.73	1255.44
422.953	1240.44
423.175	1287.44
423.398	1266.44
423.621	1225.44
423.843	1231.44
424.066	1255.44
424.288	1234.44
424.511	1264.44
424.733	1245.44
424.956	1216.44
425.178	1237.44
425.401	1242.44
425.623	1212.44
425.846	1183.44
426.068	1173.44
426.291	1188.44
426.513	1179.44
426.735	1164.44
426.958	1163.44
427.18	1167.44
427.402	1187.44
427.625	1194.44
427.847	1131.44
428.069	1128.44
428.292	1173.44
428.514	1142.44
428.736	1141.44
428.958	1143.44
429.181	1112.44
429.403	1137.44
429.625	1134.44
429.847	1141.44
430.069	1142.44
430.292	1193.44
430.514	1180.44
430.736	1193.44
430.958	1158.44
431.18	1096.44
431.402	1136.44
431.624	1115.44
431.846	1126.44
432.068	1105.44
432.29	1121.44
432.512	1084.44
432.734	1113.44
432.956	1131.44
433.178	1174.44
433.4	1137.44
433.622	1154.44
433.844	1147.44
434.066	1141.44
434.287	1114.44
434.509	1150.44
434.731	1152.44
434.953	1172.44
435.175	1187.44
435.397	1177.44
435.618	1147.44
435.84	1112.44
436.062	1110.44
436.284	1128.44
436.505	1121.44
436.727	1143.44
436.949	1150.44
437.17	1147.44
437.392	1130.44
437.614	1118.44
437.835	1075.44
438.057	1094.44
438.278	1096.44
438.5	1096.44
438.721	1115.44
438.943	1163.44
439.165	1190.44
439.386	1196.44
439.608	1187.44
439.829	1160.44
440.05	1212.44
440.272	1183.44
440.493	1161.44
440.715	1166.44
440.936	1182.44
441.158	1176.44
441.379	1182.44
441.6	1200.44
441.822	1245.44
442.043	1284.44
442.264	1296.44
442.486	1254.44
442.707	1204.44
442.928	1195.44
443.149	1214.44
443.371	1185.44
443.592	1179.44
443.813	1236.44
444.034	1244.44
444.255	1249.44
444.476	1299.44
444.698	1326.44
444.919	1347.44
445.14	1417.44
445.361	1294.44
445.582	1249.44
445.803	1210.44
446.024	1194.44
446.245	1254.44
446.466	1225.44
446.687	1216.44
446.908	1172.44
447.129	1152.44
447.35	1140.44
447.571	1145.44
447.792	1142.44
448.013	1145.44
448.234	1127.44
448.455	1106.44
448.675	1141.44
448.896	1148.44
449.117	1159.44
449.338	1222.44
449.559	1287.44
449.779	1153.44
450	1104.44
450.221	1096.44
450.442	1128.44
450.662	1076.44
450.883	1076.44
451.104	1076.44
451.324	1049.44
451.545	1070.44
451.766	1080.44
451.986	1090.44
452.207	1122.44
452.428	1340.44
452.648	1758.44
452.869	1525.44
453.089	1217.44
453.31	1145.44
453.53	1174.44
453.751	1178.44
453.971	1256.44
454.192	1233.44
454.412	1111.44
454.633	1020.44
454.853	1036.44
455.073	1040.44
455.294	1046.44
455.514	1032.44
455.734	1052.44
455.955	1050.44
456.175	1053.44
456.395	1056.44
456.616	1048.44
456.836	1049.44
457.056	1051.44
457.276	1074.44
457.497	1086.44
457.717	1088.44
457.937	1092.44
458.157	1104.44
458.377	1078.44
458.598	1087.44
458.818	1056.44
459.038	1069.44
459.258	1074.44
459.478	1121.44
459.698	1124.44
459.918	1158.44
460.138	1166.44
460.358	1207.44
460.578	1200.44
460.798	1227.44
461.018	1248.44
461.238	1249.44
461.458	1230.44
461.678	1227.44
461.898	1268.44
462.118	1260.44
462.338	1305.44
462.558	1303.44
462.777	1328.44
462.997	1379.44
463.217	1410.44
463.437	1465.44
463.657	1446.44
463.876	1400.44
464.096	1380.44
464.316	1369.44
464.536	1337.44
464.755	1322.44
464.975	1291.44
465.195	1225.44
465.414	1212.44
465.634	1118.44
465.854	1162.44
466.073	1142.44
466.293	1162.44
466.512	1128.44
466.732	1140.44
466.951	1184.44
467.171	1234.44
467.391	1212.44
467.61	1151.44
467.829	1150.44
468.049	1116.44
468.268	1129.44
468.488	1077.44
468.707	1082.44
468.927	1097.44
469.146	1082.44
469.365	1156.44
469.585	1121.44
469.804	1156.44
470.023	1147.44
470.243	1172.44
470.462	1194.44
470.681	1239.44
470.901	1317.44
471.12	1478.44
471.339	1506.44
471.558	1271.44
471.777	1200.44
471.997	1174.44
472.216	1129.44
472.435	1116.44
472.654	1105.44
472.873	1077.44
473.092	1111.44
473.311	1120.44
473.53	1102.44
473.749	1142.44
473.968	1157.44
474.187	1101.44
474.406	1127.44
474.625	1103.44
474.844	1131.44
475.063	1138.44
475.282	1108.44
475.501	1094.44
475.72	1124.44
475.939	1160.44
476.158	1166.44
476.377	1172.44
476.596	1154.44
476.814	1179.44
477.033	1184.44
477.252	1164.44
477.471	1232.44
477.69	1236.44
477.908	1238.44
478.127	1270.44
478.346	1233.44
478.564	1306.44
478.783	1289.44
479.002	1306.44
479.22	1347.44
479.439	1328.44
479.658	1328.44
479.876	1339.44
480.095	1315.44
480.313	1364.44
480.532	1350.44
480.751	1349.44
480.969	1329.44
481.188	1331.44
481.406	1305.44
481.624	1284.44
481.843	1301.44
482.061	1329.44
482.28	1324.44
482.498	1303.44
482.717	1327.44
482.935	1341.44
483.153	1355.44
483.372	1397.44
483.59	1377.44
483.808	1426.44
484.027	1408.44
484.245	1479.44
484.463	1612.44
484.681	1781.44
484.9	1621.44
485.118	1559.44
485.336	1507.44
485.554	1545.44
485.772	1594.44
485.99	1762.44
486.209	1905.44
486.427	1615.44
486.645	1486.44
486.863	1467.44
487.081	1467.44
487.299	1414.44
487.517	1417.44
487.735	1442.44
487.953	1454.44
488.171	1454.44
488.389	1455.44
488.607	1398.44
488.825	1379.44
489.043	1376.44
489.261	1374.44
489.479	1385.44
489.696	1407.44
489.914	1349.44
490.132	1401.44
490.35	1412.44
490.568	1427.44
490.786	1443.44
491.003	1434.44
491.221	1463.44
491.439	1461.44
