Data from SnStandardFlinnAPT0064_LampEnergy10_LIBS07252019.E.O._I.C._HRD10591_15-20-48-493.txt Node
Date: Thu Jul 25 15:20:48 EDT 2019
User: cochatt
Spectrometer: HR+D1059
Trigger mode: 1
Integration Time (sec): 1.000000E-1
Scans to average: 1
Electric dark correction enabled: true
Nonlinearity correction enabled: false
Boxcar width: 0
XAxis mode: Wavelengths
Number of Pixels in Spectrum: 2048
>>>>>Begin Spectral Data<<<<<
223.165	-6.38
223.4	-6.38
223.635	-6.38
223.869	-23.38
224.104	-16.38
224.338	-21.38
224.573	-7.38
224.808	-13.38
225.042	-22.38
225.277	-10.38
225.511	13.62
225.746	7.62
225.98	15.62
226.215	14.62
226.449	14.62
226.683	16.62
226.918	17.62
227.152	20.62
227.387	28.62
227.621	31.62
227.856	42.62
228.09	51.62
228.324	47.62
228.559	67.62
228.793	112.62
229.027	332.62
229.262	348.62
229.496	319.62
229.73	306.62
229.964	305.62
230.199	302.62
230.433	323.62
230.667	322.62
230.901	348.62
231.136	334.62
231.37	361.62
231.604	403.62
231.838	451.62
232.072	561.62
232.306	603.62
232.541	481.62
232.775	440.62
233.009	429.62
233.243	432.62
233.477	475.62
233.711	518.62
233.945	610.62
234.179	546.62
234.413	479.62
234.647	455.62
234.881	471.62
235.115	530.62
235.349	642.62
235.583	812.62
235.817	1033.62
236.051	1021.62
236.285	674.62
236.519	519.62
236.753	505.62
236.987	507.62
237.221	547.62
237.455	547.62
237.689	482.62
237.922	476.62
238.156	490.62
238.39	494.62
238.624	515.62
238.858	508.62
239.091	489.62
239.325	491.62
239.559	512.62
239.793	519.62
240.027	533.62
240.26	541.62
240.494	577.62
240.728	569.62
240.961	655.62
241.195	662.62
241.429	691.62
241.662	710.62
241.896	826.62
242.13	963.62
242.363	1293.62
242.597	1671.62
242.83	1613.62
243.064	1611.62
243.298	1890.62
243.531	1589.62
243.765	990.62
243.998	798.62
244.232	709.62
244.465	667.62
244.699	651.62
244.932	653.62
245.166	665.62
245.399	684.62
245.633	701.62
245.866	693.62
246.099	682.62
246.333	655.62
246.566	628.62
246.8	635.62
247.033	651.62
247.266	642.62
247.5	672.62
247.733	693.62
247.966	739.62
248.2	759.62
248.433	868.62
248.666	1011.62
248.899	1001.62
249.133	875.62
249.366	905.62
249.599	985.62
249.832	1108.62
250.066	1084.62
250.299	882.62
250.532	782.62
250.765	797.62
250.998	748.62
251.231	744.62
251.465	738.62
251.698	718.62
251.931	749.62
252.164	750.62
252.397	801.62
252.63	791.62
252.863	821.62
253.096	810.62
253.329	783.62
253.562	782.62
253.795	776.62
254.028	839.62
254.261	843.62
254.494	885.62
254.727	1043.62
254.96	1255.62
255.193	1234.62
255.426	1003.62
255.659	915.62
255.892	865.62
256.124	873.62
256.357	911.62
256.59	956.62
256.823	961.62
257.056	1149.62
257.289	1407.62
257.521	1553.62
257.754	1230.62
257.987	1012.62
258.22	948.62
258.452	944.62
258.685	923.62
258.918	966.62
259.151	1005.62
259.383	1119.62
259.616	1250.62
259.849	1309.62
260.081	1142.62
260.314	980.62
260.547	955.62
260.779	944.62
261.012	988.62
261.244	985.62
261.477	994.62
261.71	1003.62
261.942	1004.62
262.175	1015.62
262.407	1064.62
262.64	1069.62
262.872	1098.62
263.105	1152.62
263.337	1236.62
263.57	1274.62
263.802	1326.62
264.035	1325.62
264.267	1356.62
264.499	1370.62
264.732	1435.62
264.964	1438.62
265.197	1433.62
265.429	1449.62
265.661	1498.62
265.894	1614.62
266.126	1798.62
266.358	2014.62
266.591	1926.62
266.823	1640.62
267.055	1490.62
267.287	1399.62
267.52	1320.62
267.752	1300.62
267.984	1265.62
268.216	1249.62
268.448	1247.62
268.681	1251.62
268.913	1239.62
269.145	1244.62
269.377	1233.62
269.609	1261.62
269.841	1302.62
270.073	1395.62
270.306	1649.62
270.538	2207.62
270.77	3346.62
271.002	4051.62
271.234	2879.62
271.466	1929.62
271.698	1559.62
271.93	1403.62
272.162	1355.62
272.394	1281.62
272.626	1274.62
272.858	1261.62
273.09	1253.62
273.322	1238.62
273.553	1218.62
273.785	1212.62
274.017	1192.62
274.249	1235.62
274.481	1205.62
274.713	1205.62
274.945	1226.62
275.176	1235.62
275.408	1228.62
275.64	1230.62
275.872	1252.62
276.104	1268.62
276.335	1301.62
276.567	1291.62
276.799	1285.62
277.031	1316.62
277.262	1347.62
277.494	1406.62
277.726	1575.62
277.957	1853.62
278.189	2215.62
278.421	2049.62
278.652	1841.62
278.884	1733.62
279.115	1511.62
279.347	1445.62
279.579	1426.62
279.81	1419.62
280.042	1394.62
280.273	1429.62
280.505	1475.62
280.736	1519.62
280.968	1598.62
281.199	1838.62
281.431	2119.62
281.662	2151.62
281.894	1814.62
282.125	1636.62
282.356	1692.62
282.588	1694.62
282.819	1706.62
283.051	1858.62
283.282	2064.62
283.513	2566.62
283.745	3770.62
283.976	5985.62
284.207	8447.62
284.439	7687.62
284.67	4727.62
284.901	3800.62
285.132	3925.62
285.364	3702.62
285.595	2834.62
285.826	2529.62
286.057	2945.62
286.288	3994.62
286.52	5434.62
286.751	5068.62
286.982	3127.62
287.213	2351.62
287.444	2061.62
287.675	1886.62
287.906	1817.62
288.138	1782.62
288.369	1729.62
288.6	1693.62
288.831	1699.62
289.062	1667.62
289.293	1691.62
289.524	1679.62
289.755	1721.62
289.986	1705.62
290.217	1695.62
290.448	1734.62
290.679	1793.62
290.91	1778.62
291.141	1921.62
291.371	2081.62
291.602	2156.62
291.833	1953.62
292.064	1764.62
292.295	1719.62
292.526	1655.62
292.757	1649.62
292.987	1641.62
293.218	1619.62
293.449	1621.62
293.68	1614.62
293.91	1588.62
294.141	1571.62
294.372	1598.62
294.603	1573.62
294.833	1613.62
295.064	1564.62
295.295	1588.62
295.525	1574.62
295.756	1552.62
295.987	1549.62
296.217	1573.62
296.448	1620.62
296.679	1595.62
296.909	1577.62
297.14	1627.62
297.37	1627.62
297.601	1641.62
297.831	1654.62
298.062	1611.62
298.292	1687.62
298.523	1713.62
298.753	1727.62
298.984	1725.62
299.214	1748.62
299.445	1765.62
299.675	1781.62
299.905	1821.62
300.136	1964.62
300.366	2198.62
300.597	2788.62
300.827	3921.62
301.057	5455.62
301.288	5555.62
301.518	3513.62
301.748	2665.62
301.979	2447.62
302.209	2315.62
302.439	2362.62
302.669	2511.62
302.9	3027.62
303.13	4309.62
303.36	6392.62
303.59	8748.62
303.82	7546.62
304.051	4373.62
304.281	3127.62
304.511	2593.62
304.741	2358.62
304.971	2207.62
305.201	2104.62
305.431	2013.62
305.661	1992.62
305.891	1897.62
306.121	1882.62
306.352	1886.62
306.582	1849.62
306.812	1876.62
307.042	1862.62
307.272	1871.62
307.502	1808.62
307.731	1841.62
307.961	1825.62
308.191	1826.62
308.421	1843.62
308.651	1841.62
308.881	1802.62
309.111	1838.62
309.341	1818.62
309.571	1846.62
309.8	1871.62
310.03	1885.62
310.26	1877.62
310.49	1877.62
310.72	1870.62
310.949	1893.62
311.179	1909.62
311.409	1897.62
311.639	1940.62
311.868	1942.62
312.098	1945.62
312.328	2021.62
312.557	1975.62
312.787	1989.62
313.017	2012.62
313.246	2045.62
313.476	2013.62
313.706	2109.62
313.935	2248.62
314.165	2412.62
314.394	2519.62
314.624	2413.62
314.853	2183.62
315.083	2185.62
315.312	2200.62
315.542	2264.62
315.771	2238.62
316.001	2293.62
316.23	2347.62
316.46	2478.62
316.689	2744.62
316.919	3318.62
317.148	4838.62
317.377	7397.62
317.607	10998.62
317.836	11413.62
318.065	6861.62
318.295	4373.62
318.524	3534.62
318.753	3081.62
318.983	2820.62
319.212	2607.62
319.441	2503.62
319.67	2460.62
319.9	2453.62
320.129	2391.62
320.358	2393.62
320.587	2367.62
320.816	2380.62
321.046	2379.62
321.275	2330.62
321.504	2420.62
321.733	2437.62
321.962	2466.62
322.191	2547.62
322.42	2541.62
322.649	2481.62
322.878	2506.62
323.108	2489.62
323.337	2553.62
323.566	2596.62
323.795	2572.62
324.024	2665.62
324.253	2764.62
324.482	2865.62
324.71	3099.62
324.939	3299.62
325.168	3337.62
325.397	3484.62
325.626	4161.62
325.855	5753.62
326.084	9103.62
326.313	13123.62
326.542	13841.62
326.77	9406.62
326.999	6132.62
327.228	5119.62
327.457	4794.62
327.686	4923.62
327.914	5195.62
328.143	6158.62
328.372	7291.62
328.6	7867.62
328.829	7108.62
329.058	5916.62
329.287	5149.62
329.515	4670.62
329.744	4380.62
329.972	4072.62
330.201	3918.62
330.43	3741.62
330.658	3675.62
330.887	3585.62
331.115	3558.62
331.344	3558.62
331.572	3518.62
331.801	3565.62
332.03	3532.62
332.258	3577.62
332.486	3804.62
332.715	4337.62
332.943	5414.62
333.172	6855.62
333.4	6827.62
333.629	5074.62
333.857	4526.62
334.085	4565.62
334.314	4789.62
334.542	5167.62
334.771	6053.62
334.999	7528.62
335.227	9534.62
335.455	10548.62
335.684	9509.62
335.912	7805.62
336.14	6517.62
336.369	5757.62
336.597	5243.62
336.825	4921.62
337.053	4620.62
337.281	4221.62
337.51	4030.62
337.738	3847.62
337.966	3758.62
338.194	3617.62
338.422	3494.62
338.65	3403.62
338.878	3373.62
339.106	3309.62
339.334	3257.62
339.562	3149.62
339.79	3111.62
340.018	3064.62
340.246	2996.62
340.474	2999.62
340.702	3099.62
340.93	3069.62
341.158	3080.62
341.386	3021.62
341.614	2959.62
341.842	2944.62
342.07	2885.62
342.298	2853.62
342.526	2781.62
342.754	2748.62
342.981	2755.62
343.209	2758.62
343.437	2758.62
343.665	2778.62
343.893	2815.62
344.12	2862.62
344.348	2783.62
344.576	2741.62
344.804	2700.62
345.031	2586.62
345.259	2647.62
345.487	2619.62
345.714	2568.62
345.942	2570.62
346.17	2580.62
346.397	2529.62
346.625	2545.62
346.853	2538.62
347.08	2526.62
347.308	2557.62
347.535	2542.62
347.763	2522.62
347.99	2523.62
348.218	2529.62
348.445	2503.62
348.673	2472.62
348.9	2435.62
349.128	2491.62
349.355	2455.62
349.583	2437.62
349.81	2422.62
350.037	2413.62
350.265	2402.62
350.492	2461.62
350.72	2435.62
350.947	2394.62
351.174	2393.62
351.402	2437.62
351.629	2420.62
351.856	2375.62
352.083	2413.62
352.311	2397.62
352.538	2405.62
352.765	2396.62
352.992	2369.62
353.22	2386.62
353.447	2423.62
353.674	2365.62
353.901	2365.62
354.128	2404.62
354.355	2397.62
354.583	2449.62
354.81	2410.62
355.037	2420.62
355.264	2434.62
355.491	2506.62
355.718	2451.62
355.945	2453.62
356.172	2464.62
356.399	2498.62
356.626	2503.62
356.853	2558.62
357.08	2495.62
357.307	2572.62
357.534	2583.62
357.761	2572.62
357.988	2612.62
358.215	2527.62
358.441	2595.62
358.668	2547.62
358.895	2584.62
359.122	2518.62
359.349	2581.62
359.576	2585.62
359.802	2516.62
360.029	2537.62
360.256	2523.62
360.483	2560.62
360.709	2573.62
360.936	2560.62
361.163	2557.62
361.39	2590.62
361.616	2557.62
361.843	2542.62
362.07	2620.62
362.296	2606.62
362.523	2616.62
362.749	2564.62
362.976	2563.62
363.203	2556.62
363.429	2525.62
363.656	2579.62
363.882	2568.62
364.109	2575.62
364.335	2575.62
364.562	2574.62
364.788	2561.62
365.015	2588.62
365.241	2656.62
365.468	2811.62
365.694	2957.62
365.92	2857.62
366.147	2646.62
366.373	2660.62
366.599	2633.62
366.826	2604.62
367.052	2597.62
367.278	2652.62
367.505	2615.62
367.731	2612.62
367.957	2661.62
368.184	2641.62
368.41	2687.62
368.636	2638.62
368.862	2636.62
369.089	2610.62
369.315	2711.62
369.541	2679.62
369.767	2646.62
369.993	2624.62
370.219	2660.62
370.445	2651.62
370.672	2673.62
370.898	2685.62
371.124	2662.62
371.35	2731.62
371.576	2773.62
371.802	2717.62
372.028	2732.62
372.254	2753.62
372.48	2756.62
372.706	2841.62
372.932	2827.62
373.158	2798.62
373.384	2771.62
373.61	2753.62
373.835	2794.62
374.061	2801.62
374.287	2845.62
374.513	2835.62
374.739	2869.62
374.965	2934.62
375.191	2900.62
375.416	2943.62
375.642	2905.62
375.868	2882.62
376.094	2810.62
376.319	2765.62
376.545	2775.62
376.771	2775.62
376.997	2772.62
377.222	2746.62
377.448	2737.62
377.674	2742.62
377.899	2714.62
378.125	2726.62
378.35	2737.62
378.576	2731.62
378.802	2789.62
379.027	2857.62
379.253	2901.62
379.478	3087.62
379.704	3614.62
379.929	5300.62
380.155	8283.62
380.38	9070.62
380.606	5453.62
380.831	3725.62
381.057	3253.62
381.282	3016.62
381.507	2835.62
381.733	2787.62
381.958	2767.62
382.184	2777.62
382.409	2688.62
382.634	2725.62
382.86	2717.62
383.085	2715.62
383.31	2745.62
383.535	2680.62
383.761	2684.62
383.986	2711.62
384.211	2719.62
384.436	2779.62
384.662	2809.62
384.887	2782.62
385.112	2754.62
385.337	2806.62
385.562	2821.62
385.787	2783.62
386.013	2764.62
386.238	2827.62
386.463	2757.62
386.688	2801.62
386.913	2734.62
387.138	2771.62
387.363	2779.62
387.588	2792.62
387.813	2778.62
388.038	2798.62
388.263	2761.62
388.488	2719.62
388.713	2752.62
388.938	2763.62
389.163	2722.62
389.387	2796.62
389.612	2756.62
389.837	2789.62
390.062	2768.62
390.287	2827.62
390.512	2797.62
390.736	2870.62
390.961	2845.62
391.186	2871.62
391.411	2927.62
391.636	2878.62
391.86	2937.62
392.085	2917.62
392.31	2868.62
392.534	2869.62
392.759	2898.62
392.984	2888.62
393.208	2817.62
393.433	2880.62
393.658	2803.62
393.882	2783.62
394.107	2801.62
394.331	2841.62
394.556	2831.62
394.78	2832.62
395.005	2860.62
395.229	2863.62
395.454	2909.62
395.678	2901.62
395.903	2886.62
396.127	2856.62
396.352	2859.62
396.576	2902.62
396.801	2873.62
397.025	2899.62
397.249	2922.62
397.474	2920.62
397.698	2945.62
397.922	2967.62
398.147	2967.62
398.371	2991.62
398.595	3032.62
398.82	3111.62
399.044	3276.62
399.268	3300.62
399.492	3581.62
399.717	3705.62
399.941	3624.62
400.165	3523.62
400.389	3409.62
400.613	3269.62
400.837	3193.62
401.062	3141.62
401.286	3097.62
401.51	3081.62
401.734	3041.62
401.958	3076.62
402.182	3085.62
402.406	3023.62
402.63	3073.62
402.854	3143.62
403.078	3137.62
403.302	3126.62
403.526	3181.62
403.75	3170.62
403.974	3186.62
404.198	3116.62
404.422	3239.62
404.645	3191.62
404.869	3152.62
405.093	3195.62
405.317	3163.62
405.541	3211.62
405.765	3173.62
405.988	3319.62
406.212	3269.62
406.436	3253.62
406.66	3277.62
406.883	3267.62
407.107	3385.62
407.331	3470.62
407.555	3531.62
407.778	3461.62
408.002	3353.62
408.226	3486.62
408.449	3446.62
408.673	3280.62
408.896	3256.62
409.12	3207.62
409.344	3205.62
409.567	3188.62
409.791	3213.62
410.014	3166.62
410.238	3150.62
410.461	3141.62
410.685	3153.62
410.908	3103.62
411.132	3127.62
411.355	3002.62
411.578	3060.62
411.802	3113.62
412.025	3050.62
412.249	3065.62
412.472	3048.62
412.695	2986.62
412.919	2995.62
413.142	2956.62
413.365	3004.62
413.589	3041.62
413.812	3023.62
414.035	3014.62
414.258	3070.62
414.482	3021.62
414.705	2990.62
414.928	3007.62
415.151	2967.62
415.374	2956.62
415.597	2966.62
415.821	2884.62
416.044	2845.62
416.267	2899.62
416.49	2908.62
416.713	2911.62
416.936	2874.62
417.159	2858.62
417.382	2854.62
417.605	2809.62
417.828	2844.62
418.051	2887.62
418.274	2933.62
418.497	2927.62
418.72	2959.62
418.943	2898.62
419.166	3061.62
419.389	3247.62
419.611	3220.62
419.834	3082.62
420.057	3027.62
420.28	2890.62
420.503	2838.62
420.726	2905.62
420.948	2980.62
421.171	2873.62
421.394	2910.62
421.617	2845.62
421.839	2875.62
422.062	2865.62
422.285	2836.62
422.507	2902.62
422.73	2947.62
422.953	3012.62
423.175	3022.62
423.398	2967.62
423.621	2934.62
423.843	2983.62
424.066	2900.62
424.288	2924.62
424.511	2856.62
424.733	2857.62
424.956	2870.62
425.178	2854.62
425.401	2837.62
425.623	2843.62
425.846	2790.62
426.068	2798.62
426.291	2792.62
426.513	2740.62
426.735	2753.62
426.958	2785.62
427.18	2685.62
427.402	2774.62
427.625	2747.62
427.847	2683.62
428.069	2660.62
428.292	2739.62
428.514	2683.62
428.736	2678.62
428.958	2687.62
429.181	2615.62
429.403	2571.62
429.625	2622.62
429.847	2716.62
430.069	2707.62
430.292	2856.62
430.514	2892.62
430.736	2871.62
430.958	2692.62
431.18	2652.62
431.402	2652.62
431.624	2626.62
431.846	2613.62
432.068	2558.62
432.29	2642.62
432.512	2587.62
432.734	2673.62
432.956	2625.62
433.178	2685.62
433.4	2660.62
433.622	2663.62
433.844	2651.62
434.066	2664.62
434.287	2657.62
434.509	2679.62
434.731	2724.62
434.953	2726.62
435.175	2795.62
435.397	2766.62
435.618	2759.62
435.84	2663.62
436.062	2625.62
436.284	2634.62
436.505	2650.62
436.727	2651.62
436.949	2599.62
437.17	2605.62
437.392	2608.62
437.614	2567.62
437.835	2523.62
438.057	2559.62
438.278	2538.62
438.5	2554.62
438.721	2610.62
438.943	2660.62
439.165	2749.62
439.386	2737.62
439.608	2754.62
439.829	2741.62
440.05	2851.62
440.272	2883.62
440.493	2787.62
440.715	2717.62
440.936	2737.62
441.158	2758.62
441.379	2742.62
441.6	2919.62
441.822	2965.62
442.043	3113.62
442.264	3223.62
442.486	2985.62
442.707	2859.62
442.928	2875.62
443.149	2795.62
443.371	2772.62
443.592	2828.62
443.813	2828.62
444.034	2858.62
444.255	2923.62
444.476	2969.62
444.698	2999.62
444.919	3044.62
445.14	3123.62
445.361	2949.62
445.582	2875.62
445.803	2812.62
446.024	2827.62
446.245	2779.62
446.466	2852.62
446.687	2789.62
446.908	2792.62
447.129	2716.62
447.35	2735.62
447.571	2604.62
447.792	2575.62
448.013	2617.62
448.234	2606.62
448.455	2620.62
448.675	2683.62
448.896	2697.62
449.117	2797.62
449.338	3049.62
449.559	3206.62
449.779	2809.62
450	2646.62
450.221	2578.62
450.442	2607.62
450.662	2553.62
450.883	2572.62
451.104	2580.62
451.324	2526.62
451.545	2521.62
451.766	2555.62
451.986	2657.62
452.207	2844.62
452.428	3767.62
452.648	5726.62
452.869	4755.62
453.089	3244.62
453.31	3021.62
453.53	2993.62
453.751	3048.62
453.971	3270.62
454.192	3189.62
454.412	2792.62
454.633	2607.62
454.853	2486.62
455.073	2431.62
455.294	2494.62
455.514	2475.62
455.734	2445.62
455.955	2404.62
456.175	2449.62
456.395	2441.62
456.616	2463.62
456.836	2482.62
457.056	2493.62
457.276	2483.62
457.497	2654.62
457.717	2711.62
457.937	2572.62
458.157	2590.62
458.377	2561.62
458.598	2593.62
458.818	2609.62
459.038	2612.62
459.258	2618.62
459.478	2711.62
459.698	2668.62
459.918	2721.62
460.138	2759.62
460.358	2842.62
460.578	2860.62
460.798	2837.62
461.018	2855.62
461.238	2902.62
461.458	2930.62
461.678	2908.62
461.898	2957.62
462.118	2965.62
462.338	3068.62
462.558	3169.62
462.777	3140.62
462.997	3281.62
463.217	3423.62
463.437	3508.62
463.657	3633.62
463.876	3629.62
464.096	3387.62
464.316	3211.62
464.536	3195.62
464.755	3095.62
464.975	3017.62
465.195	2915.62
465.414	2915.62
465.634	2741.62
465.854	2722.62
466.073	2726.62
466.293	2706.62
466.512	2659.62
466.732	2722.62
466.951	2819.62
467.171	3054.62
467.391	3018.62
467.61	2762.62
467.829	2654.62
468.049	2623.62
468.268	2605.62
468.488	2570.62
468.707	2633.62
468.927	2605.62
469.146	2573.62
469.365	2581.62
469.585	2672.62
469.804	2716.62
470.023	2793.62
470.243	2796.62
470.462	2916.62
470.681	2996.62
470.901	3325.62
471.12	3877.62
471.339	3834.62
471.558	3235.62
471.777	2917.62
471.997	2782.62
472.216	2706.62
472.435	2670.62
472.654	2593.62
472.873	2634.62
473.092	2636.62
473.311	2597.62
473.53	2615.62
473.749	2684.62
473.968	2794.62
474.187	2636.62
474.406	2601.62
474.625	2617.62
474.844	2609.62
475.063	2632.62
475.282	2654.62
475.501	2613.62
475.72	2664.62
475.939	2697.62
476.158	2724.62
476.377	2788.62
476.596	2781.62
476.814	2791.62
477.033	2792.62
477.252	2806.62
477.471	2841.62
477.69	2843.62
477.908	2982.62
478.127	2989.62
478.346	2974.62
478.564	2997.62
478.783	3057.62
479.002	3046.62
479.22	3121.62
479.439	3125.62
479.658	3116.62
479.876	3134.62
480.095	3177.62
480.313	3230.62
480.532	3234.62
480.751	3225.62
480.969	3222.62
481.188	3156.62
481.406	3182.62
481.624	3211.62
481.843	3187.62
482.061	3230.62
482.28	3146.62
482.498	3150.62
482.717	3151.62
482.935	3162.62
483.153	3260.62
483.372	3277.62
483.59	3302.62
483.808	3353.62
484.027	3446.62
484.245	3672.62
484.463	4146.62
484.681	4673.62
484.9	4174.62
485.118	3870.62
485.336	3763.62
485.554	3841.62
485.772	4125.62
485.99	4654.62
486.209	5003.62
486.427	4183.62
486.645	3684.62
486.863	3582.62
487.081	3466.62
487.299	3438.62
487.517	3393.62
487.735	3408.62
