Data from SnStandardFlinnAPT0064_LampEnergy10_LIBS07252019.E.O._I.C._HRD10591_15-19-33-493.txt Node
Date: Thu Jul 25 15:19:33 EDT 2019
User: cochatt
Spectrometer: HR+D1059
Trigger mode: 1
Integration Time (sec): 1.000000E-1
Scans to average: 1
Electric dark correction enabled: true
Nonlinearity correction enabled: false
Boxcar width: 0
XAxis mode: Wavelengths
Number of Pixels in Spectrum: 2048
>>>>>Begin Spectral Data<<<<<
223.165	6.94
223.4	6.94
223.635	6.94
223.869	-18.06
224.104	-24.06
224.338	-13.06
224.573	-16.06
224.808	-7.06
225.042	-16.06
225.277	-19.06
225.511	-2.06
225.746	3.94
225.98	16.94
226.215	3.94
226.449	24.94
226.683	7.94
226.918	23.94
227.152	26.94
227.387	25.94
227.621	32.94
227.856	54.94
228.09	51.94
228.324	46.94
228.559	63.94
228.793	141.94
229.027	303.94
229.262	349.94
229.496	315.94
229.73	310.94
229.964	318.94
230.199	325.94
230.433	324.94
230.667	323.94
230.901	327.94
231.136	342.94
231.37	373.94
231.604	403.94
231.838	459.94
232.072	509.94
232.306	565.94
232.541	490.94
232.775	421.94
233.009	417.94
233.243	434.94
233.477	454.94
233.711	545.94
233.945	612.94
234.179	541.94
234.413	446.94
234.647	474.94
234.881	491.94
235.115	523.94
235.349	623.94
235.583	809.94
235.817	1009.94
236.051	1009.94
236.285	691.94
236.519	554.94
236.753	530.94
236.987	512.94
237.221	531.94
237.455	513.94
237.689	490.94
237.922	478.94
238.156	474.94
238.39	498.94
238.624	497.94
238.858	488.94
239.091	497.94
239.325	481.94
239.559	496.94
239.793	523.94
240.027	525.94
240.26	546.94
240.494	562.94
240.728	584.94
240.961	636.94
241.195	681.94
241.429	670.94
241.662	718.94
241.896	827.94
242.13	1023.94
242.363	1288.94
242.597	1633.94
242.83	1624.94
243.064	1600.94
243.298	1813.94
243.531	1525.94
243.765	1013.94
243.998	812.94
244.232	730.94
244.465	678.94
244.699	664.94
244.932	657.94
245.166	663.94
245.399	683.94
245.633	694.94
245.866	691.94
246.099	673.94
246.333	660.94
246.566	637.94
246.8	659.94
247.033	645.94
247.266	655.94
247.5	652.94
247.733	707.94
247.966	720.94
248.2	776.94
248.433	910.94
248.666	1005.94
248.899	972.94
249.133	854.94
249.366	884.94
249.599	964.94
249.832	1116.94
250.066	1125.94
250.299	892.94
250.532	779.94
250.765	772.94
250.998	743.94
251.231	723.94
251.465	724.94
251.698	740.94
251.931	744.94
252.164	753.94
252.397	760.94
252.63	780.94
252.863	783.94
253.096	776.94
253.329	770.94
253.562	786.94
253.795	784.94
254.028	774.94
254.261	821.94
254.494	893.94
254.727	1052.94
254.96	1266.94
255.193	1273.94
255.426	988.94
255.659	897.94
255.892	885.94
256.124	876.94
256.357	865.94
256.59	913.94
256.823	983.94
257.056	1159.94
257.289	1397.94
257.521	1547.94
257.754	1229.94
257.987	988.94
258.22	936.94
258.452	941.94
258.685	915.94
258.918	945.94
259.151	976.94
259.383	1079.94
259.616	1276.94
259.849	1297.94
260.081	1110.94
260.314	984.94
260.547	953.94
260.779	909.94
261.012	962.94
261.244	956.94
261.477	964.94
261.71	994.94
261.942	963.94
262.175	1004.94
262.407	1010.94
262.64	1011.94
262.872	1061.94
263.105	1126.94
263.337	1195.94
263.57	1230.94
263.802	1251.94
264.035	1253.94
264.267	1321.94
264.499	1329.94
264.732	1369.94
264.964	1371.94
265.197	1356.94
265.429	1360.94
265.661	1405.94
265.894	1545.94
266.126	1702.94
266.358	1932.94
266.591	1857.94
266.823	1572.94
267.055	1425.94
267.287	1369.94
267.52	1307.94
267.752	1258.94
267.984	1263.94
268.216	1242.94
268.448	1229.94
268.681	1234.94
268.913	1206.94
269.145	1199.94
269.377	1211.94
269.609	1240.94
269.841	1291.94
270.073	1416.94
270.306	1635.94
270.538	2193.94
270.77	3262.94
271.002	3972.94
271.234	2904.94
271.466	1935.94
271.698	1576.94
271.93	1427.94
272.162	1384.94
272.394	1305.94
272.626	1247.94
272.858	1220.94
273.09	1223.94
273.322	1217.94
273.553	1204.94
273.785	1184.94
274.017	1220.94
274.249	1206.94
274.481	1188.94
274.713	1206.94
274.945	1177.94
275.176	1212.94
275.408	1229.94
275.64	1220.94
275.872	1217.94
276.104	1232.94
276.335	1290.94
276.567	1270.94
276.799	1243.94
277.031	1287.94
277.262	1340.94
277.494	1412.94
277.726	1611.94
277.957	1906.94
278.189	2201.94
278.421	2074.94
278.652	1783.94
278.884	1698.94
279.115	1511.94
279.347	1427.94
279.579	1419.94
279.81	1402.94
280.042	1395.94
280.273	1405.94
280.505	1485.94
280.736	1497.94
280.968	1604.94
281.199	1828.94
281.431	2083.94
281.662	2148.94
281.894	1795.94
282.125	1634.94
282.356	1653.94
282.588	1686.94
282.819	1731.94
283.051	1815.94
283.282	2045.94
283.513	2535.94
283.745	3725.94
283.976	5814.94
284.207	8087.94
284.439	7402.94
284.67	4788.94
284.901	3946.94
285.132	3963.94
285.364	3731.94
285.595	2825.94
285.826	2555.94
286.057	2925.94
286.288	3951.94
286.52	5265.94
286.751	4950.94
286.982	3184.94
287.213	2371.94
287.444	2053.94
287.675	1909.94
287.906	1831.94
288.138	1762.94
288.369	1678.94
288.6	1709.94
288.831	1663.94
289.062	1654.94
289.293	1685.94
289.524	1680.94
289.755	1684.94
289.986	1711.94
290.217	1715.94
290.448	1730.94
290.679	1747.94
290.91	1781.94
291.141	1911.94
291.371	2048.94
291.602	2124.94
291.833	1935.94
292.064	1771.94
292.295	1688.94
292.526	1668.94
292.757	1605.94
292.987	1602.94
293.218	1602.94
293.449	1586.94
293.68	1549.94
293.91	1580.94
294.141	1548.94
294.372	1569.94
294.603	1567.94
294.833	1509.94
295.064	1559.94
295.295	1537.94
295.525	1559.94
295.756	1538.94
295.987	1555.94
296.217	1571.94
296.448	1542.94
296.679	1537.94
296.909	1572.94
297.14	1586.94
297.37	1600.94
297.601	1618.94
297.831	1601.94
298.062	1613.94
298.292	1637.94
298.523	1682.94
298.753	1669.94
298.984	1713.94
299.214	1716.94
299.445	1740.94
299.675	1809.94
299.905	1847.94
300.136	1927.94
300.366	2184.94
300.597	2803.94
300.827	3936.94
301.057	5349.94
301.288	5350.94
301.518	3542.94
301.748	2696.94
301.979	2433.94
302.209	2295.94
302.439	2376.94
302.669	2520.94
302.9	3083.94
303.13	4271.94
303.36	6319.94
303.59	8285.94
303.82	7377.94
304.051	4530.94
304.281	3199.94
304.511	2653.94
304.741	2437.94
304.971	2212.94
305.201	2113.94
305.431	2033.94
305.661	1992.94
305.891	1887.94
306.121	1826.94
306.352	1891.94
306.582	1852.94
306.812	1823.94
307.042	1823.94
307.272	1817.94
307.502	1815.94
307.731	1783.94
307.961	1779.94
308.191	1776.94
308.421	1768.94
308.651	1770.94
308.881	1745.94
309.111	1817.94
309.341	1761.94
309.571	1835.94
309.8	1865.94
310.03	1846.94
310.26	1827.94
310.49	1877.94
310.72	1815.94
310.949	1848.94
311.179	1893.94
311.409	1875.94
311.639	1885.94
311.868	1938.94
312.098	1892.94
312.328	1915.94
312.557	1954.94
312.787	1924.94
313.017	1948.94
313.246	1996.94
313.476	1988.94
313.706	2072.94
313.935	2213.94
314.165	2395.94
314.394	2485.94
314.624	2381.94
314.853	2205.94
315.083	2146.94
315.312	2137.94
315.542	2156.94
315.771	2259.94
316.001	2280.94
316.23	2319.94
316.46	2475.94
316.689	2761.94
316.919	3340.94
317.148	4819.94
317.377	7213.94
317.607	10462.94
317.836	11031.94
318.065	7027.94
318.295	4549.94
318.524	3607.94
318.753	3156.94
318.983	2848.94
319.212	2613.94
319.441	2570.94
319.67	2513.94
319.9	2405.94
320.129	2399.94
320.358	2380.94
320.587	2368.94
320.816	2323.94
321.046	2411.94
321.275	2329.94
321.504	2357.94
321.733	2451.94
321.962	2494.94
322.191	2498.94
322.42	2485.94
322.649	2527.94
322.878	2471.94
323.108	2488.94
323.337	2554.94
323.566	2520.94
323.795	2609.94
324.024	2650.94
324.253	2707.94
324.482	2855.94
324.71	3012.94
324.939	3258.94
325.168	3316.94
325.397	3453.94
325.626	4130.94
325.855	5813.94
326.084	8897.94
326.313	12724.94
326.542	13448.94
326.77	9498.94
326.999	6275.94
327.228	5239.94
327.457	4918.94
327.686	4952.94
327.914	5217.94
328.143	5945.94
328.372	7080.94
328.6	7653.94
328.829	6850.94
329.058	5865.94
329.287	5084.94
329.515	4586.94
329.744	4292.94
329.972	4108.94
330.201	3804.94
330.43	3618.94
330.658	3547.94
330.887	3567.94
331.115	3490.94
331.344	3501.94
331.572	3404.94
331.801	3402.94
332.03	3399.94
332.258	3489.94
332.486	3751.94
332.715	4262.94
332.943	5298.94
333.172	6709.94
333.4	6665.94
333.629	5061.94
333.857	4534.94
334.085	4521.94
334.314	4659.94
334.542	5098.94
334.771	5977.94
334.999	7315.94
335.227	9077.94
335.455	10177.94
335.684	9194.94
335.912	7602.94
336.14	6449.94
336.369	5716.94
336.597	5241.94
336.825	4737.94
337.053	4508.94
337.281	4178.94
337.51	3983.94
337.738	3826.94
337.966	3639.94
338.194	3512.94
338.422	3396.94
338.65	3306.94
338.878	3243.94
339.106	3154.94
339.334	3109.94
339.562	3103.94
339.79	3035.94
340.018	3031.94
340.246	2974.94
340.474	2954.94
340.702	2967.94
340.93	2954.94
341.158	2977.94
341.386	2945.94
341.614	2940.94
341.842	2895.94
342.07	2788.94
342.298	2757.94
342.526	2715.94
342.754	2689.94
342.981	2703.94
343.209	2636.94
343.437	2647.94
343.665	2758.94
343.893	2745.94
344.12	2761.94
344.348	2681.94
344.576	2659.94
344.804	2617.94
345.031	2565.94
345.259	2583.94
345.487	2561.94
345.714	2532.94
345.942	2506.94
346.17	2536.94
346.397	2517.94
346.625	2473.94
346.853	2514.94
347.08	2508.94
347.308	2481.94
347.535	2505.94
347.763	2469.94
347.99	2461.94
348.218	2420.94
348.445	2401.94
348.673	2351.94
348.9	2412.94
349.128	2395.94
349.355	2390.94
349.583	2392.94
349.81	2392.94
350.037	2339.94
350.265	2397.94
350.492	2429.94
350.72	2378.94
350.947	2367.94
351.174	2351.94
351.402	2381.94
351.629	2343.94
351.856	2334.94
352.083	2355.94
352.311	2370.94
352.538	2340.94
352.765	2318.94
352.992	2297.94
353.22	2317.94
353.447	2335.94
353.674	2308.94
353.901	2353.94
354.128	2380.94
354.355	2308.94
354.583	2320.94
354.81	2381.94
355.037	2333.94
355.264	2396.94
355.491	2362.94
355.718	2384.94
355.945	2407.94
356.172	2407.94
356.399	2418.94
356.626	2496.94
356.853	2445.94
357.08	2445.94
357.307	2499.94
357.534	2502.94
357.761	2491.94
357.988	2500.94
358.215	2550.94
358.441	2512.94
358.668	2480.94
358.895	2471.94
359.122	2481.94
359.349	2450.94
359.576	2459.94
359.802	2523.94
360.029	2466.94
360.256	2497.94
360.483	2490.94
360.709	2504.94
360.936	2506.94
361.163	2437.94
361.39	2489.94
361.616	2488.94
361.843	2497.94
362.07	2470.94
362.296	2525.94
362.523	2512.94
362.749	2497.94
362.976	2481.94
363.203	2481.94
363.429	2482.94
363.656	2491.94
363.882	2484.94
364.109	2472.94
364.335	2484.94
364.562	2426.94
364.788	2492.94
365.015	2547.94
365.241	2609.94
365.468	2770.94
365.694	2942.94
365.92	2787.94
366.147	2571.94
366.373	2579.94
366.599	2562.94
366.826	2540.94
367.052	2487.94
367.278	2561.94
367.505	2597.94
367.731	2594.94
367.957	2543.94
368.184	2540.94
368.41	2579.94
368.636	2598.94
368.862	2587.94
369.089	2625.94
369.315	2604.94
369.541	2522.94
369.767	2527.94
369.993	2579.94
370.219	2519.94
370.445	2567.94
370.672	2594.94
370.898	2627.94
371.124	2613.94
371.35	2637.94
371.576	2640.94
371.802	2657.94
372.028	2703.94
372.254	2653.94
372.48	2681.94
372.706	2698.94
372.932	2676.94
373.158	2693.94
373.384	2691.94
373.61	2680.94
373.835	2723.94
374.061	2715.94
374.287	2749.94
374.513	2724.94
374.739	2796.94
374.965	2794.94
375.191	2795.94
375.416	2820.94
375.642	2795.94
375.868	2777.94
376.094	2724.94
376.319	2706.94
376.545	2710.94
376.771	2652.94
376.997	2660.94
377.222	2676.94
377.448	2619.94
377.674	2632.94
377.899	2657.94
378.125	2655.94
378.35	2681.94
378.576	2659.94
378.802	2716.94
379.027	2747.94
379.253	2823.94
379.478	3005.94
379.704	3622.94
379.929	5219.94
380.155	8067.94
380.38	8817.94
380.606	5439.94
380.831	3832.94
381.057	3351.94
381.282	2995.94
381.507	2817.94
381.733	2778.94
381.958	2729.94
382.184	2717.94
382.409	2677.94
382.634	2648.94
382.86	2654.94
383.085	2653.94
383.31	2643.94
383.535	2618.94
383.761	2636.94
383.986	2629.94
384.211	2697.94
384.436	2701.94
384.662	2756.94
384.887	2729.94
385.112	2650.94
385.337	2709.94
385.562	2735.94
385.787	2730.94
386.013	2761.94
386.238	2714.94
386.463	2658.94
386.688	2726.94
386.913	2687.94
387.138	2741.94
387.363	2671.94
387.588	2659.94
387.813	2687.94
388.038	2725.94
388.263	2791.94
388.488	2690.94
388.713	2682.94
388.938	2683.94
389.163	2705.94
389.387	2762.94
389.612	2687.94
389.837	2705.94
390.062	2687.94
390.287	2715.94
390.512	2747.94
390.736	2772.94
390.961	2819.94
391.186	2799.94
391.411	2830.94
391.636	2837.94
391.86	2863.94
392.085	2855.94
392.31	2777.94
392.534	2804.94
392.759	2754.94
392.984	2753.94
393.208	2777.94
393.433	2818.94
393.658	2817.94
393.882	2757.94
394.107	2728.94
394.331	2710.94
394.556	2791.94
394.78	2817.94
395.005	2784.94
395.229	2759.94
395.454	2819.94
395.678	2810.94
395.903	2840.94
396.127	2855.94
396.352	2768.94
396.576	2739.94
396.801	2817.94
397.025	2851.94
397.249	2878.94
397.474	2867.94
397.698	2824.94
397.922	2819.94
398.147	2847.94
398.371	2973.94
398.595	2954.94
398.82	3010.94
399.044	3084.94
399.268	3227.94
399.492	3421.94
399.717	3536.94
399.941	3625.94
400.165	3459.94
400.389	3292.94
400.613	3181.94
400.837	3051.94
401.062	3031.94
401.286	3030.94
401.51	3041.94
401.734	2947.94
401.958	2937.94
402.182	2986.94
402.406	3042.94
402.63	2975.94
402.854	2981.94
403.078	3039.94
403.302	3068.94
403.526	3082.94
403.75	3097.94
403.974	3114.94
404.198	3056.94
404.422	3075.94
404.645	3081.94
404.869	3065.94
405.093	3129.94
405.317	3029.94
405.541	3089.94
405.765	3188.94
405.988	3219.94
406.212	3194.94
406.436	3171.94
406.66	3219.94
406.883	3195.94
407.107	3263.94
407.331	3319.94
407.555	3387.94
407.778	3360.94
408.002	3314.94
408.226	3318.94
408.449	3339.94
408.673	3245.94
408.896	3141.94
409.12	3136.94
409.344	3155.94
409.567	3131.94
409.791	3107.94
410.014	3098.94
410.238	3046.94
410.461	3062.94
410.685	3033.94
410.908	3066.94
411.132	3039.94
411.355	2974.94
411.578	2981.94
411.802	2944.94
412.025	2958.94
412.249	2964.94
412.472	2970.94
412.695	2950.94
412.919	2954.94
413.142	2904.94
413.365	2916.94
413.589	2888.94
413.812	2880.94
414.035	2919.94
414.258	2931.94
414.482	2915.94
414.705	2907.94
414.928	2933.94
415.151	2913.94
415.374	2940.94
415.597	2908.94
415.821	2852.94
416.044	2808.94
416.267	2835.94
416.49	2798.94
416.713	2781.94
416.936	2823.94
417.159	2776.94
417.382	2751.94
417.605	2746.94
417.828	2816.94
418.051	2860.94
418.274	2875.94
418.497	2837.94
418.72	2904.94
418.943	2852.94
419.166	2951.94
419.389	3162.94
419.611	3055.94
419.834	2999.94
420.057	2912.94
420.28	2879.94
420.503	2823.94
420.726	2843.94
420.948	2752.94
421.171	2783.94
421.394	2821.94
421.617	2839.94
421.839	2821.94
422.062	2855.94
422.285	2807.94
422.507	2864.94
422.73	2867.94
422.953	2952.94
423.175	2965.94
423.398	2892.94
423.621	2839.94
423.843	2823.94
424.066	2837.94
424.288	2835.94
424.511	2819.94
424.733	2815.94
424.956	2793.94
425.178	2761.94
425.401	2762.94
425.623	2739.94
425.846	2733.94
426.068	2731.94
426.291	2681.94
426.513	2737.94
426.735	2698.94
426.958	2681.94
427.18	2643.94
427.402	2658.94
427.625	2658.94
427.847	2590.94
428.069	2595.94
428.292	2659.94
428.514	2609.94
428.736	2565.94
428.958	2616.94
429.181	2599.94
429.403	2544.94
429.625	2597.94
429.847	2602.94
430.069	2655.94
430.292	2748.94
430.514	2803.94
430.736	2772.94
430.958	2640.94
431.18	2637.94
431.402	2611.94
431.624	2552.94
431.846	2602.94
432.068	2531.94
432.29	2577.94
432.512	2540.94
432.734	2576.94
432.956	2561.94
433.178	2596.94
433.4	2572.94
433.622	2582.94
433.844	2604.94
434.066	2559.94
434.287	2563.94
434.509	2668.94
434.731	2686.94
434.953	2673.94
435.175	2691.94
435.397	2655.94
435.618	2609.94
435.84	2606.94
436.062	2561.94
436.284	2556.94
436.505	2514.94
436.727	2583.94
436.949	2599.94
437.17	2561.94
437.392	2526.94
437.614	2513.94
437.835	2521.94
438.057	2541.94
438.278	2465.94
438.5	2543.94
438.721	2565.94
438.943	2647.94
439.165	2694.94
439.386	2781.94
439.608	2713.94
439.829	2691.94
440.05	2753.94
440.272	2797.94
440.493	2674.94
440.715	2671.94
440.936	2683.94
441.158	2675.94
441.379	2738.94
441.6	2808.94
441.822	2899.94
442.043	3023.94
442.264	3123.94
442.486	2944.94
442.707	2824.94
442.928	2768.94
443.149	2769.94
443.371	2780.94
443.592	2772.94
443.813	2801.94
444.034	2822.94
444.255	2855.94
444.476	2876.94
444.698	2933.94
444.919	2961.94
445.14	3028.94
445.361	2877.94
445.582	2808.94
445.803	2762.94
446.024	2737.94
446.245	2748.94
446.466	2757.94
446.687	2727.94
446.908	2705.94
447.129	2638.94
447.35	2635.94
447.571	2605.94
447.792	2540.94
448.013	2617.94
448.234	2559.94
448.455	2552.94
448.675	2630.94
448.896	2648.94
449.117	2742.94
449.338	2978.94
449.559	3055.94
449.779	2787.94
450	2579.94
450.221	2529.94
450.442	2528.94
450.662	2485.94
450.883	2500.94
451.104	2492.94
451.324	2513.94
451.545	2552.94
451.766	2501.94
451.986	2573.94
452.207	2813.94
452.428	3745.94
452.648	5715.94
452.869	4743.94
453.089	3230.94
453.31	3017.94
453.53	2968.94
453.751	3043.94
453.971	3131.94
454.192	3091.94
454.412	2697.94
454.633	2570.94
454.853	2492.94
455.073	2399.94
455.294	2475.94
455.514	2396.94
455.734	2395.94
455.955	2334.94
456.175	2355.94
456.395	2403.94
456.616	2375.94
456.836	2452.94
457.056	2435.94
457.276	2427.94
457.497	2589.94
457.717	2591.94
457.937	2571.94
458.157	2520.94
458.377	2495.94
458.598	2543.94
458.818	2549.94
459.038	2572.94
459.258	2509.94
459.478	2571.94
459.698	2641.94
459.918	2639.94
460.138	2723.94
460.358	2782.94
460.578	2794.94
460.798	2790.94
461.018	2811.94
461.238	2769.94
461.458	2891.94
461.678	2869.94
461.898	2980.94
462.118	2959.94
462.338	3032.94
462.558	3019.94
462.777	3124.94
462.997	3186.94
463.217	3318.94
463.437	3405.94
463.657	3514.94
463.876	3427.94
464.096	3243.94
464.316	3180.94
464.536	3157.94
464.755	3057.94
464.975	3019.94
465.195	2915.94
465.414	2802.94
465.634	2771.94
465.854	2739.94
466.073	2708.94
466.293	2605.94
466.512	2673.94
466.732	2684.94
466.951	2789.94
467.171	2945.94
467.391	2943.94
467.61	2692.94
467.829	2592.94
468.049	2552.94
468.268	2539.94
468.488	2522.94
468.707	2513.94
468.927	2581.94
469.146	2590.94
469.365	2540.94
469.585	2569.94
469.804	2643.94
470.023	2683.94
470.243	2730.94
470.462	2837.94
470.681	3005.94
470.901	3231.94
471.12	3688.94
471.339	3699.94
471.558	3133.94
471.777	2891.94
471.997	2700.94
472.216	2705.94
472.435	2595.94
472.654	2550.94
472.873	2562.94
473.092	2557.94
473.311	2575.94
473.53	2633.94
473.749	2672.94
473.968	2780.94
474.187	2607.94
474.406	2554.94
474.625	2596.94
474.844	2623.94
475.063	2580.94
475.282	2619.94
475.501	2625.94
475.72	2604.94
475.939	2625.94
476.158	2684.94
476.377	2715.94
476.596	2700.94
476.814	2732.94
477.033	2684.94
477.252	2745.94
477.471	2842.94
477.69	2864.94
477.908	2911.94
478.127	2923.94
478.346	2932.94
478.564	3011.94
478.783	3002.94
479.002	3044.94
479.22	3052.94
479.439	3068.94
479.658	3089.94
479.876	3043.94
480.095	3108.94
480.313	3160.94
480.532	3211.94
480.751	3171.94
480.969	3104.94
481.188	3057.94
481.406	3147.94
481.624	3107.94
481.843	3138.94
482.061	3148.94
482.28	3145.94
482.498	3067.94
482.717	3131.94
482.935	3136.94
483.153	3204.94
483.372	3256.94
483.59	3242.94
483.808	3339.94
484.027	3412.94
484.245	3585.94
484.463	4002.94
484.681	4426.94
484.9	4089.94
485.118	3800.94
485.336	3719.94
485.554	3775.94
485.772	4048.94
485.99	4482.94
486.209	4808.94
486.427	4105.94
486.645	3709.94
486.863	3513.94
487.081	3472.94
487.299	3423.94
487.517	3320.94
487.735	3307.94
