Data from SnStandardFlinnAPT0064_LampEnergy5.5_LIBS07252019.E.O._I.C._HRD10591_15-17-00-492.txt Node
Date: Thu Jul 25 15:17:00 EDT 2019
User: cochatt
Spectrometer: HR+D1059
Trigger mode: 1
Integration Time (sec): 1.000000E-1
Scans to average: 1
Electric dark correction enabled: true
Nonlinearity correction enabled: false
Boxcar width: 0
XAxis mode: Wavelengths
Number of Pixels in Spectrum: 2048
>>>>>Begin Spectral Data<<<<<
223.165	-13.69
223.4	-13.69
223.635	-13.69
223.869	-31.69
224.104	-32.69
224.338	-5.69
224.573	-10.69
224.808	-21.69
225.042	-21.69
225.277	-15.69
225.511	-8.69
225.746	18.31
225.98	11.31
226.215	21.31
226.449	8.31
226.683	31.31
226.918	29.31
227.152	42.31
227.387	30.31
227.621	39.31
227.856	36.31
228.09	41.31
228.324	36.31
228.559	54.31
228.793	103.31
229.027	171.31
229.262	175.31
229.496	172.31
229.73	161.31
229.964	157.31
230.199	167.31
230.433	175.31
230.667	157.31
230.901	167.31
231.136	154.31
231.37	205.31
231.604	196.31
231.838	216.31
232.072	247.31
232.306	288.31
232.541	233.31
232.775	212.31
233.009	200.31
233.243	197.31
233.477	232.31
233.711	248.31
233.945	272.31
234.179	237.31
234.413	222.31
234.647	218.31
234.881	235.31
235.115	242.31
235.349	288.31
235.583	376.31
235.817	466.31
236.051	450.31
236.285	308.31
236.519	242.31
236.753	230.31
236.987	245.31
237.221	271.31
237.455	246.31
237.689	235.31
237.922	215.31
238.156	229.31
238.39	237.31
238.624	234.31
238.858	222.31
239.091	230.31
239.325	229.31
239.559	235.31
239.793	231.31
240.027	243.31
240.26	235.31
240.494	260.31
240.728	266.31
240.961	288.31
241.195	298.31
241.429	300.31
241.662	312.31
241.896	354.31
242.13	415.31
242.363	510.31
242.597	715.31
242.83	644.31
243.064	652.31
243.298	777.31
243.531	667.31
243.765	397.31
243.998	338.31
244.232	321.31
244.465	313.31
244.699	293.31
244.932	303.31
245.166	318.31
245.399	303.31
245.633	307.31
245.866	308.31
246.099	311.31
246.333	301.31
246.566	300.31
246.8	290.31
247.033	300.31
247.266	292.31
247.5	291.31
247.733	305.31
247.966	320.31
248.2	339.31
248.433	374.31
248.666	425.31
248.899	429.31
249.133	383.31
249.366	379.31
249.599	417.31
249.832	460.31
250.066	471.31
250.299	369.31
250.532	340.31
250.765	345.31
250.998	333.31
251.231	342.31
251.465	352.31
251.698	344.31
251.931	353.31
252.164	341.31
252.397	349.31
252.63	363.31
252.863	355.31
253.096	348.31
253.329	347.31
253.562	367.31
253.795	364.31
254.028	351.31
254.261	363.31
254.494	401.31
254.727	446.31
254.96	519.31
255.193	515.31
255.426	397.31
255.659	377.31
255.892	401.31
256.124	400.31
256.357	402.31
256.59	403.31
256.823	440.31
257.056	482.31
257.289	554.31
257.521	612.31
257.754	501.31
257.987	435.31
258.22	415.31
258.452	385.31
258.685	401.31
258.918	425.31
259.151	433.31
259.383	453.31
259.616	501.31
259.849	547.31
260.081	467.31
260.314	443.31
260.547	423.31
260.779	409.31
261.012	423.31
261.244	420.31
261.477	449.31
261.71	461.31
261.942	460.31
262.175	462.31
262.407	466.31
262.64	490.31
262.872	495.31
263.105	533.31
263.337	533.31
263.57	564.31
263.802	582.31
264.035	605.31
264.267	566.31
264.499	627.31
264.732	637.31
264.964	634.31
265.197	631.31
265.429	644.31
265.661	644.31
265.894	695.31
266.126	761.31
266.358	829.31
266.591	820.31
266.823	687.31
267.055	641.31
267.287	595.31
267.52	594.31
267.752	577.31
267.984	576.31
268.216	582.31
268.448	581.31
268.681	539.31
268.913	540.31
269.145	559.31
269.377	559.31
269.609	556.31
269.841	586.31
270.073	625.31
270.306	725.31
270.538	923.31
270.77	1377.31
271.002	1621.31
271.234	1105.31
271.466	779.31
271.698	627.31
271.93	588.31
272.162	580.31
272.394	560.31
272.626	534.31
272.858	522.31
273.09	559.31
273.322	523.31
273.553	532.31
273.785	541.31
274.017	497.31
274.249	529.31
274.481	566.31
274.713	521.31
274.945	533.31
275.176	542.31
275.408	530.31
275.64	536.31
275.872	533.31
276.104	566.31
276.335	577.31
276.567	548.31
276.799	557.31
277.031	573.31
277.262	580.31
277.494	596.31
277.726	640.31
277.957	748.31
278.189	827.31
278.421	778.31
278.652	703.31
278.884	677.31
279.115	630.31
279.347	625.31
279.579	610.31
279.81	643.31
280.042	608.31
280.273	611.31
280.505	615.31
280.736	644.31
280.968	663.31
281.199	723.31
281.431	796.31
281.662	826.31
281.894	745.31
282.125	704.31
282.356	699.31
282.588	678.31
282.819	701.31
283.051	757.31
283.282	808.31
283.513	1014.31
283.745	1495.31
283.976	2405.31
284.207	3461.31
284.439	2933.31
284.67	1755.31
284.901	1450.31
285.132	1469.31
285.364	1384.31
285.595	1081.31
285.826	1012.31
286.057	1169.31
286.288	1569.31
286.52	2167.31
286.751	1999.31
286.982	1235.31
287.213	911.31
287.444	842.31
287.675	724.31
287.906	762.31
288.138	741.31
288.369	716.31
288.6	719.31
288.831	700.31
289.062	726.31
289.293	715.31
289.524	731.31
289.755	757.31
289.986	727.31
290.217	720.31
290.448	731.31
290.679	728.31
290.91	748.31
291.141	769.31
291.371	817.31
291.602	874.31
291.833	801.31
292.064	757.31
292.295	717.31
292.526	731.31
292.757	699.31
292.987	712.31
293.218	701.31
293.449	685.31
293.68	708.31
293.91	695.31
294.141	676.31
294.372	675.31
294.603	668.31
294.833	689.31
295.064	679.31
295.295	681.31
295.525	659.31
295.756	672.31
295.987	662.31
296.217	672.31
296.448	674.31
296.679	674.31
296.909	680.31
297.14	673.31
297.37	710.31
297.601	703.31
297.831	695.31
298.062	702.31
298.292	716.31
298.523	739.31
298.753	717.31
298.984	721.31
299.214	746.31
299.445	764.31
299.675	753.31
299.905	765.31
300.136	822.31
300.366	907.31
300.597	1130.31
300.827	1588.31
301.057	2084.31
301.288	2120.31
301.518	1343.31
301.748	1049.31
301.979	959.31
302.209	911.31
302.439	939.31
302.669	1028.31
302.9	1195.31
303.13	1661.31
303.36	2472.31
303.59	3306.31
303.82	2911.31
304.051	1627.31
304.281	1183.31
304.511	1008.31
304.741	961.31
304.971	872.31
305.201	849.31
305.431	819.31
305.661	807.31
305.891	804.31
306.121	793.31
306.352	806.31
306.582	779.31
306.812	775.31
307.042	815.31
307.272	809.31
307.502	781.31
307.731	786.31
307.961	787.31
308.191	780.31
308.421	783.31
308.651	775.31
308.881	787.31
309.111	770.31
309.341	804.31
309.571	823.31
309.8	801.31
310.03	793.31
310.26	787.31
310.49	802.31
310.72	827.31
310.949	795.31
311.179	832.31
311.409	814.31
311.639	856.31
311.868	829.31
312.098	833.31
312.328	820.31
312.557	845.31
312.787	819.31
313.017	833.31
313.246	853.31
313.476	855.31
313.706	869.31
313.935	900.31
314.165	971.31
314.394	1000.31
314.624	975.31
314.853	911.31
315.083	907.31
315.312	902.31
315.542	946.31
315.771	955.31
316.001	930.31
316.23	970.31
316.46	1015.31
316.689	1111.31
316.919	1313.31
317.148	1924.31
317.377	2924.31
317.607	4447.31
317.836	4514.31
318.065	2584.31
318.295	1634.31
318.524	1340.31
318.753	1183.31
318.983	1106.31
319.212	1055.31
319.441	1014.31
319.67	1025.31
319.9	1022.31
320.129	988.31
320.358	986.31
320.587	970.31
320.816	993.31
321.046	983.31
321.275	987.31
321.504	1005.31
321.733	1025.31
321.962	1031.31
322.191	1051.31
322.42	1037.31
322.649	1027.31
322.878	1019.31
323.108	1059.31
323.337	1058.31
323.566	1076.31
323.795	1080.31
324.024	1114.31
324.253	1141.31
324.482	1147.31
324.71	1206.31
324.939	1286.31
325.168	1308.31
325.397	1388.31
325.626	1626.31
325.855	2272.31
326.084	3611.31
326.313	5359.31
326.542	5644.31
326.77	3530.31
326.999	2283.31
327.228	1909.31
327.457	1817.31
327.686	1829.31
327.914	1974.31
328.143	2189.31
328.372	2572.31
328.6	2810.31
328.829	2571.31
329.058	2225.31
329.287	1981.31
329.515	1831.31
329.744	1685.31
329.972	1619.31
330.201	1581.31
330.43	1523.31
330.658	1465.31
330.887	1437.31
331.115	1432.31
331.344	1461.31
331.572	1463.31
331.801	1446.31
332.03	1458.31
332.258	1448.31
332.486	1551.31
332.715	1744.31
332.943	2127.31
333.172	2584.31
333.4	2540.31
333.629	1986.31
333.857	1760.31
334.085	1809.31
334.314	1852.31
334.542	2049.31
334.771	2296.31
334.999	2791.31
335.227	3387.31
335.455	3792.31
335.684	3497.31
335.912	2955.31
336.14	2543.31
336.369	2240.31
336.597	2083.31
336.825	1954.31
337.053	1835.31
337.281	1711.31
337.51	1659.31
337.738	1572.31
337.966	1545.31
338.194	1486.31
338.422	1405.31
338.65	1389.31
338.878	1394.31
339.106	1340.31
339.334	1323.31
339.562	1283.31
339.79	1292.31
340.018	1300.31
340.246	1253.31
340.474	1284.31
340.702	1281.31
340.93	1274.31
341.158	1257.31
341.386	1251.31
341.614	1259.31
341.842	1217.31
342.07	1205.31
342.298	1189.31
342.526	1177.31
342.754	1171.31
342.981	1129.31
343.209	1147.31
343.437	1177.31
343.665	1228.31
343.893	1210.31
344.12	1212.31
344.348	1208.31
344.576	1163.31
344.804	1131.31
345.031	1108.31
345.259	1084.31
345.487	1107.31
345.714	1093.31
345.942	1092.31
346.17	1096.31
346.397	1085.31
346.625	1096.31
346.853	1049.31
347.08	1066.31
347.308	1087.31
347.535	1089.31
347.763	1085.31
347.99	1055.31
348.218	1039.31
348.445	1067.31
348.673	1057.31
348.9	1056.31
349.128	1079.31
349.355	1033.31
349.583	1045.31
349.81	1015.31
350.037	1007.31
350.265	1025.31
350.492	1038.31
350.72	1026.31
350.947	1021.31
351.174	1037.31
351.402	1008.31
351.629	1044.31
351.856	1056.31
352.083	1063.31
352.311	1037.31
352.538	1024.31
352.765	1027.31
352.992	1026.31
353.22	1012.31
353.447	1023.31
353.674	1038.31
353.901	1045.31
354.128	1057.31
354.355	1057.31
354.583	1053.31
354.81	1052.31
355.037	1032.31
355.264	1043.31
355.491	1046.31
355.718	1076.31
355.945	1068.31
356.172	1050.31
356.399	1059.31
356.626	1061.31
356.853	1078.31
357.08	1073.31
357.307	1089.31
357.534	1108.31
357.761	1117.31
357.988	1101.31
358.215	1096.31
358.441	1089.31
358.668	1053.31
358.895	1108.31
359.122	1091.31
359.349	1084.31
359.576	1082.31
359.802	1118.31
360.029	1085.31
360.256	1075.31
360.483	1121.31
360.709	1105.31
360.936	1095.31
361.163	1124.31
361.39	1111.31
361.616	1073.31
361.843	1082.31
362.07	1100.31
362.296	1133.31
362.523	1098.31
362.749	1119.31
362.976	1073.31
363.203	1078.31
363.429	1083.31
363.656	1128.31
363.882	1108.31
364.109	1101.31
364.335	1116.31
364.562	1085.31
364.788	1111.31
365.015	1089.31
365.241	1127.31
365.468	1171.31
365.694	1211.31
365.92	1175.31
366.147	1125.31
366.373	1131.31
366.599	1129.31
366.826	1116.31
367.052	1091.31
367.278	1130.31
367.505	1099.31
367.731	1122.31
367.957	1095.31
368.184	1151.31
368.41	1147.31
368.636	1149.31
368.862	1166.31
369.089	1155.31
369.315	1127.31
369.541	1141.31
369.767	1160.31
369.993	1115.31
370.219	1143.31
370.445	1137.31
370.672	1133.31
370.898	1153.31
371.124	1155.31
371.35	1169.31
371.576	1175.31
371.802	1161.31
372.028	1171.31
372.254	1203.31
372.48	1213.31
372.706	1194.31
372.932	1197.31
373.158	1197.31
373.384	1199.31
373.61	1180.31
373.835	1183.31
374.061	1229.31
374.287	1229.31
374.513	1206.31
374.739	1273.31
374.965	1251.31
375.191	1232.31
375.416	1223.31
375.642	1223.31
375.868	1242.31
376.094	1186.31
376.319	1213.31
376.545	1207.31
376.771	1163.31
376.997	1178.31
377.222	1184.31
377.448	1169.31
377.674	1153.31
377.899	1164.31
378.125	1215.31
378.35	1171.31
378.576	1157.31
378.802	1181.31
379.027	1222.31
379.253	1216.31
379.478	1301.31
379.704	1494.31
379.929	2107.31
380.155	3245.31
380.38	3477.31
380.606	2113.31
380.831	1484.31
381.057	1331.31
381.282	1243.31
381.507	1212.31
381.733	1190.31
381.958	1163.31
382.184	1195.31
382.409	1176.31
382.634	1180.31
382.86	1169.31
383.085	1167.31
383.31	1163.31
383.535	1183.31
383.761	1173.31
383.986	1194.31
384.211	1181.31
384.436	1194.31
384.662	1170.31
384.887	1211.31
385.112	1194.31
385.337	1212.31
385.562	1201.31
385.787	1202.31
386.013	1218.31
386.238	1213.31
386.463	1219.31
386.688	1193.31
386.913	1188.31
387.138	1191.31
387.363	1203.31
387.588	1211.31
387.813	1212.31
388.038	1179.31
388.263	1229.31
388.488	1225.31
388.713	1195.31
388.938	1210.31
389.163	1204.31
389.387	1170.31
389.612	1194.31
389.837	1220.31
390.062	1203.31
390.287	1232.31
390.512	1211.31
390.736	1227.31
390.961	1242.31
391.186	1225.31
391.411	1245.31
391.636	1245.31
391.86	1239.31
392.085	1269.31
392.31	1235.31
392.534	1210.31
392.759	1243.31
392.984	1259.31
393.208	1226.31
393.433	1248.31
393.658	1254.31
393.882	1204.31
394.107	1195.31
394.331	1210.31
394.556	1202.31
394.78	1232.31
395.005	1223.31
395.229	1234.31
395.454	1243.31
395.678	1252.31
395.903	1247.31
396.127	1263.31
396.352	1247.31
396.576	1257.31
396.801	1244.31
397.025	1280.31
397.249	1256.31
397.474	1307.31
397.698	1287.31
397.922	1293.31
398.147	1299.31
398.371	1306.31
398.595	1327.31
398.82	1356.31
399.044	1364.31
399.268	1461.31
399.492	1555.31
399.717	1621.31
399.941	1567.31
400.165	1517.31
400.389	1449.31
400.613	1445.31
400.837	1385.31
401.062	1372.31
401.286	1351.31
401.51	1365.31
401.734	1296.31
401.958	1368.31
402.182	1314.31
402.406	1364.31
402.63	1363.31
402.854	1348.31
403.078	1328.31
403.302	1345.31
403.526	1376.31
403.75	1356.31
403.974	1379.31
404.198	1390.31
404.422	1395.31
404.645	1411.31
404.869	1431.31
405.093	1405.31
405.317	1368.31
405.541	1393.31
405.765	1405.31
405.988	1401.31
406.212	1397.31
406.436	1412.31
406.66	1406.31
406.883	1402.31
407.107	1479.31
407.331	1495.31
407.555	1525.31
407.778	1488.31
408.002	1511.31
408.226	1482.31
408.449	1479.31
408.673	1413.31
408.896	1411.31
409.12	1397.31
409.344	1436.31
409.567	1387.31
409.791	1402.31
410.014	1373.31
410.238	1368.31
410.461	1398.31
410.685	1351.31
410.908	1359.31
411.132	1357.31
411.355	1322.31
411.578	1365.31
411.802	1336.31
412.025	1319.31
412.249	1305.31
412.472	1352.31
412.695	1306.31
412.919	1306.31
413.142	1353.31
413.365	1314.31
413.589	1320.31
413.812	1311.31
414.035	1310.31
414.258	1328.31
414.482	1301.31
414.705	1319.31
414.928	1302.31
415.151	1313.31
415.374	1314.31
415.597	1320.31
415.821	1269.31
416.044	1272.31
416.267	1279.31
416.49	1250.31
416.713	1253.31
416.936	1286.31
417.159	1269.31
417.382	1295.31
417.605	1228.31
417.828	1222.31
418.051	1277.31
418.274	1292.31
418.497	1293.31
418.72	1300.31
418.943	1307.31
419.166	1334.31
419.389	1392.31
419.611	1397.31
419.834	1325.31
420.057	1326.31
420.28	1308.31
420.503	1264.31
420.726	1298.31
420.948	1261.31
421.171	1248.31
421.394	1277.31
421.617	1265.31
421.839	1281.31
422.062	1266.31
422.285	1267.31
422.507	1278.31
422.73	1290.31
422.953	1297.31
423.175	1294.31
423.398	1284.31
423.621	1265.31
423.843	1283.31
424.066	1306.31
424.288	1289.31
424.511	1292.31
424.733	1284.31
424.956	1245.31
425.178	1255.31
425.401	1250.31
425.623	1264.31
425.846	1225.31
426.068	1249.31
426.291	1219.31
426.513	1211.31
426.735	1226.31
426.958	1241.31
427.18	1178.31
427.402	1214.31
427.625	1212.31
427.847	1186.31
428.069	1183.31
428.292	1247.31
428.514	1209.31
428.736	1193.31
428.958	1205.31
429.181	1160.31
429.403	1178.31
429.625	1151.31
429.847	1179.31
430.069	1204.31
430.292	1228.31
430.514	1256.31
430.736	1250.31
430.958	1197.31
431.18	1169.31
431.402	1197.31
431.624	1177.31
431.846	1144.31
432.068	1149.31
432.29	1169.31
432.512	1125.31
432.734	1177.31
432.956	1190.31
433.178	1183.31
433.4	1179.31
433.622	1187.31
433.844	1162.31
434.066	1187.31
434.287	1153.31
434.509	1182.31
434.731	1180.31
434.953	1195.31
435.175	1243.31
435.397	1206.31
435.618	1169.31
435.84	1183.31
436.062	1176.31
436.284	1167.31
436.505	1154.31
436.727	1189.31
436.949	1181.31
437.17	1152.31
437.392	1145.31
437.614	1132.31
437.835	1107.31
438.057	1102.31
438.278	1105.31
438.5	1127.31
438.721	1135.31
438.943	1211.31
439.165	1203.31
439.386	1217.31
439.608	1183.31
439.829	1213.31
440.05	1233.31
440.272	1240.31
440.493	1222.31
440.715	1216.31
440.936	1234.31
441.158	1203.31
441.379	1240.31
441.6	1279.31
441.822	1313.31
442.043	1381.31
442.264	1397.31
442.486	1273.31
442.707	1291.31
442.928	1244.31
443.149	1241.31
443.371	1230.31
443.592	1256.31
443.813	1261.31
444.034	1269.31
444.255	1260.31
444.476	1315.31
444.698	1353.31
444.919	1376.31
445.14	1424.31
445.361	1329.31
445.582	1324.31
445.803	1266.31
446.024	1250.31
446.245	1273.31
446.466	1247.31
446.687	1229.31
446.908	1199.31
447.129	1168.31
447.35	1203.31
447.571	1189.31
447.792	1166.31
448.013	1175.31
448.234	1156.31
448.455	1140.31
448.675	1137.31
448.896	1185.31
449.117	1214.31
449.338	1332.31
449.559	1379.31
449.779	1223.31
450	1145.31
450.221	1123.31
450.442	1119.31
450.662	1105.31
450.883	1104.31
451.104	1116.31
451.324	1115.31
451.545	1125.31
451.766	1130.31
451.986	1118.31
452.207	1211.31
452.428	1492.31
452.648	2081.31
452.869	1766.31
453.089	1297.31
453.31	1261.31
453.53	1224.31
453.751	1270.31
453.971	1351.31
454.192	1287.31
454.412	1175.31
454.633	1114.31
454.853	1096.31
455.073	1060.31
455.294	1095.31
455.514	1091.31
455.734	1088.31
455.955	1072.31
456.175	1070.31
456.395	1042.31
456.616	1076.31
456.836	1097.31
457.056	1095.31
457.276	1100.31
457.497	1158.31
457.717	1128.31
457.937	1127.31
458.157	1130.31
458.377	1122.31
458.598	1108.31
458.818	1127.31
459.038	1125.31
459.258	1155.31
459.478	1159.31
459.698	1175.31
459.918	1180.31
460.138	1234.31
460.358	1240.31
460.578	1249.31
460.798	1241.31
461.018	1260.31
461.238	1281.31
461.458	1255.31
461.678	1260.31
461.898	1279.31
462.118	1305.31
462.338	1336.31
462.558	1325.31
462.777	1385.31
462.997	1444.31
463.217	1467.31
463.437	1519.31
463.657	1547.31
463.876	1538.31
464.096	1446.31
464.316	1362.31
464.536	1367.31
464.755	1325.31
464.975	1308.31
465.195	1286.31
465.414	1258.31
465.634	1197.31
465.854	1183.31
466.073	1193.31
466.293	1178.31
466.512	1203.31
466.732	1159.31
466.951	1237.31
467.171	1331.31
467.391	1343.31
467.61	1197.31
467.829	1159.31
468.049	1152.31
468.268	1154.31
468.488	1161.31
468.707	1142.31
468.927	1145.31
469.146	1146.31
469.365	1185.31
469.585	1169.31
469.804	1172.31
470.023	1191.31
470.243	1185.31
470.462	1263.31
470.681	1278.31
470.901	1422.31
471.12	1638.31
471.339	1688.31
471.558	1383.31
471.777	1279.31
471.997	1188.31
472.216	1173.31
472.435	1146.31
472.654	1131.31
472.873	1109.31
473.092	1131.31
473.311	1125.31
473.53	1146.31
473.749	1191.31
473.968	1204.31
474.187	1155.31
474.406	1119.31
474.625	1137.31
474.844	1138.31
475.063	1152.31
475.282	1127.31
475.501	1164.31
475.72	1185.31
475.939	1162.31
476.158	1190.31
476.377	1194.31
476.596	1217.31
476.814	1214.31
477.033	1195.31
477.252	1212.31
477.471	1237.31
477.69	1263.31
477.908	1298.31
478.127	1321.31
478.346	1351.31
478.564	1327.31
478.783	1367.31
479.002	1355.31
479.22	1392.31
479.439	1336.31
479.658	1349.31
479.876	1341.31
480.095	1383.31
480.313	1388.31
480.532	1401.31
480.751	1373.31
480.969	1362.31
481.188	1349.31
481.406	1350.31
481.624	1315.31
481.843	1339.31
482.061	1355.31
482.28	1392.31
482.498	1352.31
482.717	1325.31
482.935	1341.31
483.153	1403.31
483.372	1450.31
483.59	1440.31
483.808	1460.31
484.027	1472.31
484.245	1517.31
484.463	1715.31
484.681	1942.31
484.9	1740.31
485.118	1607.31
485.336	1560.31
485.554	1576.31
485.772	1661.31
485.99	1906.31
486.209	2083.31
486.427	1766.31
486.645	1583.31
486.863	1522.31
487.081	1466.31
487.299	1445.31
487.517	1485.31
487.735	1465.31
487.953	1506.31
488.171	1461.31
488.389	1486.31
488.607	1450.31
488.825	1442.31
489.043	1400.31
489.261	1407.31
489.479	1413.31
489.696	1410.31
489.914	1429.31
490.132	1425.31
490.35	1466.31
490.568	1439.31
490.786	1477.31
