Data from SnStandardFlinnAPT0064_LampEnergy5.5_LIBS07252019.E.O._I.C._HRD10591_15-16-05-497.txt Node
Date: Thu Jul 25 15:16:05 EDT 2019
User: cochatt
Spectrometer: HR+D1059
Trigger mode: 1
Integration Time (sec): 1.000000E-1
Scans to average: 1
Electric dark correction enabled: true
Nonlinearity correction enabled: false
Boxcar width: 0
XAxis mode: Wavelengths
Number of Pixels in Spectrum: 2048
>>>>>Begin Spectral Data<<<<<
223.165	-11.94
223.4	-11.94
223.635	-11.94
223.869	-19.94
224.104	-21.94
224.338	-18.94
224.573	-12.94
224.808	-7.94
225.042	-17.94
225.277	-11.94
225.511	4.06
225.746	3.06
225.98	13.06
226.215	11.06
226.449	8.06
226.683	35.06
226.918	28.06
227.152	21.06
227.387	34.06
227.621	46.06
227.856	47.06
228.09	33.06
228.324	56.06
228.559	57.06
228.793	81.06
229.027	146.06
229.262	150.06
229.496	160.06
229.73	128.06
229.964	148.06
230.199	163.06
230.433	160.06
230.667	172.06
230.901	171.06
231.136	161.06
231.37	184.06
231.604	172.06
231.838	201.06
232.072	246.06
232.306	236.06
232.541	236.06
232.775	199.06
233.009	205.06
233.243	203.06
233.477	230.06
233.711	242.06
233.945	271.06
234.179	253.06
234.413	206.06
234.647	225.06
234.881	222.06
235.115	242.06
235.349	270.06
235.583	335.06
235.817	435.06
236.051	422.06
236.285	262.06
236.519	240.06
236.753	232.06
236.987	220.06
237.221	239.06
237.455	235.06
237.689	218.06
237.922	200.06
238.156	228.06
238.39	226.06
238.624	228.06
238.858	228.06
239.091	217.06
239.325	238.06
239.559	246.06
239.793	256.06
240.027	248.06
240.26	229.06
240.494	256.06
240.728	272.06
240.961	279.06
241.195	286.06
241.429	285.06
241.662	292.06
241.896	324.06
242.13	393.06
242.363	488.06
242.597	631.06
242.83	601.06
243.064	608.06
243.298	720.06
243.531	616.06
243.765	391.06
243.998	333.06
244.232	294.06
244.465	293.06
244.699	274.06
244.932	279.06
245.166	302.06
245.399	290.06
245.633	318.06
245.866	281.06
246.099	318.06
246.333	287.06
246.566	276.06
246.8	284.06
247.033	296.06
247.266	292.06
247.5	288.06
247.733	284.06
247.966	310.06
248.2	338.06
248.433	373.06
248.666	417.06
248.899	387.06
249.133	377.06
249.366	361.06
249.599	380.06
249.832	453.06
250.066	428.06
250.299	392.06
250.532	337.06
250.765	329.06
250.998	330.06
251.231	351.06
251.465	336.06
251.698	329.06
251.931	320.06
252.164	333.06
252.397	337.06
252.63	349.06
252.863	355.06
253.096	370.06
253.329	358.06
253.562	332.06
253.795	336.06
254.028	351.06
254.261	348.06
254.494	386.06
254.727	407.06
254.96	480.06
255.193	490.06
255.426	408.06
255.659	388.06
255.892	375.06
256.124	387.06
256.357	388.06
256.59	383.06
256.823	404.06
257.056	439.06
257.289	521.06
257.521	569.06
257.754	485.06
257.987	420.06
258.22	399.06
258.452	387.06
258.685	406.06
258.918	410.06
259.151	413.06
259.383	455.06
259.616	497.06
259.849	516.06
260.081	444.06
260.314	429.06
260.547	414.06
260.779	424.06
261.012	425.06
261.244	446.06
261.477	426.06
261.71	432.06
261.942	440.06
262.175	463.06
262.407	462.06
262.64	470.06
262.872	483.06
263.105	508.06
263.337	512.06
263.57	548.06
263.802	575.06
264.035	584.06
264.267	578.06
264.499	618.06
264.732	615.06
264.964	618.06
265.197	625.06
265.429	622.06
265.661	636.06
265.894	673.06
266.126	740.06
266.358	788.06
266.591	742.06
266.823	679.06
267.055	648.06
267.287	614.06
267.52	592.06
267.752	578.06
267.984	557.06
268.216	567.06
268.448	558.06
268.681	556.06
268.913	537.06
269.145	533.06
269.377	542.06
269.609	532.06
269.841	551.06
270.073	568.06
270.306	657.06
270.538	871.06
270.77	1269.06
271.002	1450.06
271.234	1066.06
271.466	738.06
271.698	632.06
271.93	584.06
272.162	557.06
272.394	549.06
272.626	544.06
272.858	521.06
273.09	515.06
273.322	522.06
273.553	521.06
273.785	522.06
274.017	517.06
274.249	527.06
274.481	529.06
274.713	532.06
274.945	528.06
275.176	533.06
275.408	541.06
275.64	526.06
275.872	526.06
276.104	546.06
276.335	532.06
276.567	566.06
276.799	548.06
277.031	561.06
277.262	563.06
277.494	575.06
277.726	639.06
277.957	694.06
278.189	732.06
278.421	739.06
278.652	651.06
278.884	670.06
279.115	621.06
279.347	568.06
279.579	572.06
279.81	584.06
280.042	581.06
280.273	589.06
280.505	613.06
280.736	621.06
280.968	632.06
281.199	670.06
281.431	769.06
281.662	781.06
281.894	689.06
282.125	654.06
282.356	690.06
282.588	676.06
282.819	711.06
283.051	743.06
283.282	801.06
283.513	956.06
283.745	1396.06
283.976	2171.06
284.207	3119.06
284.439	2697.06
284.67	1656.06
284.901	1342.06
285.132	1301.06
285.364	1267.06
285.595	1034.06
285.826	924.06
286.057	1109.06
286.288	1484.06
286.52	1930.06
286.751	1826.06
286.982	1130.06
287.213	880.06
287.444	791.06
287.675	782.06
287.906	740.06
288.138	695.06
288.369	708.06
288.6	708.06
288.831	708.06
289.062	695.06
289.293	701.06
289.524	701.06
289.755	696.06
289.986	695.06
290.217	703.06
290.448	718.06
290.679	713.06
290.91	747.06
291.141	765.06
291.371	782.06
291.602	805.06
291.833	767.06
292.064	712.06
292.295	699.06
292.526	693.06
292.757	678.06
292.987	689.06
293.218	670.06
293.449	668.06
293.68	676.06
293.91	662.06
294.141	669.06
294.372	660.06
294.603	661.06
294.833	679.06
295.064	672.06
295.295	666.06
295.525	663.06
295.756	670.06
295.987	678.06
296.217	690.06
296.448	656.06
296.679	667.06
296.909	682.06
297.14	693.06
297.37	708.06
297.601	694.06
297.831	674.06
298.062	677.06
298.292	672.06
298.523	697.06
298.753	702.06
298.984	727.06
299.214	719.06
299.445	706.06
299.675	723.06
299.905	729.06
300.136	785.06
300.366	858.06
300.597	1060.06
300.827	1420.06
301.057	1966.06
301.288	1923.06
301.518	1285.06
301.748	1008.06
301.979	910.06
302.209	904.06
302.439	896.06
302.669	921.06
302.9	1122.06
303.13	1511.06
303.36	2196.06
303.59	2968.06
303.82	2605.06
304.051	1560.06
304.281	1136.06
304.511	1004.06
304.741	930.06
304.971	869.06
305.201	858.06
305.431	831.06
305.661	796.06
305.891	796.06
306.121	790.06
306.352	765.06
306.582	777.06
306.812	752.06
307.042	788.06
307.272	789.06
307.502	755.06
307.731	766.06
307.961	770.06
308.191	749.06
308.421	753.06
308.651	765.06
308.881	769.06
309.111	745.06
309.341	762.06
309.571	796.06
309.8	788.06
310.03	801.06
310.26	786.06
310.49	796.06
310.72	809.06
310.949	797.06
311.179	806.06
311.409	797.06
311.639	785.06
311.868	801.06
312.098	814.06
312.328	834.06
312.557	829.06
312.787	836.06
313.017	815.06
313.246	827.06
313.476	826.06
313.706	850.06
313.935	889.06
314.165	954.06
314.394	987.06
314.624	976.06
314.853	888.06
315.083	886.06
315.312	890.06
315.542	921.06
315.771	904.06
316.001	902.06
316.23	925.06
316.46	968.06
316.689	1062.06
316.919	1242.06
317.148	1750.06
317.377	2650.06
317.607	3849.06
317.836	4012.06
318.065	2396.06
318.295	1557.06
318.524	1272.06
318.753	1146.06
318.983	1071.06
319.212	1028.06
319.441	1004.06
319.67	1004.06
319.9	982.06
320.129	988.06
320.358	961.06
320.587	976.06
320.816	952.06
321.046	937.06
321.275	975.06
321.504	982.06
321.733	974.06
321.962	986.06
322.191	1045.06
322.42	993.06
322.649	1040.06
322.878	1009.06
323.108	1033.06
323.337	1028.06
323.566	1061.06
323.795	1084.06
324.024	1096.06
324.253	1092.06
324.482	1138.06
324.71	1184.06
324.939	1192.06
325.168	1242.06
325.397	1270.06
325.626	1539.06
325.855	2118.06
326.084	3262.06
326.313	4744.06
326.542	5060.06
326.77	3268.06
326.999	2138.06
327.228	1832.06
327.457	1769.06
327.686	1798.06
327.914	1874.06
328.143	2142.06
328.372	2469.06
328.6	2663.06
328.829	2466.06
329.058	2205.06
329.287	1937.06
329.515	1780.06
329.744	1698.06
329.972	1601.06
330.201	1516.06
330.43	1496.06
330.658	1435.06
330.887	1412.06
331.115	1389.06
331.344	1394.06
331.572	1385.06
331.801	1407.06
332.03	1390.06
332.258	1419.06
332.486	1487.06
332.715	1632.06
332.943	1964.06
333.172	2400.06
333.4	2352.06
333.629	1878.06
333.857	1730.06
334.085	1744.06
334.314	1805.06
334.542	1992.06
334.771	2239.06
334.999	2662.06
335.227	3155.06
335.455	3619.06
335.684	3324.06
335.912	2834.06
336.14	2464.06
336.369	2220.06
336.597	2056.06
336.825	1864.06
337.053	1795.06
337.281	1685.06
337.51	1640.06
337.738	1552.06
337.966	1495.06
338.194	1459.06
338.422	1400.06
338.65	1365.06
338.878	1327.06
339.106	1302.06
339.334	1328.06
339.562	1274.06
339.79	1255.06
340.018	1246.06
340.246	1241.06
340.474	1257.06
340.702	1231.06
340.93	1228.06
341.158	1221.06
341.386	1214.06
341.614	1183.06
341.842	1194.06
342.07	1178.06
342.298	1176.06
342.526	1152.06
342.754	1151.06
342.981	1125.06
343.209	1114.06
343.437	1174.06
343.665	1173.06
343.893	1148.06
344.12	1148.06
344.348	1151.06
344.576	1132.06
344.804	1135.06
345.031	1131.06
345.259	1098.06
345.487	1053.06
345.714	1045.06
345.942	1061.06
346.17	1086.06
346.397	1043.06
346.625	1047.06
346.853	1024.06
347.08	1060.06
347.308	1085.06
347.535	1060.06
347.763	1047.06
347.99	1031.06
348.218	1019.06
348.445	1018.06
348.673	1025.06
348.9	1029.06
349.128	1042.06
349.355	1005.06
349.583	1018.06
349.81	990.06
350.037	999.06
350.265	1041.06
350.492	1030.06
350.72	1017.06
350.947	1009.06
351.174	1006.06
351.402	1021.06
351.629	1014.06
351.856	1032.06
352.083	1006.06
352.311	973.06
352.538	1012.06
352.765	1011.06
352.992	1031.06
353.22	1000.06
353.447	1025.06
353.674	994.06
353.901	1013.06
354.128	998.06
354.355	1007.06
354.583	1036.06
354.81	1004.06
355.037	1037.06
355.264	1029.06
355.491	1014.06
355.718	1033.06
355.945	1058.06
356.172	1034.06
356.399	1047.06
356.626	1015.06
356.853	1048.06
357.08	1069.06
357.307	1062.06
357.534	1073.06
357.761	1071.06
357.988	1067.06
358.215	1093.06
358.441	1078.06
358.668	1033.06
358.895	1042.06
359.122	1052.06
359.349	1057.06
359.576	1080.06
359.802	1062.06
360.029	1070.06
360.256	1062.06
360.483	1082.06
360.709	1084.06
360.936	1070.06
361.163	1090.06
361.39	1094.06
361.616	1085.06
361.843	1098.06
362.07	1057.06
362.296	1090.06
362.523	1073.06
362.749	1089.06
362.976	1082.06
363.203	1088.06
363.429	1069.06
363.656	1076.06
363.882	1075.06
364.109	1096.06
364.335	1068.06
364.562	1061.06
364.788	1087.06
365.015	1058.06
365.241	1082.06
365.468	1128.06
365.694	1163.06
365.92	1161.06
366.147	1079.06
366.373	1132.06
366.599	1098.06
366.826	1089.06
367.052	1084.06
367.278	1088.06
367.505	1108.06
367.731	1108.06
367.957	1120.06
368.184	1093.06
368.41	1118.06
368.636	1142.06
368.862	1118.06
369.089	1110.06
369.315	1098.06
369.541	1105.06
369.767	1093.06
369.993	1094.06
370.219	1110.06
370.445	1149.06
370.672	1136.06
370.898	1117.06
371.124	1100.06
371.35	1113.06
371.576	1143.06
371.802	1163.06
372.028	1148.06
372.254	1162.06
372.48	1174.06
372.706	1176.06
372.932	1204.06
373.158	1187.06
373.384	1164.06
373.61	1164.06
373.835	1170.06
374.061	1132.06
374.287	1162.06
374.513	1200.06
374.739	1230.06
374.965	1228.06
375.191	1226.06
375.416	1232.06
375.642	1219.06
375.868	1194.06
376.094	1170.06
376.319	1183.06
376.545	1186.06
376.771	1169.06
376.997	1158.06
377.222	1159.06
377.448	1157.06
377.674	1132.06
377.899	1181.06
378.125	1136.06
378.35	1134.06
378.576	1147.06
378.802	1168.06
379.027	1214.06
379.253	1194.06
379.478	1286.06
379.704	1397.06
379.929	1968.06
380.155	2886.06
380.38	3081.06
380.606	1954.06
380.831	1415.06
381.057	1276.06
381.282	1241.06
381.507	1190.06
381.733	1160.06
381.958	1165.06
382.184	1185.06
382.409	1154.06
382.634	1154.06
382.86	1139.06
383.085	1146.06
383.31	1169.06
383.535	1162.06
383.761	1117.06
383.986	1137.06
384.211	1151.06
384.436	1149.06
384.662	1225.06
384.887	1152.06
385.112	1169.06
385.337	1185.06
385.562	1178.06
385.787	1160.06
386.013	1218.06
386.238	1163.06
386.463	1186.06
386.688	1183.06
386.913	1200.06
387.138	1179.06
387.363	1196.06
387.588	1134.06
387.813	1183.06
388.038	1173.06
388.263	1162.06
388.488	1177.06
388.713	1196.06
388.938	1204.06
389.163	1196.06
389.387	1172.06
389.612	1177.06
389.837	1186.06
390.062	1175.06
390.287	1180.06
390.512	1182.06
390.736	1203.06
390.961	1210.06
391.186	1198.06
391.411	1239.06
391.636	1247.06
391.86	1234.06
392.085	1246.06
392.31	1240.06
392.534	1221.06
392.759	1235.06
392.984	1230.06
393.208	1210.06
393.433	1238.06
393.658	1260.06
393.882	1225.06
394.107	1206.06
394.331	1223.06
394.556	1198.06
394.78	1196.06
395.005	1219.06
395.229	1185.06
395.454	1230.06
395.678	1272.06
395.903	1228.06
396.127	1260.06
396.352	1216.06
396.576	1245.06
396.801	1216.06
397.025	1277.06
397.249	1217.06
397.474	1257.06
397.698	1230.06
397.922	1265.06
398.147	1233.06
398.371	1283.06
398.595	1337.06
398.82	1318.06
399.044	1369.06
399.268	1435.06
399.492	1546.06
399.717	1585.06
399.941	1561.06
400.165	1501.06
400.389	1434.06
400.613	1409.06
400.837	1342.06
401.062	1318.06
401.286	1340.06
401.51	1317.06
401.734	1270.06
401.958	1304.06
402.182	1319.06
402.406	1297.06
402.63	1320.06
402.854	1328.06
403.078	1353.06
403.302	1351.06
403.526	1354.06
403.75	1350.06
403.974	1367.06
404.198	1342.06
404.422	1381.06
404.645	1367.06
404.869	1360.06
405.093	1366.06
405.317	1350.06
405.541	1369.06
405.765	1394.06
405.988	1392.06
406.212	1402.06
406.436	1376.06
406.66	1414.06
406.883	1388.06
407.107	1417.06
407.331	1464.06
407.555	1460.06
407.778	1473.06
408.002	1475.06
408.226	1438.06
408.449	1424.06
408.673	1385.06
408.896	1386.06
409.12	1364.06
409.344	1383.06
409.567	1331.06
409.791	1337.06
410.014	1362.06
410.238	1373.06
410.461	1361.06
410.685	1354.06
410.908	1351.06
411.132	1354.06
411.355	1317.06
411.578	1307.06
411.802	1325.06
412.025	1318.06
412.249	1331.06
412.472	1332.06
412.695	1301.06
412.919	1303.06
413.142	1274.06
413.365	1291.06
413.589	1317.06
413.812	1264.06
414.035	1267.06
414.258	1302.06
414.482	1303.06
414.705	1290.06
414.928	1311.06
415.151	1294.06
415.374	1286.06
415.597	1279.06
415.821	1254.06
416.044	1253.06
416.267	1236.06
416.49	1237.06
416.713	1222.06
416.936	1222.06
417.159	1222.06
417.382	1230.06
417.605	1213.06
417.828	1247.06
418.051	1264.06
418.274	1233.06
418.497	1252.06
418.72	1281.06
418.943	1256.06
419.166	1311.06
419.389	1377.06
419.611	1353.06
419.834	1324.06
420.057	1270.06
420.28	1248.06
420.503	1253.06
420.726	1253.06
420.948	1206.06
421.171	1218.06
421.394	1233.06
421.617	1206.06
421.839	1238.06
422.062	1284.06
422.285	1213.06
422.507	1264.06
422.73	1280.06
422.953	1246.06
423.175	1304.06
423.398	1268.06
423.621	1236.06
423.843	1260.06
424.066	1264.06
424.288	1260.06
424.511	1256.06
424.733	1231.06
424.956	1237.06
425.178	1226.06
425.401	1236.06
425.623	1228.06
425.846	1192.06
426.068	1180.06
426.291	1216.06
426.513	1191.06
426.735	1210.06
426.958	1222.06
427.18	1166.06
427.402	1200.06
427.625	1198.06
427.847	1143.06
428.069	1172.06
428.292	1180.06
428.514	1156.06
428.736	1143.06
428.958	1183.06
429.181	1151.06
429.403	1127.06
429.625	1150.06
429.847	1150.06
430.069	1146.06
430.292	1216.06
430.514	1215.06
430.736	1209.06
430.958	1185.06
431.18	1158.06
431.402	1163.06
431.624	1148.06
431.846	1113.06
432.068	1099.06
432.29	1095.06
432.512	1120.06
432.734	1157.06
432.956	1148.06
433.178	1126.06
433.4	1133.06
433.622	1136.06
433.844	1188.06
434.066	1128.06
434.287	1121.06
434.509	1150.06
434.731	1163.06
434.953	1182.06
435.175	1186.06
435.397	1224.06
435.618	1170.06
435.84	1134.06
436.062	1136.06
436.284	1125.06
436.505	1109.06
436.727	1132.06
436.949	1134.06
437.17	1176.06
437.392	1121.06
437.614	1138.06
437.835	1088.06
438.057	1137.06
438.278	1092.06
438.5	1116.06
438.721	1129.06
438.943	1176.06
439.165	1196.06
439.386	1185.06
439.608	1182.06
439.829	1201.06
440.05	1193.06
440.272	1224.06
440.493	1176.06
440.715	1184.06
440.936	1187.06
441.158	1190.06
441.379	1223.06
441.6	1245.06
441.822	1287.06
442.043	1336.06
442.264	1376.06
442.486	1286.06
442.707	1252.06
442.928	1197.06
443.149	1200.06
443.371	1239.06
443.592	1236.06
443.813	1211.06
444.034	1233.06
444.255	1260.06
444.476	1302.06
444.698	1309.06
444.919	1324.06
445.14	1374.06
445.361	1320.06
445.582	1273.06
445.803	1208.06
446.024	1246.06
446.245	1218.06
446.466	1224.06
446.687	1203.06
446.908	1216.06
447.129	1194.06
447.35	1184.06
447.571	1188.06
447.792	1153.06
448.013	1169.06
448.234	1129.06
448.455	1141.06
448.675	1138.06
448.896	1152.06
449.117	1154.06
449.338	1261.06
449.559	1337.06
449.779	1171.06
450	1112.06
450.221	1115.06
450.442	1141.06
450.662	1121.06
450.883	1098.06
451.104	1116.06
451.324	1100.06
451.545	1102.06
451.766	1095.06
451.986	1088.06
452.207	1156.06
452.428	1363.06
452.648	1888.06
452.869	1625.06
453.089	1246.06
453.31	1211.06
453.53	1204.06
453.751	1219.06
453.971	1299.06
454.192	1286.06
454.412	1132.06
454.633	1109.06
454.853	1068.06
455.073	1050.06
455.294	1034.06
455.514	1038.06
455.734	1048.06
455.955	1038.06
456.175	1038.06
456.395	1015.06
456.616	1063.06
456.836	1057.06
457.056	1037.06
457.276	1039.06
457.497	1133.06
457.717	1102.06
457.937	1054.06
458.157	1117.06
458.377	1097.06
458.598	1117.06
458.818	1102.06
459.038	1106.06
459.258	1110.06
459.478	1137.06
459.698	1158.06
459.918	1159.06
460.138	1197.06
460.358	1184.06
460.578	1215.06
460.798	1246.06
461.018	1234.06
461.238	1255.06
461.458	1291.06
461.678	1234.06
461.898	1285.06
462.118	1260.06
462.338	1309.06
462.558	1310.06
462.777	1365.06
462.997	1359.06
463.217	1450.06
463.437	1475.06
463.657	1485.06
463.876	1445.06
464.096	1414.06
464.316	1332.06
464.536	1348.06
464.755	1316.06
464.975	1317.06
465.195	1266.06
465.414	1233.06
465.634	1194.06
465.854	1152.06
466.073	1169.06
466.293	1166.06
466.512	1154.06
466.732	1133.06
466.951	1221.06
467.171	1265.06
467.391	1231.06
467.61	1159.06
467.829	1153.06
468.049	1156.06
468.268	1118.06
468.488	1132.06
468.707	1112.06
468.927	1125.06
469.146	1108.06
469.365	1136.06
469.585	1110.06
469.804	1168.06
470.023	1187.06
470.243	1190.06
470.462	1249.06
470.681	1261.06
470.901	1381.06
471.12	1572.06
471.339	1572.06
471.558	1333.06
471.777	1226.06
471.997	1159.06
472.216	1147.06
472.435	1123.06
472.654	1146.06
472.873	1094.06
473.092	1088.06
473.311	1118.06
473.53	1135.06
473.749	1150.06
473.968	1191.06
474.187	1103.06
474.406	1150.06
474.625	1156.06
474.844	1136.06
475.063	1124.06
475.282	1120.06
475.501	1118.06
475.72	1158.06
475.939	1176.06
476.158	1179.06
476.377	1182.06
476.596	1181.06
476.814	1175.06
477.033	1133.06
477.252	1187.06
477.471	1205.06
477.69	1242.06
477.908	1268.06
478.127	1278.06
478.346	1266.06
478.564	1292.06
478.783	1298.06
479.002	1329.06
479.22	1323.06
479.439	1361.06
479.658	1334.06
479.876	1336.06
480.095	1330.06
480.313	1391.06
480.532	1358.06
480.751	1347.06
480.969	1375.06
481.188	1349.06
481.406	1346.06
481.624	1314.06
481.843	1307.06
482.061	1350.06
482.28	1343.06
482.498	1315.06
482.717	1302.06
482.935	1347.06
483.153	1377.06
483.372	1417.06
483.59	1420.06
483.808	1417.06
484.027	1419.06
484.245	1470.06
484.463	1636.06
484.681	1839.06
484.9	1641.06
485.118	1565.06
485.336	1542.06
485.554	1568.06
485.772	1653.06
485.99	1857.06
486.209	2012.06
486.427	1709.06
486.645	1573.06
486.863	1498.06
487.081	1468.06
487.299	1447.06
487.517	1434.06
487.735	1487.06
487.953	1450.06
488.171	1453.06
488.389	1452.06
488.607	1428.06
488.825	1435.06
489.043	1381.06
489.261	1386.06
489.479	1377.06
489.696	1410.06
489.914	1424.06
490.132	1365.06
490.35	1417.06
490.568	1419.06
490.786	1442.06
491.003	1455.06
