Data from SnStandardFlinnAPT0064_LampEnergy5.5_LIBS07252019.E.O._I.C._HRD10591_15-15-14-491.txt Node
Date: Thu Jul 25 15:15:14 EDT 2019
User: cochatt
Spectrometer: HR+D1059
Trigger mode: 1
Integration Time (sec): 1.000000E-1
Scans to average: 1
Electric dark correction enabled: true
Nonlinearity correction enabled: false
Boxcar width: 0
XAxis mode: Wavelengths
Number of Pixels in Spectrum: 2048
>>>>>Begin Spectral Data<<<<<
223.165	-16.94
223.4	-16.94
223.635	-16.94
223.869	-28.94
224.104	-12.94
224.338	-6.94
224.573	2.06
224.808	-1.94
225.042	-9.94
225.277	-3.94
225.511	-3.94
225.746	4.06
225.98	1.06
226.215	-1.94
226.449	4.06
226.683	27.06
226.918	18.06
227.152	31.06
227.387	34.06
227.621	40.06
227.856	44.06
228.09	43.06
228.324	42.06
228.559	62.06
228.793	97.06
229.027	128.06
229.262	148.06
229.496	141.06
229.73	136.06
229.964	160.06
230.199	150.06
230.433	147.06
230.667	143.06
230.901	159.06
231.136	176.06
231.37	179.06
231.604	197.06
231.838	196.06
232.072	201.06
232.306	237.06
232.541	215.06
232.775	194.06
233.009	190.06
233.243	173.06
233.477	216.06
233.711	209.06
233.945	260.06
234.179	201.06
234.413	205.06
234.647	221.06
234.881	229.06
235.115	226.06
235.349	261.06
235.583	298.06
235.817	384.06
236.051	375.06
236.285	293.06
236.519	233.06
236.753	229.06
236.987	242.06
237.221	222.06
237.455	228.06
237.689	221.06
237.922	199.06
238.156	206.06
238.39	212.06
238.624	241.06
238.858	229.06
239.091	233.06
239.325	228.06
239.559	229.06
239.793	233.06
240.027	236.06
240.26	248.06
240.494	241.06
240.728	252.06
240.961	253.06
241.195	280.06
241.429	285.06
241.662	289.06
241.896	327.06
242.13	381.06
242.363	451.06
242.597	551.06
242.83	570.06
243.064	550.06
243.298	641.06
243.531	556.06
243.765	374.06
243.998	315.06
244.232	293.06
244.465	304.06
244.699	279.06
244.932	285.06
245.166	294.06
245.399	306.06
245.633	314.06
245.866	304.06
246.099	302.06
246.333	283.06
246.566	286.06
246.8	285.06
247.033	301.06
247.266	298.06
247.5	292.06
247.733	302.06
247.966	316.06
248.2	313.06
248.433	368.06
248.666	366.06
248.899	362.06
249.133	347.06
249.366	351.06
249.599	364.06
249.832	422.06
250.066	404.06
250.299	354.06
250.532	328.06
250.765	328.06
250.998	333.06
251.231	316.06
251.465	317.06
251.698	326.06
251.931	320.06
252.164	328.06
252.397	327.06
252.63	343.06
252.863	354.06
253.096	327.06
253.329	327.06
253.562	316.06
253.795	340.06
254.028	345.06
254.261	358.06
254.494	375.06
254.727	407.06
254.96	458.06
255.193	490.06
255.426	398.06
255.659	360.06
255.892	352.06
256.124	374.06
256.357	362.06
256.59	386.06
256.823	395.06
257.056	422.06
257.289	489.06
257.521	548.06
257.754	458.06
257.987	386.06
258.22	397.06
258.452	398.06
258.685	403.06
258.918	420.06
259.151	419.06
259.383	418.06
259.616	458.06
259.849	489.06
260.081	429.06
260.314	424.06
260.547	410.06
260.779	405.06
261.012	418.06
261.244	409.06
261.477	432.06
261.71	419.06
261.942	439.06
262.175	442.06
262.407	466.06
262.64	489.06
262.872	472.06
263.105	495.06
263.337	517.06
263.57	535.06
263.802	556.06
264.035	565.06
264.267	550.06
264.499	578.06
264.732	608.06
264.964	617.06
265.197	618.06
265.429	626.06
265.661	626.06
265.894	655.06
266.126	727.06
266.358	788.06
266.591	751.06
266.823	677.06
267.055	633.06
267.287	575.06
267.52	574.06
267.752	564.06
267.984	565.06
268.216	521.06
268.448	533.06
268.681	552.06
268.913	545.06
269.145	548.06
269.377	529.06
269.609	533.06
269.841	526.06
270.073	601.06
270.306	632.06
270.538	816.06
270.77	1144.06
271.002	1358.06
271.234	957.06
271.466	714.06
271.698	615.06
271.93	566.06
272.162	561.06
272.394	542.06
272.626	545.06
272.858	551.06
273.09	509.06
273.322	521.06
273.553	502.06
273.785	520.06
274.017	516.06
274.249	520.06
274.481	494.06
274.713	517.06
274.945	529.06
275.176	518.06
275.408	523.06
275.64	510.06
275.872	547.06
276.104	535.06
276.335	546.06
276.567	523.06
276.799	538.06
277.031	547.06
277.262	540.06
277.494	568.06
277.726	604.06
277.957	686.06
278.189	732.06
278.421	708.06
278.652	640.06
278.884	624.06
279.115	593.06
279.347	601.06
279.579	590.06
279.81	568.06
280.042	601.06
280.273	606.06
280.505	599.06
280.736	612.06
280.968	628.06
281.199	656.06
281.431	738.06
281.662	752.06
281.894	705.06
282.125	652.06
282.356	686.06
282.588	680.06
282.819	682.06
283.051	712.06
283.282	776.06
283.513	935.06
283.745	1294.06
283.976	1992.06
284.207	2718.06
284.439	2464.06
284.67	1558.06
284.901	1256.06
285.132	1234.06
285.364	1143.06
285.595	993.06
285.826	902.06
286.057	1036.06
286.288	1353.06
286.52	1770.06
286.751	1619.06
286.982	1108.06
287.213	848.06
287.444	770.06
287.675	750.06
287.906	711.06
288.138	698.06
288.369	698.06
288.6	682.06
288.831	704.06
289.062	665.06
289.293	686.06
289.524	671.06
289.755	690.06
289.986	710.06
290.217	704.06
290.448	712.06
290.679	685.06
290.91	727.06
291.141	697.06
291.371	748.06
291.602	792.06
291.833	732.06
292.064	689.06
292.295	691.06
292.526	662.06
292.757	671.06
292.987	660.06
293.218	660.06
293.449	658.06
293.68	665.06
293.91	653.06
294.141	646.06
294.372	655.06
294.603	649.06
294.833	644.06
295.064	632.06
295.295	661.06
295.525	659.06
295.756	651.06
295.987	658.06
296.217	652.06
296.448	647.06
296.679	662.06
296.909	657.06
297.14	668.06
297.37	684.06
297.601	694.06
297.831	661.06
298.062	678.06
298.292	701.06
298.523	696.06
298.753	686.06
298.984	705.06
299.214	714.06
299.445	706.06
299.675	742.06
299.905	720.06
300.136	753.06
300.366	837.06
300.597	1010.06
300.827	1346.06
301.057	1743.06
301.288	1738.06
301.518	1201.06
301.748	968.06
301.979	889.06
302.209	896.06
302.439	882.06
302.669	932.06
302.9	1093.06
303.13	1413.06
303.36	1950.06
303.59	2648.06
303.82	2286.06
304.051	1477.06
304.281	1081.06
304.511	974.06
304.741	895.06
304.971	853.06
305.201	855.06
305.431	806.06
305.661	802.06
305.891	784.06
306.121	776.06
306.352	757.06
306.582	771.06
306.812	746.06
307.042	764.06
307.272	756.06
307.502	758.06
307.731	750.06
307.961	755.06
308.191	764.06
308.421	768.06
308.651	749.06
308.881	739.06
309.111	741.06
309.341	760.06
309.571	764.06
309.8	792.06
310.03	778.06
310.26	735.06
310.49	786.06
310.72	772.06
310.949	788.06
311.179	756.06
311.409	789.06
311.639	814.06
311.868	807.06
312.098	801.06
312.328	816.06
312.557	834.06
312.787	813.06
313.017	809.06
313.246	800.06
313.476	828.06
313.706	836.06
313.935	869.06
314.165	903.06
314.394	911.06
314.624	904.06
314.853	878.06
315.083	866.06
315.312	858.06
315.542	878.06
315.771	886.06
316.001	893.06
316.23	937.06
316.46	960.06
316.689	1017.06
316.919	1180.06
317.148	1639.06
317.377	2398.06
317.607	3472.06
317.836	3557.06
318.065	2180.06
318.295	1506.06
318.524	1225.06
318.753	1113.06
318.983	1033.06
319.212	986.06
319.441	982.06
319.67	957.06
319.9	949.06
320.129	967.06
320.358	936.06
320.587	982.06
320.816	930.06
321.046	969.06
321.275	945.06
321.504	959.06
321.733	975.06
321.962	962.06
322.191	988.06
322.42	1007.06
322.649	995.06
322.878	964.06
323.108	1002.06
323.337	1018.06
323.566	1012.06
323.795	1049.06
324.024	1066.06
324.253	1073.06
324.482	1102.06
324.71	1165.06
324.939	1232.06
325.168	1255.06
325.397	1292.06
325.626	1454.06
325.855	1940.06
326.084	2964.06
326.313	4325.06
326.542	4528.06
326.77	3023.06
326.999	2106.06
327.228	1770.06
327.457	1727.06
327.686	1732.06
327.914	1867.06
328.143	2050.06
328.372	2366.06
328.6	2582.06
328.829	2392.06
329.058	2161.06
329.287	1905.06
329.515	1809.06
329.744	1648.06
329.972	1598.06
330.201	1511.06
330.43	1446.06
330.658	1397.06
330.887	1404.06
331.115	1389.06
331.344	1393.06
331.572	1391.06
331.801	1369.06
332.03	1402.06
332.258	1396.06
332.486	1437.06
332.715	1608.06
332.943	1884.06
333.172	2273.06
333.4	2223.06
333.629	1865.06
333.857	1696.06
334.085	1705.06
334.314	1787.06
334.542	1926.06
334.771	2206.06
334.999	2583.06
335.227	3177.06
335.455	3485.06
335.684	3228.06
335.912	2788.06
336.14	2449.06
336.369	2184.06
336.597	2036.06
336.825	1870.06
337.053	1776.06
337.281	1689.06
337.51	1596.06
337.738	1514.06
337.966	1453.06
338.194	1392.06
338.422	1396.06
338.65	1385.06
338.878	1343.06
339.106	1282.06
339.334	1305.06
339.562	1267.06
339.79	1254.06
340.018	1259.06
340.246	1202.06
340.474	1189.06
340.702	1203.06
340.93	1208.06
341.158	1221.06
341.386	1206.06
341.614	1196.06
341.842	1184.06
342.07	1179.06
342.298	1148.06
342.526	1139.06
342.754	1160.06
342.981	1134.06
343.209	1114.06
343.437	1112.06
343.665	1108.06
343.893	1172.06
344.12	1153.06
344.348	1147.06
344.576	1121.06
344.804	1100.06
345.031	1078.06
345.259	1060.06
345.487	1080.06
345.714	1062.06
345.942	1049.06
346.17	1072.06
346.397	1048.06
346.625	1035.06
346.853	1033.06
347.08	1030.06
347.308	1029.06
347.535	1046.06
347.763	1021.06
347.99	994.06
348.218	1005.06
348.445	1010.06
348.673	997.06
348.9	1016.06
349.128	1021.06
349.355	1028.06
349.583	1004.06
349.81	997.06
350.037	1022.06
350.265	951.06
350.492	1003.06
350.72	1012.06
350.947	971.06
351.174	1026.06
351.402	988.06
351.629	1004.06
351.856	978.06
352.083	984.06
352.311	982.06
352.538	982.06
352.765	969.06
352.992	974.06
353.22	962.06
353.447	984.06
353.674	992.06
353.901	992.06
354.128	970.06
354.355	978.06
354.583	982.06
354.81	986.06
355.037	1034.06
355.264	1047.06
355.491	1005.06
355.718	1028.06
355.945	1016.06
356.172	973.06
356.399	1026.06
356.626	1042.06
356.853	1066.06
357.08	1038.06
357.307	1070.06
357.534	1032.06
357.761	1094.06
357.988	1052.06
358.215	1017.06
358.441	1044.06
358.668	1053.06
358.895	1088.06
359.122	1033.06
359.349	1037.06
359.576	1045.06
359.802	1040.06
360.029	1023.06
360.256	1052.06
360.483	1042.06
360.709	1059.06
360.936	1041.06
361.163	1047.06
361.39	1071.06
361.616	1048.06
361.843	1052.06
362.07	1053.06
362.296	1028.06
362.523	1048.06
362.749	1044.06
362.976	1048.06
363.203	1078.06
363.429	1039.06
363.656	1057.06
363.882	1034.06
364.109	1034.06
364.335	1034.06
364.562	1037.06
364.788	1042.06
365.015	1064.06
365.241	1082.06
365.468	1126.06
365.694	1139.06
365.92	1101.06
366.147	1078.06
366.373	1081.06
366.599	1078.06
366.826	1068.06
367.052	1086.06
367.278	1082.06
367.505	1091.06
367.731	1114.06
367.957	1091.06
368.184	1075.06
368.41	1091.06
368.636	1094.06
368.862	1074.06
369.089	1095.06
369.315	1109.06
369.541	1114.06
369.767	1089.06
369.993	1078.06
370.219	1088.06
370.445	1076.06
370.672	1112.06
370.898	1106.06
371.124	1123.06
371.35	1135.06
371.576	1121.06
371.802	1106.06
372.028	1152.06
372.254	1140.06
372.48	1142.06
372.706	1150.06
372.932	1158.06
373.158	1156.06
373.384	1137.06
373.61	1152.06
373.835	1157.06
374.061	1155.06
374.287	1202.06
374.513	1179.06
374.739	1188.06
374.965	1197.06
375.191	1212.06
375.416	1216.06
375.642	1200.06
375.868	1158.06
376.094	1152.06
376.319	1157.06
376.545	1166.06
376.771	1151.06
376.997	1159.06
377.222	1132.06
377.448	1124.06
377.674	1122.06
377.899	1110.06
378.125	1147.06
378.35	1124.06
378.576	1109.06
378.802	1156.06
379.027	1136.06
379.253	1142.06
379.478	1231.06
379.704	1365.06
379.929	1824.06
380.155	2599.06
380.38	2745.06
380.606	1810.06
380.831	1393.06
381.057	1279.06
381.282	1212.06
381.507	1171.06
381.733	1135.06
381.958	1127.06
382.184	1151.06
382.409	1132.06
382.634	1123.06
382.86	1113.06
383.085	1110.06
383.31	1161.06
383.535	1136.06
383.761	1142.06
383.986	1145.06
384.211	1170.06
384.436	1138.06
384.662	1158.06
384.887	1147.06
385.112	1168.06
385.337	1175.06
385.562	1171.06
385.787	1151.06
386.013	1161.06
386.238	1187.06
386.463	1159.06
386.688	1169.06
386.913	1170.06
387.138	1156.06
387.363	1171.06
387.588	1169.06
387.813	1162.06
388.038	1124.06
388.263	1155.06
388.488	1142.06
388.713	1131.06
388.938	1120.06
389.163	1128.06
389.387	1207.06
389.612	1161.06
389.837	1139.06
390.062	1143.06
390.287	1192.06
390.512	1157.06
390.736	1218.06
390.961	1228.06
391.186	1205.06
391.411	1220.06
391.636	1223.06
391.86	1255.06
392.085	1237.06
392.31	1193.06
392.534	1241.06
392.759	1234.06
392.984	1183.06
393.208	1185.06
393.433	1194.06
393.658	1176.06
393.882	1181.06
394.107	1157.06
394.331	1209.06
394.556	1188.06
394.78	1191.06
395.005	1200.06
395.229	1185.06
395.454	1187.06
395.678	1219.06
395.903	1212.06
396.127	1198.06
396.352	1191.06
396.576	1184.06
396.801	1186.06
397.025	1223.06
397.249	1215.06
397.474	1233.06
397.698	1225.06
397.922	1249.06
398.147	1234.06
398.371	1272.06
398.595	1298.06
398.82	1284.06
399.044	1329.06
399.268	1432.06
399.492	1486.06
399.717	1582.06
399.941	1551.06
400.165	1513.06
400.389	1428.06
400.613	1376.06
400.837	1358.06
401.062	1349.06
401.286	1310.06
401.51	1308.06
401.734	1300.06
401.958	1335.06
402.182	1324.06
402.406	1306.06
402.63	1288.06
402.854	1340.06
403.078	1312.06
403.302	1328.06
403.526	1329.06
403.75	1330.06
403.974	1365.06
404.198	1329.06
404.422	1363.06
404.645	1350.06
404.869	1358.06
405.093	1340.06
405.317	1374.06
405.541	1381.06
405.765	1377.06
405.988	1348.06
406.212	1404.06
406.436	1345.06
406.66	1377.06
406.883	1412.06
407.107	1408.06
407.331	1445.06
407.555	1487.06
407.778	1437.06
408.002	1441.06
408.226	1435.06
408.449	1395.06
408.673	1385.06
408.896	1377.06
409.12	1353.06
409.344	1379.06
409.567	1351.06
409.791	1322.06
410.014	1340.06
410.238	1347.06
410.461	1347.06
410.685	1324.06
410.908	1326.06
411.132	1343.06
411.355	1243.06
411.578	1281.06
411.802	1278.06
412.025	1276.06
412.249	1308.06
412.472	1280.06
412.695	1278.06
412.919	1255.06
413.142	1264.06
413.365	1279.06
413.589	1297.06
413.812	1283.06
414.035	1257.06
414.258	1278.06
414.482	1276.06
414.705	1270.06
414.928	1274.06
415.151	1279.06
415.374	1286.06
415.597	1242.06
415.821	1216.06
416.044	1216.06
416.267	1206.06
416.49	1219.06
416.713	1209.06
416.936	1214.06
417.159	1225.06
417.382	1247.06
417.605	1207.06
417.828	1198.06
418.051	1234.06
418.274	1236.06
418.497	1234.06
418.72	1253.06
418.943	1245.06
419.166	1269.06
419.389	1342.06
419.611	1324.06
419.834	1296.06
420.057	1277.06
420.28	1276.06
420.503	1226.06
420.726	1247.06
420.948	1249.06
421.171	1234.06
421.394	1232.06
421.617	1207.06
421.839	1217.06
422.062	1253.06
422.285	1233.06
422.507	1274.06
422.73	1249.06
422.953	1239.06
423.175	1281.06
423.398	1276.06
423.621	1241.06
423.843	1246.06
424.066	1224.06
424.288	1232.06
424.511	1232.06
424.733	1239.06
424.956	1196.06
425.178	1234.06
425.401	1185.06
425.623	1249.06
425.846	1206.06
426.068	1206.06
426.291	1169.06
426.513	1190.06
426.735	1192.06
426.958	1190.06
427.18	1158.06
427.402	1174.06
427.625	1173.06
427.847	1134.06
428.069	1130.06
428.292	1142.06
428.514	1143.06
428.736	1148.06
428.958	1134.06
429.181	1158.06
429.403	1135.06
429.625	1136.06
429.847	1124.06
430.069	1132.06
430.292	1174.06
430.514	1193.06
430.736	1197.06
430.958	1146.06
431.18	1148.06
431.402	1144.06
431.624	1146.06
431.846	1109.06
432.068	1109.06
432.29	1101.06
432.512	1106.06
432.734	1165.06
432.956	1119.06
433.178	1144.06
433.4	1133.06
433.622	1156.06
433.844	1154.06
434.066	1153.06
434.287	1128.06
434.509	1160.06
434.731	1180.06
434.953	1150.06
435.175	1172.06
435.397	1169.06
435.618	1154.06
435.84	1125.06
436.062	1098.06
436.284	1156.06
436.505	1122.06
436.727	1153.06
436.949	1132.06
437.17	1148.06
437.392	1099.06
437.614	1132.06
437.835	1088.06
438.057	1081.06
438.278	1059.06
438.5	1102.06
438.721	1112.06
438.943	1145.06
439.165	1158.06
439.386	1143.06
439.608	1181.06
439.829	1169.06
440.05	1196.06
440.272	1205.06
440.493	1173.06
440.715	1191.06
440.936	1185.06
441.158	1199.06
441.379	1211.06
441.6	1213.06
441.822	1243.06
442.043	1300.06
442.264	1311.06
442.486	1250.06
442.707	1236.06
442.928	1241.06
443.149	1248.06
443.371	1217.06
443.592	1209.06
443.813	1234.06
444.034	1216.06
444.255	1274.06
444.476	1293.06
444.698	1304.06
444.919	1289.06
445.14	1364.06
445.361	1321.06
445.582	1268.06
445.803	1263.06
446.024	1211.06
446.245	1231.06
446.466	1211.06
446.687	1198.06
446.908	1196.06
447.129	1174.06
447.35	1144.06
447.571	1168.06
447.792	1129.06
448.013	1128.06
448.234	1135.06
448.455	1111.06
448.675	1104.06
448.896	1160.06
449.117	1185.06
449.338	1238.06
449.559	1265.06
449.779	1184.06
450	1109.06
450.221	1098.06
450.442	1116.06
450.662	1078.06
450.883	1065.06
451.104	1065.06
451.324	1042.06
451.545	1083.06
451.766	1099.06
451.986	1101.06
452.207	1133.06
452.428	1321.06
452.648	1735.06
452.869	1546.06
453.089	1219.06
453.31	1167.06
453.53	1180.06
453.751	1188.06
453.971	1272.06
454.192	1248.06
454.412	1138.06
454.633	1076.06
454.853	1043.06
455.073	1013.06
455.294	1029.06
455.514	1048.06
455.734	1051.06
455.955	1022.06
456.175	998.06
456.395	1025.06
456.616	1017.06
456.836	1041.06
457.056	1057.06
457.276	1009.06
457.497	1074.06
457.717	1091.06
457.937	1068.06
458.157	1080.06
458.377	1088.06
458.598	1088.06
458.818	1101.06
459.038	1107.06
459.258	1106.06
459.478	1131.06
459.698	1142.06
459.918	1157.06
460.138	1150.06
460.358	1202.06
460.578	1211.06
460.798	1234.06
461.018	1231.06
461.238	1230.06
461.458	1277.06
461.678	1257.06
461.898	1249.06
462.118	1257.06
462.338	1298.06
462.558	1291.06
462.777	1329.06
462.997	1365.06
463.217	1417.06
463.437	1444.06
463.657	1468.06
463.876	1442.06
464.096	1375.06
464.316	1348.06
464.536	1327.06
464.755	1293.06
464.975	1264.06
465.195	1208.06
465.414	1180.06
465.634	1162.06
465.854	1162.06
466.073	1150.06
466.293	1155.06
466.512	1152.06
466.732	1168.06
466.951	1182.06
467.171	1221.06
467.391	1216.06
467.61	1172.06
467.829	1144.06
468.049	1128.06
468.268	1104.06
468.488	1121.06
468.707	1064.06
468.927	1081.06
469.146	1135.06
469.365	1123.06
469.585	1124.06
469.804	1145.06
470.023	1150.06
470.243	1184.06
470.462	1241.06
470.681	1252.06
470.901	1338.06
471.12	1470.06
471.339	1513.06
471.558	1310.06
471.777	1226.06
471.997	1180.06
472.216	1141.06
472.435	1127.06
472.654	1118.06
472.873	1086.06
473.092	1101.06
473.311	1107.06
473.53	1126.06
473.749	1144.06
473.968	1172.06
474.187	1111.06
474.406	1092.06
474.625	1150.06
474.844	1094.06
475.063	1121.06
475.282	1085.06
475.501	1139.06
475.72	1142.06
475.939	1147.06
476.158	1130.06
476.377	1196.06
476.596	1171.06
476.814	1155.06
477.033	1175.06
477.252	1173.06
477.471	1212.06
477.69	1219.06
477.908	1235.06
478.127	1254.06
478.346	1273.06
478.564	1271.06
478.783	1302.06
479.002	1365.06
479.22	1322.06
479.439	1356.06
479.658	1330.06
479.876	1293.06
480.095	1315.06
480.313	1349.06
480.532	1359.06
480.751	1369.06
480.969	1365.06
481.188	1338.06
481.406	1304.06
481.624	1322.06
481.843	1334.06
482.061	1314.06
482.28	1342.06
482.498	1318.06
482.717	1260.06
482.935	1301.06
483.153	1349.06
483.372	1378.06
483.59	1379.06
483.808	1414.06
484.027	1410.06
484.245	1485.06
484.463	1596.06
484.681	1761.06
484.9	1592.06
485.118	1517.06
485.336	1518.06
485.554	1563.06
485.772	1586.06
485.99	1774.06
486.209	1919.06
486.427	1644.06
486.645	1497.06
486.863	1480.06
487.081	1448.06
487.299	1427.06
487.517	1454.06
487.735	1448.06
487.953	1451.06
488.171	1510.06
488.389	1420.06
488.607	1410.06
488.825	1356.06
489.043	1363.06
489.261	1361.06
489.479	1350.06
489.696	1374.06
489.914	1419.06
490.132	1374.06
490.35	1405.06
490.568	1391.06
490.786	1450.06
491.003	1450.06
491.221	1441.06
491.439	1498.06
