Data from SnStandardFlinnAPT0064_LampEnergy5.5_LIBS07252019.E.O._I.C._HRD10591_15-16-12-491.txt Node
Date: Thu Jul 25 15:16:12 EDT 2019
User: cochatt
Spectrometer: HR+D1059
Trigger mode: 1
Integration Time (sec): 1.000000E-1
Scans to average: 1
Electric dark correction enabled: true
Nonlinearity correction enabled: false
Boxcar width: 0
XAxis mode: Wavelengths
Number of Pixels in Spectrum: 2048
>>>>>Begin Spectral Data<<<<<
223.165	-22.44
223.4	-22.44
223.635	-22.44
223.869	-17.44
224.104	-26.44
224.338	4.56
224.573	-9.44
224.808	-19.44
225.042	-20.44
225.277	-7.44
225.511	-9.44
225.746	21.56
225.98	7.56
226.215	10.56
226.449	12.56
226.683	24.56
226.918	28.56
227.152	22.56
227.387	49.56
227.621	37.56
227.856	56.56
228.09	58.56
228.324	58.56
228.559	46.56
228.793	87.56
229.027	162.56
229.262	159.56
229.496	164.56
229.73	150.56
229.964	180.56
230.199	167.56
230.433	160.56
230.667	163.56
230.901	176.56
231.136	161.56
231.37	185.56
231.604	209.56
231.838	226.56
232.072	223.56
232.306	254.56
232.541	232.56
232.775	215.56
233.009	224.56
233.243	213.56
233.477	200.56
233.711	264.56
233.945	255.56
234.179	242.56
234.413	221.56
234.647	224.56
234.881	222.56
235.115	268.56
235.349	285.56
235.583	362.56
235.817	423.56
236.051	426.56
236.285	279.56
236.519	240.56
236.753	262.56
236.987	229.56
237.221	262.56
237.455	239.56
237.689	230.56
237.922	239.56
238.156	235.56
238.39	214.56
238.624	225.56
238.858	232.56
239.091	237.56
239.325	236.56
239.559	245.56
239.793	246.56
240.027	249.56
240.26	260.56
240.494	269.56
240.728	272.56
240.961	264.56
241.195	281.56
241.429	312.56
241.662	304.56
241.896	343.56
242.13	398.56
242.363	502.56
242.597	650.56
242.83	614.56
243.064	624.56
243.298	742.56
243.531	608.56
243.765	413.56
243.998	348.56
244.232	319.56
244.465	318.56
244.699	299.56
244.932	296.56
245.166	311.56
245.399	327.56
245.633	299.56
245.866	295.56
246.099	294.56
246.333	313.56
246.566	293.56
246.8	301.56
247.033	306.56
247.266	312.56
247.5	316.56
247.733	320.56
247.966	328.56
248.2	343.56
248.433	371.56
248.666	403.56
248.899	409.56
249.133	375.56
249.366	378.56
249.599	398.56
249.832	446.56
250.066	445.56
250.299	369.56
250.532	353.56
250.765	347.56
250.998	352.56
251.231	353.56
251.465	339.56
251.698	340.56
251.931	326.56
252.164	350.56
252.397	361.56
252.63	359.56
252.863	343.56
253.096	354.56
253.329	358.56
253.562	355.56
253.795	368.56
254.028	377.56
254.261	377.56
254.494	398.56
254.727	451.56
254.96	526.56
255.193	480.56
255.426	408.56
255.659	406.56
255.892	397.56
256.124	375.56
256.357	376.56
256.59	411.56
256.823	436.56
257.056	465.56
257.289	564.56
257.521	578.56
257.754	487.56
257.987	428.56
258.22	411.56
258.452	401.56
258.685	397.56
258.918	436.56
259.151	444.56
259.383	460.56
259.616	494.56
259.849	522.56
260.081	462.56
260.314	447.56
260.547	432.56
260.779	432.56
261.012	427.56
261.244	443.56
261.477	440.56
261.71	446.56
261.942	454.56
262.175	445.56
262.407	474.56
262.64	473.56
262.872	487.56
263.105	516.56
263.337	554.56
263.57	546.56
263.802	583.56
264.035	578.56
264.267	589.56
264.499	609.56
264.732	633.56
264.964	634.56
265.197	630.56
265.429	633.56
265.661	628.56
265.894	700.56
266.126	770.56
266.358	809.56
266.591	807.56
266.823	683.56
267.055	638.56
267.287	610.56
267.52	575.56
267.752	572.56
267.984	572.56
268.216	575.56
268.448	566.56
268.681	561.56
268.913	545.56
269.145	542.56
269.377	537.56
269.609	545.56
269.841	556.56
270.073	586.56
270.306	670.56
270.538	896.56
270.77	1268.56
271.002	1542.56
271.234	1093.56
271.466	730.56
271.698	622.56
271.93	606.56
272.162	582.56
272.394	568.56
272.626	562.56
272.858	558.56
273.09	534.56
273.322	541.56
273.553	537.56
273.785	550.56
274.017	550.56
274.249	536.56
274.481	538.56
274.713	526.56
274.945	542.56
275.176	530.56
275.408	537.56
275.64	563.56
275.872	545.56
276.104	550.56
276.335	550.56
276.567	549.56
276.799	554.56
277.031	571.56
277.262	583.56
277.494	604.56
277.726	635.56
277.957	724.56
278.189	799.56
278.421	762.56
278.652	687.56
278.884	676.56
279.115	618.56
279.347	613.56
279.579	584.56
279.81	609.56
280.042	585.56
280.273	596.56
280.505	644.56
280.736	656.56
280.968	652.56
281.199	726.56
281.431	764.56
281.662	794.56
281.894	731.56
282.125	676.56
282.356	674.56
282.588	686.56
282.819	702.56
283.051	750.56
283.282	829.56
283.513	991.56
283.745	1385.56
283.976	2209.56
284.207	3091.56
284.439	2768.56
284.67	1681.56
284.901	1363.56
285.132	1366.56
285.364	1280.56
285.595	1049.56
285.826	960.56
286.057	1126.56
286.288	1492.56
286.52	1978.56
286.751	1832.56
286.982	1187.56
287.213	888.56
287.444	807.56
287.675	787.56
287.906	734.56
288.138	718.56
288.369	698.56
288.6	706.56
288.831	718.56
289.062	718.56
289.293	700.56
289.524	700.56
289.755	748.56
289.986	702.56
290.217	717.56
290.448	729.56
290.679	738.56
290.91	727.56
291.141	776.56
291.371	800.56
291.602	816.56
291.833	787.56
292.064	709.56
292.295	697.56
292.526	680.56
292.757	692.56
292.987	673.56
293.218	660.56
293.449	684.56
293.68	694.56
293.91	662.56
294.141	669.56
294.372	670.56
294.603	674.56
294.833	689.56
295.064	704.56
295.295	662.56
295.525	652.56
295.756	663.56
295.987	669.56
296.217	683.56
296.448	679.56
296.679	671.56
296.909	665.56
297.14	687.56
297.37	702.56
297.601	718.56
297.831	694.56
298.062	699.56
298.292	704.56
298.523	727.56
298.753	710.56
298.984	722.56
299.214	729.56
299.445	744.56
299.675	734.56
299.905	760.56
300.136	792.56
300.366	918.56
300.597	1113.56
300.827	1475.56
301.057	1992.56
301.288	1975.56
301.518	1281.56
301.748	995.56
301.979	952.56
302.209	914.56
302.439	952.56
302.669	946.56
302.9	1136.56
303.13	1520.56
303.36	2252.56
303.59	2986.56
303.82	2638.56
304.051	1560.56
304.281	1141.56
304.511	982.56
304.741	911.56
304.971	895.56
305.201	836.56
305.431	802.56
305.661	801.56
305.891	772.56
306.121	760.56
306.352	775.56
306.582	769.56
306.812	780.56
307.042	790.56
307.272	780.56
307.502	765.56
307.731	774.56
307.961	780.56
308.191	742.56
308.421	785.56
308.651	774.56
308.881	776.56
309.111	760.56
309.341	791.56
309.571	756.56
309.8	798.56
310.03	777.56
310.26	803.56
310.49	769.56
310.72	792.56
310.949	790.56
311.179	801.56
311.409	786.56
311.639	811.56
311.868	824.56
312.098	810.56
312.328	830.56
312.557	874.56
312.787	824.56
313.017	847.56
313.246	835.56
313.476	854.56
313.706	873.56
313.935	879.56
314.165	928.56
314.394	953.56
314.624	954.56
314.853	930.56
315.083	896.56
315.312	902.56
315.542	900.56
315.771	917.56
316.001	929.56
316.23	948.56
316.46	999.56
316.689	1050.56
316.919	1262.56
317.148	1779.56
317.377	2726.56
317.607	3988.56
317.836	4066.56
318.065	2422.56
318.295	1600.56
318.524	1315.56
318.753	1162.56
318.983	1103.56
319.212	1036.56
319.441	1024.56
319.67	982.56
319.9	970.56
320.129	975.56
320.358	981.56
320.587	973.56
320.816	955.56
321.046	989.56
321.275	951.56
321.504	976.56
321.733	1016.56
321.962	1029.56
322.191	1008.56
322.42	978.56
322.649	995.56
322.878	1037.56
323.108	1018.56
323.337	1046.56
323.566	1054.56
323.795	1088.56
324.024	1059.56
324.253	1083.56
324.482	1135.56
324.71	1189.56
324.939	1233.56
325.168	1276.56
325.397	1325.56
325.626	1544.56
325.855	2185.56
326.084	3268.56
326.313	4840.56
326.542	5144.56
326.77	3284.56
326.999	2180.56
327.228	1874.56
327.457	1795.56
327.686	1817.56
327.914	1899.56
328.143	2138.56
328.372	2472.56
328.6	2677.56
328.829	2456.56
329.058	2168.56
329.287	1916.56
329.515	1841.56
329.744	1668.56
329.972	1577.56
330.201	1552.56
330.43	1482.56
330.658	1447.56
330.887	1409.56
331.115	1381.56
331.344	1410.56
331.572	1414.56
331.801	1383.56
332.03	1428.56
332.258	1414.56
332.486	1480.56
332.715	1669.56
332.943	1986.56
333.172	2433.56
333.4	2366.56
333.629	1935.56
333.857	1742.56
334.085	1754.56
334.314	1829.56
334.542	1932.56
334.771	2219.56
334.999	2687.56
335.227	3240.56
335.455	3519.56
335.684	3300.56
335.912	2864.56
336.14	2506.56
336.369	2174.56
336.597	2045.56
336.825	1938.56
337.053	1802.56
337.281	1664.56
337.51	1628.56
337.738	1540.56
337.966	1513.56
338.194	1473.56
338.422	1400.56
338.65	1397.56
338.878	1341.56
339.106	1333.56
339.334	1288.56
339.562	1296.56
339.79	1223.56
340.018	1248.56
340.246	1248.56
340.474	1243.56
340.702	1259.56
340.93	1240.56
341.158	1258.56
341.386	1224.56
341.614	1182.56
341.842	1206.56
342.07	1187.56
342.298	1174.56
342.526	1156.56
342.754	1140.56
342.981	1161.56
343.209	1128.56
343.437	1149.56
343.665	1170.56
343.893	1227.56
344.12	1199.56
344.348	1191.56
344.576	1154.56
344.804	1105.56
345.031	1120.56
345.259	1098.56
345.487	1083.56
345.714	1064.56
345.942	1102.56
346.17	1072.56
346.397	1098.56
346.625	1067.56
346.853	1041.56
347.08	1064.56
347.308	1067.56
347.535	1085.56
347.763	1062.56
347.99	1048.56
348.218	1047.56
348.445	1040.56
348.673	1049.56
348.9	1054.56
349.128	1057.56
349.355	1024.56
349.583	1013.56
349.81	1018.56
350.037	1010.56
350.265	1006.56
350.492	993.56
350.72	1012.56
350.947	1015.56
351.174	1026.56
351.402	1033.56
351.629	1012.56
351.856	1044.56
352.083	1012.56
352.311	1000.56
352.538	1009.56
352.765	1025.56
352.992	1002.56
353.22	1026.56
353.447	992.56
353.674	991.56
353.901	1023.56
354.128	996.56
354.355	993.56
354.583	1007.56
354.81	1010.56
355.037	1033.56
355.264	1016.56
355.491	1010.56
355.718	1026.56
355.945	1014.56
356.172	1041.56
356.399	1033.56
356.626	1018.56
356.853	1019.56
357.08	1048.56
357.307	1084.56
357.534	1087.56
357.761	1065.56
357.988	1095.56
358.215	1068.56
358.441	1078.56
358.668	1055.56
358.895	1082.56
359.122	1064.56
359.349	1057.56
359.576	1053.56
359.802	1070.56
360.029	1089.56
360.256	1096.56
360.483	1100.56
360.709	1094.56
360.936	1087.56
361.163	1074.56
361.39	1093.56
361.616	1061.56
361.843	1098.56
362.07	1092.56
362.296	1093.56
362.523	1109.56
362.749	1081.56
362.976	1049.56
363.203	1074.56
363.429	1058.56
363.656	1063.56
363.882	1076.56
364.109	1078.56
364.335	1077.56
364.562	1051.56
364.788	1062.56
365.015	1090.56
365.241	1119.56
365.468	1151.56
365.694	1160.56
365.92	1120.56
366.147	1095.56
366.373	1095.56
366.599	1094.56
366.826	1088.56
367.052	1099.56
367.278	1127.56
367.505	1120.56
367.731	1134.56
367.957	1086.56
368.184	1117.56
368.41	1116.56
368.636	1113.56
368.862	1121.56
369.089	1117.56
369.315	1112.56
369.541	1117.56
369.767	1108.56
369.993	1133.56
370.219	1118.56
370.445	1147.56
370.672	1135.56
370.898	1146.56
371.124	1136.56
371.35	1143.56
371.576	1164.56
371.802	1192.56
372.028	1168.56
372.254	1182.56
372.48	1164.56
372.706	1201.56
372.932	1207.56
373.158	1180.56
373.384	1197.56
373.61	1167.56
373.835	1204.56
374.061	1218.56
374.287	1202.56
374.513	1209.56
374.739	1216.56
374.965	1231.56
375.191	1217.56
375.416	1217.56
375.642	1222.56
375.868	1217.56
376.094	1204.56
376.319	1199.56
376.545	1186.56
376.771	1178.56
376.997	1167.56
377.222	1147.56
377.448	1132.56
377.674	1188.56
377.899	1164.56
378.125	1149.56
378.35	1158.56
378.576	1172.56
378.802	1181.56
379.027	1197.56
379.253	1214.56
379.478	1254.56
379.704	1464.56
379.929	2024.56
380.155	2938.56
380.38	3112.56
380.606	1980.56
380.831	1457.56
381.057	1329.56
381.282	1236.56
381.507	1176.56
381.733	1168.56
381.958	1189.56
382.184	1181.56
382.409	1157.56
382.634	1150.56
382.86	1159.56
383.085	1154.56
383.31	1160.56
383.535	1140.56
383.761	1166.56
383.986	1165.56
384.211	1206.56
384.436	1196.56
384.662	1182.56
384.887	1176.56
385.112	1190.56
385.337	1200.56
385.562	1200.56
385.787	1191.56
386.013	1174.56
386.238	1219.56
386.463	1169.56
386.688	1207.56
386.913	1168.56
387.138	1194.56
387.363	1167.56
387.588	1185.56
387.813	1168.56
388.038	1205.56
388.263	1167.56
388.488	1181.56
388.713	1181.56
388.938	1185.56
389.163	1163.56
389.387	1188.56
389.612	1178.56
389.837	1179.56
390.062	1180.56
390.287	1174.56
390.512	1201.56
390.736	1226.56
390.961	1231.56
391.186	1237.56
391.411	1251.56
391.636	1234.56
391.86	1284.56
392.085	1256.56
392.31	1261.56
392.534	1214.56
392.759	1183.56
392.984	1218.56
393.208	1248.56
393.433	1234.56
393.658	1260.56
393.882	1214.56
394.107	1200.56
394.331	1194.56
394.556	1173.56
394.78	1214.56
395.005	1218.56
395.229	1208.56
395.454	1240.56
395.678	1228.56
395.903	1230.56
396.127	1243.56
396.352	1248.56
396.576	1237.56
396.801	1257.56
397.025	1273.56
397.249	1272.56
397.474	1282.56
397.698	1222.56
397.922	1266.56
398.147	1254.56
398.371	1304.56
398.595	1297.56
398.82	1296.56
399.044	1380.56
399.268	1421.56
399.492	1550.56
399.717	1577.56
399.941	1633.56
400.165	1504.56
400.389	1470.56
400.613	1402.56
400.837	1316.56
401.062	1350.56
401.286	1324.56
401.51	1299.56
401.734	1312.56
401.958	1307.56
402.182	1335.56
402.406	1286.56
402.63	1304.56
402.854	1305.56
403.078	1331.56
403.302	1340.56
403.526	1382.56
403.75	1380.56
403.974	1368.56
404.198	1361.56
404.422	1372.56
404.645	1368.56
404.869	1362.56
405.093	1362.56
405.317	1375.56
405.541	1397.56
405.765	1379.56
405.988	1405.56
406.212	1376.56
406.436	1368.56
406.66	1394.56
406.883	1387.56
407.107	1446.56
407.331	1422.56
407.555	1503.56
407.778	1481.56
408.002	1452.56
408.226	1428.56
408.449	1413.56
408.673	1416.56
408.896	1393.56
409.12	1355.56
409.344	1375.56
409.567	1335.56
409.791	1376.56
410.014	1382.56
410.238	1354.56
410.461	1316.56
410.685	1321.56
410.908	1326.56
411.132	1333.56
411.355	1294.56
411.578	1328.56
411.802	1305.56
412.025	1292.56
412.249	1330.56
412.472	1316.56
412.695	1298.56
412.919	1269.56
413.142	1286.56
413.365	1304.56
413.589	1275.56
413.812	1286.56
414.035	1311.56
414.258	1284.56
414.482	1277.56
414.705	1297.56
414.928	1322.56
415.151	1313.56
415.374	1270.56
415.597	1268.56
415.821	1224.56
416.044	1249.56
416.267	1271.56
416.49	1253.56
416.713	1250.56
416.936	1237.56
417.159	1245.56
417.382	1231.56
417.605	1225.56
417.828	1226.56
418.051	1275.56
418.274	1238.56
418.497	1262.56
418.72	1257.56
418.943	1265.56
419.166	1340.56
419.389	1352.56
419.611	1349.56
419.834	1318.56
420.057	1300.56
420.28	1291.56
420.503	1265.56
420.726	1246.56
420.948	1240.56
421.171	1232.56
421.394	1227.56
421.617	1266.56
421.839	1265.56
422.062	1272.56
422.285	1228.56
422.507	1261.56
422.73	1263.56
422.953	1294.56
423.175	1262.56
423.398	1290.56
423.621	1265.56
423.843	1263.56
424.066	1292.56
424.288	1244.56
424.511	1222.56
424.733	1222.56
424.956	1246.56
425.178	1239.56
425.401	1190.56
425.623	1252.56
425.846	1208.56
426.068	1222.56
426.291	1208.56
426.513	1181.56
426.735	1213.56
426.958	1211.56
427.18	1182.56
427.402	1208.56
427.625	1190.56
427.847	1175.56
428.069	1154.56
428.292	1213.56
428.514	1175.56
428.736	1174.56
428.958	1170.56
429.181	1159.56
429.403	1121.56
429.625	1176.56
429.847	1144.56
430.069	1176.56
430.292	1205.56
430.514	1247.56
430.736	1216.56
430.958	1160.56
431.18	1153.56
431.402	1154.56
431.624	1117.56
431.846	1125.56
432.068	1110.56
432.29	1152.56
432.512	1114.56
432.734	1166.56
432.956	1143.56
433.178	1179.56
433.4	1168.56
433.622	1180.56
433.844	1189.56
434.066	1168.56
434.287	1152.56
434.509	1126.56
434.731	1182.56
434.953	1165.56
435.175	1199.56
435.397	1196.56
435.618	1166.56
435.84	1146.56
436.062	1165.56
436.284	1155.56
436.505	1137.56
436.727	1137.56
436.949	1153.56
437.17	1167.56
437.392	1150.56
437.614	1104.56
437.835	1086.56
438.057	1097.56
438.278	1103.56
438.5	1137.56
438.721	1134.56
438.943	1180.56
439.165	1165.56
439.386	1195.56
439.608	1202.56
439.829	1188.56
440.05	1220.56
440.272	1208.56
440.493	1193.56
440.715	1176.56
440.936	1200.56
441.158	1218.56
441.379	1217.56
441.6	1242.56
441.822	1273.56
442.043	1304.56
442.264	1334.56
442.486	1278.56
442.707	1247.56
442.928	1232.56
443.149	1223.56
443.371	1231.56
443.592	1240.56
443.813	1247.56
444.034	1260.56
444.255	1264.56
444.476	1304.56
444.698	1281.56
444.919	1328.56
445.14	1378.56
445.361	1328.56
445.582	1289.56
445.803	1239.56
446.024	1224.56
446.245	1224.56
446.466	1249.56
446.687	1229.56
446.908	1195.56
447.129	1202.56
447.35	1178.56
447.571	1165.56
447.792	1136.56
448.013	1159.56
448.234	1140.56
448.455	1166.56
448.675	1161.56
448.896	1170.56
449.117	1160.56
449.338	1261.56
449.559	1319.56
449.779	1204.56
450	1151.56
450.221	1105.56
450.442	1112.56
450.662	1106.56
450.883	1106.56
451.104	1128.56
451.324	1097.56
451.545	1080.56
451.766	1094.56
451.986	1107.56
452.207	1168.56
452.428	1392.56
452.648	1930.56
452.869	1678.56
453.089	1286.56
453.31	1222.56
453.53	1202.56
453.751	1232.56
453.971	1301.56
454.192	1298.56
454.412	1127.56
454.633	1100.56
454.853	1071.56
455.073	1058.56
455.294	1055.56
455.514	1050.56
455.734	1035.56
455.955	1030.56
456.175	1039.56
456.395	1051.56
456.616	1028.56
456.836	1087.56
457.056	1092.56
457.276	1039.56
457.497	1153.56
457.717	1100.56
457.937	1090.56
458.157	1114.56
458.377	1118.56
458.598	1103.56
458.818	1146.56
459.038	1110.56
459.258	1101.56
459.478	1151.56
459.698	1164.56
459.918	1145.56
460.138	1160.56
460.358	1215.56
460.578	1224.56
460.798	1232.56
461.018	1234.56
461.238	1235.56
461.458	1244.56
461.678	1256.56
461.898	1261.56
462.118	1229.56
462.338	1270.56
462.558	1321.56
462.777	1354.56
462.997	1406.56
463.217	1456.56
463.437	1483.56
463.657	1478.56
463.876	1487.56
464.096	1418.56
464.316	1398.56
464.536	1390.56
464.755	1306.56
464.975	1276.56
465.195	1234.56
465.414	1226.56
465.634	1184.56
465.854	1172.56
466.073	1162.56
466.293	1190.56
466.512	1147.56
466.732	1161.56
466.951	1225.56
467.171	1284.56
467.391	1249.56
467.61	1177.56
467.829	1160.56
468.049	1119.56
468.268	1106.56
468.488	1124.56
468.707	1104.56
468.927	1156.56
469.146	1114.56
469.365	1148.56
469.585	1152.56
469.804	1153.56
470.023	1184.56
470.243	1201.56
470.462	1233.56
470.681	1313.56
470.901	1368.56
471.12	1553.56
471.339	1601.56
471.558	1317.56
471.777	1260.56
471.997	1152.56
472.216	1154.56
472.435	1144.56
472.654	1136.56
472.873	1118.56
473.092	1148.56
473.311	1127.56
473.53	1116.56
473.749	1163.56
473.968	1210.56
474.187	1134.56
474.406	1126.56
474.625	1131.56
474.844	1158.56
475.063	1148.56
475.282	1145.56
475.501	1137.56
475.72	1129.56
475.939	1148.56
476.158	1170.56
476.377	1190.56
476.596	1191.56
476.814	1200.56
477.033	1178.56
477.252	1187.56
477.471	1238.56
477.69	1250.56
477.908	1274.56
478.127	1305.56
478.346	1304.56
478.564	1299.56
478.783	1311.56
479.002	1348.56
479.22	1355.56
479.439	1375.56
479.658	1318.56
479.876	1313.56
480.095	1355.56
480.313	1362.56
480.532	1392.56
480.751	1349.56
480.969	1352.56
481.188	1338.56
481.406	1321.56
481.624	1307.56
481.843	1326.56
482.061	1344.56
482.28	1355.56
482.498	1346.56
482.717	1326.56
482.935	1360.56
483.153	1369.56
483.372	1402.56
483.59	1402.56
483.808	1432.56
484.027	1441.56
484.245	1503.56
484.463	1662.56
484.681	1840.56
484.9	1690.56
485.118	1591.56
485.336	1548.56
485.554	1584.56
485.772	1679.56
485.99	1884.56
486.209	1989.56
486.427	1676.56
486.645	1568.56
486.863	1514.56
487.081	1457.56
487.299	1418.56
487.517	1400.56
487.735	1434.56
487.953	1452.56
488.171	1445.56
488.389	1433.56
488.607	1415.56
488.825	1366.56
489.043	1360.56
489.261	1409.56
489.479	1403.56
489.696	1408.56
489.914	1357.56
490.132	1416.56
490.35	1430.56
490.568	1458.56
490.786	1439.56
491.003	1465.56
