Data from SnStandardFlinnAPT0064_LampEnergy10_LIBS07252019.E.O._I.C._HRD10591_15-21-40-494.txt Node
Date: Thu Jul 25 15:21:40 EDT 2019
User: cochatt
Spectrometer: HR+D1059
Trigger mode: 1
Integration Time (sec): 1.000000E-1
Scans to average: 1
Electric dark correction enabled: true
Nonlinearity correction enabled: false
Boxcar width: 0
XAxis mode: Wavelengths
Number of Pixels in Spectrum: 2048
>>>>>Begin Spectral Data<<<<<
223.165	-6.44
223.4	-6.44
223.635	-6.44
223.869	-19.44
224.104	-14.44
224.338	1.56
224.573	-20.44
224.808	-4.44
225.042	13.56
225.277	-13.44
225.511	-1.44
225.746	-3.44
225.98	-7.44
226.215	-1.44
226.449	19.56
226.683	17.56
226.918	25.56
227.152	14.56
227.387	26.56
227.621	45.56
227.856	34.56
228.09	45.56
228.324	53.56
228.559	46.56
228.793	129.56
229.027	287.56
229.262	334.56
229.496	305.56
229.73	297.56
229.964	299.56
230.199	293.56
230.433	306.56
230.667	295.56
230.901	313.56
231.136	324.56
231.37	356.56
231.604	371.56
231.838	433.56
232.072	503.56
232.306	528.56
232.541	470.56
232.775	409.56
233.009	403.56
233.243	432.56
233.477	465.56
233.711	490.56
233.945	557.56
234.179	493.56
234.413	447.56
234.647	445.56
234.881	477.56
235.115	517.56
235.349	616.56
235.583	765.56
235.817	987.56
236.051	975.56
236.285	644.56
236.519	527.56
236.753	498.56
236.987	530.56
237.221	532.56
237.455	514.56
237.689	452.56
237.922	471.56
238.156	460.56
238.39	479.56
238.624	454.56
238.858	466.56
239.091	463.56
239.325	485.56
239.559	495.56
239.793	499.56
240.027	501.56
240.26	550.56
240.494	551.56
240.728	569.56
240.961	600.56
241.195	624.56
241.429	682.56
241.662	700.56
241.896	763.56
242.13	938.56
242.363	1241.56
242.597	1570.56
242.83	1511.56
243.064	1510.56
243.298	1773.56
243.531	1469.56
243.765	950.56
243.998	785.56
244.232	673.56
244.465	676.56
244.699	657.56
244.932	660.56
245.166	660.56
245.399	687.56
245.633	693.56
245.866	704.56
246.099	656.56
246.333	649.56
246.566	627.56
246.8	618.56
247.033	628.56
247.266	628.56
247.5	661.56
247.733	665.56
247.966	708.56
248.2	776.56
248.433	853.56
248.666	976.56
248.899	933.56
249.133	843.56
249.366	877.56
249.599	953.56
249.832	1077.56
250.066	1040.56
250.299	848.56
250.532	764.56
250.765	753.56
250.998	757.56
251.231	728.56
251.465	718.56
251.698	740.56
251.931	728.56
252.164	719.56
252.397	767.56
252.63	806.56
252.863	815.56
253.096	786.56
253.329	809.56
253.562	779.56
253.795	789.56
254.028	809.56
254.261	816.56
254.494	883.56
254.727	1009.56
254.96	1227.56
255.193	1216.56
255.426	966.56
255.659	884.56
255.892	868.56
256.124	886.56
256.357	860.56
256.59	918.56
256.823	972.56
257.056	1089.56
257.289	1338.56
257.521	1439.56
257.754	1193.56
257.987	965.56
258.22	924.56
258.452	909.56
258.685	911.56
258.918	934.56
259.151	1011.56
259.383	1081.56
259.616	1185.56
259.849	1247.56
260.081	1043.56
260.314	985.56
260.547	968.56
260.779	964.56
261.012	921.56
261.244	975.56
261.477	990.56
261.71	1001.56
261.942	982.56
262.175	1035.56
262.407	1055.56
262.64	1049.56
262.872	1090.56
263.105	1143.56
263.337	1205.56
263.57	1286.56
263.802	1332.56
264.035	1325.56
264.267	1342.56
264.499	1369.56
264.732	1451.56
264.964	1458.56
265.197	1433.56
265.429	1424.56
265.661	1488.56
265.894	1594.56
266.126	1740.56
266.358	1962.56
266.591	1923.56
266.823	1637.56
267.055	1494.56
267.287	1415.56
267.52	1334.56
267.752	1288.56
267.984	1310.56
268.216	1290.56
268.448	1255.56
268.681	1255.56
268.913	1246.56
269.145	1248.56
269.377	1278.56
269.609	1191.56
269.841	1297.56
270.073	1354.56
270.306	1568.56
270.538	2146.56
270.77	3109.56
271.002	3939.56
271.234	2806.56
271.466	1837.56
271.698	1511.56
271.93	1415.56
272.162	1344.56
272.394	1301.56
272.626	1297.56
272.858	1225.56
273.09	1237.56
273.322	1226.56
273.553	1232.56
273.785	1190.56
274.017	1183.56
274.249	1197.56
274.481	1179.56
274.713	1220.56
274.945	1233.56
275.176	1214.56
275.408	1220.56
275.64	1216.56
275.872	1184.56
276.104	1265.56
276.335	1253.56
276.567	1295.56
276.799	1291.56
277.031	1317.56
277.262	1342.56
277.494	1404.56
277.726	1514.56
277.957	1822.56
278.189	2105.56
278.421	1973.56
278.652	1743.56
278.884	1650.56
279.115	1466.56
279.347	1398.56
279.579	1375.56
279.81	1401.56
280.042	1394.56
280.273	1411.56
280.505	1418.56
280.736	1502.56
280.968	1582.56
281.199	1753.56
281.431	2008.56
281.662	2080.56
281.894	1773.56
282.125	1626.56
282.356	1653.56
282.588	1673.56
282.819	1691.56
283.051	1770.56
283.282	1977.56
283.513	2457.56
283.745	3524.56
283.976	5513.56
284.207	7865.56
284.439	7152.56
284.67	4454.56
284.901	3665.56
285.132	3735.56
285.364	3497.56
285.595	2675.56
285.826	2406.56
286.057	2824.56
286.288	3740.56
286.52	5099.56
286.751	4838.56
286.982	2976.56
287.213	2221.56
287.444	2007.56
287.675	1879.56
287.906	1782.56
288.138	1730.56
288.369	1693.56
288.6	1713.56
288.831	1687.56
289.062	1673.56
289.293	1647.56
289.524	1697.56
289.755	1728.56
289.986	1697.56
290.217	1745.56
290.448	1723.56
290.679	1760.56
290.91	1768.56
291.141	1874.56
291.371	2015.56
291.602	2114.56
291.833	1936.56
292.064	1713.56
292.295	1681.56
292.526	1671.56
292.757	1630.56
292.987	1633.56
293.218	1598.56
293.449	1598.56
293.68	1575.56
293.91	1569.56
294.141	1583.56
294.372	1604.56
294.603	1584.56
294.833	1577.56
295.064	1591.56
295.295	1553.56
295.525	1567.56
295.756	1554.56
295.987	1575.56
296.217	1547.56
296.448	1561.56
296.679	1595.56
296.909	1548.56
297.14	1607.56
297.37	1624.56
297.601	1637.56
297.831	1621.56
298.062	1614.56
298.292	1631.56
298.523	1686.56
298.753	1697.56
298.984	1726.56
299.214	1739.56
299.445	1713.56
299.675	1776.56
299.905	1813.56
300.136	1941.56
300.366	2169.56
300.597	2759.56
300.827	3806.56
301.057	5144.56
301.288	5159.56
301.518	3319.56
301.748	2551.56
301.979	2323.56
302.209	2247.56
302.439	2252.56
302.669	2402.56
302.9	2915.56
303.13	4020.56
303.36	5992.56
303.59	7963.56
303.82	6954.56
304.051	4151.56
304.281	3027.56
304.511	2547.56
304.741	2324.56
304.971	2181.56
305.201	2051.56
305.431	2005.56
305.661	1939.56
305.891	1892.56
306.121	1841.56
306.352	1882.56
306.582	1851.56
306.812	1845.56
307.042	1891.56
307.272	1849.56
307.502	1818.56
307.731	1813.56
307.961	1812.56
308.191	1841.56
308.421	1791.56
308.651	1848.56
308.881	1793.56
309.111	1801.56
309.341	1823.56
309.571	1850.56
309.8	1885.56
310.03	1883.56
310.26	1886.56
310.49	1853.56
310.72	1871.56
310.949	1875.56
311.179	1889.56
311.409	1935.56
311.639	1917.56
311.868	1939.56
312.098	1953.56
312.328	1980.56
312.557	1972.56
312.787	1933.56
313.017	1942.56
313.246	1992.56
313.476	2011.56
313.706	2089.56
313.935	2183.56
314.165	2351.56
314.394	2473.56
314.624	2359.56
314.853	2146.56
315.083	2176.56
315.312	2181.56
315.542	2185.56
315.771	2248.56
316.001	2238.56
316.23	2341.56
316.46	2448.56
316.689	2664.56
316.919	3172.56
317.148	4551.56
317.377	6971.56
317.607	10179.56
317.836	10615.56
318.065	6442.56
318.295	4196.56
318.524	3349.56
318.753	2891.56
318.983	2716.56
319.212	2543.56
319.441	2479.56
319.67	2453.56
319.9	2383.56
320.129	2366.56
320.358	2359.56
320.587	2357.56
320.816	2358.56
321.046	2344.56
321.275	2367.56
321.504	2355.56
321.733	2424.56
321.962	2481.56
322.191	2584.56
322.42	2527.56
322.649	2499.56
322.878	2461.56
323.108	2477.56
323.337	2530.56
323.566	2538.56
323.795	2627.56
324.024	2641.56
324.253	2725.56
324.482	2814.56
324.71	2983.56
324.939	3135.56
325.168	3240.56
325.397	3325.56
325.626	3956.56
325.855	5509.56
326.084	8481.56
326.313	12411.56
326.542	13236.56
326.77	8958.56
326.999	5870.56
327.228	4997.56
327.457	4688.56
327.686	4790.56
327.914	5161.56
328.143	6069.56
328.372	7175.56
328.6	7897.56
328.829	7039.56
329.058	5782.56
329.287	5043.56
329.515	4633.56
329.744	4247.56
329.972	4133.56
330.201	3866.56
330.43	3742.56
330.658	3605.56
330.887	3577.56
331.115	3475.56
331.344	3515.56
331.572	3561.56
331.801	3509.56
332.03	3504.56
332.258	3554.56
332.486	3775.56
332.715	4319.56
332.943	5242.56
333.172	6551.56
333.4	6496.56
333.629	4956.56
333.857	4538.56
334.085	4490.56
334.314	4742.56
334.542	5180.56
334.771	6044.56
334.999	7590.56
335.227	9473.56
335.455	10520.56
335.684	9509.56
335.912	7696.56
336.14	6481.56
336.369	5647.56
336.597	5229.56
336.825	4850.56
337.053	4552.56
337.281	4206.56
337.51	4045.56
337.738	3882.56
337.966	3739.56
338.194	3649.56
338.422	3525.56
338.65	3431.56
338.878	3330.56
339.106	3265.56
339.334	3254.56
339.562	3181.56
339.79	3162.56
340.018	3087.56
340.246	3058.56
340.474	3048.56
340.702	3058.56
340.93	3022.56
341.158	3073.56
341.386	3026.56
341.614	2981.56
341.842	3007.56
342.07	2877.56
342.298	2802.56
342.526	2820.56
342.754	2780.56
342.981	2789.56
343.209	2734.56
343.437	2787.56
343.665	2806.56
343.893	2861.56
344.12	2840.56
344.348	2806.56
344.576	2742.56
344.804	2734.56
345.031	2675.56
345.259	2654.56
345.487	2665.56
345.714	2569.56
345.942	2585.56
346.17	2548.56
346.397	2554.56
346.625	2526.56
346.853	2504.56
347.08	2577.56
347.308	2511.56
347.535	2565.56
347.763	2493.56
347.99	2507.56
348.218	2497.56
348.445	2441.56
348.673	2458.56
348.9	2475.56
349.128	2473.56
349.355	2520.56
349.583	2446.56
349.81	2442.56
350.037	2417.56
350.265	2389.56
350.492	2449.56
350.72	2433.56
350.947	2409.56
351.174	2440.56
351.402	2417.56
351.629	2377.56
351.856	2399.56
352.083	2402.56
352.311	2415.56
352.538	2380.56
352.765	2416.56
352.992	2385.56
353.22	2358.56
353.447	2349.56
353.674	2378.56
353.901	2393.56
354.128	2397.56
354.355	2407.56
354.583	2446.56
354.81	2435.56
355.037	2433.56
355.264	2432.56
355.491	2469.56
355.718	2422.56
355.945	2456.56
356.172	2484.56
356.399	2503.56
356.626	2520.56
356.853	2562.56
357.08	2521.56
357.307	2555.56
357.534	2622.56
357.761	2618.56
357.988	2672.56
358.215	2602.56
358.441	2661.56
358.668	2567.56
358.895	2566.56
359.122	2520.56
359.349	2567.56
359.576	2542.56
359.802	2559.56
360.029	2534.56
360.256	2587.56
360.483	2577.56
360.709	2585.56
360.936	2563.56
361.163	2559.56
361.39	2582.56
361.616	2598.56
361.843	2578.56
362.07	2591.56
362.296	2632.56
362.523	2598.56
362.749	2574.56
362.976	2543.56
363.203	2573.56
363.429	2554.56
363.656	2505.56
363.882	2579.56
364.109	2511.56
364.335	2498.56
364.562	2526.56
364.788	2627.56
365.015	2619.56
365.241	2652.56
365.468	2848.56
365.694	2975.56
365.92	2821.56
366.147	2616.56
366.373	2640.56
366.599	2601.56
366.826	2632.56
367.052	2588.56
367.278	2625.56
367.505	2660.56
367.731	2662.56
367.957	2642.56
368.184	2626.56
368.41	2715.56
368.636	2709.56
368.862	2676.56
369.089	2669.56
369.315	2662.56
369.541	2664.56
369.767	2676.56
369.993	2639.56
370.219	2631.56
370.445	2666.56
370.672	2679.56
370.898	2669.56
371.124	2709.56
371.35	2744.56
371.576	2778.56
371.802	2734.56
372.028	2819.56
372.254	2743.56
372.48	2811.56
372.706	2837.56
372.932	2845.56
373.158	2797.56
373.384	2767.56
373.61	2827.56
373.835	2835.56
374.061	2825.56
374.287	2841.56
374.513	2865.56
374.739	2941.56
374.965	2909.56
375.191	2942.56
375.416	2955.56
375.642	2873.56
375.868	2933.56
376.094	2821.56
376.319	2831.56
376.545	2777.56
376.771	2778.56
376.997	2737.56
377.222	2796.56
377.448	2735.56
377.674	2733.56
377.899	2754.56
378.125	2761.56
378.35	2752.56
378.576	2730.56
378.802	2773.56
379.027	2832.56
379.253	2824.56
379.478	3046.56
379.704	3591.56
379.929	5123.56
380.155	7714.56
380.38	8437.56
380.606	5191.56
380.831	3663.56
381.057	3192.56
381.282	3005.56
381.507	2859.56
381.733	2793.56
381.958	2780.56
382.184	2747.56
382.409	2719.56
382.634	2696.56
382.86	2740.56
383.085	2724.56
383.31	2705.56
383.535	2754.56
383.761	2656.56
383.986	2737.56
384.211	2778.56
384.436	2776.56
384.662	2775.56
384.887	2782.56
385.112	2815.56
385.337	2799.56
385.562	2777.56
385.787	2759.56
386.013	2815.56
386.238	2822.56
386.463	2802.56
386.688	2842.56
386.913	2761.56
387.138	2845.56
387.363	2802.56
387.588	2791.56
387.813	2781.56
388.038	2736.56
388.263	2791.56
388.488	2761.56
388.713	2830.56
388.938	2794.56
389.163	2763.56
389.387	2791.56
389.612	2790.56
389.837	2802.56
390.062	2798.56
390.287	2848.56
390.512	2821.56
390.736	2865.56
390.961	2955.56
391.186	2946.56
391.411	2902.56
391.636	2921.56
391.86	2914.56
392.085	2982.56
392.31	2911.56
392.534	2837.56
392.759	2933.56
392.984	2878.56
393.208	2819.56
393.433	2891.56
393.658	2817.56
393.882	2843.56
394.107	2828.56
394.331	2802.56
394.556	2842.56
394.78	2844.56
395.005	2833.56
395.229	2869.56
395.454	2920.56
395.678	2906.56
395.903	2927.56
396.127	2908.56
396.352	2858.56
396.576	2879.56
396.801	2858.56
397.025	2899.56
397.249	2975.56
397.474	2913.56
397.698	2932.56
397.922	3012.56
398.147	2969.56
398.371	3030.56
398.595	3045.56
398.82	3128.56
399.044	3205.56
399.268	3373.56
399.492	3594.56
399.717	3709.56
399.941	3667.56
400.165	3466.56
400.389	3413.56
400.613	3236.56
400.837	3138.56
401.062	3175.56
401.286	3132.56
401.51	3131.56
401.734	3020.56
401.958	3071.56
402.182	3065.56
402.406	3103.56
402.63	3119.56
402.854	3160.56
403.078	3107.56
403.302	3125.56
403.526	3168.56
403.75	3171.56
403.974	3198.56
404.198	3164.56
404.422	3203.56
404.645	3176.56
404.869	3207.56
405.093	3187.56
405.317	3191.56
405.541	3249.56
405.765	3236.56
405.988	3290.56
406.212	3253.56
406.436	3243.56
406.66	3384.56
406.883	3246.56
407.107	3351.56
407.331	3449.56
407.555	3541.56
407.778	3452.56
408.002	3379.56
408.226	3431.56
408.449	3421.56
408.673	3335.56
408.896	3219.56
409.12	3267.56
409.344	3254.56
409.567	3137.56
409.791	3231.56
410.014	3181.56
410.238	3139.56
410.461	3144.56
410.685	3187.56
410.908	3170.56
411.132	3087.56
411.355	3049.56
411.578	3048.56
411.802	3052.56
412.025	3110.56
412.249	3092.56
412.472	3062.56
412.695	2986.56
412.919	2978.56
413.142	3036.56
413.365	2990.56
413.589	3022.56
413.812	3048.56
414.035	2990.56
414.258	3023.56
414.482	2980.56
414.705	3037.56
414.928	3023.56
415.151	3012.56
415.374	2989.56
415.597	2963.56
415.821	2922.56
416.044	2900.56
416.267	2859.56
416.49	2896.56
416.713	2877.56
416.936	2888.56
417.159	2899.56
417.382	2859.56
417.605	2836.56
417.828	2850.56
418.051	2943.56
418.274	2909.56
418.497	2868.56
418.72	2995.56
418.943	2886.56
419.166	3062.56
419.389	3235.56
419.611	3212.56
419.834	3082.56
420.057	3009.56
420.28	2937.56
420.503	2900.56
420.726	2883.56
420.948	2873.56
421.171	2909.56
421.394	2871.56
421.617	2913.56
421.839	2898.56
422.062	2959.56
422.285	2895.56
422.507	2983.56
422.73	2957.56
422.953	2967.56
423.175	2974.56
423.398	2958.56
423.621	2895.56
423.843	2886.56
424.066	2889.56
424.288	2893.56
424.511	2863.56
424.733	2904.56
424.956	2842.56
425.178	2869.56
425.401	2869.56
425.623	2851.56
425.846	2754.56
426.068	2788.56
426.291	2790.56
426.513	2745.56
426.735	2782.56
426.958	2766.56
427.18	2718.56
427.402	2757.56
427.625	2725.56
427.847	2693.56
428.069	2661.56
428.292	2683.56
428.514	2691.56
428.736	2673.56
428.958	2664.56
429.181	2623.56
429.403	2667.56
429.625	2646.56
429.847	2646.56
430.069	2724.56
430.292	2820.56
430.514	2866.56
430.736	2861.56
430.958	2721.56
431.18	2701.56
431.402	2677.56
431.624	2655.56
431.846	2616.56
432.068	2565.56
432.29	2653.56
432.512	2593.56
432.734	2661.56
432.956	2611.56
433.178	2633.56
433.4	2667.56
433.622	2651.56
433.844	2663.56
434.066	2631.56
434.287	2649.56
434.509	2679.56
434.731	2723.56
434.953	2738.56
435.175	2748.56
435.397	2787.56
435.618	2707.56
435.84	2714.56
436.062	2632.56
436.284	2676.56
436.505	2621.56
436.727	2598.56
436.949	2623.56
437.17	2598.56
437.392	2581.56
437.614	2591.56
437.835	2525.56
438.057	2520.56
438.278	2545.56
438.5	2591.56
438.721	2626.56
438.943	2680.56
439.165	2722.56
439.386	2777.56
439.608	2739.56
439.829	2765.56
440.05	2837.56
440.272	2882.56
440.493	2773.56
440.715	2723.56
440.936	2716.56
441.158	2781.56
441.379	2786.56
441.6	2890.56
441.822	2953.56
442.043	3076.56
442.264	3177.56
442.486	2942.56
442.707	2895.56
442.928	2828.56
443.149	2822.56
443.371	2777.56
443.592	2819.56
443.813	2906.56
444.034	2863.56
444.255	2913.56
444.476	2937.56
444.698	2996.56
444.919	3023.56
445.14	3105.56
445.361	2987.56
445.582	2927.56
445.803	2833.56
446.024	2774.56
446.245	2822.56
446.466	2798.56
446.687	2751.56
446.908	2749.56
447.129	2682.56
447.35	2640.56
447.571	2639.56
447.792	2570.56
448.013	2630.56
448.234	2634.56
448.455	2650.56
448.675	2649.56
448.896	2682.56
449.117	2800.56
449.338	3001.56
449.559	3106.56
449.779	2811.56
450	2628.56
450.221	2584.56
450.442	2560.56
450.662	2577.56
450.883	2529.56
451.104	2530.56
451.324	2579.56
451.545	2517.56
451.766	2531.56
451.986	2607.56
452.207	2792.56
452.428	3556.56
452.648	5397.56
452.869	4552.56
453.089	3133.56
453.31	2955.56
453.53	2967.56
453.751	3057.56
453.971	3188.56
454.192	3140.56
454.412	2721.56
454.633	2565.56
454.853	2507.56
455.073	2440.56
455.294	2458.56
455.514	2424.56
455.734	2442.56
455.955	2406.56
456.175	2444.56
456.395	2404.56
456.616	2429.56
456.836	2493.56
457.056	2463.56
457.276	2498.56
457.497	2669.56
457.717	2619.56
457.937	2565.56
458.157	2569.56
458.377	2576.56
458.598	2617.56
458.818	2649.56
459.038	2636.56
459.258	2617.56
459.478	2660.56
459.698	2675.56
459.918	2767.56
460.138	2741.56
460.358	2846.56
460.578	2883.56
460.798	2881.56
461.018	2845.56
461.238	2879.56
461.458	2961.56
461.678	2905.56
461.898	2996.56
462.118	2992.56
462.338	3054.56
462.558	3094.56
462.777	3178.56
462.997	3292.56
463.217	3401.56
463.437	3494.56
463.657	3551.56
463.876	3566.56
464.096	3371.56
464.316	3221.56
464.536	3185.56
464.755	3107.56
464.975	3035.56
465.195	2942.56
465.414	2856.56
465.634	2745.56
465.854	2681.56
466.073	2679.56
466.293	2661.56
466.512	2670.56
466.732	2733.56
466.951	2824.56
467.171	3054.56
467.391	2933.56
467.61	2746.56
467.829	2624.56
468.049	2611.56
468.268	2573.56
468.488	2552.56
468.707	2545.56
468.927	2607.56
469.146	2617.56
469.365	2624.56
469.585	2638.56
469.804	2746.56
470.023	2740.56
470.243	2728.56
470.462	2877.56
470.681	2966.56
470.901	3275.56
471.12	3766.56
471.339	3767.56
471.558	3164.56
471.777	2898.56
471.997	2737.56
472.216	2733.56
472.435	2679.56
472.654	2609.56
472.873	2567.56
473.092	2600.56
473.311	2609.56
473.53	2598.56
473.749	2703.56
473.968	2788.56
474.187	2642.56
474.406	2596.56
474.625	2646.56
474.844	2622.56
475.063	2653.56
475.282	2629.56
475.501	2606.56
475.72	2630.56
475.939	2696.56
476.158	2706.56
476.377	2749.56
476.596	2733.56
476.814	2731.56
477.033	2768.56
477.252	2827.56
477.471	2843.56
477.69	2961.56
477.908	2965.56
478.127	2962.56
478.346	2955.56
478.564	3025.56
478.783	3041.56
479.002	3126.56
479.22	3079.56
479.439	3102.56
479.658	3120.56
479.876	3141.56
480.095	3169.56
480.313	3249.56
480.532	3221.56
480.751	3196.56
480.969	3158.56
481.188	3164.56
481.406	3145.56
481.624	3157.56
481.843	3163.56
482.061	3222.56
482.28	3158.56
482.498	3128.56
482.717	3150.56
482.935	3181.56
483.153	3209.56
483.372	3301.56
483.59	3296.56
483.808	3396.56
484.027	3455.56
484.245	3633.56
484.463	4047.56
484.681	4522.56
484.9	4104.56
485.118	3862.56
485.336	3750.56
485.554	3816.56
485.772	4038.56
485.99	4553.56
486.209	4909.56
486.427	4186.56
486.645	3694.56
486.863	3597.56
487.081	3507.56
487.299	3421.56
487.517	3353.56
487.735	3402.56
