Data from SnStandardFlinnAPT0064_LampEnergy10_LIBS07252019.E.O._I.C._HRD10591_15-20-18-494.txt Node
Date: Thu Jul 25 15:20:18 EDT 2019
User: cochatt
Spectrometer: HR+D1059
Trigger mode: 1
Integration Time (sec): 1.000000E-1
Scans to average: 1
Electric dark correction enabled: true
Nonlinearity correction enabled: false
Boxcar width: 0
XAxis mode: Wavelengths
Number of Pixels in Spectrum: 2048
>>>>>Begin Spectral Data<<<<<
223.165	-19.38
223.4	-19.38
223.635	-19.38
223.869	-11.38
224.104	-16.38
224.338	-16.38
224.573	-12.38
224.808	-1.38
225.042	-7.38
225.277	-9.38
225.511	2.62
225.746	4.62
225.98	-2.38
226.215	8.62
226.449	3.62
226.683	30.62
226.918	25.62
227.152	20.62
227.387	32.62
227.621	26.62
227.856	49.62
228.09	37.62
228.324	47.62
228.559	39.62
228.793	122.62
229.027	304.62
229.262	337.62
229.496	302.62
229.73	295.62
229.964	288.62
230.199	288.62
230.433	314.62
230.667	316.62
230.901	326.62
231.136	331.62
231.37	358.62
231.604	404.62
231.838	431.62
232.072	522.62
232.306	560.62
232.541	505.62
232.775	419.62
233.009	421.62
233.243	436.62
233.477	454.62
233.711	514.62
233.945	594.62
234.179	530.62
234.413	476.62
234.647	456.62
234.881	472.62
235.115	552.62
235.349	632.62
235.583	760.62
235.817	1009.62
236.051	993.62
236.285	660.62
236.519	517.62
236.753	486.62
236.987	498.62
237.221	546.62
237.455	482.62
237.689	452.62
237.922	467.62
238.156	440.62
238.39	487.62
238.624	488.62
238.858	474.62
239.091	490.62
239.325	494.62
239.559	479.62
239.793	514.62
240.027	534.62
240.26	545.62
240.494	548.62
240.728	588.62
240.961	617.62
241.195	672.62
241.429	679.62
241.662	701.62
241.896	765.62
242.13	948.62
242.363	1310.62
242.597	1651.62
242.83	1577.62
243.064	1607.62
243.298	1829.62
243.531	1518.62
243.765	975.62
243.998	824.62
244.232	670.62
244.465	682.62
244.699	651.62
244.932	674.62
245.166	651.62
245.399	666.62
245.633	666.62
245.866	683.62
246.099	672.62
246.333	654.62
246.566	678.62
246.8	624.62
247.033	628.62
247.266	655.62
247.5	665.62
247.733	684.62
247.966	707.62
248.2	745.62
248.433	880.62
248.666	1036.62
248.899	964.62
249.133	885.62
249.366	890.62
249.599	967.62
249.832	1088.62
250.066	1120.62
250.299	879.62
250.532	783.62
250.765	768.62
250.998	721.62
251.231	733.62
251.465	722.62
251.698	746.62
251.931	740.62
252.164	743.62
252.397	767.62
252.63	779.62
252.863	820.62
253.096	793.62
253.329	760.62
253.562	769.62
253.795	779.62
254.028	770.62
254.261	796.62
254.494	911.62
254.727	1038.62
254.96	1257.62
255.193	1231.62
255.426	960.62
255.659	870.62
255.892	900.62
256.124	873.62
256.357	912.62
256.59	916.62
256.823	955.62
257.056	1148.62
257.289	1374.62
257.521	1520.62
257.754	1219.62
257.987	940.62
258.22	924.62
258.452	913.62
258.685	918.62
258.918	934.62
259.151	995.62
259.383	1087.62
259.616	1201.62
259.849	1299.62
260.081	1090.62
260.314	984.62
260.547	974.62
260.779	920.62
261.012	942.62
261.244	949.62
261.477	962.62
261.71	986.62
261.942	990.62
262.175	974.62
262.407	1030.62
262.64	1037.62
262.872	1092.62
263.105	1141.62
263.337	1196.62
263.57	1264.62
263.802	1263.62
264.035	1300.62
264.267	1346.62
264.499	1346.62
264.732	1396.62
264.964	1408.62
265.197	1366.62
265.429	1426.62
265.661	1446.62
265.894	1587.62
266.126	1756.62
266.358	1943.62
266.591	1903.62
266.823	1573.62
267.055	1436.62
267.287	1366.62
267.52	1328.62
267.752	1310.62
267.984	1289.62
268.216	1228.62
268.448	1269.62
268.681	1224.62
268.913	1203.62
269.145	1198.62
269.377	1239.62
269.609	1241.62
269.841	1261.62
270.073	1375.62
270.306	1617.62
270.538	2182.62
270.77	3274.62
271.002	4039.62
271.234	2862.62
271.466	1916.62
271.698	1521.62
271.93	1389.62
272.162	1317.62
272.394	1283.62
272.626	1256.62
272.858	1193.62
273.09	1200.62
273.322	1214.62
273.553	1194.62
273.785	1192.62
274.017	1227.62
274.249	1204.62
274.481	1194.62
274.713	1220.62
274.945	1188.62
275.176	1220.62
275.408	1253.62
275.64	1213.62
275.872	1224.62
276.104	1233.62
276.335	1291.62
276.567	1278.62
276.799	1274.62
277.031	1332.62
277.262	1352.62
277.494	1393.62
277.726	1568.62
277.957	1878.62
278.189	2172.62
278.421	1998.62
278.652	1801.62
278.884	1653.62
279.115	1510.62
279.347	1442.62
279.579	1409.62
279.81	1399.62
280.042	1401.62
280.273	1397.62
280.505	1453.62
280.736	1501.62
280.968	1587.62
281.199	1815.62
281.431	2078.62
281.662	2184.62
281.894	1769.62
282.125	1606.62
282.356	1660.62
282.588	1713.62
282.819	1752.62
283.051	1830.62
283.282	2001.62
283.513	2515.62
283.745	3657.62
283.976	5753.62
284.207	8292.62
284.439	7540.62
284.67	4661.62
284.901	3810.62
285.132	3839.62
285.364	3635.62
285.595	2739.62
285.826	2472.62
286.057	2895.62
286.288	3884.62
286.52	5369.62
286.751	5040.62
286.982	3120.62
287.213	2334.62
287.444	2033.62
287.675	1880.62
287.906	1808.62
288.138	1754.62
288.369	1697.62
288.6	1663.62
288.831	1675.62
289.062	1677.62
289.293	1690.62
289.524	1678.62
289.755	1676.62
289.986	1700.62
290.217	1730.62
290.448	1705.62
290.679	1719.62
290.91	1756.62
291.141	1883.62
291.371	2099.62
291.602	2152.62
291.833	2009.62
292.064	1755.62
292.295	1690.62
292.526	1657.62
292.757	1659.62
292.987	1617.62
293.218	1585.62
293.449	1589.62
293.68	1623.62
293.91	1541.62
294.141	1574.62
294.372	1530.62
294.603	1605.62
294.833	1551.62
295.064	1544.62
295.295	1534.62
295.525	1568.62
295.756	1544.62
295.987	1560.62
296.217	1592.62
296.448	1560.62
296.679	1584.62
296.909	1581.62
297.14	1635.62
297.37	1628.62
297.601	1648.62
297.831	1593.62
298.062	1634.62
298.292	1659.62
298.523	1680.62
298.753	1683.62
298.984	1700.62
299.214	1729.62
299.445	1738.62
299.675	1804.62
299.905	1831.62
300.136	1884.62
300.366	2140.62
300.597	2764.62
300.827	3877.62
301.057	5367.62
301.288	5465.62
301.518	3441.62
301.748	2632.62
301.979	2417.62
302.209	2320.62
302.439	2293.62
302.669	2453.62
302.9	3009.62
303.13	4164.62
303.36	6253.62
303.59	8518.62
303.82	7349.62
304.051	4340.62
304.281	3072.62
304.511	2586.62
304.741	2344.62
304.971	2236.62
305.201	2069.62
305.431	2023.62
305.661	1921.62
305.891	1910.62
306.121	1901.62
306.352	1904.62
306.582	1807.62
306.812	1879.62
307.042	1868.62
307.272	1840.62
307.502	1830.62
307.731	1796.62
307.961	1806.62
308.191	1822.62
308.421	1806.62
308.651	1796.62
308.881	1780.62
309.111	1826.62
309.341	1803.62
309.571	1840.62
309.8	1815.62
310.03	1861.62
310.26	1856.62
310.49	1823.62
310.72	1858.62
310.949	1870.62
311.179	1909.62
311.409	1904.62
311.639	1914.62
311.868	1913.62
312.098	1908.62
312.328	1893.62
312.557	1968.62
312.787	1946.62
313.017	1970.62
313.246	1985.62
313.476	2033.62
313.706	2080.62
313.935	2159.62
314.165	2360.62
314.394	2506.62
314.624	2372.62
314.853	2175.62
315.083	2147.62
315.312	2152.62
315.542	2186.62
315.771	2236.62
316.001	2223.62
316.23	2341.62
316.46	2436.62
316.689	2678.62
316.919	3246.62
317.148	4622.62
317.377	7244.62
317.607	10729.62
317.836	11200.62
318.065	6773.62
318.295	4412.62
318.524	3476.62
318.753	3021.62
318.983	2750.62
319.212	2598.62
319.441	2553.62
319.67	2453.62
319.9	2414.62
320.129	2422.62
320.358	2333.62
320.587	2372.62
320.816	2389.62
321.046	2352.62
321.275	2358.62
321.504	2409.62
321.733	2457.62
321.962	2516.62
322.191	2558.62
322.42	2496.62
322.649	2525.62
322.878	2520.62
323.108	2454.62
323.337	2530.62
323.566	2589.62
323.795	2597.62
324.024	2674.62
324.253	2735.62
324.482	2809.62
324.71	3056.62
324.939	3245.62
325.168	3262.62
325.397	3368.62
325.626	4057.62
325.855	5652.62
326.084	8892.62
326.313	12883.62
326.542	13672.62
326.77	9394.62
326.999	6055.62
327.228	5065.62
327.457	4793.62
327.686	4853.62
327.914	5175.62
328.143	6061.62
328.372	7304.62
328.6	8072.62
328.829	7110.62
329.058	5945.62
329.287	5190.62
329.515	4661.62
329.744	4279.62
329.972	4087.62
330.201	3946.62
330.43	3749.62
330.658	3581.62
330.887	3581.62
331.115	3518.62
331.344	3488.62
331.572	3429.62
331.801	3474.62
332.03	3488.62
332.258	3543.62
332.486	3740.62
332.715	4257.62
332.943	5310.62
333.172	6688.62
333.4	6684.62
333.629	4982.62
333.857	4564.62
334.085	4506.62
334.314	4680.62
334.542	5138.62
334.771	6089.62
334.999	7530.62
335.227	9520.62
335.455	10626.62
335.684	9600.62
335.912	7820.62
336.14	6565.62
336.369	5738.62
336.597	5262.62
336.825	4833.62
337.053	4517.62
337.281	4266.62
337.51	4017.62
337.738	3848.62
337.966	3698.62
338.194	3586.62
338.422	3411.62
338.65	3396.62
338.878	3314.62
339.106	3263.62
339.334	3206.62
339.562	3144.62
339.79	3083.62
340.018	3048.62
340.246	3036.62
340.474	3021.62
340.702	2982.62
340.93	2963.62
341.158	2971.62
341.386	2950.62
341.614	2941.62
341.842	2863.62
342.07	2835.62
342.298	2777.62
342.526	2738.62
342.754	2698.62
342.981	2695.62
343.209	2716.62
343.437	2706.62
343.665	2781.62
343.893	2793.62
344.12	2805.62
344.348	2790.62
344.576	2694.62
344.804	2657.62
345.031	2607.62
345.259	2612.62
345.487	2556.62
345.714	2591.62
345.942	2547.62
346.17	2564.62
346.397	2555.62
346.625	2544.62
346.853	2512.62
347.08	2494.62
347.308	2517.62
347.535	2502.62
347.763	2480.62
347.99	2432.62
348.218	2511.62
348.445	2474.62
348.673	2432.62
348.9	2432.62
349.128	2448.62
349.355	2471.62
349.583	2391.62
349.81	2416.62
350.037	2398.62
350.265	2384.62
350.492	2391.62
350.72	2421.62
350.947	2354.62
351.174	2382.62
351.402	2405.62
351.629	2412.62
351.856	2376.62
352.083	2380.62
352.311	2387.62
352.538	2359.62
352.765	2390.62
352.992	2337.62
353.22	2343.62
353.447	2378.62
353.674	2385.62
353.901	2371.62
354.128	2388.62
354.355	2382.62
354.583	2366.62
354.81	2362.62
355.037	2437.62
355.264	2440.62
355.491	2448.62
355.718	2373.62
355.945	2434.62
356.172	2407.62
356.399	2482.62
356.626	2492.62
356.853	2535.62
357.08	2481.62
357.307	2524.62
357.534	2584.62
357.761	2555.62
357.988	2604.62
358.215	2524.62
358.441	2515.62
358.668	2470.62
358.895	2497.62
359.122	2500.62
359.349	2547.62
359.576	2496.62
359.802	2525.62
360.029	2537.62
360.256	2525.62
360.483	2512.62
360.709	2500.62
360.936	2498.62
361.163	2498.62
361.39	2545.62
361.616	2552.62
361.843	2552.62
362.07	2570.62
362.296	2594.62
362.523	2520.62
362.749	2556.62
362.976	2478.62
363.203	2554.62
363.429	2506.62
363.656	2520.62
363.882	2552.62
364.109	2507.62
364.335	2485.62
364.562	2488.62
364.788	2570.62
365.015	2597.62
365.241	2630.62
365.468	2770.62
365.694	2974.62
365.92	2842.62
366.147	2605.62
366.373	2584.62
366.599	2560.62
366.826	2538.62
367.052	2598.62
367.278	2618.62
367.505	2608.62
367.731	2606.62
367.957	2594.62
368.184	2644.62
368.41	2666.62
368.636	2678.62
368.862	2607.62
369.089	2643.62
369.315	2579.62
369.541	2649.62
369.767	2592.62
369.993	2574.62
370.219	2601.62
370.445	2664.62
370.672	2626.62
370.898	2638.62
371.124	2655.62
371.35	2685.62
371.576	2716.62
371.802	2722.62
372.028	2729.62
372.254	2761.62
372.48	2743.62
372.706	2749.62
372.932	2788.62
373.158	2755.62
373.384	2785.62
373.61	2749.62
373.835	2797.62
374.061	2734.62
374.287	2776.62
374.513	2766.62
374.739	2895.62
374.965	2878.62
375.191	2877.62
375.416	2862.62
375.642	2827.62
375.868	2839.62
376.094	2805.62
376.319	2776.62
376.545	2741.62
376.771	2722.62
376.997	2756.62
377.222	2697.62
377.448	2724.62
377.674	2661.62
377.899	2676.62
378.125	2735.62
378.35	2720.62
378.576	2690.62
378.802	2704.62
379.027	2787.62
379.253	2857.62
379.478	3037.62
379.704	3549.62
379.929	5200.62
380.155	8036.62
380.38	8808.62
380.606	5425.62
380.831	3737.62
381.057	3212.62
381.282	3018.62
381.507	2871.62
381.733	2814.62
381.958	2720.62
382.184	2720.62
382.409	2705.62
382.634	2697.62
382.86	2606.62
383.085	2676.62
383.31	2700.62
383.535	2681.62
383.761	2671.62
383.986	2693.62
384.211	2748.62
384.436	2765.62
384.662	2760.62
384.887	2810.62
385.112	2730.62
385.337	2734.62
385.562	2764.62
385.787	2804.62
386.013	2792.62
386.238	2753.62
386.463	2743.62
386.688	2808.62
386.913	2728.62
387.138	2781.62
387.363	2758.62
387.588	2740.62
387.813	2766.62
388.038	2737.62
388.263	2733.62
388.488	2712.62
388.713	2727.62
388.938	2756.62
389.163	2671.62
389.387	2773.62
389.612	2702.62
389.837	2750.62
390.062	2729.62
390.287	2761.62
390.512	2793.62
390.736	2823.62
390.961	2840.62
391.186	2833.62
391.411	2847.62
391.636	2894.62
391.86	2919.62
392.085	2911.62
392.31	2873.62
392.534	2864.62
392.759	2822.62
392.984	2777.62
393.208	2814.62
393.433	2842.62
393.658	2846.62
393.882	2757.62
394.107	2777.62
394.331	2778.62
394.556	2797.62
394.78	2784.62
395.005	2829.62
395.229	2779.62
395.454	2871.62
395.678	2877.62
395.903	2856.62
396.127	2849.62
396.352	2864.62
396.576	2808.62
396.801	2844.62
397.025	2902.62
397.249	2915.62
397.474	2921.62
397.698	2890.62
397.922	2900.62
398.147	2890.62
398.371	2960.62
398.595	2994.62
398.82	3065.62
399.044	3234.62
399.268	3316.62
399.492	3502.62
399.717	3650.62
399.941	3619.62
400.165	3498.62
400.389	3394.62
400.613	3259.62
400.837	3148.62
401.062	3150.62
401.286	3078.62
401.51	3003.62
401.734	2992.62
401.958	3022.62
402.182	3049.62
402.406	2993.62
402.63	3025.62
402.854	3124.62
403.078	3077.62
403.302	3124.62
403.526	3148.62
403.75	3091.62
403.974	3152.62
404.198	3105.62
404.422	3179.62
404.645	3134.62
404.869	3162.62
405.093	3136.62
405.317	3177.62
405.541	3203.62
405.765	3234.62
405.988	3265.62
406.212	3266.62
406.436	3189.62
406.66	3294.62
406.883	3272.62
407.107	3376.62
407.331	3329.62
407.555	3478.62
407.778	3447.62
408.002	3390.62
408.226	3333.62
408.449	3374.62
408.673	3269.62
408.896	3250.62
409.12	3237.62
409.344	3223.62
409.567	3119.62
409.791	3166.62
410.014	3108.62
410.238	3196.62
410.461	3122.62
410.685	3092.62
410.908	3124.62
411.132	3092.62
411.355	3006.62
411.578	3050.62
411.802	3064.62
412.025	3000.62
412.249	3073.62
412.472	3049.62
412.695	2952.62
412.919	2953.62
413.142	3011.62
413.365	2974.62
413.589	3025.62
413.812	2999.62
414.035	2969.62
414.258	2916.62
414.482	2970.62
414.705	3033.62
414.928	3001.62
415.151	2932.62
415.374	2952.62
415.597	2901.62
415.821	2901.62
416.044	2858.62
416.267	2841.62
416.49	2863.62
416.713	2863.62
416.936	2899.62
417.159	2846.62
417.382	2802.62
417.605	2819.62
417.828	2794.62
418.051	2864.62
418.274	2859.62
418.497	2871.62
418.72	2920.62
418.943	2879.62
419.166	3029.62
419.389	3234.62
419.611	3162.62
419.834	3017.62
420.057	2944.62
420.28	2872.62
420.503	2884.62
420.726	2805.62
420.948	2850.62
421.171	2822.62
421.394	2857.62
421.617	2796.62
421.839	2864.62
422.062	2858.62
422.285	2785.62
422.507	2906.62
422.73	2961.62
422.953	2917.62
423.175	2999.62
423.398	2920.62
423.621	2870.62
423.843	2934.62
424.066	2851.62
424.288	2849.62
424.511	2874.62
424.733	2866.62
424.956	2852.62
425.178	2814.62
425.401	2842.62
425.623	2823.62
425.846	2799.62
426.068	2770.62
426.291	2761.62
426.513	2761.62
426.735	2732.62
426.958	2735.62
427.18	2762.62
427.402	2696.62
427.625	2695.62
427.847	2649.62
428.069	2666.62
428.292	2686.62
428.514	2641.62
428.736	2672.62
428.958	2670.62
429.181	2677.62
429.403	2619.62
429.625	2622.62
429.847	2695.62
430.069	2744.62
430.292	2768.62
430.514	2819.62
430.736	2893.62
430.958	2719.62
431.18	2652.62
431.402	2608.62
431.624	2622.62
431.846	2641.62
432.068	2564.62
432.29	2620.62
432.512	2565.62
432.734	2597.62
432.956	2633.62
433.178	2568.62
433.4	2612.62
433.622	2652.62
433.844	2667.62
434.066	2642.62
434.287	2630.62
434.509	2699.62
434.731	2696.62
434.953	2703.62
435.175	2747.62
435.397	2789.62
435.618	2711.62
435.84	2616.62
436.062	2618.62
436.284	2581.62
436.505	2610.62
436.727	2647.62
436.949	2623.62
437.17	2591.62
437.392	2561.62
437.614	2514.62
437.835	2512.62
438.057	2540.62
438.278	2537.62
438.5	2540.62
438.721	2593.62
438.943	2678.62
439.165	2713.62
439.386	2725.62
439.608	2727.62
439.829	2737.62
440.05	2806.62
440.272	2867.62
440.493	2689.62
440.715	2698.62
440.936	2708.62
441.158	2755.62
441.379	2732.62
441.6	2830.62
441.822	2960.62
442.043	3107.62
442.264	3158.62
442.486	2996.62
442.707	2853.62
442.928	2822.62
443.149	2821.62
443.371	2784.62
443.592	2825.62
443.813	2806.62
444.034	2857.62
444.255	2830.62
444.476	2931.62
444.698	2988.62
444.919	2986.62
445.14	3040.62
445.361	2935.62
445.582	2864.62
445.803	2800.62
446.024	2789.62
446.245	2783.62
446.466	2842.62
446.687	2751.62
446.908	2730.62
447.129	2623.62
447.35	2712.62
447.571	2668.62
447.792	2542.62
448.013	2585.62
448.234	2585.62
448.455	2582.62
448.675	2621.62
448.896	2641.62
449.117	2778.62
449.338	3006.62
449.559	3113.62
449.779	2827.62
450	2620.62
450.221	2574.62
450.442	2592.62
450.662	2527.62
450.883	2556.62
451.104	2542.62
451.324	2504.62
451.545	2538.62
451.766	2549.62
451.986	2578.62
452.207	2764.62
452.428	3664.62
452.648	5558.62
452.869	4652.62
453.089	3207.62
453.31	2961.62
453.53	2996.62
453.751	3034.62
453.971	3190.62
454.192	3092.62
454.412	2740.62
454.633	2518.62
454.853	2482.62
455.073	2431.62
455.294	2488.62
455.514	2412.62
455.734	2403.62
455.955	2354.62
456.175	2356.62
456.395	2400.62
456.616	2407.62
456.836	2467.62
457.056	2467.62
457.276	2441.62
457.497	2612.62
457.717	2628.62
457.937	2558.62
458.157	2564.62
458.377	2542.62
458.598	2559.62
458.818	2621.62
459.038	2607.62
459.258	2621.62
459.478	2646.62
459.698	2635.62
459.918	2750.62
460.138	2696.62
460.358	2797.62
460.578	2802.62
460.798	2852.62
461.018	2847.62
461.238	2835.62
461.458	2885.62
461.678	2893.62
461.898	2974.62
462.118	2986.62
462.338	3067.62
462.558	3111.62
462.777	3053.62
462.997	3272.62
463.217	3356.62
463.437	3486.62
463.657	3565.62
463.876	3594.62
464.096	3362.62
464.316	3224.62
464.536	3167.62
464.755	3090.62
464.975	3038.62
465.195	2846.62
465.414	2838.62
465.634	2735.62
465.854	2745.62
466.073	2667.62
466.293	2637.62
466.512	2655.62
466.732	2732.62
466.951	2825.62
467.171	3072.62
467.391	2950.62
467.61	2724.62
467.829	2605.62
468.049	2608.62
468.268	2522.62
468.488	2543.62
468.707	2576.62
468.927	2531.62
469.146	2588.62
469.365	2612.62
469.585	2630.62
469.804	2660.62
470.023	2673.62
470.243	2769.62
470.462	2877.62
470.681	3062.62
470.901	3289.62
471.12	3807.62
471.339	3809.62
471.558	3142.62
471.777	2872.62
471.997	2765.62
472.216	2696.62
472.435	2590.62
472.654	2604.62
472.873	2555.62
473.092	2598.62
473.311	2629.62
473.53	2641.62
473.749	2672.62
473.968	2785.62
474.187	2682.62
474.406	2636.62
474.625	2640.62
474.844	2609.62
475.063	2592.62
475.282	2643.62
475.501	2641.62
475.72	2630.62
475.939	2680.62
476.158	2692.62
476.377	2779.62
476.596	2764.62
476.814	2764.62
477.033	2750.62
477.252	2778.62
477.471	2833.62
477.69	2852.62
477.908	2952.62
478.127	2937.62
478.346	3001.62
478.564	3016.62
478.783	3041.62
479.002	3054.62
479.22	3087.62
479.439	3073.62
479.658	3105.62
479.876	3138.62
480.095	3157.62
480.313	3177.62
480.532	3242.62
480.751	3173.62
480.969	3145.62
481.188	3143.62
481.406	3118.62
481.624	3143.62
481.843	3211.62
482.061	3149.62
482.28	3186.62
482.498	3169.62
482.717	3102.62
482.935	3127.62
483.153	3202.62
483.372	3243.62
483.59	3269.62
483.808	3336.62
484.027	3433.62
484.245	3636.62
484.463	4100.62
484.681	4599.62
484.9	4215.62
485.118	3847.62
485.336	3720.62
485.554	3875.62
485.772	4050.62
485.99	4563.62
486.209	4884.62
486.427	4119.62
486.645	3676.62
486.863	3560.62
487.081	3461.62
487.299	3412.62
487.517	3310.62
487.735	3396.62
