Data from SnStandardFlinnAPT0064_QswitchEnergy10_LIBS07252019.E.O._I.C._HRD10591_15-27-11-973.txt Node
Date: Thu Jul 25 15:27:11 EDT 2019
User: cochatt
Spectrometer: HR+D1059
Trigger mode: 1
Integration Time (sec): 1.000000E-1
Scans to average: 1
Electric dark correction enabled: true
Nonlinearity correction enabled: false
Boxcar width: 0
XAxis mode: Wavelengths
Number of Pixels in Spectrum: 2048
>>>>>Begin Spectral Data<<<<<
223.165	-20.06
223.4	-20.06
223.635	-20.06
223.869	-15.06
224.104	-31.06
224.338	-26.06
224.573	-12.06
224.808	-8.06
225.042	0.94
225.277	-2.06
225.511	-9.06
225.746	-0.06
225.98	9.94
226.215	10.94
226.449	21.94
226.683	19.94
226.918	36.94
227.152	22.94
227.387	43.94
227.621	44.94
227.856	31.94
228.09	44.94
228.324	52.94
228.559	54.94
228.793	61.94
229.027	64.94
229.262	76.94
229.496	79.94
229.73	80.94
229.964	57.94
230.199	53.94
230.433	67.94
230.667	74.94
230.901	83.94
231.136	80.94
231.37	85.94
231.604	96.94
231.838	102.94
232.072	117.94
232.306	128.94
232.541	97.94
232.775	74.94
233.009	90.94
233.243	78.94
233.477	94.94
233.711	99.94
233.945	86.94
234.179	90.94
234.413	90.94
234.647	81.94
234.881	96.94
235.115	111.94
235.349	86.94
235.583	95.94
235.817	120.94
236.051	130.94
236.285	108.94
236.519	83.94
236.753	73.94
236.987	78.94
237.221	85.94
237.455	74.94
237.689	74.94
237.922	75.94
238.156	78.94
238.39	80.94
238.624	73.94
238.858	82.94
239.091	64.94
239.325	89.94
239.559	78.94
239.793	76.94
240.027	73.94
240.26	84.94
240.494	65.94
240.728	87.94
240.961	78.94
241.195	92.94
241.429	93.94
241.662	80.94
241.896	71.94
242.13	104.94
242.363	122.94
242.597	166.94
242.83	132.94
243.064	133.94
243.298	167.94
243.531	156.94
243.765	114.94
243.998	86.94
244.232	80.94
244.465	73.94
244.699	83.94
244.932	83.94
245.166	80.94
245.399	93.94
245.633	81.94
245.866	75.94
246.099	78.94
246.333	80.94
246.566	80.94
246.8	88.94
247.033	88.94
247.266	80.94
247.5	80.94
247.733	91.94
247.966	88.94
248.2	104.94
248.433	104.94
248.666	128.94
248.899	118.94
249.133	90.94
249.366	88.94
249.599	94.94
249.832	110.94
250.066	129.94
250.299	89.94
250.532	78.94
250.765	80.94
250.998	75.94
251.231	68.94
251.465	74.94
251.698	72.94
251.931	89.94
252.164	79.94
252.397	85.94
252.63	103.94
252.863	98.94
253.096	79.94
253.329	78.94
253.562	95.94
253.795	83.94
254.028	85.94
254.261	103.94
254.494	93.94
254.727	106.94
254.96	146.94
255.193	138.94
255.426	87.94
255.659	85.94
255.892	94.94
256.124	87.94
256.357	84.94
256.59	85.94
256.823	96.94
257.056	113.94
257.289	135.94
257.521	172.94
257.754	121.94
257.987	90.94
258.22	83.94
258.452	88.94
258.685	81.94
258.918	81.94
259.151	92.94
259.383	131.94
259.616	144.94
259.849	156.94
260.081	111.94
260.314	78.94
260.547	91.94
260.779	96.94
261.012	77.94
261.244	76.94
261.477	84.94
261.71	75.94
261.942	84.94
262.175	69.94
262.407	76.94
262.64	70.94
262.872	78.94
263.105	88.94
263.337	80.94
263.57	87.94
263.802	93.94
264.035	99.94
264.267	85.94
264.499	93.94
264.732	80.94
264.964	84.94
265.197	72.94
265.429	91.94
265.661	77.94
265.894	100.94
266.126	109.94
266.358	148.94
266.591	143.94
266.823	106.94
267.055	76.94
267.287	73.94
267.52	88.94
267.752	97.94
267.984	92.94
268.216	92.94
268.448	87.94
268.681	69.94
268.913	92.94
269.145	83.94
269.377	93.94
269.609	93.94
269.841	81.94
270.073	110.94
270.306	128.94
270.538	188.94
270.77	315.94
271.002	373.94
271.234	194.94
271.466	118.94
271.698	101.94
271.93	87.94
272.162	82.94
272.394	91.94
272.626	87.94
272.858	88.94
273.09	77.94
273.322	93.94
273.553	84.94
273.785	81.94
274.017	85.94
274.249	86.94
274.481	86.94
274.713	82.94
274.945	96.94
275.176	96.94
275.408	93.94
275.64	89.94
275.872	91.94
276.104	96.94
276.335	101.94
276.567	89.94
276.799	88.94
277.031	91.94
277.262	94.94
277.494	111.94
277.726	123.94
277.957	180.94
278.189	250.94
278.421	227.94
278.652	188.94
278.884	183.94
279.115	124.94
279.347	101.94
279.579	97.94
279.81	87.94
280.042	94.94
280.273	94.94
280.505	95.94
280.736	105.94
280.968	123.94
281.199	163.94
281.431	231.94
281.662	257.94
281.894	148.94
282.125	113.94
282.356	108.94
282.588	129.94
282.819	119.94
283.051	127.94
283.282	131.94
283.513	171.94
283.745	306.94
283.976	572.94
284.207	768.94
284.439	614.94
284.67	260.94
284.901	240.94
285.132	320.94
285.364	378.94
285.595	222.94
285.826	164.94
286.057	244.94
286.288	392.94
286.52	594.94
286.751	485.94
286.982	186.94
287.213	122.94
287.444	119.94
287.675	106.94
287.906	94.94
288.138	81.94
288.369	108.94
288.6	92.94
288.831	93.94
289.062	100.94
289.293	86.94
289.524	86.94
289.755	92.94
289.986	97.94
290.217	97.94
290.448	94.94
290.679	104.94
290.91	113.94
291.141	151.94
291.371	227.94
291.602	272.94
291.833	186.94
292.064	114.94
292.295	91.94
292.526	89.94
292.757	101.94
292.987	89.94
293.218	81.94
293.449	87.94
293.68	88.94
293.91	80.94
294.141	85.94
294.372	84.94
294.603	97.94
294.833	95.94
295.064	89.94
295.295	71.94
295.525	101.94
295.756	89.94
295.987	86.94
296.217	92.94
296.448	90.94
296.679	86.94
296.909	98.94
297.14	100.94
297.37	112.94
297.601	106.94
297.831	90.94
298.062	108.94
298.292	112.94
298.523	95.94
298.753	98.94
298.984	110.94
299.214	122.94
299.445	105.94
299.675	108.94
299.905	109.94
300.136	122.94
300.366	168.94
300.597	272.94
300.827	447.94
301.057	686.94
301.288	613.94
301.518	245.94
301.748	150.94
301.979	125.94
302.209	125.94
302.439	138.94
302.669	174.94
302.9	257.94
303.13	480.94
303.36	866.94
303.59	1220.94
303.82	822.94
304.051	279.94
304.281	154.94
304.511	116.94
304.741	117.94
304.971	111.94
305.201	110.94
305.431	121.94
305.661	108.94
305.891	98.94
306.121	104.94
306.352	99.94
306.582	108.94
306.812	107.94
307.042	105.94
307.272	102.94
307.502	105.94
307.731	103.94
307.961	106.94
308.191	93.94
308.421	94.94
308.651	98.94
308.881	98.94
309.111	100.94
309.341	99.94
309.571	104.94
309.8	105.94
310.03	90.94
310.26	104.94
310.49	102.94
310.72	106.94
310.949	107.94
311.179	101.94
311.409	91.94
311.639	99.94
311.868	106.94
312.098	109.94
312.328	109.94
312.557	118.94
312.787	112.94
313.017	101.94
313.246	108.94
313.476	98.94
313.706	126.94
313.935	168.94
314.165	174.94
314.394	224.94
314.624	166.94
314.853	128.94
315.083	117.94
315.312	132.94
315.542	124.94
315.771	138.94
316.001	147.94
316.23	138.94
316.46	146.94
316.689	177.94
316.919	256.94
317.148	464.94
317.377	892.94
317.607	1450.94
317.836	1369.94
318.065	519.94
318.295	213.94
318.524	161.94
318.753	116.94
318.983	116.94
319.212	117.94
319.441	120.94
319.67	120.94
319.9	104.94
320.129	113.94
320.358	112.94
320.587	125.94
320.816	119.94
321.046	118.94
321.275	115.94
321.504	128.94
321.733	135.94
321.962	153.94
322.191	168.94
322.42	128.94
322.649	124.94
322.878	123.94
323.108	111.94
323.337	112.94
323.566	127.94
323.795	130.94
324.024	133.94
324.253	130.94
324.482	174.94
324.71	238.94
324.939	280.94
325.168	225.94
325.397	184.94
325.626	252.94
325.855	462.94
326.084	913.94
326.313	1583.94
326.542	1560.94
326.77	616.94
326.999	262.94
327.228	210.94
327.457	215.94
327.686	222.94
327.914	147.94
328.143	133.94
328.372	128.94
328.6	121.94
328.829	115.94
329.058	118.94
329.287	120.94
329.515	116.94
329.744	114.94
329.972	120.94
330.201	128.94
330.43	119.94
330.658	102.94
330.887	122.94
331.115	112.94
331.344	111.94
331.572	116.94
331.801	116.94
332.03	121.94
332.258	132.94
332.486	164.94
332.715	274.94
332.943	484.94
333.172	764.94
333.4	658.94
333.629	239.94
333.857	152.94
334.085	121.94
334.314	119.94
334.542	117.94
334.771	113.94
334.999	121.94
335.227	126.94
335.455	124.94
335.684	124.94
335.912	125.94
336.14	123.94
336.369	99.94
336.597	122.94
336.825	93.94
337.053	119.94
337.281	97.94
337.51	100.94
337.738	120.94
337.966	112.94
338.194	115.94
338.422	116.94
338.65	92.94
338.878	106.94
339.106	114.94
339.334	126.94
339.562	117.94
339.79	109.94
340.018	113.94
340.246	105.94
340.474	101.94
340.702	117.94
340.93	101.94
341.158	96.94
341.386	114.94
341.614	103.94
341.842	100.94
342.07	119.94
342.298	113.94
342.526	117.94
342.754	97.94
342.981	100.94
343.209	98.94
343.437	116.94
343.665	111.94
343.893	105.94
344.12	114.94
344.348	114.94
344.576	105.94
344.804	116.94
345.031	108.94
345.259	109.94
345.487	110.94
345.714	102.94
345.942	101.94
346.17	103.94
346.397	99.94
346.625	102.94
346.853	105.94
347.08	95.94
347.308	82.94
347.535	114.94
347.763	87.94
347.99	97.94
348.218	102.94
348.445	113.94
348.673	111.94
348.9	108.94
349.128	114.94
349.355	102.94
349.583	112.94
349.81	90.94
350.037	119.94
350.265	110.94
350.492	98.94
350.72	112.94
350.947	118.94
351.174	120.94
351.402	105.94
351.629	119.94
351.856	116.94
352.083	96.94
352.311	116.94
352.538	97.94
352.765	102.94
352.992	103.94
353.22	103.94
353.447	110.94
353.674	115.94
353.901	90.94
354.128	97.94
354.355	99.94
354.583	111.94
354.81	107.94
355.037	109.94
355.264	112.94
355.491	99.94
355.718	105.94
355.945	103.94
356.172	101.94
356.399	112.94
356.626	102.94
356.853	99.94
357.08	103.94
357.307	104.94
357.534	98.94
357.761	99.94
357.988	96.94
358.215	97.94
358.441	101.94
358.668	109.94
358.895	122.94
359.122	111.94
359.349	121.94
359.576	108.94
359.802	119.94
360.029	122.94
360.256	110.94
360.483	105.94
360.709	112.94
360.936	97.94
361.163	103.94
361.39	114.94
361.616	105.94
361.843	110.94
362.07	108.94
362.296	105.94
362.523	101.94
362.749	93.94
362.976	110.94
363.203	92.94
363.429	93.94
363.656	95.94
363.882	106.94
364.109	103.94
364.335	99.94
364.562	109.94
364.788	105.94
365.015	96.94
365.241	138.94
365.468	188.94
365.694	221.94
365.92	202.94
366.147	110.94
366.373	114.94
366.599	97.94
366.826	100.94
367.052	92.94
367.278	74.94
367.505	96.94
367.731	89.94
367.957	90.94
368.184	110.94
368.41	112.94
368.636	106.94
368.862	101.94
369.089	108.94
369.315	108.94
369.541	101.94
369.767	102.94
369.993	106.94
370.219	108.94
370.445	102.94
370.672	116.94
370.898	108.94
371.124	100.94
371.35	103.94
371.576	106.94
371.802	115.94
372.028	107.94
372.254	110.94
372.48	110.94
372.706	109.94
372.932	119.94
373.158	108.94
373.384	104.94
373.61	118.94
373.835	124.94
374.061	105.94
374.287	103.94
374.513	116.94
374.739	99.94
374.965	116.94
375.191	112.94
375.416	118.94
375.642	107.94
375.868	114.94
376.094	97.94
376.319	98.94
376.545	119.94
376.771	93.94
376.997	115.94
377.222	101.94
377.448	118.94
377.674	98.94
377.899	102.94
378.125	122.94
378.35	116.94
378.576	103.94
378.802	120.94
379.027	127.94
379.253	146.94
379.478	180.94
379.704	297.94
379.929	786.94
380.155	1530.94
380.38	1620.94
380.606	517.94
380.831	204.94
381.057	138.94
381.282	102.94
381.507	105.94
381.733	101.94
381.958	98.94
382.184	100.94
382.409	96.94
382.634	100.94
382.86	105.94
383.085	101.94
383.31	112.94
383.535	99.94
383.761	126.94
383.986	104.94
384.211	108.94
384.436	103.94
384.662	98.94
384.887	110.94
385.112	96.94
385.337	104.94
385.562	111.94
385.787	101.94
386.013	101.94
386.238	110.94
386.463	112.94
386.688	84.94
386.913	103.94
387.138	113.94
387.363	127.94
387.588	98.94
387.813	90.94
388.038	105.94
388.263	114.94
388.488	104.94
388.713	97.94
388.938	113.94
389.163	99.94
389.387	98.94
389.612	117.94
389.837	114.94
390.062	112.94
390.287	96.94
390.512	98.94
390.736	100.94
390.961	94.94
391.186	84.94
391.411	78.94
391.636	82.94
391.86	101.94
392.085	100.94
392.31	97.94
392.534	86.94
392.759	93.94
392.984	88.94
393.208	101.94
393.433	127.94
393.658	126.94
393.882	94.94
394.107	105.94
394.331	101.94
394.556	91.94
394.78	89.94
395.005	88.94
395.229	98.94
395.454	102.94
395.678	113.94
395.903	97.94
396.127	92.94
396.352	111.94
396.576	105.94
396.801	97.94
397.025	104.94
397.249	112.94
397.474	98.94
397.698	94.94
397.922	90.94
398.147	100.94
398.371	94.94
398.595	88.94
398.82	95.94
399.044	98.94
399.268	102.94
399.492	109.94
399.717	95.94
399.941	103.94
400.165	102.94
400.389	98.94
400.613	88.94
400.837	95.94
401.062	98.94
401.286	96.94
401.51	97.94
401.734	104.94
401.958	96.94
402.182	94.94
402.406	99.94
402.63	100.94
402.854	104.94
403.078	92.94
403.302	81.94
403.526	86.94
403.75	87.94
403.974	100.94
404.198	101.94
404.422	98.94
404.645	96.94
404.869	94.94
405.093	109.94
405.317	80.94
405.541	82.94
405.765	102.94
405.988	127.94
406.212	120.94
406.436	94.94
406.66	98.94
406.883	92.94
407.107	101.94
407.331	94.94
407.555	85.94
407.778	96.94
408.002	97.94
408.226	98.94
408.449	98.94
408.673	89.94
408.896	97.94
409.12	91.94
409.344	96.94
409.567	110.94
409.791	87.94
410.014	86.94
410.238	113.94
410.461	110.94
410.685	92.94
410.908	90.94
411.132	88.94
411.355	84.94
411.578	108.94
411.802	97.94
412.025	88.94
412.249	93.94
412.472	90.94
412.695	90.94
412.919	93.94
413.142	100.94
413.365	94.94
413.589	96.94
413.812	100.94
414.035	110.94
414.258	95.94
414.482	104.94
414.705	100.94
414.928	103.94
415.151	97.94
415.374	94.94
415.597	104.94
415.821	87.94
416.044	87.94
416.267	95.94
416.49	80.94
416.713	85.94
416.936	86.94
417.159	95.94
417.382	86.94
417.605	89.94
417.828	86.94
418.051	93.94
418.274	94.94
418.497	95.94
418.72	103.94
418.943	90.94
419.166	91.94
419.389	88.94
419.611	105.94
419.834	86.94
420.057	102.94
420.28	100.94
420.503	89.94
420.726	89.94
420.948	100.94
421.171	95.94
421.394	89.94
421.617	89.94
421.839	102.94
422.062	88.94
422.285	86.94
422.507	100.94
422.73	120.94
422.953	127.94
423.175	105.94
423.398	101.94
423.621	96.94
423.843	102.94
424.066	82.94
424.288	96.94
424.511	113.94
424.733	73.94
424.956	101.94
425.178	95.94
425.401	90.94
425.623	87.94
425.846	88.94
426.068	86.94
426.291	102.94
426.513	84.94
426.735	112.94
426.958	90.94
427.18	93.94
427.402	88.94
427.625	104.94
427.847	101.94
428.069	93.94
428.292	88.94
428.514	85.94
428.736	79.94
428.958	85.94
429.181	85.94
429.403	93.94
429.625	92.94
429.847	101.94
430.069	103.94
430.292	109.94
430.514	115.94
430.736	109.94
430.958	101.94
431.18	88.94
431.402	83.94
431.624	73.94
431.846	90.94
432.068	96.94
432.29	79.94
432.512	84.94
432.734	90.94
432.956	88.94
433.178	97.94
433.4	69.94
433.622	93.94
433.844	87.94
434.066	94.94
434.287	93.94
434.509	76.94
434.731	78.94
434.953	97.94
435.175	89.94
435.397	91.94
435.618	99.94
435.84	84.94
436.062	102.94
436.284	93.94
436.505	82.94
436.727	88.94
436.949	82.94
437.17	89.94
437.392	84.94
437.614	86.94
437.835	98.94
438.057	82.94
438.278	83.94
438.5	89.94
438.721	81.94
438.943	96.94
439.165	113.94
439.386	104.94
439.608	90.94
439.829	110.94
440.05	124.94
440.272	118.94
440.493	113.94
440.715	97.94
440.936	98.94
441.158	96.94
441.379	103.94
441.6	90.94
441.822	114.94
442.043	125.94
442.264	135.94
442.486	119.94
442.707	100.94
442.928	88.94
443.149	80.94
443.371	96.94
443.592	84.94
443.813	104.94
444.034	84.94
444.255	85.94
444.476	82.94
444.698	97.94
444.919	87.94
445.14	217.94
445.361	171.94
445.582	97.94
445.803	107.94
446.024	95.94
446.245	85.94
446.466	110.94
446.687	105.94
446.908	100.94
447.129	101.94
447.35	88.94
447.571	93.94
447.792	90.94
448.013	97.94
448.234	88.94
448.455	101.94
448.675	96.94
448.896	109.94
449.117	115.94
449.338	119.94
449.559	148.94
449.779	112.94
450	113.94
450.221	92.94
450.442	102.94
450.662	103.94
450.883	108.94
451.104	108.94
451.324	119.94
451.545	95.94
451.766	116.94
451.986	146.94
452.207	192.94
452.428	500.94
452.648	1266.94
452.869	718.94
453.089	190.94
453.31	125.94
453.53	120.94
453.751	142.94
453.971	170.94
454.192	149.94
454.412	98.94
454.633	105.94
454.853	94.94
455.073	89.94
455.294	84.94
455.514	89.94
455.734	101.94
455.955	77.94
456.175	94.94
456.395	90.94
456.616	103.94
456.836	85.94
457.056	108.94
457.276	96.94
457.497	108.94
457.717	126.94
457.937	101.94
458.157	95.94
458.377	89.94
458.598	84.94
458.818	107.94
459.038	87.94
459.258	86.94
459.478	96.94
459.698	87.94
459.918	91.94
460.138	90.94
460.358	87.94
460.578	69.94
460.798	91.94
461.018	86.94
461.238	96.94
461.458	94.94
461.678	86.94
461.898	87.94
462.118	74.94
462.338	103.94
462.558	95.94
462.777	91.94
462.997	97.94
463.217	95.94
463.437	135.94
463.657	188.94
463.876	193.94
464.096	124.94
464.316	99.94
464.536	82.94
464.755	84.94
464.975	109.94
465.195	92.94
465.414	94.94
465.634	93.94
465.854	95.94
466.073	93.94
466.293	94.94
466.512	95.94
466.732	96.94
466.951	107.94
467.171	138.94
467.391	124.94
467.61	90.94
467.829	98.94
468.049	96.94
468.268	79.94
468.488	93.94
468.707	102.94
468.927	89.94
469.146	101.94
469.365	91.94
469.585	101.94
469.804	89.94
470.023	96.94
470.243	83.94
470.462	110.94
470.681	108.94
470.901	133.94
471.12	194.94
471.339	218.94
471.558	121.94
471.777	101.94
471.997	106.94
472.216	97.94
472.435	101.94
472.654	92.94
472.873	93.94
473.092	92.94
473.311	90.94
473.53	88.94
473.749	93.94
473.968	96.94
474.187	86.94
474.406	86.94
474.625	93.94
474.844	80.94
475.063	85.94
475.282	85.94
475.501	74.94
475.72	89.94
475.939	85.94
476.158	97.94
476.377	126.94
476.596	90.94
476.814	83.94
477.033	96.94
477.252	83.94
477.471	89.94
477.69	95.94
477.908	97.94
478.127	95.94
478.346	98.94
478.564	104.94
478.783	95.94
479.002	86.94
479.22	87.94
479.439	82.94
479.658	87.94
479.876	87.94
480.095	91.94
480.313	88.94
480.532	73.94
480.751	81.94
480.969	75.94
481.188	95.94
481.406	102.94
481.624	106.94
481.843	129.94
482.061	110.94
482.28	102.94
482.498	97.94
482.717	99.94
482.935	97.94
483.153	95.94
483.372	80.94
483.59	96.94
483.808	99.94
484.027	102.94
484.245	120.94
484.463	168.94
484.681	219.94
484.9	128.94
485.118	101.94
485.336	105.94
485.554	98.94
485.772	121.94
485.99	184.94
486.209	247.94
486.427	177.94
486.645	116.94
486.863	88.94
487.081	102.94
487.299	91.94
487.517	106.94
487.735	101.94
487.953	88.94
488.171	104.94
488.389	109.94
488.607	87.94
488.825	113.94
489.043	89.94
489.261	86.94
489.479	96.94
489.696	100.94
489.914	95.94
490.132	87.94
490.35	92.94
490.568	89.94
490.786	106.94
491.003	111.94
491.221	105.94
491.439	104.94
491.657	119.94
491.874	106.94
492.092	100.94
492.31	97.94
492.527	108.94
492.745	108.94
492.963	108.94
493.18	94.94
493.398	106.94
493.615	92.94
493.833	96.94
494.05	99.94
494.268	103.94
494.485	98.94
494.703	94.94
494.92	100.94
495.138	96.94
495.355	106.94
495.573	114.94
495.79	108.94
496.008	96.94
496.225	96.94
496.442	100.94
496.66	113.94
496.877	159.94
497.094	145.94
497.312	110.94
497.529	99.94
497.746	98.94
497.963	88.94
498.181	108.94
498.398	108.94
498.615	91.94
498.832	91.94
499.049	108.94
499.267	136.94
499.484	172.94
499.701	133.94
499.918	104.94
500.135	106.94
500.352	106.94
500.569	94.94
500.786	105.94
501.003	88.94
501.22	86.94
501.437	93.94
501.654	96.94
501.871	82.94
502.088	89.94
502.305	90.94
502.522	94.94
502.739	101.94
502.956	101.94
503.172	100.94
503.389	98.94
503.606	110.94
503.823	93.94
504.04	103.94
504.256	94.94
504.473	89.94
504.69	101.94
504.907	109.94
505.123	127.94
505.34	98.94
505.557	108.94
505.773	98.94
505.99	94.94
506.207	108.94
506.423	105.94
506.64	105.94
506.856	101.94
507.073	110.94
507.289	106.94
507.506	104.94
507.722	97.94
507.939	90.94
508.155	85.94
508.372	87.94
508.588	89.94
508.805	95.94
509.021	89.94
509.238	113.94
509.454	140.94
509.67	160.94
509.887	103.94
