Data from SnStandardFlinnAPT0064_LampEnergy5.5_LIBS07252019.E.O._I.C._HRD10591_15-14-29-491.txt Node
Date: Thu Jul 25 15:14:29 EDT 2019
User: cochatt
Spectrometer: HR+D1059
Trigger mode: 1
Integration Time (sec): 1.000000E-1
Scans to average: 1
Electric dark correction enabled: true
Nonlinearity correction enabled: false
Boxcar width: 0
XAxis mode: Wavelengths
Number of Pixels in Spectrum: 2048
>>>>>Begin Spectral Data<<<<<
223.165	-17.75
223.4	-17.75
223.635	-17.75
223.869	2.25
224.104	-20.75
224.338	-7.75
224.573	-9.75
224.808	-20.75
225.042	-15.75
225.277	-3.75
225.511	-12.75
225.746	12.25
225.98	10.25
226.215	-2.75
226.449	21.25
226.683	14.25
226.918	24.25
227.152	27.25
227.387	29.25
227.621	44.25
227.856	54.25
228.09	54.25
228.324	43.25
228.559	48.25
228.793	72.25
229.027	145.25
229.262	136.25
229.496	154.25
229.73	140.25
229.964	138.25
230.199	154.25
230.433	169.25
230.667	163.25
230.901	165.25
231.136	170.25
231.37	169.25
231.604	176.25
231.838	184.25
232.072	206.25
232.306	226.25
232.541	193.25
232.775	198.25
233.009	193.25
233.243	193.25
233.477	212.25
233.711	231.25
233.945	242.25
234.179	217.25
234.413	211.25
234.647	201.25
234.881	218.25
235.115	238.25
235.349	251.25
235.583	314.25
235.817	386.25
236.051	365.25
236.285	246.25
236.519	223.25
236.753	213.25
236.987	223.25
237.221	230.25
237.455	221.25
237.689	220.25
237.922	214.25
238.156	212.25
238.39	216.25
238.624	211.25
238.858	223.25
239.091	232.25
239.325	223.25
239.559	229.25
239.793	246.25
240.027	253.25
240.26	246.25
240.494	243.25
240.728	250.25
240.961	257.25
241.195	254.25
241.429	280.25
241.662	270.25
241.896	299.25
242.13	358.25
242.363	445.25
242.597	536.25
242.83	530.25
243.064	517.25
243.298	626.25
243.531	541.25
243.765	361.25
243.998	326.25
244.232	306.25
244.465	277.25
244.699	296.25
244.932	281.25
245.166	282.25
245.399	300.25
245.633	297.25
245.866	298.25
246.099	286.25
246.333	272.25
246.566	289.25
246.8	268.25
247.033	284.25
247.266	299.25
247.5	285.25
247.733	305.25
247.966	305.25
248.2	311.25
248.433	342.25
248.666	370.25
248.899	361.25
249.133	344.25
249.366	345.25
249.599	369.25
249.832	419.25
250.066	392.25
250.299	336.25
250.532	336.25
250.765	322.25
250.998	294.25
251.231	332.25
251.465	313.25
251.698	319.25
251.931	306.25
252.164	308.25
252.397	332.25
252.63	338.25
252.863	349.25
253.096	330.25
253.329	326.25
253.562	341.25
253.795	327.25
254.028	328.25
254.261	357.25
254.494	364.25
254.727	392.25
254.96	461.25
255.193	460.25
255.426	389.25
255.659	352.25
255.892	352.25
256.124	377.25
256.357	384.25
256.59	375.25
256.823	396.25
257.056	417.25
257.289	483.25
257.521	526.25
257.754	448.25
257.987	396.25
258.22	405.25
258.452	355.25
258.685	382.25
258.918	393.25
259.151	414.25
259.383	430.25
259.616	450.25
259.849	487.25
260.081	427.25
260.314	413.25
260.547	397.25
260.779	406.25
261.012	414.25
261.244	397.25
261.477	409.25
261.71	433.25
261.942	429.25
262.175	432.25
262.407	444.25
262.64	447.25
262.872	464.25
263.105	480.25
263.337	503.25
263.57	538.25
263.802	534.25
264.035	561.25
264.267	547.25
264.499	581.25
264.732	622.25
264.964	593.25
265.197	610.25
265.429	615.25
265.661	601.25
265.894	654.25
266.126	694.25
266.358	773.25
266.591	725.25
266.823	654.25
267.055	613.25
267.287	590.25
267.52	559.25
267.752	560.25
267.984	565.25
268.216	534.25
268.448	554.25
268.681	518.25
268.913	528.25
269.145	535.25
269.377	536.25
269.609	514.25
269.841	517.25
270.073	571.25
270.306	615.25
270.538	763.25
270.77	1072.25
271.002	1276.25
271.234	960.25
271.466	704.25
271.698	599.25
271.93	566.25
272.162	524.25
272.394	546.25
272.626	522.25
272.858	520.25
273.09	521.25
273.322	488.25
273.553	498.25
273.785	516.25
274.017	489.25
274.249	512.25
274.481	490.25
274.713	490.25
274.945	489.25
275.176	509.25
275.408	520.25
275.64	508.25
275.872	523.25
276.104	483.25
276.335	500.25
276.567	535.25
276.799	527.25
277.031	523.25
277.262	540.25
277.494	547.25
277.726	577.25
277.957	642.25
278.189	696.25
278.421	651.25
278.652	642.25
278.884	605.25
279.115	589.25
279.347	555.25
279.579	550.25
279.81	566.25
280.042	550.25
280.273	598.25
280.505	589.25
280.736	581.25
280.968	614.25
281.199	653.25
281.431	715.25
281.662	717.25
281.894	657.25
282.125	628.25
282.356	636.25
282.588	631.25
282.819	662.25
283.051	693.25
283.282	757.25
283.513	865.25
283.745	1210.25
283.976	1815.25
284.207	2512.25
284.439	2308.25
284.67	1474.25
284.901	1193.25
285.132	1178.25
285.364	1155.25
285.595	924.25
285.826	878.25
286.057	1002.25
286.288	1256.25
286.52	1637.25
286.751	1569.25
286.982	1034.25
287.213	834.25
287.444	773.25
287.675	723.25
287.906	691.25
288.138	655.25
288.369	696.25
288.6	672.25
288.831	670.25
289.062	665.25
289.293	661.25
289.524	662.25
289.755	662.25
289.986	690.25
290.217	696.25
290.448	695.25
290.679	686.25
290.91	674.25
291.141	697.25
291.371	717.25
291.602	745.25
291.833	730.25
292.064	675.25
292.295	692.25
292.526	653.25
292.757	642.25
292.987	656.25
293.218	657.25
293.449	645.25
293.68	643.25
293.91	634.25
294.141	635.25
294.372	627.25
294.603	652.25
294.833	612.25
295.064	641.25
295.295	636.25
295.525	640.25
295.756	633.25
295.987	609.25
296.217	626.25
296.448	669.25
296.679	649.25
296.909	662.25
297.14	643.25
297.37	652.25
297.601	644.25
297.831	678.25
298.062	650.25
298.292	661.25
298.523	660.25
298.753	691.25
298.984	694.25
299.214	713.25
299.445	701.25
299.675	704.25
299.905	723.25
300.136	752.25
300.366	798.25
300.597	964.25
300.827	1249.25
301.057	1687.25
301.288	1632.25
301.518	1129.25
301.748	918.25
301.979	860.25
302.209	842.25
302.439	872.25
302.669	900.25
302.9	1025.25
303.13	1349.25
303.36	1854.25
303.59	2443.25
303.82	2159.25
304.051	1338.25
304.281	1063.25
304.511	914.25
304.741	848.25
304.971	836.25
305.201	814.25
305.431	761.25
305.661	756.25
305.891	756.25
306.121	741.25
306.352	736.25
306.582	737.25
306.812	716.25
307.042	741.25
307.272	757.25
307.502	723.25
307.731	724.25
307.961	730.25
308.191	704.25
308.421	717.25
308.651	733.25
308.881	754.25
309.111	736.25
309.341	715.25
309.571	732.25
309.8	770.25
310.03	770.25
310.26	730.25
310.49	757.25
310.72	770.25
310.949	749.25
311.179	752.25
311.409	762.25
311.639	764.25
311.868	776.25
312.098	796.25
312.328	794.25
312.557	793.25
312.787	790.25
313.017	764.25
313.246	808.25
313.476	820.25
313.706	842.25
313.935	846.25
314.165	862.25
314.394	911.25
314.624	864.25
314.853	844.25
315.083	826.25
315.312	854.25
315.542	850.25
315.771	850.25
316.001	870.25
316.23	862.25
316.46	913.25
316.689	966.25
316.919	1155.25
317.148	1533.25
317.377	2254.25
317.607	3194.25
317.836	3319.25
318.065	2054.25
318.295	1430.25
318.524	1208.25
318.753	1074.25
318.983	1036.25
319.212	967.25
319.441	947.25
319.67	937.25
319.9	923.25
320.129	916.25
320.358	939.25
320.587	944.25
320.816	937.25
321.046	934.25
321.275	920.25
321.504	925.25
321.733	919.25
321.962	949.25
322.191	995.25
322.42	976.25
322.649	974.25
322.878	961.25
323.108	961.25
323.337	985.25
323.566	1013.25
323.795	990.25
324.024	1040.25
324.253	1032.25
324.482	1079.25
324.71	1132.25
324.939	1154.25
325.168	1210.25
325.397	1239.25
325.626	1385.25
325.855	1861.25
326.084	2764.25
326.313	4023.25
326.542	4218.25
326.77	2863.25
326.999	2023.25
327.228	1723.25
327.457	1657.25
327.686	1692.25
327.914	1751.25
328.143	2040.25
328.372	2324.25
328.6	2510.25
328.829	2376.25
329.058	2098.25
329.287	1866.25
329.515	1736.25
329.744	1607.25
329.972	1537.25
330.201	1444.25
330.43	1402.25
330.658	1408.25
330.887	1365.25
331.115	1343.25
331.344	1336.25
331.572	1328.25
331.801	1336.25
332.03	1339.25
332.258	1368.25
332.486	1428.25
332.715	1559.25
332.943	1797.25
333.172	2124.25
333.4	2129.25
333.629	1765.25
333.857	1636.25
334.085	1684.25
334.314	1765.25
334.542	1888.25
334.771	2145.25
334.999	2478.25
335.227	2995.25
335.455	3334.25
335.684	3153.25
335.912	2740.25
336.14	2356.25
336.369	2122.25
336.597	1949.25
336.825	1803.25
337.053	1736.25
337.281	1649.25
337.51	1549.25
337.738	1480.25
337.966	1440.25
338.194	1402.25
338.422	1353.25
338.65	1301.25
338.878	1264.25
339.106	1252.25
339.334	1268.25
339.562	1255.25
339.79	1185.25
340.018	1204.25
340.246	1208.25
340.474	1206.25
340.702	1172.25
340.93	1181.25
341.158	1189.25
341.386	1173.25
341.614	1157.25
341.842	1147.25
342.07	1125.25
342.298	1123.25
342.526	1098.25
342.754	1105.25
342.981	1093.25
343.209	1078.25
343.437	1102.25
343.665	1138.25
343.893	1112.25
344.12	1102.25
344.348	1121.25
344.576	1099.25
344.804	1084.25
345.031	1052.25
345.259	1074.25
345.487	1044.25
345.714	1012.25
345.942	1040.25
346.17	1019.25
346.397	1019.25
346.625	986.25
346.853	978.25
347.08	972.25
347.308	996.25
347.535	1005.25
347.763	1020.25
347.99	1023.25
348.218	988.25
348.445	984.25
348.673	977.25
348.9	999.25
349.128	985.25
349.355	961.25
349.583	1000.25
349.81	954.25
350.037	961.25
350.265	952.25
350.492	984.25
350.72	975.25
350.947	980.25
351.174	960.25
351.402	973.25
351.629	1001.25
351.856	953.25
352.083	962.25
352.311	962.25
352.538	929.25
352.765	958.25
352.992	941.25
353.22	944.25
353.447	944.25
353.674	976.25
353.901	968.25
354.128	980.25
354.355	993.25
354.583	977.25
354.81	1009.25
355.037	964.25
355.264	971.25
355.491	969.25
355.718	976.25
355.945	954.25
356.172	979.25
356.399	993.25
356.626	984.25
356.853	1005.25
357.08	1006.25
357.307	1031.25
357.534	1023.25
357.761	1057.25
357.988	1001.25
358.215	1029.25
358.441	1013.25
358.668	1030.25
358.895	1009.25
359.122	991.25
359.349	1018.25
359.576	1032.25
359.802	1013.25
360.029	1029.25
360.256	1037.25
360.483	1026.25
360.709	1037.25
360.936	1041.25
361.163	1013.25
361.39	1002.25
361.616	1028.25
361.843	1043.25
362.07	1035.25
362.296	1030.25
362.523	1031.25
362.749	1028.25
362.976	1036.25
363.203	1010.25
363.429	1033.25
363.656	1040.25
363.882	1024.25
364.109	1011.25
364.335	1005.25
364.562	1034.25
364.788	1017.25
365.015	1043.25
365.241	1048.25
365.468	1085.25
365.694	1113.25
365.92	1085.25
366.147	1039.25
366.373	1032.25
366.599	1036.25
366.826	1030.25
367.052	1019.25
367.278	1053.25
367.505	1031.25
367.731	1046.25
367.957	1065.25
368.184	1044.25
368.41	1064.25
368.636	1063.25
368.862	1084.25
369.089	1037.25
369.315	1084.25
369.541	1072.25
369.767	1097.25
369.993	1049.25
370.219	1084.25
370.445	1054.25
370.672	1092.25
370.898	1090.25
371.124	1076.25
371.35	1094.25
371.576	1122.25
371.802	1085.25
372.028	1114.25
372.254	1125.25
372.48	1109.25
372.706	1142.25
372.932	1139.25
373.158	1121.25
373.384	1117.25
373.61	1110.25
373.835	1126.25
374.061	1124.25
374.287	1128.25
374.513	1175.25
374.739	1177.25
374.965	1164.25
375.191	1148.25
375.416	1161.25
375.642	1136.25
375.868	1152.25
376.094	1140.25
376.319	1147.25
376.545	1127.25
376.771	1124.25
376.997	1109.25
377.222	1096.25
377.448	1114.25
377.674	1093.25
377.899	1072.25
378.125	1104.25
378.35	1106.25
378.576	1092.25
378.802	1111.25
379.027	1143.25
379.253	1132.25
379.478	1152.25
379.704	1309.25
379.929	1747.25
380.155	2456.25
380.38	2619.25
380.606	1758.25
380.831	1360.25
381.057	1243.25
381.282	1180.25
381.507	1145.25
381.733	1110.25
381.958	1115.25
382.184	1124.25
382.409	1098.25
382.634	1096.25
382.86	1091.25
383.085	1126.25
383.31	1112.25
383.535	1086.25
383.761	1123.25
383.986	1106.25
384.211	1103.25
384.436	1127.25
384.662	1113.25
384.887	1116.25
385.112	1112.25
385.337	1115.25
385.562	1153.25
385.787	1139.25
386.013	1131.25
386.238	1167.25
386.463	1146.25
386.688	1129.25
386.913	1129.25
387.138	1113.25
387.363	1131.25
387.588	1140.25
387.813	1128.25
388.038	1140.25
388.263	1121.25
388.488	1143.25
388.713	1114.25
388.938	1143.25
389.163	1107.25
389.387	1120.25
389.612	1127.25
389.837	1146.25
390.062	1153.25
390.287	1132.25
390.512	1164.25
390.736	1139.25
390.961	1146.25
391.186	1189.25
391.411	1185.25
391.636	1174.25
391.86	1183.25
392.085	1197.25
392.31	1202.25
392.534	1172.25
392.759	1162.25
392.984	1171.25
393.208	1144.25
393.433	1137.25
393.658	1146.25
393.882	1155.25
394.107	1143.25
394.331	1150.25
394.556	1169.25
394.78	1175.25
395.005	1166.25
395.229	1169.25
395.454	1196.25
395.678	1184.25
395.903	1207.25
396.127	1206.25
396.352	1158.25
396.576	1152.25
396.801	1204.25
397.025	1172.25
397.249	1180.25
397.474	1167.25
397.698	1209.25
397.922	1181.25
398.147	1223.25
398.371	1233.25
398.595	1252.25
398.82	1264.25
399.044	1337.25
399.268	1395.25
399.492	1478.25
399.717	1477.25
399.941	1505.25
400.165	1450.25
400.389	1398.25
400.613	1320.25
400.837	1306.25
401.062	1299.25
401.286	1269.25
401.51	1245.25
401.734	1257.25
401.958	1276.25
402.182	1245.25
402.406	1288.25
402.63	1257.25
402.854	1281.25
403.078	1282.25
403.302	1280.25
403.526	1315.25
403.75	1314.25
403.974	1332.25
404.198	1316.25
404.422	1306.25
404.645	1328.25
404.869	1304.25
405.093	1316.25
405.317	1350.25
405.541	1328.25
405.765	1317.25
405.988	1302.25
406.212	1321.25
406.436	1351.25
406.66	1333.25
406.883	1325.25
407.107	1351.25
407.331	1409.25
407.555	1446.25
407.778	1419.25
408.002	1400.25
408.226	1393.25
408.449	1371.25
408.673	1345.25
408.896	1319.25
409.12	1328.25
409.344	1322.25
409.567	1266.25
409.791	1308.25
410.014	1312.25
410.238	1277.25
410.461	1289.25
410.685	1280.25
410.908	1258.25
411.132	1258.25
411.355	1233.25
411.578	1275.25
411.802	1271.25
412.025	1284.25
412.249	1266.25
412.472	1242.25
412.695	1242.25
412.919	1272.25
413.142	1225.25
413.365	1218.25
413.589	1223.25
413.812	1212.25
414.035	1209.25
414.258	1212.25
414.482	1229.25
414.705	1233.25
414.928	1253.25
415.151	1259.25
415.374	1182.25
415.597	1219.25
415.821	1193.25
416.044	1194.25
416.267	1203.25
416.49	1200.25
416.713	1192.25
416.936	1195.25
417.159	1173.25
417.382	1193.25
417.605	1197.25
417.828	1189.25
418.051	1164.25
418.274	1186.25
418.497	1178.25
418.72	1222.25
418.943	1211.25
419.166	1244.25
419.389	1325.25
419.611	1304.25
419.834	1253.25
420.057	1193.25
420.28	1196.25
420.503	1164.25
420.726	1216.25
420.948	1196.25
421.171	1205.25
421.394	1189.25
421.617	1205.25
421.839	1234.25
422.062	1217.25
422.285	1192.25
422.507	1217.25
422.73	1192.25
422.953	1202.25
423.175	1211.25
423.398	1213.25
423.621	1220.25
423.843	1197.25
424.066	1214.25
424.288	1224.25
424.511	1226.25
424.733	1205.25
424.956	1184.25
425.178	1180.25
425.401	1182.25
425.623	1140.25
425.846	1156.25
426.068	1147.25
426.291	1162.25
426.513	1178.25
426.735	1118.25
426.958	1142.25
427.18	1128.25
427.402	1144.25
427.625	1128.25
427.847	1120.25
428.069	1098.25
428.292	1109.25
428.514	1109.25
428.736	1097.25
428.958	1133.25
429.181	1081.25
429.403	1094.25
429.625	1108.25
429.847	1074.25
430.069	1106.25
430.292	1163.25
430.514	1145.25
430.736	1153.25
430.958	1108.25
431.18	1054.25
431.402	1101.25
431.624	1090.25
431.846	1096.25
432.068	1074.25
432.29	1083.25
432.512	1054.25
432.734	1101.25
432.956	1117.25
433.178	1095.25
433.4	1109.25
433.622	1116.25
433.844	1090.25
434.066	1078.25
434.287	1094.25
434.509	1104.25
434.731	1105.25
434.953	1128.25
435.175	1191.25
435.397	1150.25
435.618	1109.25
435.84	1103.25
436.062	1100.25
436.284	1120.25
436.505	1089.25
436.727	1114.25
436.949	1113.25
437.17	1097.25
437.392	1093.25
437.614	1070.25
437.835	1037.25
438.057	1068.25
438.278	1036.25
438.5	1070.25
438.721	1069.25
438.943	1086.25
439.165	1124.25
439.386	1116.25
439.608	1149.25
439.829	1172.25
440.05	1144.25
440.272	1178.25
440.493	1145.25
440.715	1129.25
440.936	1129.25
441.158	1161.25
441.379	1159.25
441.6	1211.25
441.822	1211.25
442.043	1249.25
442.264	1270.25
442.486	1214.25
442.707	1172.25
442.928	1185.25
443.149	1172.25
443.371	1186.25
443.592	1179.25
443.813	1197.25
444.034	1174.25
444.255	1222.25
444.476	1199.25
444.698	1282.25
444.919	1284.25
445.14	1305.25
445.361	1264.25
445.582	1238.25
445.803	1186.25
446.024	1211.25
446.245	1181.25
446.466	1173.25
446.687	1173.25
446.908	1141.25
447.129	1130.25
447.35	1137.25
447.571	1134.25
447.792	1131.25
448.013	1083.25
448.234	1088.25
448.455	1104.25
448.675	1070.25
448.896	1146.25
449.117	1142.25
449.338	1210.25
449.559	1237.25
449.779	1169.25
450	1106.25
450.221	1065.25
450.442	1078.25
450.662	1081.25
450.883	1067.25
451.104	1063.25
451.324	1054.25
451.545	1030.25
451.766	1066.25
451.986	1062.25
452.207	1108.25
452.428	1294.25
452.648	1674.25
452.869	1467.25
453.089	1181.25
453.31	1104.25
453.53	1096.25
453.751	1162.25
453.971	1221.25
454.192	1209.25
454.412	1082.25
454.633	1035.25
454.853	1008.25
455.073	1015.25
455.294	994.25
455.514	1006.25
455.734	1008.25
455.955	981.25
456.175	980.25
456.395	997.25
456.616	994.25
456.836	1018.25
457.056	1024.25
457.276	1029.25
457.497	1057.25
457.717	1077.25
457.937	1060.25
458.157	1057.25
458.377	1074.25
458.598	1060.25
458.818	1116.25
459.038	1072.25
459.258	1074.25
459.478	1104.25
459.698	1094.25
459.918	1122.25
460.138	1146.25
460.358	1193.25
460.578	1142.25
460.798	1191.25
461.018	1206.25
461.238	1188.25
461.458	1207.25
461.678	1229.25
461.898	1250.25
462.118	1212.25
462.338	1269.25
462.558	1245.25
462.777	1286.25
462.997	1338.25
463.217	1356.25
463.437	1376.25
463.657	1406.25
463.876	1372.25
464.096	1330.25
464.316	1291.25
464.536	1268.25
464.755	1277.25
464.975	1236.25
465.195	1229.25
465.414	1164.25
465.634	1144.25
465.854	1146.25
466.073	1157.25
466.293	1131.25
466.512	1110.25
466.732	1121.25
466.951	1128.25
467.171	1193.25
467.391	1160.25
467.61	1129.25
467.829	1120.25
468.049	1101.25
468.268	1094.25
468.488	1075.25
468.707	1074.25
468.927	1074.25
469.146	1075.25
469.365	1133.25
469.585	1089.25
469.804	1122.25
470.023	1097.25
470.243	1140.25
470.462	1156.25
470.681	1193.25
470.901	1301.25
471.12	1415.25
471.339	1446.25
471.558	1243.25
471.777	1174.25
471.997	1121.25
472.216	1110.25
472.435	1042.25
472.654	1048.25
472.873	1070.25
473.092	1076.25
473.311	1073.25
473.53	1104.25
473.749	1130.25
473.968	1141.25
474.187	1082.25
474.406	1070.25
474.625	1099.25
474.844	1105.25
475.063	1082.25
475.282	1120.25
475.501	1119.25
475.72	1097.25
475.939	1074.25
476.158	1103.25
476.377	1138.25
476.596	1127.25
476.814	1150.25
477.033	1133.25
477.252	1143.25
477.471	1164.25
477.69	1213.25
477.908	1212.25
478.127	1264.25
478.346	1222.25
478.564	1254.25
478.783	1231.25
479.002	1279.25
479.22	1302.25
479.439	1276.25
479.658	1288.25
479.876	1280.25
480.095	1318.25
480.313	1317.25
480.532	1334.25
480.751	1340.25
480.969	1309.25
481.188	1295.25
481.406	1254.25
481.624	1278.25
481.843	1276.25
482.061	1261.25
482.28	1288.25
482.498	1284.25
482.717	1264.25
482.935	1317.25
483.153	1323.25
483.372	1362.25
483.59	1362.25
483.808	1352.25
484.027	1380.25
484.245	1420.25
484.463	1544.25
484.681	1676.25
484.9	1568.25
485.118	1510.25
485.336	1450.25
485.554	1499.25
485.772	1563.25
485.99	1663.25
486.209	1832.25
486.427	1540.25
486.645	1445.25
486.863	1428.25
487.081	1399.25
487.299	1364.25
487.517	1376.25
487.735	1384.25
487.953	1405.25
488.171	1436.25
488.389	1383.25
488.607	1348.25
488.825	1364.25
489.043	1324.25
489.261	1321.25
489.479	1331.25
489.696	1324.25
489.914	1332.25
490.132	1392.25
490.35	1355.25
490.568	1414.25
490.786	1410.25
491.003	1380.25
491.221	1436.25
491.439	1444.25
491.657	1442.25
