Data from SnStandardFlinnAPT0064_QswitchEnergy10_LIBS07252019.E.O._I.C._HRD10591_15-28-01-974.txt Node
Date: Thu Jul 25 15:28:01 EDT 2019
User: cochatt
Spectrometer: HR+D1059
Trigger mode: 1
Integration Time (sec): 1.000000E-1
Scans to average: 1
Electric dark correction enabled: true
Nonlinearity correction enabled: false
Boxcar width: 0
XAxis mode: Wavelengths
Number of Pixels in Spectrum: 2048
>>>>>Begin Spectral Data<<<<<
223.165	-20.56
223.4	-20.56
223.635	-20.56
223.869	-20.56
224.104	-16.56
224.338	-4.56
224.573	-15.56
224.808	-10.56
225.042	-7.56
225.277	5.44
225.511	8.44
225.746	7.44
225.98	14.44
226.215	0.44
226.449	2.44
226.683	9.44
226.918	27.44
227.152	20.44
227.387	33.44
227.621	35.44
227.856	35.44
228.09	44.44
228.324	49.44
228.559	59.44
228.793	42.44
229.027	47.44
229.262	78.44
229.496	63.44
229.73	80.44
229.964	75.44
230.199	75.44
230.433	72.44
230.667	79.44
230.901	77.44
231.136	72.44
231.37	64.44
231.604	93.44
231.838	104.44
232.072	127.44
232.306	115.44
232.541	105.44
232.775	77.44
233.009	69.44
233.243	89.44
233.477	67.44
233.711	109.44
233.945	108.44
234.179	102.44
234.413	86.44
234.647	87.44
234.881	91.44
235.115	69.44
235.349	115.44
235.583	109.44
235.817	120.44
236.051	123.44
236.285	109.44
236.519	85.44
236.753	84.44
236.987	75.44
237.221	82.44
237.455	80.44
237.689	70.44
237.922	85.44
238.156	82.44
238.39	84.44
238.624	75.44
238.858	83.44
239.091	71.44
239.325	72.44
239.559	91.44
239.793	76.44
240.027	69.44
240.26	87.44
240.494	81.44
240.728	81.44
240.961	90.44
241.195	88.44
241.429	83.44
241.662	82.44
241.896	92.44
242.13	107.44
242.363	123.44
242.597	160.44
242.83	133.44
243.064	139.44
243.298	179.44
243.531	139.44
243.765	106.44
243.998	99.44
244.232	74.44
244.465	83.44
244.699	87.44
244.932	80.44
245.166	88.44
245.399	90.44
245.633	71.44
245.866	85.44
246.099	79.44
246.333	85.44
246.566	68.44
246.8	88.44
247.033	92.44
247.266	88.44
247.5	85.44
247.733	78.44
247.966	85.44
248.2	102.44
248.433	92.44
248.666	123.44
248.899	111.44
249.133	91.44
249.366	87.44
249.599	95.44
249.832	116.44
250.066	119.44
250.299	80.44
250.532	81.44
250.765	64.44
250.998	86.44
251.231	77.44
251.465	80.44
251.698	69.44
251.931	78.44
252.164	64.44
252.397	82.44
252.63	107.44
252.863	90.44
253.096	87.44
253.329	85.44
253.562	92.44
253.795	77.44
254.028	78.44
254.261	84.44
254.494	93.44
254.727	120.44
254.96	141.44
255.193	150.44
255.426	89.44
255.659	93.44
255.892	77.44
256.124	84.44
256.357	87.44
256.59	105.44
256.823	95.44
257.056	108.44
257.289	141.44
257.521	184.44
257.754	115.44
257.987	102.44
258.22	83.44
258.452	80.44
258.685	75.44
258.918	91.44
259.151	83.44
259.383	112.44
259.616	143.44
259.849	159.44
260.081	105.44
260.314	86.44
260.547	80.44
260.779	84.44
261.012	80.44
261.244	88.44
261.477	90.44
261.71	80.44
261.942	88.44
262.175	89.44
262.407	75.44
262.64	84.44
262.872	92.44
263.105	82.44
263.337	83.44
263.57	87.44
263.802	91.44
264.035	79.44
264.267	75.44
264.499	81.44
264.732	81.44
264.964	79.44
265.197	81.44
265.429	82.44
265.661	85.44
265.894	99.44
266.126	121.44
266.358	174.44
266.591	147.44
266.823	101.44
267.055	98.44
267.287	89.44
267.52	72.44
267.752	82.44
267.984	91.44
268.216	75.44
268.448	96.44
268.681	91.44
268.913	88.44
269.145	89.44
269.377	89.44
269.609	81.44
269.841	84.44
270.073	100.44
270.306	125.44
270.538	182.44
270.77	309.44
271.002	393.44
271.234	197.44
271.466	103.44
271.698	78.44
271.93	93.44
272.162	97.44
272.394	100.44
272.626	82.44
272.858	93.44
273.09	85.44
273.322	80.44
273.553	85.44
273.785	90.44
274.017	84.44
274.249	88.44
274.481	81.44
274.713	100.44
274.945	77.44
275.176	91.44
275.408	93.44
275.64	78.44
275.872	87.44
276.104	88.44
276.335	102.44
276.567	110.44
276.799	85.44
277.031	94.44
277.262	91.44
277.494	89.44
277.726	131.44
277.957	190.44
278.189	256.44
278.421	247.44
278.652	194.44
278.884	184.44
279.115	146.44
279.347	120.44
279.579	103.44
279.81	98.44
280.042	109.44
280.273	99.44
280.505	102.44
280.736	112.44
280.968	137.44
281.199	163.44
281.431	243.44
281.662	263.44
281.894	157.44
282.125	118.44
282.356	118.44
282.588	103.44
282.819	108.44
283.051	113.44
283.282	126.44
283.513	184.44
283.745	317.44
283.976	525.44
284.207	795.44
284.439	585.44
284.67	271.44
284.901	271.44
285.132	364.44
285.364	389.44
285.595	232.44
285.826	180.44
286.057	267.44
286.288	406.44
286.52	605.44
286.751	504.44
286.982	209.44
287.213	139.44
287.444	98.44
287.675	97.44
287.906	109.44
288.138	100.44
288.369	92.44
288.6	77.44
288.831	93.44
289.062	92.44
289.293	96.44
289.524	95.44
289.755	96.44
289.986	94.44
290.217	97.44
290.448	102.44
290.679	95.44
290.91	135.44
291.141	189.44
291.371	251.44
291.602	299.44
291.833	222.44
292.064	119.44
292.295	102.44
292.526	93.44
292.757	102.44
292.987	101.44
293.218	98.44
293.449	89.44
293.68	97.44
293.91	100.44
294.141	91.44
294.372	87.44
294.603	96.44
294.833	84.44
295.064	102.44
295.295	78.44
295.525	89.44
295.756	93.44
295.987	110.44
296.217	100.44
296.448	99.44
296.679	91.44
296.909	89.44
297.14	103.44
297.37	112.44
297.601	85.44
297.831	101.44
298.062	91.44
298.292	100.44
298.523	94.44
298.753	85.44
298.984	87.44
299.214	93.44
299.445	122.44
299.675	108.44
299.905	111.44
300.136	119.44
300.366	179.44
300.597	268.44
300.827	458.44
301.057	687.44
301.288	649.44
301.518	254.44
301.748	144.44
301.979	146.44
302.209	122.44
302.439	140.44
302.669	163.44
302.9	264.44
303.13	497.44
303.36	906.44
303.59	1226.44
303.82	833.44
304.051	307.44
304.281	157.44
304.511	129.44
304.741	119.44
304.971	109.44
305.201	102.44
305.431	109.44
305.661	120.44
305.891	95.44
306.121	111.44
306.352	112.44
306.582	108.44
306.812	110.44
307.042	112.44
307.272	108.44
307.502	108.44
307.731	112.44
307.961	103.44
308.191	99.44
308.421	112.44
308.651	101.44
308.881	101.44
309.111	96.44
309.341	94.44
309.571	105.44
309.8	110.44
310.03	100.44
310.26	108.44
310.49	129.44
310.72	113.44
310.949	89.44
311.179	102.44
311.409	118.44
311.639	111.44
311.868	126.44
312.098	107.44
312.328	103.44
312.557	109.44
312.787	118.44
313.017	101.44
313.246	104.44
313.476	123.44
313.706	108.44
313.935	167.44
314.165	187.44
314.394	243.44
314.624	208.44
314.853	135.44
315.083	141.44
315.312	122.44
315.542	139.44
315.771	116.44
316.001	129.44
316.23	144.44
316.46	138.44
316.689	176.44
316.919	263.44
317.148	493.44
317.377	939.44
317.607	1505.44
317.836	1387.44
318.065	547.44
318.295	217.44
318.524	151.44
318.753	120.44
318.983	127.44
319.212	127.44
319.441	118.44
319.67	111.44
319.9	102.44
320.129	117.44
320.358	117.44
320.587	99.44
320.816	129.44
321.046	114.44
321.275	124.44
321.504	126.44
321.733	156.44
321.962	166.44
322.191	148.44
322.42	126.44
322.649	144.44
322.878	120.44
323.108	117.44
323.337	117.44
323.566	129.44
323.795	125.44
324.024	127.44
324.253	130.44
324.482	178.44
324.71	229.44
324.939	291.44
325.168	244.44
325.397	200.44
325.626	272.44
325.855	513.44
326.084	924.44
326.313	1581.44
326.542	1610.44
326.77	613.44
326.999	272.44
327.228	223.44
327.457	224.44
327.686	240.44
327.914	169.44
328.143	143.44
328.372	121.44
328.6	136.44
328.829	111.44
329.058	120.44
329.287	120.44
329.515	115.44
329.744	107.44
329.972	110.44
330.201	125.44
330.43	117.44
330.658	125.44
330.887	120.44
331.115	130.44
331.344	110.44
331.572	121.44
331.801	120.44
332.03	128.44
332.258	138.44
332.486	183.44
332.715	308.44
332.943	509.44
333.172	770.44
333.4	646.44
333.629	254.44
333.857	144.44
334.085	124.44
334.314	127.44
334.542	123.44
334.771	116.44
334.999	116.44
335.227	115.44
335.455	116.44
335.684	125.44
335.912	118.44
336.14	109.44
336.369	111.44
336.597	111.44
336.825	105.44
337.053	102.44
337.281	100.44
337.51	122.44
337.738	109.44
337.966	103.44
338.194	109.44
338.422	115.44
338.65	118.44
338.878	123.44
339.106	112.44
339.334	116.44
339.562	101.44
339.79	111.44
340.018	111.44
340.246	110.44
340.474	105.44
340.702	123.44
340.93	123.44
341.158	112.44
341.386	112.44
341.614	129.44
341.842	118.44
342.07	121.44
342.298	113.44
342.526	114.44
342.754	109.44
342.981	119.44
343.209	112.44
343.437	117.44
343.665	108.44
343.893	108.44
344.12	123.44
344.348	119.44
344.576	112.44
344.804	123.44
345.031	107.44
345.259	112.44
345.487	111.44
345.714	108.44
345.942	101.44
346.17	127.44
346.397	103.44
346.625	116.44
346.853	93.44
347.08	107.44
347.308	111.44
347.535	110.44
347.763	112.44
347.99	108.44
348.218	96.44
348.445	113.44
348.673	149.44
348.9	120.44
349.128	128.44
349.355	116.44
349.583	118.44
349.81	119.44
350.037	127.44
350.265	119.44
350.492	126.44
350.72	97.44
350.947	102.44
351.174	112.44
351.402	105.44
351.629	104.44
351.856	117.44
352.083	100.44
352.311	99.44
352.538	105.44
352.765	103.44
352.992	115.44
353.22	93.44
353.447	95.44
353.674	113.44
353.901	95.44
354.128	109.44
354.355	96.44
354.583	90.44
354.81	91.44
355.037	120.44
355.264	100.44
355.491	93.44
355.718	118.44
355.945	117.44
356.172	109.44
356.399	88.44
356.626	94.44
356.853	104.44
357.08	93.44
357.307	109.44
357.534	102.44
357.761	114.44
357.988	97.44
358.215	113.44
358.441	111.44
358.668	120.44
358.895	110.44
359.122	109.44
359.349	109.44
359.576	107.44
359.802	101.44
360.029	129.44
360.256	107.44
360.483	104.44
360.709	114.44
360.936	115.44
361.163	96.44
361.39	100.44
361.616	110.44
361.843	100.44
362.07	129.44
362.296	115.44
362.523	103.44
362.749	111.44
362.976	107.44
363.203	103.44
363.429	103.44
363.656	117.44
363.882	108.44
364.109	110.44
364.335	113.44
364.562	101.44
364.788	108.44
365.015	108.44
365.241	141.44
365.468	195.44
365.694	257.44
365.92	222.44
366.147	116.44
366.373	109.44
366.599	105.44
366.826	103.44
367.052	102.44
367.278	93.44
367.505	103.44
367.731	109.44
367.957	101.44
368.184	107.44
368.41	119.44
368.636	111.44
368.862	106.44
369.089	104.44
369.315	98.44
369.541	112.44
369.767	104.44
369.993	115.44
370.219	98.44
370.445	109.44
370.672	117.44
370.898	112.44
371.124	116.44
371.35	96.44
371.576	95.44
371.802	101.44
372.028	118.44
372.254	112.44
372.48	122.44
372.706	123.44
372.932	95.44
373.158	111.44
373.384	110.44
373.61	117.44
373.835	127.44
374.061	115.44
374.287	96.44
374.513	118.44
374.739	127.44
374.965	99.44
375.191	109.44
375.416	121.44
375.642	103.44
375.868	123.44
376.094	103.44
376.319	115.44
376.545	100.44
376.771	109.44
376.997	111.44
377.222	116.44
377.448	109.44
377.674	107.44
377.899	107.44
378.125	119.44
378.35	120.44
378.576	110.44
378.802	124.44
379.027	108.44
379.253	144.44
379.478	183.44
379.704	311.44
379.929	798.44
380.155	1648.44
380.38	1667.44
380.606	521.44
380.831	192.44
381.057	125.44
381.282	111.44
381.507	123.44
381.733	108.44
381.958	96.44
382.184	103.44
382.409	101.44
382.634	98.44
382.86	101.44
383.085	115.44
383.31	113.44
383.535	115.44
383.761	111.44
383.986	100.44
384.211	97.44
384.436	99.44
384.662	100.44
384.887	112.44
385.112	107.44
385.337	113.44
385.562	111.44
385.787	109.44
386.013	118.44
386.238	97.44
386.463	88.44
386.688	97.44
386.913	114.44
387.138	101.44
387.363	109.44
387.588	107.44
387.813	114.44
388.038	111.44
388.263	107.44
388.488	103.44
388.713	112.44
388.938	102.44
389.163	96.44
389.387	98.44
389.612	99.44
389.837	95.44
390.062	114.44
390.287	86.44
390.512	100.44
390.736	89.44
390.961	104.44
391.186	93.44
391.411	108.44
391.636	99.44
391.86	98.44
392.085	86.44
392.31	104.44
392.534	110.44
392.759	96.44
392.984	108.44
393.208	104.44
393.433	133.44
393.658	143.44
393.882	104.44
394.107	109.44
394.331	93.44
394.556	100.44
394.78	87.44
395.005	97.44
395.229	114.44
395.454	104.44
395.678	87.44
395.903	100.44
396.127	107.44
396.352	111.44
396.576	123.44
396.801	121.44
397.025	123.44
397.249	111.44
397.474	91.44
397.698	103.44
397.922	98.44
398.147	93.44
398.371	101.44
398.595	98.44
398.82	90.44
399.044	92.44
399.268	106.44
399.492	114.44
399.717	98.44
399.941	95.44
400.165	99.44
400.389	93.44
400.613	97.44
400.837	96.44
401.062	97.44
401.286	88.44
401.51	98.44
401.734	92.44
401.958	91.44
402.182	86.44
402.406	102.44
402.63	98.44
402.854	101.44
403.078	90.44
403.302	90.44
403.526	97.44
403.75	105.44
403.974	96.44
404.198	111.44
404.422	109.44
404.645	101.44
404.869	107.44
405.093	87.44
405.317	97.44
405.541	111.44
405.765	123.44
405.988	151.44
406.212	119.44
406.436	93.44
406.66	104.44
406.883	90.44
407.107	97.44
407.331	91.44
407.555	89.44
407.778	103.44
408.002	97.44
408.226	92.44
408.449	81.44
408.673	102.44
408.896	96.44
409.12	91.44
409.344	96.44
409.567	91.44
409.791	100.44
410.014	97.44
410.238	114.44
410.461	113.44
410.685	82.44
410.908	99.44
411.132	104.44
411.355	101.44
411.578	100.44
411.802	95.44
412.025	101.44
412.249	99.44
412.472	96.44
412.695	99.44
412.919	96.44
413.142	103.44
413.365	91.44
413.589	100.44
413.812	109.44
414.035	106.44
414.258	95.44
414.482	101.44
414.705	100.44
414.928	105.44
415.151	104.44
415.374	95.44
415.597	100.44
415.821	91.44
416.044	96.44
416.267	93.44
416.49	98.44
416.713	98.44
416.936	98.44
417.159	91.44
417.382	108.44
417.605	87.44
417.828	99.44
418.051	96.44
418.274	97.44
418.497	96.44
418.72	96.44
418.943	112.44
419.166	98.44
419.389	109.44
419.611	116.44
419.834	107.44
420.057	99.44
420.28	108.44
420.503	111.44
420.726	95.44
420.948	88.44
421.171	102.44
421.394	95.44
421.617	96.44
421.839	96.44
422.062	107.44
422.285	93.44
422.507	101.44
422.73	124.44
422.953	129.44
423.175	97.44
423.398	105.44
423.621	98.44
423.843	85.44
424.066	83.44
424.288	90.44
424.511	107.44
424.733	109.44
424.956	84.44
425.178	95.44
425.401	98.44
425.623	100.44
425.846	95.44
426.068	86.44
426.291	103.44
426.513	90.44
426.735	103.44
426.958	98.44
427.18	85.44
427.402	111.44
427.625	94.44
427.847	109.44
428.069	100.44
428.292	91.44
428.514	94.44
428.736	86.44
428.958	112.44
429.181	84.44
429.403	121.44
429.625	87.44
429.847	97.44
430.069	110.44
430.292	115.44
430.514	116.44
430.736	102.44
430.958	88.44
431.18	93.44
431.402	99.44
431.624	96.44
431.846	103.44
432.068	102.44
432.29	94.44
432.512	107.44
432.734	91.44
432.956	103.44
433.178	103.44
433.4	88.44
433.622	86.44
433.844	91.44
434.066	97.44
434.287	91.44
434.509	86.44
434.731	98.44
434.953	94.44
435.175	79.44
435.397	96.44
435.618	93.44
435.84	83.44
436.062	95.44
436.284	86.44
436.505	84.44
436.727	92.44
436.949	95.44
437.17	92.44
437.392	88.44
437.614	91.44
437.835	79.44
438.057	84.44
438.278	104.44
438.5	81.44
438.721	97.44
438.943	101.44
439.165	109.44
439.386	105.44
439.608	81.44
439.829	92.44
440.05	115.44
440.272	127.44
440.493	88.44
440.715	103.44
440.936	100.44
441.158	98.44
441.379	109.44
441.6	91.44
441.822	100.44
442.043	106.44
442.264	126.44
442.486	119.44
442.707	103.44
442.928	104.44
443.149	97.44
443.371	88.44
443.592	102.44
443.813	92.44
444.034	92.44
444.255	91.44
444.476	91.44
444.698	107.44
444.919	84.44
445.14	196.44
445.361	134.44
445.582	95.44
445.803	82.44
446.024	77.44
446.245	105.44
446.466	115.44
446.687	118.44
446.908	103.44
447.129	97.44
447.35	85.44
447.571	95.44
447.792	101.44
448.013	96.44
448.234	101.44
448.455	88.44
448.675	78.44
448.896	96.44
449.117	102.44
449.338	134.44
449.559	149.44
449.779	127.44
450	111.44
450.221	99.44
450.442	117.44
450.662	111.44
450.883	117.44
451.104	110.44
451.324	99.44
451.545	113.44
451.766	131.44
451.986	135.44
452.207	224.44
452.428	577.44
452.648	1410.44
452.869	802.44
453.089	205.44
453.31	117.44
453.53	127.44
453.751	148.44
453.971	161.44
454.192	163.44
454.412	105.44
454.633	114.44
454.853	95.44
455.073	98.44
455.294	95.44
455.514	107.44
455.734	94.44
455.955	95.44
456.175	102.44
456.395	98.44
456.616	100.44
456.836	95.44
457.056	85.44
457.276	89.44
457.497	110.44
457.717	127.44
457.937	101.44
458.157	97.44
458.377	87.44
458.598	84.44
458.818	87.44
459.038	80.44
459.258	87.44
459.478	102.44
459.698	90.44
459.918	94.44
460.138	86.44
460.358	87.44
460.578	72.44
460.798	95.44
461.018	74.44
461.238	97.44
461.458	93.44
461.678	102.44
461.898	86.44
462.118	97.44
462.338	99.44
462.558	107.44
462.777	102.44
462.997	103.44
463.217	105.44
463.437	137.44
463.657	172.44
463.876	178.44
464.096	122.44
464.316	117.44
464.536	88.44
464.755	83.44
464.975	86.44
465.195	102.44
465.414	85.44
465.634	77.44
465.854	78.44
466.073	98.44
466.293	91.44
466.512	93.44
466.732	91.44
466.951	109.44
467.171	141.44
467.391	138.44
467.61	108.44
467.829	112.44
468.049	93.44
468.268	98.44
468.488	89.44
468.707	92.44
468.927	88.44
469.146	107.44
469.365	96.44
469.585	91.44
469.804	101.44
470.023	97.44
470.243	111.44
470.462	109.44
470.681	92.44
470.901	139.44
471.12	188.44
471.339	188.44
471.558	133.44
471.777	101.44
471.997	116.44
472.216	102.44
472.435	96.44
472.654	97.44
472.873	87.44
473.092	80.44
473.311	94.44
473.53	100.44
473.749	103.44
473.968	93.44
474.187	90.44
474.406	88.44
474.625	87.44
474.844	97.44
475.063	98.44
475.282	73.44
475.501	85.44
475.72	94.44
475.939	79.44
476.158	110.44
476.377	124.44
476.596	102.44
476.814	111.44
477.033	102.44
477.252	88.44
477.471	98.44
477.69	88.44
477.908	88.44
478.127	97.44
478.346	114.44
478.564	92.44
478.783	97.44
479.002	94.44
479.22	105.44
479.439	92.44
479.658	87.44
479.876	94.44
480.095	100.44
480.313	88.44
480.532	96.44
480.751	87.44
480.969	87.44
481.188	104.44
481.406	96.44
481.624	115.44
481.843	127.44
482.061	118.44
482.28	87.44
482.498	94.44
482.717	105.44
482.935	94.44
483.153	99.44
483.372	102.44
483.59	107.44
483.808	100.44
484.027	100.44
484.245	128.44
484.463	163.44
484.681	233.44
484.9	160.44
485.118	117.44
485.336	119.44
485.554	113.44
485.772	121.44
485.99	165.44
486.209	239.44
486.427	179.44
486.645	109.44
486.863	102.44
487.081	101.44
487.299	91.44
487.517	92.44
487.735	98.44
487.953	117.44
488.171	90.44
488.389	99.44
488.607	91.44
488.825	87.44
489.043	103.44
489.261	108.44
489.479	96.44
489.696	93.44
489.914	100.44
490.132	91.44
490.35	94.44
490.568	97.44
490.786	105.44
491.003	106.44
491.221	95.44
491.439	100.44
491.657	100.44
491.874	121.44
492.092	87.44
492.31	105.44
492.527	100.44
492.745	100.44
492.963	109.44
493.18	100.44
493.398	88.44
493.615	102.44
493.833	113.44
494.05	95.44
494.268	88.44
494.485	102.44
494.703	97.44
494.92	110.44
495.138	119.44
495.355	109.44
495.573	104.44
495.79	95.44
496.008	102.44
496.225	95.44
496.442	100.44
496.66	118.44
496.877	145.44
497.094	137.44
497.312	102.44
497.529	80.44
497.746	96.44
497.963	97.44
498.181	110.44
498.398	109.44
498.615	110.44
498.832	97.44
499.049	112.44
499.267	140.44
499.484	154.44
499.701	110.44
499.918	102.44
500.135	91.44
500.352	89.44
500.569	109.44
500.786	89.44
501.003	105.44
501.22	103.44
501.437	102.44
501.654	88.44
501.871	98.44
502.088	92.44
502.305	103.44
502.522	98.44
502.739	95.44
502.956	107.44
503.172	93.44
503.389	100.44
503.606	93.44
503.823	107.44
504.04	102.44
504.256	109.44
504.473	97.44
504.69	104.44
504.907	114.44
505.123	123.44
505.34	113.44
505.557	111.44
505.773	97.44
505.99	86.44
506.207	121.44
506.423	109.44
506.64	96.44
506.856	101.44
507.073	93.44
507.289	95.44
507.506	113.44
507.722	91.44
507.939	106.44
508.155	113.44
508.372	112.44
508.588	96.44
508.805	97.44
