Data from SnStandardFlinnAPT0064_QswitchEnergy10_LIBS07252019.E.O._I.C._HRD10591_15-27-22-973.txt Node
Date: Thu Jul 25 15:27:22 EDT 2019
User: cochatt
Spectrometer: HR+D1059
Trigger mode: 1
Integration Time (sec): 1.000000E-1
Scans to average: 1
Electric dark correction enabled: true
Nonlinearity correction enabled: false
Boxcar width: 0
XAxis mode: Wavelengths
Number of Pixels in Spectrum: 2048
>>>>>Begin Spectral Data<<<<<
223.165	-15.75
223.4	-15.75
223.635	-15.75
223.869	-18.75
224.104	-28.75
224.338	-21.75
224.573	-14.75
224.808	-15.75
225.042	-13.75
225.277	1.25
225.511	9.25
225.746	13.25
225.98	0.25
226.215	11.25
226.449	19.25
226.683	29.25
226.918	9.25
227.152	36.25
227.387	30.25
227.621	44.25
227.856	45.25
228.09	34.25
228.324	47.25
228.559	64.25
228.793	44.25
229.027	75.25
229.262	76.25
229.496	78.25
229.73	69.25
229.964	71.25
230.199	58.25
230.433	85.25
230.667	73.25
230.901	81.25
231.136	94.25
231.37	72.25
231.604	96.25
231.838	102.25
232.072	98.25
232.306	119.25
232.541	97.25
232.775	87.25
233.009	71.25
233.243	99.25
233.477	82.25
233.711	95.25
233.945	97.25
234.179	100.25
234.413	73.25
234.647	88.25
234.881	83.25
235.115	83.25
235.349	106.25
235.583	96.25
235.817	118.25
236.051	127.25
236.285	100.25
236.519	82.25
236.753	84.25
236.987	78.25
237.221	83.25
237.455	87.25
237.689	82.25
237.922	81.25
238.156	78.25
238.39	78.25
238.624	62.25
238.858	74.25
239.091	81.25
239.325	66.25
239.559	78.25
239.793	84.25
240.027	78.25
240.26	66.25
240.494	77.25
240.728	76.25
240.961	78.25
241.195	88.25
241.429	93.25
241.662	72.25
241.896	92.25
242.13	96.25
242.363	121.25
242.597	159.25
242.83	129.25
243.064	126.25
243.298	159.25
243.531	126.25
243.765	94.25
243.998	82.25
244.232	96.25
244.465	93.25
244.699	99.25
244.932	82.25
245.166	82.25
245.399	80.25
245.633	85.25
245.866	80.25
246.099	85.25
246.333	80.25
246.566	77.25
246.8	83.25
247.033	85.25
247.266	70.25
247.5	81.25
247.733	85.25
247.966	80.25
248.2	89.25
248.433	96.25
248.666	117.25
248.899	110.25
249.133	95.25
249.366	87.25
249.599	113.25
249.832	122.25
250.066	121.25
250.299	97.25
250.532	88.25
250.765	73.25
250.998	72.25
251.231	80.25
251.465	67.25
251.698	93.25
251.931	80.25
252.164	89.25
252.397	94.25
252.63	106.25
252.863	99.25
253.096	77.25
253.329	76.25
253.562	84.25
253.795	96.25
254.028	88.25
254.261	85.25
254.494	89.25
254.727	116.25
254.96	146.25
255.193	131.25
255.426	84.25
255.659	112.25
255.892	105.25
256.124	95.25
256.357	68.25
256.59	87.25
256.823	80.25
257.056	116.25
257.289	130.25
257.521	165.25
257.754	121.25
257.987	85.25
258.22	96.25
258.452	77.25
258.685	80.25
258.918	90.25
259.151	88.25
259.383	107.25
259.616	132.25
259.849	125.25
260.081	89.25
260.314	96.25
260.547	88.25
260.779	79.25
261.012	88.25
261.244	85.25
261.477	87.25
261.71	82.25
261.942	69.25
262.175	82.25
262.407	79.25
262.64	91.25
262.872	82.25
263.105	74.25
263.337	87.25
263.57	79.25
263.802	87.25
264.035	95.25
264.267	88.25
264.499	74.25
264.732	87.25
264.964	82.25
265.197	78.25
265.429	93.25
265.661	89.25
265.894	110.25
266.126	133.25
266.358	140.25
266.591	132.25
266.823	97.25
267.055	88.25
267.287	74.25
267.52	90.25
267.752	86.25
267.984	94.25
268.216	86.25
268.448	104.25
268.681	86.25
268.913	82.25
269.145	72.25
269.377	92.25
269.609	91.25
269.841	95.25
270.073	89.25
270.306	121.25
270.538	182.25
270.77	289.25
271.002	356.25
271.234	168.25
271.466	120.25
271.698	74.25
271.93	91.25
272.162	93.25
272.394	92.25
272.626	105.25
272.858	84.25
273.09	95.25
273.322	86.25
273.553	86.25
273.785	86.25
274.017	78.25
274.249	88.25
274.481	86.25
274.713	90.25
274.945	79.25
275.176	83.25
275.408	83.25
275.64	91.25
275.872	95.25
276.104	93.25
276.335	91.25
276.567	85.25
276.799	85.25
277.031	86.25
277.262	99.25
277.494	102.25
277.726	118.25
277.957	172.25
278.189	217.25
278.421	210.25
278.652	172.25
278.884	171.25
279.115	138.25
279.347	116.25
279.579	103.25
279.81	94.25
280.042	98.25
280.273	96.25
280.505	103.25
280.736	114.25
280.968	110.25
281.199	169.25
281.431	230.25
281.662	252.25
281.894	136.25
282.125	106.25
282.356	89.25
282.588	111.25
282.819	120.25
283.051	107.25
283.282	131.25
283.513	193.25
283.745	282.25
283.976	481.25
284.207	696.25
284.439	563.25
284.67	267.25
284.901	248.25
285.132	339.25
285.364	354.25
285.595	212.25
285.826	148.25
286.057	241.25
286.288	397.25
286.52	558.25
286.751	464.25
286.982	185.25
287.213	121.25
287.444	114.25
287.675	93.25
287.906	100.25
288.138	94.25
288.369	98.25
288.6	96.25
288.831	102.25
289.062	105.25
289.293	105.25
289.524	89.25
289.755	83.25
289.986	87.25
290.217	87.25
290.448	98.25
290.679	104.25
290.91	137.25
291.141	149.25
291.371	214.25
291.602	248.25
291.833	177.25
292.064	99.25
292.295	99.25
292.526	109.25
292.757	96.25
292.987	95.25
293.218	91.25
293.449	108.25
293.68	101.25
293.91	91.25
294.141	93.25
294.372	94.25
294.603	103.25
294.833	99.25
295.064	104.25
295.295	109.25
295.525	99.25
295.756	92.25
295.987	89.25
296.217	93.25
296.448	89.25
296.679	86.25
296.909	81.25
297.14	95.25
297.37	87.25
297.601	96.25
297.831	92.25
298.062	91.25
298.292	96.25
298.523	97.25
298.753	105.25
298.984	103.25
299.214	104.25
299.445	114.25
299.675	110.25
299.905	120.25
300.136	118.25
300.366	168.25
300.597	261.25
300.827	430.25
301.057	658.25
301.288	574.25
301.518	250.25
301.748	146.25
301.979	129.25
302.209	122.25
302.439	131.25
302.669	157.25
302.9	246.25
303.13	457.25
303.36	825.25
303.59	1103.25
303.82	782.25
304.051	256.25
304.281	146.25
304.511	116.25
304.741	110.25
304.971	99.25
305.201	113.25
305.431	105.25
305.661	93.25
305.891	99.25
306.121	109.25
306.352	97.25
306.582	92.25
306.812	124.25
307.042	102.25
307.272	105.25
307.502	105.25
307.731	112.25
307.961	98.25
308.191	103.25
308.421	95.25
308.651	108.25
308.881	92.25
309.111	90.25
309.341	92.25
309.571	106.25
309.8	96.25
310.03	100.25
310.26	93.25
310.49	92.25
310.72	98.25
310.949	106.25
311.179	106.25
311.409	105.25
311.639	95.25
311.868	104.25
312.098	98.25
312.328	105.25
312.557	115.25
312.787	96.25
313.017	113.25
313.246	106.25
313.476	109.25
313.706	126.25
313.935	144.25
314.165	172.25
314.394	210.25
314.624	160.25
314.853	124.25
315.083	112.25
315.312	129.25
315.542	124.25
315.771	119.25
316.001	119.25
316.23	124.25
316.46	136.25
316.689	161.25
316.919	249.25
317.148	465.25
317.377	841.25
317.607	1369.25
317.836	1288.25
318.065	478.25
318.295	194.25
318.524	135.25
318.753	137.25
318.983	116.25
319.212	118.25
319.441	119.25
319.67	105.25
319.9	96.25
320.129	99.25
320.358	120.25
320.587	105.25
320.816	111.25
321.046	104.25
321.275	126.25
321.504	133.25
321.733	136.25
321.962	145.25
322.191	162.25
322.42	135.25
322.649	122.25
322.878	120.25
323.108	122.25
323.337	126.25
323.566	128.25
323.795	121.25
324.024	117.25
324.253	135.25
324.482	149.25
324.71	209.25
324.939	276.25
325.168	216.25
325.397	192.25
325.626	249.25
325.855	454.25
326.084	869.25
326.313	1474.25
326.542	1467.25
326.77	556.25
326.999	236.25
327.228	201.25
327.457	212.25
327.686	200.25
327.914	144.25
328.143	127.25
328.372	119.25
328.6	132.25
328.829	113.25
329.058	102.25
329.287	99.25
329.515	111.25
329.744	117.25
329.972	113.25
330.201	114.25
330.43	94.25
330.658	104.25
330.887	102.25
331.115	109.25
331.344	116.25
331.572	105.25
331.801	120.25
332.03	115.25
332.258	118.25
332.486	158.25
332.715	276.25
332.943	455.25
333.172	715.25
333.4	631.25
333.629	206.25
333.857	142.25
334.085	118.25
334.314	121.25
334.542	119.25
334.771	108.25
334.999	108.25
335.227	133.25
335.455	128.25
335.684	118.25
335.912	119.25
336.14	117.25
336.369	124.25
336.597	119.25
336.825	105.25
337.053	120.25
337.281	101.25
337.51	122.25
337.738	103.25
337.966	110.25
338.194	113.25
338.422	104.25
338.65	97.25
338.878	101.25
339.106	115.25
339.334	122.25
339.562	130.25
339.79	112.25
340.018	104.25
340.246	115.25
340.474	112.25
340.702	108.25
340.93	106.25
341.158	111.25
341.386	114.25
341.614	121.25
341.842	120.25
342.07	122.25
342.298	114.25
342.526	109.25
342.754	93.25
342.981	122.25
343.209	122.25
343.437	110.25
343.665	108.25
343.893	108.25
344.12	113.25
344.348	102.25
344.576	99.25
344.804	104.25
345.031	93.25
345.259	104.25
345.487	117.25
345.714	106.25
345.942	93.25
346.17	113.25
346.397	104.25
346.625	95.25
346.853	112.25
347.08	101.25
347.308	110.25
347.535	108.25
347.763	100.25
347.99	103.25
348.218	95.25
348.445	97.25
348.673	103.25
348.9	129.25
349.128	120.25
349.355	114.25
349.583	125.25
349.81	112.25
350.037	108.25
350.265	110.25
350.492	110.25
350.72	101.25
350.947	112.25
351.174	104.25
351.402	104.25
351.629	109.25
351.856	116.25
352.083	96.25
352.311	112.25
352.538	101.25
352.765	105.25
352.992	95.25
353.22	100.25
353.447	110.25
353.674	101.25
353.901	110.25
354.128	109.25
354.355	109.25
354.583	111.25
354.81	110.25
355.037	96.25
355.264	113.25
355.491	99.25
355.718	112.25
355.945	109.25
356.172	101.25
356.399	98.25
356.626	87.25
356.853	111.25
357.08	94.25
357.307	96.25
357.534	101.25
357.761	100.25
357.988	85.25
358.215	104.25
358.441	122.25
358.668	101.25
358.895	104.25
359.122	103.25
359.349	84.25
359.576	111.25
359.802	120.25
360.029	112.25
360.256	121.25
360.483	105.25
360.709	121.25
360.936	119.25
361.163	93.25
361.39	98.25
361.616	104.25
361.843	103.25
362.07	102.25
362.296	104.25
362.523	102.25
362.749	110.25
362.976	102.25
363.203	105.25
363.429	95.25
363.656	105.25
363.882	97.25
364.109	121.25
364.335	105.25
364.562	104.25
364.788	95.25
365.015	120.25
365.241	133.25
365.468	176.25
365.694	215.25
365.92	184.25
366.147	120.25
366.373	97.25
366.599	101.25
366.826	92.25
367.052	110.25
367.278	95.25
367.505	96.25
367.731	102.25
367.957	97.25
368.184	80.25
368.41	114.25
368.636	118.25
368.862	104.25
369.089	91.25
369.315	99.25
369.541	110.25
369.767	108.25
369.993	96.25
370.219	103.25
370.445	106.25
370.672	111.25
370.898	118.25
371.124	106.25
371.35	101.25
371.576	99.25
371.802	110.25
372.028	114.25
372.254	109.25
372.48	92.25
372.706	124.25
372.932	112.25
373.158	104.25
373.384	112.25
373.61	110.25
373.835	116.25
374.061	124.25
374.287	112.25
374.513	93.25
374.739	99.25
374.965	87.25
375.191	104.25
375.416	111.25
375.642	114.25
375.868	113.25
376.094	101.25
376.319	100.25
376.545	112.25
376.771	116.25
376.997	104.25
377.222	86.25
377.448	115.25
377.674	102.25
377.899	116.25
378.125	104.25
378.35	116.25
378.576	113.25
378.802	120.25
379.027	126.25
379.253	139.25
379.478	161.25
379.704	287.25
379.929	709.25
380.155	1470.25
380.38	1497.25
380.606	496.25
380.831	184.25
381.057	120.25
381.282	91.25
381.507	110.25
381.733	120.25
381.958	109.25
382.184	112.25
382.409	99.25
382.634	113.25
382.86	105.25
383.085	101.25
383.31	92.25
383.535	98.25
383.761	104.25
383.986	114.25
384.211	108.25
384.436	100.25
384.662	100.25
384.887	110.25
385.112	88.25
385.337	100.25
385.562	99.25
385.787	98.25
386.013	89.25
386.238	99.25
386.463	101.25
386.688	94.25
386.913	99.25
387.138	98.25
387.363	105.25
387.588	98.25
387.813	86.25
388.038	117.25
388.263	96.25
388.488	97.25
388.713	104.25
388.938	98.25
389.163	89.25
389.387	100.25
389.612	102.25
389.837	103.25
390.062	111.25
390.287	91.25
390.512	91.25
390.736	118.25
390.961	98.25
391.186	96.25
391.411	97.25
391.636	95.25
391.86	109.25
392.085	90.25
392.31	95.25
392.534	87.25
392.759	108.25
392.984	116.25
393.208	106.25
393.433	128.25
393.658	114.25
393.882	72.25
394.107	81.25
394.331	92.25
394.556	102.25
394.78	100.25
395.005	111.25
395.229	100.25
395.454	96.25
395.678	102.25
395.903	97.25
396.127	117.25
396.352	104.25
396.576	102.25
396.801	97.25
397.025	101.25
397.249	92.25
397.474	92.25
397.698	84.25
397.922	97.25
398.147	86.25
398.371	101.25
398.595	93.25
398.82	90.25
399.044	100.25
399.268	91.25
399.492	91.25
399.717	93.25
399.941	106.25
400.165	85.25
400.389	89.25
400.613	94.25
400.837	90.25
401.062	100.25
401.286	104.25
401.51	93.25
401.734	98.25
401.958	104.25
402.182	89.25
402.406	91.25
402.63	84.25
402.854	97.25
403.078	90.25
403.302	96.25
403.526	103.25
403.75	83.25
403.974	94.25
404.198	109.25
404.422	104.25
404.645	89.25
404.869	96.25
405.093	103.25
405.317	91.25
405.541	102.25
405.765	129.25
405.988	122.25
406.212	112.25
406.436	104.25
406.66	84.25
406.883	103.25
407.107	95.25
407.331	108.25
407.555	94.25
407.778	95.25
408.002	101.25
408.226	96.25
408.449	110.25
408.673	93.25
408.896	83.25
409.12	101.25
409.344	108.25
409.567	99.25
409.791	92.25
410.014	98.25
410.238	107.25
410.461	102.25
410.685	95.25
410.908	99.25
411.132	99.25
411.355	96.25
411.578	105.25
411.802	82.25
412.025	89.25
412.249	88.25
412.472	95.25
412.695	102.25
412.919	99.25
413.142	95.25
413.365	97.25
413.589	97.25
413.812	120.25
414.035	113.25
414.258	108.25
414.482	114.25
414.705	93.25
414.928	104.25
415.151	104.25
415.374	94.25
415.597	102.25
415.821	96.25
416.044	95.25
416.267	105.25
416.49	88.25
416.713	88.25
416.936	88.25
417.159	98.25
417.382	90.25
417.605	108.25
417.828	104.25
418.051	96.25
418.274	88.25
418.497	97.25
418.72	97.25
418.943	92.25
419.166	99.25
419.389	110.25
419.611	101.25
419.834	94.25
420.057	97.25
420.28	99.25
420.503	98.25
420.726	94.25
420.948	104.25
421.171	96.25
421.394	110.25
421.617	97.25
421.839	92.25
422.062	95.25
422.285	94.25
422.507	97.25
422.73	113.25
422.953	121.25
423.175	110.25
423.398	98.25
423.621	100.25
423.843	85.25
424.066	91.25
424.288	105.25
424.511	87.25
424.733	97.25
424.956	96.25
425.178	98.25
425.401	97.25
425.623	97.25
425.846	97.25
426.068	94.25
426.291	100.25
426.513	105.25
426.735	111.25
426.958	92.25
427.18	96.25
427.402	82.25
427.625	104.25
427.847	101.25
428.069	96.25
428.292	102.25
428.514	90.25
428.736	101.25
428.958	90.25
429.181	89.25
429.403	88.25
429.625	91.25
429.847	104.25
430.069	105.25
430.292	98.25
430.514	97.25
430.736	104.25
430.958	99.25
431.18	87.25
431.402	88.25
431.624	97.25
431.846	82.25
432.068	99.25
432.29	105.25
432.512	92.25
432.734	100.25
432.956	100.25
433.178	89.25
433.4	98.25
433.622	89.25
433.844	99.25
434.066	95.25
434.287	93.25
434.509	90.25
434.731	94.25
434.953	91.25
435.175	101.25
435.397	96.25
435.618	92.25
435.84	74.25
436.062	94.25
436.284	102.25
436.505	73.25
436.727	93.25
436.949	92.25
437.17	88.25
437.392	110.25
437.614	105.25
437.835	94.25
438.057	97.25
438.278	84.25
438.5	82.25
438.721	93.25
438.943	102.25
439.165	98.25
439.386	112.25
439.608	103.25
439.829	95.25
440.05	110.25
440.272	108.25
440.493	92.25
440.715	104.25
440.936	95.25
441.158	102.25
441.379	81.25
441.6	106.25
441.822	104.25
442.043	101.25
442.264	128.25
442.486	112.25
442.707	89.25
442.928	103.25
443.149	101.25
443.371	87.25
443.592	105.25
443.813	98.25
444.034	98.25
444.255	105.25
444.476	80.25
444.698	95.25
444.919	96.25
445.14	184.25
445.361	150.25
445.582	93.25
445.803	94.25
446.024	106.25
446.245	108.25
446.466	84.25
446.687	106.25
446.908	93.25
447.129	99.25
447.35	87.25
447.571	88.25
447.792	76.25
448.013	87.25
448.234	91.25
448.455	93.25
448.675	98.25
448.896	101.25
449.117	106.25
449.338	115.25
449.559	147.25
449.779	133.25
450	104.25
450.221	90.25
450.442	104.25
450.662	102.25
450.883	83.25
451.104	115.25
451.324	135.25
451.545	97.25
451.766	124.25
451.986	128.25
452.207	203.25
452.428	492.25
452.648	1184.25
452.869	697.25
453.089	178.25
453.31	109.25
453.53	122.25
453.751	135.25
453.971	149.25
454.192	156.25
454.412	119.25
454.633	95.25
454.853	100.25
455.073	93.25
455.294	94.25
455.514	100.25
455.734	79.25
455.955	110.25
456.175	94.25
456.395	86.25
456.616	94.25
456.836	119.25
457.056	101.25
457.276	103.25
457.497	110.25
457.717	114.25
457.937	96.25
458.157	95.25
458.377	82.25
458.598	81.25
458.818	87.25
459.038	83.25
459.258	85.25
459.478	88.25
459.698	85.25
459.918	85.25
460.138	89.25
460.358	91.25
460.578	98.25
460.798	92.25
461.018	97.25
461.238	93.25
461.458	88.25
461.678	74.25
461.898	94.25
462.118	94.25
462.338	87.25
462.558	101.25
462.777	104.25
462.997	103.25
463.217	98.25
463.437	128.25
463.657	169.25
463.876	168.25
464.096	115.25
464.316	99.25
464.536	84.25
464.755	94.25
464.975	81.25
465.195	88.25
465.414	93.25
465.634	88.25
465.854	90.25
466.073	103.25
466.293	95.25
466.512	104.25
466.732	104.25
466.951	115.25
467.171	120.25
467.391	130.25
467.61	101.25
467.829	80.25
468.049	100.25
468.268	94.25
468.488	105.25
468.707	101.25
468.927	84.25
469.146	88.25
469.365	95.25
469.585	108.25
469.804	85.25
470.023	111.25
470.243	113.25
470.462	93.25
470.681	114.25
470.901	144.25
471.12	178.25
471.339	192.25
471.558	128.25
471.777	89.25
471.997	101.25
472.216	113.25
472.435	84.25
472.654	96.25
472.873	87.25
473.092	93.25
473.311	94.25
473.53	93.25
473.749	96.25
473.968	97.25
474.187	108.25
474.406	80.25
474.625	90.25
474.844	99.25
475.063	80.25
475.282	90.25
475.501	98.25
475.72	93.25
475.939	86.25
476.158	81.25
476.377	114.25
476.596	119.25
476.814	103.25
477.033	93.25
477.252	91.25
477.471	100.25
477.69	96.25
477.908	101.25
478.127	100.25
478.346	73.25
478.564	90.25
478.783	101.25
479.002	94.25
479.22	101.25
479.439	80.25
479.658	96.25
479.876	102.25
480.095	86.25
480.313	94.25
480.532	101.25
480.751	87.25
480.969	94.25
481.188	91.25
481.406	95.25
481.624	100.25
481.843	114.25
482.061	113.25
482.28	97.25
482.498	96.25
482.717	97.25
482.935	103.25
483.153	109.25
483.372	104.25
483.59	88.25
483.808	94.25
484.027	96.25
484.245	112.25
484.463	168.25
484.681	221.25
484.9	159.25
485.118	119.25
485.336	107.25
485.554	94.25
485.772	138.25
485.99	179.25
486.209	233.25
486.427	155.25
486.645	116.25
486.863	114.25
487.081	93.25
487.299	92.25
487.517	89.25
487.735	88.25
487.953	95.25
488.171	93.25
488.389	105.25
488.607	99.25
488.825	92.25
489.043	89.25
489.261	92.25
489.479	90.25
489.696	93.25
489.914	96.25
490.132	97.25
490.35	96.25
490.568	110.25
490.786	85.25
491.003	108.25
491.221	99.25
491.439	108.25
491.657	101.25
491.874	104.25
492.092	95.25
492.31	110.25
492.527	98.25
492.745	99.25
492.963	106.25
493.18	102.25
493.398	109.25
493.615	106.25
493.833	97.25
494.05	98.25
494.268	99.25
494.485	92.25
494.703	98.25
494.92	102.25
495.138	107.25
495.355	83.25
495.573	96.25
495.79	111.25
496.008	96.25
496.225	102.25
496.442	122.25
496.66	115.25
496.877	142.25
497.094	150.25
497.312	114.25
497.529	100.25
497.746	99.25
497.963	109.25
498.181	105.25
498.398	104.25
498.615	100.25
498.832	98.25
499.049	99.25
499.267	136.25
499.484	153.25
499.701	136.25
499.918	97.25
500.135	109.25
500.352	102.25
500.569	105.25
500.786	101.25
501.003	101.25
501.22	94.25
501.437	113.25
501.654	92.25
501.871	91.25
502.088	103.25
502.305	106.25
502.522	94.25
502.739	82.25
502.956	85.25
503.172	97.25
503.389	97.25
503.606	95.25
503.823	97.25
504.04	102.25
504.256	93.25
504.473	94.25
504.69	89.25
504.907	116.25
505.123	113.25
505.34	113.25
505.557	100.25
505.773	88.25
505.99	103.25
506.207	79.25
506.423	93.25
506.64	109.25
506.856	98.25
507.073	102.25
507.289	92.25
507.506	97.25
507.722	104.25
507.939	88.25
508.155	104.25
508.372	100.25
508.588	93.25
508.805	97.25
509.021	97.25
509.238	92.25
509.454	136.25
509.67	152.25
