Data from SnStandardFlinnAPT0064_LampEnergy5.5_LIBS07252019.E.O._I.C._HRD10591_15-17-43-493.txt Node
Date: Thu Jul 25 15:17:43 EDT 2019
User: cochatt
Spectrometer: HR+D1059
Trigger mode: 1
Integration Time (sec): 1.000000E-1
Scans to average: 1
Electric dark correction enabled: true
Nonlinearity correction enabled: false
Boxcar width: 0
XAxis mode: Wavelengths
Number of Pixels in Spectrum: 2048
>>>>>Begin Spectral Data<<<<<
223.165	-5.31
223.4	-5.31
223.635	-5.31
223.869	-23.31
224.104	-24.31
224.338	-12.31
224.573	-17.31
224.808	-8.31
225.042	-9.31
225.277	-15.31
225.511	6.69
225.746	19.69
225.98	-13.31
226.215	12.69
226.449	17.69
226.683	10.69
226.918	22.69
227.152	38.69
227.387	25.69
227.621	35.69
227.856	39.69
228.09	40.69
228.324	45.69
228.559	54.69
228.793	90.69
229.027	158.69
229.262	168.69
229.496	168.69
229.73	161.69
229.964	158.69
230.199	166.69
230.433	152.69
230.667	173.69
230.901	172.69
231.136	178.69
231.37	201.69
231.604	198.69
231.838	219.69
232.072	242.69
232.306	260.69
232.541	222.69
232.775	219.69
233.009	204.69
233.243	219.69
233.477	224.69
233.711	245.69
233.945	274.69
234.179	246.69
234.413	202.69
234.647	220.69
234.881	240.69
235.115	250.69
235.349	291.69
235.583	360.69
235.817	467.69
236.051	461.69
236.285	312.69
236.519	243.69
236.753	229.69
236.987	225.69
237.221	248.69
237.455	254.69
237.689	230.69
237.922	228.69
238.156	227.69
238.39	228.69
238.624	236.69
238.858	249.69
239.091	240.69
239.325	237.69
239.559	219.69
239.793	244.69
240.027	246.69
240.26	252.69
240.494	248.69
240.728	261.69
240.961	276.69
241.195	308.69
241.429	309.69
241.662	306.69
241.896	353.69
242.13	430.69
242.363	546.69
242.597	703.69
242.83	674.69
243.064	682.69
243.298	796.69
243.531	670.69
243.765	436.69
243.998	336.69
244.232	312.69
244.465	312.69
244.699	290.69
244.932	325.69
245.166	304.69
245.399	304.69
245.633	297.69
245.866	308.69
246.099	314.69
246.333	307.69
246.566	296.69
246.8	299.69
247.033	308.69
247.266	294.69
247.5	304.69
247.733	327.69
247.966	343.69
248.2	350.69
248.433	390.69
248.666	434.69
248.899	433.69
249.133	381.69
249.366	385.69
249.599	397.69
249.832	452.69
250.066	457.69
250.299	392.69
250.532	368.69
250.765	353.69
250.998	327.69
251.231	347.69
251.465	316.69
251.698	332.69
251.931	342.69
252.164	346.69
252.397	359.69
252.63	378.69
252.863	370.69
253.096	362.69
253.329	371.69
253.562	355.69
253.795	366.69
254.028	374.69
254.261	375.69
254.494	395.69
254.727	456.69
254.96	549.69
255.193	520.69
255.426	414.69
255.659	390.69
255.892	414.69
256.124	370.69
256.357	412.69
256.59	405.69
256.823	411.69
257.056	475.69
257.289	584.69
257.521	605.69
257.754	530.69
257.987	446.69
258.22	408.69
258.452	394.69
258.685	411.69
258.918	424.69
259.151	455.69
259.383	466.69
259.616	494.69
259.849	520.69
260.081	458.69
260.314	454.69
260.547	428.69
260.779	455.69
261.012	446.69
261.244	452.69
261.477	414.69
261.71	436.69
261.942	448.69
262.175	454.69
262.407	479.69
262.64	494.69
262.872	498.69
263.105	523.69
263.337	526.69
263.57	559.69
263.802	572.69
264.035	579.69
264.267	596.69
264.499	616.69
264.732	632.69
264.964	624.69
265.197	663.69
265.429	633.69
265.661	657.69
265.894	702.69
266.126	777.69
266.358	836.69
266.591	800.69
266.823	717.69
267.055	644.69
267.287	623.69
267.52	598.69
267.752	578.69
267.984	616.69
268.216	588.69
268.448	566.69
268.681	570.69
268.913	542.69
269.145	560.69
269.377	564.69
269.609	541.69
269.841	600.69
270.073	614.69
270.306	700.69
270.538	948.69
270.77	1378.69
271.002	1699.69
271.234	1164.69
271.466	772.69
271.698	638.69
271.93	595.69
272.162	583.69
272.394	572.69
272.626	567.69
272.858	560.69
273.09	532.69
273.322	556.69
273.553	553.69
273.785	537.69
274.017	547.69
274.249	525.69
274.481	569.69
274.713	528.69
274.945	537.69
275.176	551.69
275.408	542.69
275.64	546.69
275.872	543.69
276.104	549.69
276.335	580.69
276.567	565.69
276.799	550.69
277.031	561.69
277.262	604.69
277.494	615.69
277.726	659.69
277.957	772.69
278.189	851.69
278.421	842.69
278.652	727.69
278.884	706.69
279.115	660.69
279.347	627.69
279.579	600.69
279.81	593.69
280.042	594.69
280.273	611.69
280.505	634.69
280.736	650.69
280.968	673.69
281.199	742.69
281.431	822.69
281.662	868.69
281.894	745.69
282.125	700.69
282.356	704.69
282.588	720.69
282.819	726.69
283.051	775.69
283.282	827.69
283.513	1052.69
283.745	1538.69
283.976	2465.69
284.207	3534.69
284.439	3095.69
284.67	1816.69
284.901	1477.69
285.132	1469.69
285.364	1385.69
285.595	1110.69
285.826	1000.69
286.057	1186.69
286.288	1672.69
286.52	2251.69
286.751	2056.69
286.982	1249.69
287.213	913.69
287.444	842.69
287.675	796.69
287.906	744.69
288.138	722.69
288.369	732.69
288.6	711.69
288.831	689.69
289.062	726.69
289.293	733.69
289.524	709.69
289.755	735.69
289.986	747.69
290.217	734.69
290.448	737.69
290.679	743.69
290.91	729.69
291.141	779.69
291.371	834.69
291.602	859.69
291.833	791.69
292.064	734.69
292.295	716.69
292.526	693.69
292.757	702.69
292.987	699.69
293.218	677.69
293.449	685.69
293.68	700.69
293.91	658.69
294.141	672.69
294.372	658.69
294.603	671.69
294.833	678.69
295.064	675.69
295.295	654.69
295.525	676.69
295.756	664.69
295.987	656.69
296.217	679.69
296.448	656.69
296.679	682.69
296.909	691.69
297.14	693.69
297.37	744.69
297.601	715.69
297.831	699.69
298.062	706.69
298.292	714.69
298.523	730.69
298.753	740.69
298.984	719.69
299.214	720.69
299.445	755.69
299.675	754.69
299.905	755.69
300.136	811.69
300.366	918.69
300.597	1158.69
300.827	1599.69
301.057	2215.69
301.288	2148.69
301.518	1369.69
301.748	1028.69
301.979	962.69
302.209	938.69
302.439	935.69
302.669	1001.69
302.9	1215.69
303.13	1746.69
303.36	2540.69
303.59	3530.69
303.82	2922.69
304.051	1676.69
304.281	1190.69
304.511	989.69
304.741	957.69
304.971	899.69
305.201	886.69
305.431	862.69
305.661	804.69
305.891	825.69
306.121	807.69
306.352	823.69
306.582	780.69
306.812	805.69
307.042	790.69
307.272	804.69
307.502	791.69
307.731	788.69
307.961	779.69
308.191	794.69
308.421	753.69
308.651	772.69
308.881	770.69
309.111	776.69
309.341	778.69
309.571	794.69
309.8	805.69
310.03	801.69
310.26	786.69
310.49	788.69
310.72	810.69
310.949	803.69
311.179	826.69
311.409	807.69
311.639	826.69
311.868	850.69
312.098	835.69
312.328	855.69
312.557	843.69
312.787	855.69
313.017	859.69
313.246	830.69
313.476	858.69
313.706	893.69
313.935	916.69
314.165	963.69
314.394	991.69
314.624	962.69
314.853	916.69
315.083	902.69
315.312	913.69
315.542	920.69
315.771	953.69
316.001	914.69
316.23	961.69
316.46	1036.69
316.689	1126.69
316.919	1344.69
317.148	1926.69
317.377	3061.69
317.607	4586.69
317.836	4599.69
318.065	2612.69
318.295	1657.69
318.524	1383.69
318.753	1193.69
318.983	1122.69
319.212	1081.69
319.441	1032.69
319.67	1010.69
319.9	992.69
320.129	991.69
320.358	959.69
320.587	1000.69
320.816	999.69
321.046	1004.69
321.275	1022.69
321.504	1001.69
321.733	1022.69
321.962	1031.69
322.191	1040.69
322.42	1062.69
322.649	1039.69
322.878	1043.69
323.108	1027.69
323.337	1057.69
323.566	1080.69
323.795	1097.69
324.024	1115.69
324.253	1127.69
324.482	1179.69
324.71	1236.69
324.939	1295.69
325.168	1334.69
325.397	1402.69
325.626	1614.69
325.855	2328.69
326.084	3715.69
326.313	5505.69
326.542	5892.69
326.77	3537.69
326.999	2318.69
327.228	1905.69
327.457	1859.69
327.686	1852.69
327.914	1942.69
328.143	2238.69
328.372	2627.69
328.6	2806.69
328.829	2642.69
329.058	2231.69
329.287	2027.69
329.515	1818.69
329.744	1740.69
329.972	1630.69
330.201	1552.69
330.43	1523.69
330.658	1475.69
330.887	1448.69
331.115	1410.69
331.344	1433.69
331.572	1443.69
331.801	1443.69
332.03	1424.69
332.258	1496.69
332.486	1564.69
332.715	1721.69
332.943	2168.69
333.172	2696.69
333.4	2591.69
333.629	1991.69
333.857	1808.69
334.085	1796.69
334.314	1865.69
334.542	2085.69
334.771	2352.69
334.999	2847.69
335.227	3396.69
335.455	3798.69
335.684	3542.69
335.912	2918.69
336.14	2585.69
336.369	2279.69
336.597	2104.69
336.825	1926.69
337.053	1815.69
337.281	1740.69
337.51	1660.69
337.738	1599.69
337.966	1501.69
338.194	1487.69
338.422	1454.69
338.65	1414.69
338.878	1388.69
339.106	1318.69
339.334	1328.69
339.562	1317.69
339.79	1291.69
340.018	1299.69
340.246	1270.69
340.474	1250.69
340.702	1243.69
340.93	1235.69
341.158	1281.69
341.386	1253.69
341.614	1272.69
341.842	1237.69
342.07	1206.69
342.298	1179.69
342.526	1164.69
342.754	1166.69
342.981	1178.69
343.209	1153.69
343.437	1192.69
343.665	1170.69
343.893	1202.69
344.12	1180.69
344.348	1174.69
344.576	1156.69
344.804	1146.69
345.031	1140.69
345.259	1113.69
345.487	1089.69
345.714	1079.69
345.942	1090.69
346.17	1105.69
346.397	1104.69
346.625	1100.69
346.853	1073.69
347.08	1056.69
347.308	1105.69
347.535	1057.69
347.763	1088.69
347.99	1040.69
348.218	1066.69
348.445	1042.69
348.673	1080.69
348.9	1054.69
349.128	1039.69
349.355	1058.69
349.583	1055.69
349.81	1055.69
350.037	1051.69
350.265	1049.69
350.492	1040.69
350.72	1058.69
350.947	1036.69
351.174	1040.69
351.402	1058.69
351.629	1048.69
351.856	1025.69
352.083	1032.69
352.311	1051.69
352.538	1036.69
352.765	1028.69
352.992	1035.69
353.22	1013.69
353.447	1042.69
353.674	1018.69
353.901	1063.69
354.128	1024.69
354.355	1055.69
354.583	1038.69
354.81	1024.69
355.037	1050.69
355.264	1051.69
355.491	1074.69
355.718	1039.69
355.945	1046.69
356.172	1065.69
356.399	1070.69
356.626	1080.69
356.853	1086.69
357.08	1080.69
357.307	1083.69
357.534	1132.69
357.761	1079.69
357.988	1114.69
358.215	1086.69
358.441	1100.69
358.668	1083.69
358.895	1102.69
359.122	1095.69
359.349	1077.69
359.576	1108.69
359.802	1113.69
360.029	1088.69
360.256	1108.69
360.483	1097.69
360.709	1077.69
360.936	1078.69
361.163	1081.69
361.39	1051.69
361.616	1074.69
361.843	1135.69
362.07	1129.69
362.296	1112.69
362.523	1081.69
362.749	1125.69
362.976	1089.69
363.203	1096.69
363.429	1098.69
363.656	1106.69
363.882	1118.69
364.109	1088.69
364.335	1076.69
364.562	1093.69
364.788	1093.69
365.015	1124.69
365.241	1129.69
365.468	1163.69
365.694	1210.69
365.92	1200.69
366.147	1112.69
366.373	1124.69
366.599	1142.69
366.826	1127.69
367.052	1119.69
367.278	1153.69
367.505	1135.69
367.731	1139.69
367.957	1114.69
368.184	1112.69
368.41	1165.69
368.636	1110.69
368.862	1124.69
369.089	1124.69
369.315	1127.69
369.541	1138.69
369.767	1129.69
369.993	1150.69
370.219	1138.69
370.445	1106.69
370.672	1154.69
370.898	1158.69
371.124	1171.69
371.35	1185.69
371.576	1181.69
371.802	1192.69
372.028	1186.69
372.254	1171.69
372.48	1169.69
372.706	1210.69
372.932	1192.69
373.158	1219.69
373.384	1232.69
373.61	1189.69
373.835	1217.69
374.061	1214.69
374.287	1215.69
374.513	1254.69
374.739	1239.69
374.965	1262.69
375.191	1258.69
375.416	1235.69
375.642	1247.69
375.868	1209.69
376.094	1177.69
376.319	1185.69
376.545	1184.69
376.771	1202.69
376.997	1182.69
377.222	1163.69
377.448	1200.69
377.674	1158.69
377.899	1170.69
378.125	1175.69
378.35	1152.69
378.576	1178.69
378.802	1196.69
379.027	1200.69
379.253	1224.69
379.478	1284.69
379.704	1496.69
379.929	2206.69
380.155	3304.69
380.38	3527.69
380.606	2178.69
380.831	1507.69
381.057	1352.69
381.282	1246.69
381.507	1206.69
381.733	1178.69
381.958	1186.69
382.184	1171.69
382.409	1155.69
382.634	1192.69
382.86	1214.69
383.085	1160.69
383.31	1162.69
383.535	1166.69
383.761	1164.69
383.986	1158.69
384.211	1195.69
384.436	1216.69
384.662	1187.69
384.887	1210.69
385.112	1179.69
385.337	1176.69
385.562	1187.69
385.787	1223.69
386.013	1225.69
386.238	1223.69
386.463	1214.69
386.688	1241.69
386.913	1210.69
387.138	1212.69
387.363	1210.69
387.588	1198.69
387.813	1217.69
388.038	1201.69
388.263	1195.69
388.488	1182.69
388.713	1196.69
388.938	1196.69
389.163	1201.69
389.387	1204.69
389.612	1194.69
389.837	1219.69
390.062	1175.69
390.287	1196.69
390.512	1242.69
390.736	1224.69
390.961	1246.69
391.186	1244.69
391.411	1228.69
391.636	1264.69
391.86	1270.69
392.085	1275.69
392.31	1253.69
392.534	1220.69
392.759	1241.69
392.984	1241.69
393.208	1245.69
393.433	1253.69
393.658	1247.69
393.882	1203.69
394.107	1235.69
394.331	1213.69
394.556	1220.69
394.78	1201.69
395.005	1242.69
395.229	1208.69
395.454	1219.69
395.678	1253.69
395.903	1271.69
396.127	1249.69
396.352	1222.69
396.576	1238.69
396.801	1254.69
397.025	1273.69
397.249	1283.69
397.474	1256.69
397.698	1285.69
397.922	1314.69
398.147	1277.69
398.371	1291.69
398.595	1333.69
398.82	1334.69
399.044	1391.69
399.268	1423.69
399.492	1515.69
399.717	1572.69
399.941	1582.69
400.165	1547.69
400.389	1461.69
400.613	1402.69
400.837	1374.69
401.062	1352.69
401.286	1343.69
401.51	1317.69
401.734	1318.69
401.958	1344.69
402.182	1324.69
402.406	1337.69
402.63	1336.69
402.854	1344.69
403.078	1347.69
403.302	1368.69
403.526	1371.69
403.75	1396.69
403.974	1354.69
404.198	1387.69
404.422	1388.69
404.645	1378.69
404.869	1395.69
405.093	1401.69
405.317	1382.69
405.541	1390.69
405.765	1412.69
405.988	1427.69
406.212	1430.69
406.436	1388.69
406.66	1434.69
406.883	1434.69
407.107	1466.69
407.331	1500.69
407.555	1482.69
407.778	1525.69
408.002	1476.69
408.226	1484.69
408.449	1477.69
408.673	1428.69
408.896	1372.69
409.12	1367.69
409.344	1400.69
409.567	1370.69
409.791	1368.69
410.014	1390.69
410.238	1383.69
410.461	1386.69
410.685	1359.69
410.908	1324.69
411.132	1318.69
411.355	1296.69
411.578	1298.69
411.802	1348.69
412.025	1343.69
412.249	1344.69
412.472	1311.69
412.695	1312.69
412.919	1298.69
413.142	1274.69
413.365	1288.69
413.589	1361.69
413.812	1316.69
414.035	1306.69
414.258	1360.69
414.482	1285.69
414.705	1303.69
414.928	1303.69
415.151	1296.69
415.374	1267.69
415.597	1289.69
415.821	1262.69
416.044	1266.69
416.267	1252.69
416.49	1270.69
416.713	1242.69
416.936	1298.69
417.159	1232.69
417.382	1262.69
417.605	1212.69
417.828	1256.69
418.051	1288.69
418.274	1250.69
418.497	1256.69
418.72	1296.69
418.943	1268.69
419.166	1337.69
419.389	1385.69
419.611	1371.69
419.834	1358.69
420.057	1316.69
420.28	1296.69
420.503	1256.69
420.726	1250.69
420.948	1242.69
421.171	1258.69
421.394	1246.69
421.617	1251.69
421.839	1266.69
422.062	1280.69
422.285	1274.69
422.507	1272.69
422.73	1299.69
422.953	1296.69
423.175	1294.69
423.398	1315.69
423.621	1264.69
423.843	1246.69
424.066	1284.69
424.288	1249.69
424.511	1243.69
424.733	1256.69
424.956	1266.69
425.178	1228.69
425.401	1264.69
425.623	1298.69
425.846	1227.69
426.068	1238.69
426.291	1227.69
426.513	1226.69
426.735	1233.69
426.958	1227.69
427.18	1224.69
427.402	1207.69
427.625	1212.69
427.847	1203.69
428.069	1161.69
428.292	1196.69
428.514	1164.69
428.736	1162.69
428.958	1190.69
429.181	1169.69
429.403	1156.69
429.625	1163.69
429.847	1151.69
430.069	1177.69
430.292	1257.69
430.514	1266.69
430.736	1284.69
430.958	1193.69
431.18	1170.69
431.402	1177.69
431.624	1152.69
431.846	1174.69
432.068	1154.69
432.29	1114.69
432.512	1150.69
432.734	1164.69
432.956	1193.69
433.178	1180.69
433.4	1171.69
433.622	1169.69
433.844	1198.69
434.066	1186.69
434.287	1170.69
434.509	1150.69
434.731	1189.69
434.953	1190.69
435.175	1186.69
435.397	1213.69
435.618	1156.69
435.84	1146.69
436.062	1145.69
436.284	1168.69
436.505	1150.69
436.727	1170.69
436.949	1147.69
437.17	1170.69
437.392	1146.69
437.614	1140.69
437.835	1134.69
438.057	1130.69
438.278	1080.69
438.5	1090.69
438.721	1142.69
438.943	1208.69
439.165	1202.69
439.386	1206.69
439.608	1218.69
439.829	1200.69
440.05	1251.69
440.272	1257.69
440.493	1224.69
440.715	1193.69
440.936	1216.69
441.158	1236.69
441.379	1211.69
441.6	1274.69
441.822	1291.69
442.043	1358.69
442.264	1419.69
442.486	1323.69
442.707	1272.69
442.928	1233.69
443.149	1233.69
443.371	1233.69
443.592	1232.69
443.813	1264.69
444.034	1225.69
444.255	1236.69
444.476	1326.69
444.698	1358.69
444.919	1300.69
445.14	1415.69
445.361	1330.69
445.582	1284.69
445.803	1251.69
446.024	1241.69
446.245	1220.69
446.466	1244.69
446.687	1222.69
446.908	1233.69
447.129	1151.69
447.35	1211.69
447.571	1168.69
447.792	1154.69
448.013	1126.69
448.234	1126.69
448.455	1136.69
448.675	1154.69
448.896	1168.69
449.117	1225.69
449.338	1322.69
449.559	1372.69
449.779	1220.69
450	1181.69
450.221	1150.69
450.442	1114.69
450.662	1118.69
450.883	1098.69
451.104	1109.69
451.324	1110.69
451.545	1105.69
451.766	1128.69
451.986	1129.69
452.207	1183.69
452.428	1508.69
452.648	2177.69
452.869	1839.69
453.089	1339.69
453.31	1245.69
453.53	1222.69
453.751	1274.69
453.971	1351.69
454.192	1357.69
454.412	1160.69
454.633	1096.69
454.853	1106.69
455.073	1079.69
455.294	1081.69
455.514	1037.69
455.734	1060.69
455.955	1063.69
456.175	1058.69
456.395	1044.69
456.616	1085.69
456.836	1063.69
457.056	1070.69
457.276	1092.69
457.497	1133.69
457.717	1136.69
457.937	1129.69
458.157	1090.69
458.377	1133.69
458.598	1115.69
458.818	1136.69
459.038	1136.69
459.258	1127.69
459.478	1142.69
459.698	1159.69
459.918	1167.69
460.138	1182.69
460.358	1248.69
460.578	1234.69
460.798	1258.69
461.018	1258.69
461.238	1238.69
461.458	1281.69
461.678	1272.69
461.898	1322.69
462.118	1334.69
462.338	1373.69
462.558	1343.69
462.777	1364.69
462.997	1386.69
463.217	1445.69
463.437	1474.69
463.657	1532.69
463.876	1527.69
464.096	1436.69
464.316	1370.69
464.536	1367.69
464.755	1324.69
464.975	1283.69
465.195	1247.69
465.414	1217.69
465.634	1179.69
465.854	1185.69
466.073	1189.69
466.293	1182.69
466.512	1160.69
466.732	1179.69
466.951	1230.69
467.171	1328.69
467.391	1310.69
467.61	1142.69
467.829	1147.69
468.049	1161.69
468.268	1129.69
468.488	1153.69
468.707	1115.69
468.927	1125.69
469.146	1143.69
469.365	1182.69
469.585	1159.69
469.804	1200.69
470.023	1210.69
470.243	1200.69
470.462	1267.69
470.681	1305.69
470.901	1401.69
471.12	1661.69
471.339	1668.69
471.558	1357.69
471.777	1268.69
471.997	1208.69
472.216	1174.69
472.435	1146.69
472.654	1138.69
472.873	1120.69
473.092	1170.69
473.311	1122.69
473.53	1125.69
473.749	1187.69
473.968	1202.69
474.187	1171.69
474.406	1157.69
474.625	1158.69
474.844	1173.69
475.063	1157.69
475.282	1177.69
475.501	1165.69
475.72	1159.69
475.939	1181.69
476.158	1184.69
476.377	1233.69
476.596	1212.69
476.814	1183.69
477.033	1206.69
477.252	1200.69
477.471	1284.69
477.69	1287.69
477.908	1311.69
478.127	1315.69
478.346	1304.69
478.564	1300.69
478.783	1310.69
479.002	1366.69
479.22	1337.69
479.439	1340.69
479.658	1353.69
479.876	1351.69
480.095	1370.69
480.313	1347.69
480.532	1374.69
480.751	1396.69
480.969	1376.69
481.188	1353.69
481.406	1323.69
481.624	1329.69
481.843	1370.69
482.061	1371.69
482.28	1353.69
482.498	1355.69
482.717	1375.69
482.935	1383.69
483.153	1394.69
483.372	1436.69
483.59	1423.69
483.808	1436.69
484.027	1462.69
484.245	1552.69
484.463	1749.69
484.681	1957.69
484.9	1738.69
485.118	1615.69
485.336	1563.69
485.554	1617.69
485.772	1654.69
485.99	1924.69
486.209	2102.69
486.427	1750.69
486.645	1527.69
486.863	1532.69
487.081	1513.69
487.299	1444.69
487.517	1485.69
487.735	1461.69
487.953	1501.69
488.171	1450.69
488.389	1461.69
488.607	1440.69
488.825	1381.69
489.043	1426.69
489.261	1397.69
489.479	1432.69
489.696	1410.69
489.914	1428.69
490.132	1464.69
490.35	1456.69
490.568	1449.69
490.786	1452.69
