Data from SnStandardFlinnAPT0064_QswitchEnergy10_LIBS07252019.E.O._I.C._HRD10591_15-28-57-974.txt Node
Date: Thu Jul 25 15:28:57 EDT 2019
User: cochatt
Spectrometer: HR+D1059
Trigger mode: 1
Integration Time (sec): 1.000000E-1
Scans to average: 1
Electric dark correction enabled: true
Nonlinearity correction enabled: false
Boxcar width: 0
XAxis mode: Wavelengths
Number of Pixels in Spectrum: 2048
>>>>>Begin Spectral Data<<<<<
223.165	7
223.4	7
223.635	7
223.869	-8
224.104	-15
224.338	-19
224.573	-14
224.808	-13
225.042	-4
225.277	-12
225.511	-9
225.746	-8
225.98	-2
226.215	2
226.449	19
226.683	15
226.918	30
227.152	31
227.387	34
227.621	30
227.856	30
228.09	53
228.324	49
228.559	59
228.793	67
229.027	70
229.262	74
229.496	63
229.73	80
229.964	68
230.199	66
230.433	61
230.667	67
230.901	75
231.136	90
231.37	92
231.604	105
231.838	102
232.072	139
232.306	126
232.541	113
232.775	93
233.009	81
233.243	78
233.477	97
233.711	91
233.945	112
234.179	93
234.413	85
234.647	99
234.881	78
235.115	85
235.349	99
235.583	109
235.817	134
236.051	137
236.285	110
236.519	79
236.753	79
236.987	76
237.221	72
237.455	87
237.689	95
237.922	80
238.156	94
238.39	83
238.624	72
238.858	78
239.091	71
239.325	79
239.559	88
239.793	78
240.027	83
240.26	87
240.494	75
240.728	65
240.961	89
241.195	100
241.429	92
241.662	85
241.896	89
242.13	97
242.363	135
242.597	190
242.83	166
243.064	139
243.298	187
243.531	168
243.765	109
243.998	87
244.232	82
244.465	88
244.699	81
244.932	77
245.166	78
245.399	71
245.633	83
245.866	102
246.099	85
246.333	84
246.566	75
246.8	61
247.033	73
247.266	88
247.5	88
247.733	94
247.966	95
248.2	100
248.433	94
248.666	124
248.899	128
249.133	95
249.366	113
249.599	109
249.832	122
250.066	119
250.299	95
250.532	89
250.765	78
250.998	80
251.231	74
251.465	88
251.698	88
251.931	89
252.164	79
252.397	95
252.63	116
252.863	102
253.096	97
253.329	87
253.562	99
253.795	88
254.028	89
254.261	86
254.494	94
254.727	118
254.96	167
255.193	141
255.426	89
255.659	83
255.892	96
256.124	95
256.357	81
256.59	86
256.823	99
257.056	120
257.289	164
257.521	193
257.754	127
257.987	89
258.22	82
258.452	84
258.685	80
258.918	88
259.151	90
259.383	116
259.616	124
259.849	157
260.081	114
260.314	71
260.547	75
260.779	80
261.012	86
261.244	85
261.477	86
261.71	87
261.942	104
262.175	84
262.407	79
262.64	76
262.872	96
263.105	81
263.337	78
263.57	86
263.802	88
264.035	89
264.267	87
264.499	93
264.732	80
264.964	89
265.197	76
265.429	103
265.661	91
265.894	101
266.126	130
266.358	173
266.591	135
266.823	100
267.055	99
267.287	79
267.52	75
267.752	84
267.984	90
268.216	95
268.448	92
268.681	94
268.913	75
269.145	99
269.377	91
269.609	100
269.841	98
270.073	90
270.306	129
270.538	206
270.77	343
271.002	431
271.234	215
271.466	107
271.698	96
271.93	90
272.162	95
272.394	88
272.626	76
272.858	78
273.09	97
273.322	91
273.553	80
273.785	74
274.017	79
274.249	84
274.481	74
274.713	95
274.945	90
275.176	84
275.408	88
275.64	85
275.872	101
276.104	105
276.335	97
276.567	102
276.799	92
277.031	98
277.262	98
277.494	115
277.726	153
277.957	186
278.189	274
278.421	234
278.652	206
278.884	212
279.115	157
279.347	115
279.579	108
279.81	93
280.042	95
280.273	99
280.505	114
280.736	115
280.968	134
281.199	169
281.431	260
281.662	286
281.894	168
282.125	117
282.356	110
282.588	118
282.819	122
283.051	133
283.282	140
283.513	177
283.745	362
283.976	583
284.207	879
284.439	641
284.67	309
284.901	279
285.132	378
285.364	416
285.595	253
285.826	181
286.057	287
286.288	444
286.52	677
286.751	542
286.982	210
287.213	129
287.444	106
287.675	106
287.906	87
288.138	97
288.369	104
288.6	105
288.831	108
289.062	106
289.293	102
289.524	95
289.755	116
289.986	102
290.217	106
290.448	107
290.679	104
290.91	140
291.141	172
291.371	266
291.602	323
291.833	202
292.064	112
292.295	103
292.526	89
292.757	102
292.987	99
293.218	87
293.449	89
293.68	87
293.91	73
294.141	101
294.372	102
294.603	100
294.833	97
295.064	91
295.295	89
295.525	80
295.756	105
295.987	102
296.217	93
296.448	80
296.679	101
296.909	92
297.14	97
297.37	95
297.601	94
297.831	113
298.062	106
298.292	92
298.523	97
298.753	82
298.984	103
299.214	102
299.445	99
299.675	100
299.905	127
300.136	132
300.366	188
300.597	295
300.827	498
301.057	765
301.288	682
301.518	266
301.748	159
301.979	139
302.209	148
302.439	155
302.669	187
302.9	314
303.13	595
303.36	968
303.59	1343
303.82	928
304.051	331
304.281	168
304.511	147
304.741	123
304.971	107
305.201	103
305.431	120
305.661	114
305.891	105
306.121	115
306.352	98
306.582	117
306.812	102
307.042	105
307.272	115
307.502	114
307.731	114
307.961	109
308.191	104
308.421	116
308.651	117
308.881	113
309.111	100
309.341	104
309.571	113
309.8	117
310.03	95
310.26	105
310.49	116
310.72	120
310.949	106
311.179	92
311.409	121
311.639	116
311.868	91
312.098	115
312.328	113
312.557	117
312.787	119
313.017	117
313.246	115
313.476	135
313.706	135
313.935	163
314.165	207
314.394	237
314.624	183
314.853	124
315.083	125
315.312	151
315.542	122
315.771	136
316.001	129
316.23	150
316.46	159
316.689	180
316.919	274
317.148	565
317.377	1039
317.607	1654
317.836	1531
318.065	583
318.295	243
318.524	162
318.753	134
318.983	125
319.212	129
319.441	122
319.67	116
319.9	118
320.129	115
320.358	102
320.587	131
320.816	130
321.046	133
321.275	125
321.504	143
321.733	147
321.962	158
322.191	169
322.42	133
322.649	139
322.878	137
323.108	115
323.337	133
323.566	134
323.795	124
324.024	137
324.253	160
324.482	177
324.71	220
324.939	295
325.168	230
325.397	213
325.626	267
325.855	526
326.084	1039
326.313	1793
326.542	1724
326.77	678
326.999	280
327.228	205
327.457	255
327.686	230
327.914	154
328.143	151
328.372	146
328.6	134
328.829	100
329.058	120
329.287	121
329.515	123
329.744	115
329.972	99
330.201	128
330.43	110
330.658	106
330.887	116
331.115	113
331.344	104
331.572	133
331.801	121
332.03	125
332.258	148
332.486	188
332.715	296
332.943	550
333.172	839
333.4	741
333.629	270
333.857	164
334.085	137
334.314	120
334.542	113
334.771	115
334.999	123
335.227	111
335.455	122
335.684	122
335.912	126
336.14	113
336.369	116
336.597	101
336.825	113
337.053	94
337.281	111
337.51	104
337.738	100
337.966	103
338.194	116
338.422	109
338.65	115
338.878	98
339.106	121
339.334	127
339.562	113
339.79	115
340.018	110
340.246	121
340.474	97
340.702	109
340.93	109
341.158	129
341.386	114
341.614	120
341.842	109
342.07	124
342.298	119
342.526	136
342.754	112
342.981	120
343.209	96
343.437	115
343.665	106
343.893	115
344.12	124
344.348	115
344.576	105
344.804	130
345.031	103
345.259	97
345.487	117
345.714	102
345.942	91
346.17	115
346.397	115
346.625	110
346.853	114
347.08	97
347.308	107
347.535	107
347.763	101
347.99	102
348.218	94
348.445	98
348.673	117
348.9	134
349.128	129
349.355	117
349.583	134
349.81	107
350.037	120
350.265	122
350.492	122
350.72	117
350.947	115
351.174	104
351.402	97
351.629	136
351.856	113
352.083	106
352.311	121
352.538	117
352.765	97
352.992	109
353.22	101
353.447	119
353.674	107
353.901	90
354.128	105
354.355	104
354.583	106
354.81	120
355.037	103
355.264	115
355.491	96
355.718	102
355.945	98
356.172	115
356.399	98
356.626	96
356.853	117
357.08	113
357.307	118
357.534	99
357.761	106
357.988	105
358.215	112
358.441	123
358.668	119
358.895	126
359.122	121
359.349	118
359.576	99
359.802	103
360.029	111
360.256	122
360.483	125
360.709	119
360.936	109
361.163	111
361.39	115
361.616	114
361.843	98
362.07	117
362.296	105
362.523	99
362.749	114
362.976	95
363.203	115
363.429	103
363.656	100
363.882	129
364.109	120
364.335	93
364.562	107
364.788	102
365.015	106
365.241	132
365.468	213
365.694	281
365.92	213
366.147	121
366.373	100
366.599	96
366.826	101
367.052	103
367.278	97
367.505	89
367.731	106
367.957	102
368.184	91
368.41	132
368.636	121
368.862	120
369.089	110
369.315	100
369.541	107
369.767	106
369.993	119
370.219	111
370.445	111
370.672	110
370.898	109
371.124	104
371.35	104
371.576	97
371.802	118
372.028	119
372.254	123
372.48	117
372.706	121
372.932	106
373.158	111
373.384	113
373.61	117
373.835	104
374.061	103
374.287	119
374.513	120
374.739	127
374.965	114
375.191	86
375.416	104
375.642	120
375.868	110
376.094	119
376.319	118
376.545	109
376.771	93
376.997	119
377.222	106
377.448	97
377.674	96
377.899	104
378.125	121
378.35	115
378.576	105
378.802	128
379.027	128
379.253	140
379.478	193
379.704	313
379.929	852
380.155	1775
380.38	1774
380.606	557
380.831	197
381.057	145
381.282	119
381.507	113
381.733	125
381.958	108
382.184	114
382.409	111
382.634	102
382.86	85
383.085	113
383.31	93
383.535	121
383.761	111
383.986	110
384.211	107
384.436	109
384.662	115
384.887	118
385.112	100
385.337	102
385.562	82
385.787	103
386.013	112
386.238	125
386.463	97
386.688	109
386.913	113
387.138	118
387.363	115
387.588	121
387.813	109
388.038	103
388.263	105
388.488	100
388.713	93
388.938	109
389.163	109
389.387	93
389.612	105
389.837	94
390.062	86
390.287	102
390.512	106
390.736	113
390.961	83
391.186	98
391.411	96
391.636	91
391.86	103
392.085	88
392.31	86
392.534	101
392.759	103
392.984	114
393.208	111
393.433	143
393.658	134
393.882	89
394.107	98
394.331	101
394.556	103
394.78	97
395.005	93
395.229	101
395.454	89
395.678	91
395.903	95
396.127	113
396.352	94
396.576	99
396.801	122
397.025	123
397.249	104
397.474	107
397.698	99
397.922	105
398.147	105
398.371	100
398.595	101
398.82	110
399.044	85
399.268	91
399.492	95
399.717	90
399.941	99
400.165	106
400.389	103
400.613	106
400.837	87
401.062	101
401.286	84
401.51	104
401.734	105
401.958	110
402.182	110
402.406	87
402.63	103
402.854	111
403.078	83
403.302	97
403.526	97
403.75	95
403.974	113
404.198	105
404.422	98
404.645	89
404.869	95
405.093	93
405.317	109
405.541	106
405.765	139
405.988	151
406.212	118
406.436	106
406.66	102
406.883	103
407.107	81
407.331	80
407.555	97
407.778	107
408.002	106
408.226	93
408.449	93
408.673	102
408.896	103
409.12	102
409.344	97
409.567	94
409.791	94
410.014	106
410.238	115
410.461	111
410.685	88
410.908	87
411.132	92
411.355	100
411.578	99
411.802	85
412.025	104
412.249	111
412.472	103
412.695	101
412.919	88
413.142	86
413.365	95
413.589	87
413.812	104
414.035	118
414.258	97
414.482	107
414.705	105
414.928	105
415.151	104
415.374	88
415.597	105
415.821	95
416.044	105
416.267	102
416.49	110
416.713	92
416.936	107
417.159	100
417.382	87
417.605	94
417.828	103
418.051	92
418.274	105
418.497	104
418.72	111
418.943	96
419.166	98
419.389	94
419.611	103
419.834	104
420.057	85
420.28	83
420.503	116
420.726	113
420.948	102
421.171	94
421.394	101
421.617	91
421.839	103
422.062	97
422.285	97
422.507	106
422.73	124
422.953	144
423.175	110
423.398	93
423.621	93
423.843	89
424.066	84
424.288	116
424.511	103
424.733	107
424.956	114
425.178	98
425.401	88
425.623	88
425.846	111
426.068	106
426.291	81
426.513	93
426.735	106
426.958	95
427.18	107
427.402	103
427.625	100
427.847	98
428.069	95
428.292	95
428.514	107
428.736	94
428.958	94
429.181	107
429.403	95
429.625	95
429.847	119
430.069	102
430.292	105
430.514	102
430.736	97
430.958	102
431.18	95
431.402	91
431.624	106
431.846	89
432.068	79
432.29	104
432.512	100
432.734	86
432.956	99
433.178	95
433.4	92
433.622	89
433.844	97
434.066	104
434.287	88
434.509	99
434.731	104
434.953	93
435.175	101
435.397	74
435.618	105
435.84	93
436.062	97
436.284	90
436.505	83
436.727	91
436.949	100
437.17	82
437.392	91
437.614	82
437.835	90
438.057	86
438.278	103
438.5	100
438.721	90
438.943	114
439.165	119
439.386	119
439.608	104
439.829	118
440.05	124
440.272	132
440.493	104
440.715	100
440.936	82
441.158	98
441.379	84
441.6	105
441.822	96
442.043	109
442.264	136
442.486	117
442.707	102
442.928	93
443.149	85
443.371	96
443.592	93
443.813	86
444.034	93
444.255	101
444.476	102
444.698	112
444.919	89
445.14	179
445.361	137
445.582	115
445.803	100
446.024	91
446.245	104
446.466	111
446.687	117
446.908	99
447.129	107
447.35	90
447.571	84
447.792	97
448.013	99
448.234	93
448.455	88
448.675	101
448.896	106
449.117	124
449.338	142
449.559	153
449.779	118
450	95
450.221	121
450.442	113
450.662	120
450.883	114
451.104	119
451.324	120
451.545	122
451.766	119
451.986	147
452.207	203
452.428	591
452.648	1482
452.869	826
453.089	222
453.31	131
453.53	121
453.751	137
453.971	158
454.192	167
454.412	109
454.633	97
454.853	92
455.073	99
455.294	100
455.514	93
455.734	86
455.955	91
456.175	99
456.395	104
456.616	113
456.836	96
457.056	98
457.276	104
457.497	119
457.717	133
457.937	116
458.157	95
458.377	97
458.598	93
458.818	83
459.038	87
459.258	86
459.478	98
459.698	85
459.918	96
460.138	77
460.358	86
460.578	94
460.798	86
461.018	94
461.238	80
461.458	97
461.678	101
461.898	94
462.118	98
462.338	93
462.558	96
462.777	104
462.997	101
463.217	119
463.437	151
463.657	186
463.876	189
464.096	124
464.316	102
464.536	89
464.755	98
464.975	87
465.195	101
465.414	97
465.634	97
465.854	97
466.073	82
466.293	96
466.512	89
466.732	99
466.951	107
467.171	146
467.391	152
467.61	117
467.829	107
468.049	99
468.268	105
468.488	101
468.707	87
468.927	83
469.146	98
469.365	111
469.585	93
469.804	107
470.023	74
470.243	106
470.462	111
470.681	106
470.901	160
471.12	202
471.339	224
471.558	138
471.777	115
471.997	105
472.216	95
472.435	102
472.654	94
472.873	93
473.092	113
473.311	113
473.53	101
473.749	121
473.968	117
474.187	85
474.406	83
474.625	92
474.844	92
475.063	92
475.282	101
475.501	80
475.72	105
475.939	97
476.158	94
476.377	116
476.596	104
476.814	101
477.033	98
477.252	103
477.471	111
477.69	83
477.908	102
478.127	83
478.346	86
478.564	98
478.783	97
479.002	95
479.22	97
479.439	92
479.658	102
479.876	87
480.095	105
480.313	89
480.532	97
480.751	97
480.969	104
481.188	95
481.406	105
481.624	104
481.843	129
482.061	99
482.28	112
482.498	111
482.717	81
482.935	99
483.153	115
483.372	93
483.59	106
483.808	92
484.027	109
484.245	119
484.463	193
484.681	245
484.9	157
485.118	113
485.336	109
485.554	113
485.772	126
485.99	201
486.209	275
486.427	175
486.645	109
486.863	118
487.081	111
487.299	100
487.517	97
487.735	102
487.953	98
488.171	119
488.389	89
488.607	83
488.825	103
489.043	95
489.261	113
489.479	101
489.696	104
489.914	102
490.132	85
490.35	103
490.568	95
490.786	114
491.003	103
491.221	111
491.439	92
491.657	110
491.874	96
492.092	100
492.31	123
492.527	102
492.745	93
492.963	106
493.18	121
493.398	105
493.615	112
493.833	111
494.05	102
494.268	85
494.485	105
494.703	110
494.92	97
495.138	104
495.355	105
495.573	114
495.79	98
496.008	111
496.225	102
496.442	98
496.66	121
496.877	177
497.094	161
497.312	102
497.529	111
497.746	101
497.963	111
498.181	101
498.398	98
498.615	104
498.832	106
499.049	111
499.267	136
499.484	179
499.701	119
499.918	112
500.135	102
500.352	99
500.569	98
500.786	92
501.003	104
501.22	93
501.437	98
501.654	102
501.871	113
502.088	107
502.305	101
502.522	110
502.739	115
502.956	98
503.172	98
503.389	100
503.606	88
503.823	110
504.04	102
504.256	91
504.473	95
504.69	103
504.907	99
505.123	118
505.34	98
505.557	96
505.773	118
505.99	97
506.207	93
506.423	102
506.64	113
506.856	122
507.073	87
507.289	89
507.506	94
507.722	114
507.939	106
508.155	101
508.372	101
508.588	90
508.805	112
509.021	109
509.238	115
509.454	159
509.67	165
509.887	123
510.103	103
510.319	104
510.536	116
510.752	99
510.968	83
511.184	102
511.401	98
511.617	114
511.833	102
512.049	98
512.265	97
512.481	89
512.698	108
512.914	105
513.13	90
513.346	101
513.562	89
513.778	83
513.994	106
514.21	98
514.426	139
514.642	189
514.858	125
515.074	119
515.29	102
515.506	108
515.721	121
515.937	101
516.153	98
516.369	94
516.585	90
516.801	85
517.016	94
517.232	86
517.448	109
517.664	109
517.879	111
518.095	101
518.311	94
518.527	95
518.742	106
518.958	117
519.173	155
519.389	124
519.605	98
519.82	92
520.036	95
520.251	104
520.467	96
520.682	109
520.898	98
521.113	115
521.329	93
521.544	89
521.76	99
521.975	119
522.19	115
522.406	103
522.621	115
522.836	97
523.052	89
523.267	89
523.482	100
523.698	96
523.913	90
524.128	95
524.343	98
524.559	102
524.774	102
524.989	100
525.204	100
525.419	94
525.634	112
525.849	88
526.064	90
526.28	112
526.495	106
526.71	94
526.925	93
527.14	93
527.355	92
527.57	101
527.785	103
527.999	100
528.214	100
528.429	93
528.644	115
528.859	102
529.074	105
529.289	104
529.503	103
529.718	98
529.933	103
530.148	86
530.363	101
530.577	97
530.792	91
531.007	88
531.221	99
531.436	96
531.651	88
531.865	93
532.08	97
532.295	109
532.509	139
532.724	122
532.938	117
533.153	105
533.367	97
533.582	103
533.796	100
534.011	88
534.225	100
534.44	96
534.654	93
534.868	81
535.083	99
535.297	98
535.511	97
535.726	98
535.94	93
536.154	104
536.369	99
536.583	99
536.797	96
537.011	101
537.225	100
537.44	104
537.654	92
537.868	103
538.082	104
538.296	107
538.51	100
538.724	102
538.938	103
539.153	111
539.367	85
539.581	102
539.795	90
540.009	102
540.222	92
540.436	85
540.65	100
540.864	107
541.078	123
541.292	138
541.506	221
541.72	207
541.934	125
542.147	111
542.361	117
542.575	102
542.789	93
543.002	97
543.216	94
543.43	103
543.644	102
543.857	92
544.071	115
544.285	117
544.498	98
544.712	101
544.925	109
545.139	106
545.352	113
545.566	114
545.779	103
545.993	107
546.206	116
546.42	111
546.633	111
546.847	106
547.06	116
547.274	106
547.487	109
547.7	97
547.914	101
548.127	96
548.34	99
548.554	96
548.767	104
548.98	102
549.193	92
549.407	107
549.62	108
549.833	105
550.046	115
550.259	103
550.473	114
550.686	109
550.899	101
551.112	117
551.325	111
551.538	109
551.751	100
551.964	101
552.177	118
552.39	105
552.603	96
552.816	117
553.029	94
553.242	90
553.455	109
553.667	117
553.88	111
554.093	101
554.306	90
554.519	100
554.732	98
554.944	103
555.157	104
555.37	105
555.583	106
555.795	95
556.008	119
556.221	158
556.433	139
556.646	101
556.859	102
557.071	109
557.284	125
557.496	94
557.709	94
557.921	122
558.134	100
558.346	89
558.559	95
558.771	99
558.984	109
559.196	132
559.409	92
559.621	104
559.833	102
560.046	100
560.258	87
560.47	103
560.683	107
560.895	95
561.107	100
561.32	97
561.532	94
561.744	109
561.956	103
562.168	101
562.381	109
562.593	114
562.805	155
563.017	178
563.229	273
563.441	648
563.653	217
563.865	121
564.077	93
564.289	100
564.501	106
564.713	101
564.925	93
565.137	105
565.349	98
565.561	88
565.773	102
565.985	85
566.197	105
566.408	94
566.62	99
566.832	88
567.044	109
567.255	111
567.467	100
567.679	99
567.891	114
568.102	183
568.314	262
568.526	166
568.737	136
568.949	126
569.161	92
569.372	90
569.584	95
569.795	94
570.007	106
570.218	128
570.43	167
570.641	131
570.853	110
571.064	102
571.276	92
571.487	97
571.698	93
571.91	104
572.121	93
572.333	110
572.544	111
572.755	158
