Data from SnStandardFlinnAPT0064_LampEnergy10_LIBS07252019.E.O._I.C._HRD10591_15-20-52-494.txt Node
Date: Thu Jul 25 15:20:52 EDT 2019
User: cochatt
Spectrometer: HR+D1059
Trigger mode: 1
Integration Time (sec): 1.000000E-1
Scans to average: 1
Electric dark correction enabled: true
Nonlinearity correction enabled: false
Boxcar width: 0
XAxis mode: Wavelengths
Number of Pixels in Spectrum: 2048
>>>>>Begin Spectral Data<<<<<
223.165	-23.88
223.4	-23.88
223.635	-23.88
223.869	-21.88
224.104	-17.88
224.338	0.12
224.573	-15.88
224.808	-9.88
225.042	-3.88
225.277	-8.88
225.511	-8.88
225.746	0.12
225.98	23.12
226.215	9.12
226.449	17.12
226.683	27.12
226.918	16.12
227.152	18.12
227.387	32.12
227.621	35.12
227.856	41.12
228.09	38.12
228.324	50.12
228.559	58.12
228.793	123.12
229.027	296.12
229.262	334.12
229.496	308.12
229.73	304.12
229.964	306.12
230.199	300.12
230.433	292.12
230.667	314.12
230.901	314.12
231.136	335.12
231.37	368.12
231.604	404.12
231.838	439.12
232.072	522.12
232.306	542.12
232.541	476.12
232.775	432.12
233.009	398.12
233.243	421.12
233.477	460.12
233.711	506.12
233.945	572.12
234.179	500.12
234.413	444.12
234.647	457.12
234.881	467.12
235.115	507.12
235.349	610.12
235.583	753.12
235.817	1025.12
236.051	988.12
236.285	658.12
236.519	536.12
236.753	491.12
236.987	480.12
237.221	549.12
237.455	501.12
237.689	477.12
237.922	487.12
238.156	451.12
238.39	485.12
238.624	482.12
238.858	462.12
239.091	499.12
239.325	504.12
239.559	514.12
239.793	487.12
240.027	538.12
240.26	552.12
240.494	581.12
240.728	579.12
240.961	614.12
241.195	643.12
241.429	670.12
241.662	678.12
241.896	796.12
242.13	944.12
242.363	1236.12
242.597	1606.12
242.83	1546.12
243.064	1547.12
243.298	1814.12
243.531	1538.12
243.765	971.12
243.998	762.12
244.232	710.12
244.465	668.12
244.699	653.12
244.932	640.12
245.166	662.12
245.399	660.12
245.633	704.12
245.866	665.12
246.099	660.12
246.333	665.12
246.566	671.12
246.8	634.12
247.033	656.12
247.266	658.12
247.5	650.12
247.733	674.12
247.966	707.12
248.2	745.12
248.433	851.12
248.666	1002.12
248.899	952.12
249.133	860.12
249.366	866.12
249.599	974.12
249.832	1102.12
250.066	1099.12
250.299	853.12
250.532	764.12
250.765	782.12
250.998	767.12
251.231	734.12
251.465	726.12
251.698	751.12
251.931	742.12
252.164	750.12
252.397	760.12
252.63	778.12
252.863	807.12
253.096	790.12
253.329	773.12
253.562	775.12
253.795	788.12
254.028	804.12
254.261	819.12
254.494	855.12
254.727	987.12
254.96	1252.12
255.193	1224.12
255.426	979.12
255.659	884.12
255.892	865.12
256.124	879.12
256.357	874.12
256.59	903.12
256.823	970.12
257.056	1094.12
257.289	1331.12
257.521	1466.12
257.754	1206.12
257.987	955.12
258.22	907.12
258.452	873.12
258.685	943.12
258.918	958.12
259.151	1007.12
259.383	1092.12
259.616	1221.12
259.849	1280.12
260.081	1088.12
260.314	990.12
260.547	972.12
260.779	976.12
261.012	971.12
261.244	972.12
261.477	966.12
261.71	997.12
261.942	985.12
262.175	1030.12
262.407	1040.12
262.64	1039.12
262.872	1100.12
263.105	1127.12
263.337	1204.12
263.57	1258.12
263.802	1258.12
264.035	1267.12
264.267	1367.12
264.499	1355.12
264.732	1450.12
264.964	1438.12
265.197	1447.12
265.429	1443.12
265.661	1462.12
265.894	1594.12
266.126	1752.12
266.358	1910.12
266.591	1954.12
266.823	1621.12
267.055	1468.12
267.287	1375.12
267.52	1308.12
267.752	1267.12
267.984	1277.12
268.216	1290.12
268.448	1249.12
268.681	1251.12
268.913	1233.12
269.145	1231.12
269.377	1232.12
269.609	1247.12
269.841	1266.12
270.073	1363.12
270.306	1594.12
270.538	2171.12
270.77	3167.12
271.002	3904.12
271.234	2755.12
271.466	1849.12
271.698	1520.12
271.93	1386.12
272.162	1328.12
272.394	1244.12
272.626	1254.12
272.858	1218.12
273.09	1196.12
273.322	1201.12
273.553	1179.12
273.785	1214.12
274.017	1204.12
274.249	1216.12
274.481	1201.12
274.713	1186.12
274.945	1211.12
275.176	1198.12
275.408	1205.12
275.64	1235.12
275.872	1202.12
276.104	1249.12
276.335	1249.12
276.567	1263.12
276.799	1264.12
277.031	1292.12
277.262	1330.12
277.494	1398.12
277.726	1538.12
277.957	1834.12
278.189	2056.12
278.421	1972.12
278.652	1744.12
278.884	1652.12
279.115	1515.12
279.347	1431.12
279.579	1435.12
279.81	1371.12
280.042	1370.12
280.273	1421.12
280.505	1424.12
280.736	1493.12
280.968	1587.12
281.199	1754.12
281.431	2018.12
281.662	2136.12
281.894	1769.12
282.125	1665.12
282.356	1622.12
282.588	1662.12
282.819	1744.12
283.051	1786.12
283.282	2008.12
283.513	2483.12
283.745	3587.12
283.976	5594.12
284.207	8005.12
284.439	7333.12
284.67	4599.12
284.901	3770.12
285.132	3758.12
285.364	3550.12
285.595	2680.12
285.826	2435.12
286.057	2820.12
286.288	3817.12
286.52	5303.12
286.751	4865.12
286.982	3057.12
287.213	2300.12
287.444	2006.12
287.675	1843.12
287.906	1766.12
288.138	1729.12
288.369	1676.12
288.6	1710.12
288.831	1678.12
289.062	1679.12
289.293	1673.12
289.524	1718.12
289.755	1710.12
289.986	1713.12
290.217	1683.12
290.448	1734.12
290.679	1741.12
290.91	1785.12
291.141	1840.12
291.371	2013.12
291.602	2113.12
291.833	1957.12
292.064	1747.12
292.295	1662.12
292.526	1677.12
292.757	1585.12
292.987	1626.12
293.218	1560.12
293.449	1592.12
293.68	1607.12
293.91	1595.12
294.141	1579.12
294.372	1575.12
294.603	1550.12
294.833	1607.12
295.064	1559.12
295.295	1537.12
295.525	1556.12
295.756	1558.12
295.987	1530.12
296.217	1582.12
296.448	1565.12
296.679	1556.12
296.909	1565.12
297.14	1614.12
297.37	1599.12
297.601	1654.12
297.831	1619.12
298.062	1620.12
298.292	1624.12
298.523	1679.12
298.753	1720.12
298.984	1688.12
299.214	1766.12
299.445	1774.12
299.675	1758.12
299.905	1851.12
300.136	1916.12
300.366	2162.12
300.597	2732.12
300.827	3834.12
301.057	5227.12
301.288	5203.12
301.518	3384.12
301.748	2593.12
301.979	2367.12
302.209	2274.12
302.439	2303.12
302.669	2462.12
302.9	2934.12
303.13	4196.12
303.36	6170.12
303.59	8274.12
303.82	7195.12
304.051	4231.12
304.281	3025.12
304.511	2539.12
304.741	2306.12
304.971	2264.12
305.201	2056.12
305.431	2016.12
305.661	1942.12
305.891	1920.12
306.121	1915.12
306.352	1861.12
306.582	1824.12
306.812	1828.12
307.042	1886.12
307.272	1824.12
307.502	1799.12
307.731	1820.12
307.961	1814.12
308.191	1776.12
308.421	1784.12
308.651	1817.12
308.881	1806.12
309.111	1810.12
309.341	1784.12
309.571	1849.12
309.8	1845.12
310.03	1830.12
310.26	1848.12
310.49	1856.12
310.72	1886.12
310.949	1864.12
311.179	1880.12
311.409	1863.12
311.639	1918.12
311.868	1920.12
312.098	1892.12
312.328	1946.12
312.557	1968.12
312.787	1974.12
313.017	1954.12
313.246	1977.12
313.476	2027.12
313.706	2071.12
313.935	2195.12
314.165	2356.12
314.394	2461.12
314.624	2382.12
314.853	2144.12
315.083	2180.12
315.312	2187.12
315.542	2218.12
315.771	2192.12
316.001	2215.12
316.23	2346.12
316.46	2441.12
316.689	2630.12
316.919	3176.12
317.148	4611.12
317.377	7040.12
317.607	10307.12
317.836	10855.12
318.065	6585.12
318.295	4295.12
318.524	3474.12
318.753	2934.12
318.983	2746.12
319.212	2575.12
319.441	2506.12
319.67	2488.12
319.9	2399.12
320.129	2374.12
320.358	2370.12
320.587	2334.12
320.816	2340.12
321.046	2348.12
321.275	2339.12
321.504	2421.12
321.733	2414.12
321.962	2520.12
322.191	2560.12
322.42	2550.12
322.649	2489.12
322.878	2512.12
323.108	2501.12
323.337	2543.12
323.566	2584.12
323.795	2593.12
324.024	2625.12
324.253	2726.12
324.482	2865.12
324.71	2996.12
324.939	3215.12
325.168	3267.12
325.397	3433.12
325.626	3992.12
325.855	5541.12
326.084	8712.12
326.313	12719.12
326.542	13536.12
326.77	9120.12
326.999	5942.12
327.228	5002.12
327.457	4765.12
327.686	4868.12
327.914	5182.12
328.143	6058.12
328.372	7290.12
328.6	7990.12
328.829	7056.12
329.058	5860.12
329.287	5125.12
329.515	4683.12
329.744	4305.12
329.972	4158.12
330.201	3872.12
330.43	3750.12
330.658	3682.12
330.887	3549.12
331.115	3526.12
331.344	3513.12
331.572	3474.12
331.801	3536.12
332.03	3525.12
332.258	3530.12
332.486	3778.12
332.715	4301.12
332.943	5347.12
333.172	6704.12
333.4	6546.12
333.629	4955.12
333.857	4562.12
334.085	4434.12
334.314	4704.12
334.542	5159.12
334.771	6122.12
334.999	7548.12
335.227	9528.12
335.455	10684.12
335.684	9588.12
335.912	7825.12
336.14	6578.12
336.369	5736.12
336.597	5281.12
336.825	4868.12
337.053	4484.12
337.281	4265.12
337.51	4056.12
337.738	3869.12
337.966	3728.12
338.194	3597.12
338.422	3495.12
338.65	3375.12
338.878	3361.12
339.106	3249.12
339.334	3263.12
339.562	3192.12
339.79	3110.12
340.018	3090.12
340.246	3034.12
340.474	3030.12
340.702	3012.12
340.93	2997.12
341.158	2988.12
341.386	2997.12
341.614	2968.12
341.842	2932.12
342.07	2810.12
342.298	2775.12
342.526	2774.12
342.754	2732.12
342.981	2668.12
343.209	2752.12
343.437	2748.12
343.665	2816.12
343.893	2832.12
344.12	2837.12
344.348	2704.12
344.576	2698.12
344.804	2693.12
345.031	2645.12
345.259	2663.12
345.487	2594.12
345.714	2589.12
345.942	2528.12
346.17	2571.12
346.397	2514.12
346.625	2537.12
346.853	2521.12
347.08	2508.12
347.308	2522.12
347.535	2495.12
347.763	2520.12
347.99	2477.12
348.218	2494.12
348.445	2427.12
348.673	2426.12
348.9	2488.12
349.128	2478.12
349.355	2470.12
349.583	2445.12
349.81	2458.12
350.037	2407.12
350.265	2430.12
350.492	2444.12
350.72	2421.12
350.947	2358.12
351.174	2359.12
351.402	2427.12
351.629	2386.12
351.856	2372.12
352.083	2443.12
352.311	2392.12
352.538	2383.12
352.765	2387.12
352.992	2384.12
353.22	2370.12
353.447	2391.12
353.674	2358.12
353.901	2432.12
354.128	2411.12
354.355	2446.12
354.583	2414.12
354.81	2409.12
355.037	2421.12
355.264	2386.12
355.491	2462.12
355.718	2420.12
355.945	2439.12
356.172	2474.12
356.399	2447.12
356.626	2499.12
356.853	2509.12
357.08	2494.12
357.307	2547.12
357.534	2547.12
357.761	2592.12
357.988	2560.12
358.215	2579.12
358.441	2563.12
358.668	2535.12
358.895	2614.12
359.122	2537.12
359.349	2536.12
359.576	2489.12
359.802	2521.12
360.029	2524.12
360.256	2542.12
360.483	2523.12
360.709	2537.12
360.936	2535.12
361.163	2562.12
361.39	2561.12
361.616	2543.12
361.843	2549.12
362.07	2635.12
362.296	2573.12
362.523	2574.12
362.749	2581.12
362.976	2524.12
363.203	2498.12
363.429	2513.12
363.656	2534.12
363.882	2576.12
364.109	2552.12
364.335	2487.12
364.562	2531.12
364.788	2536.12
365.015	2545.12
365.241	2653.12
365.468	2803.12
365.694	2972.12
365.92	2862.12
366.147	2626.12
366.373	2620.12
366.599	2596.12
366.826	2590.12
367.052	2538.12
367.278	2631.12
367.505	2619.12
367.731	2624.12
367.957	2608.12
368.184	2618.12
368.41	2617.12
368.636	2681.12
368.862	2701.12
369.089	2654.12
369.315	2601.12
369.541	2631.12
369.767	2645.12
369.993	2629.12
370.219	2624.12
370.445	2650.12
370.672	2668.12
370.898	2653.12
371.124	2731.12
371.35	2723.12
371.576	2696.12
371.802	2720.12
372.028	2759.12
372.254	2747.12
372.48	2759.12
372.706	2755.12
372.932	2799.12
373.158	2778.12
373.384	2793.12
373.61	2732.12
373.835	2746.12
374.061	2806.12
374.287	2829.12
374.513	2816.12
374.739	2884.12
374.965	2906.12
375.191	2886.12
375.416	2940.12
375.642	2881.12
375.868	2837.12
376.094	2808.12
376.319	2803.12
376.545	2757.12
376.771	2788.12
376.997	2683.12
377.222	2765.12
377.448	2725.12
377.674	2742.12
377.899	2674.12
378.125	2753.12
378.35	2761.12
378.576	2754.12
378.802	2797.12
379.027	2800.12
379.253	2885.12
379.478	3050.12
379.704	3562.12
379.929	5092.12
380.155	7972.12
380.38	8652.12
380.606	5287.12
380.831	3666.12
381.057	3218.12
381.282	2973.12
381.507	2868.12
381.733	2792.12
381.958	2762.12
382.184	2728.12
382.409	2667.12
382.634	2665.12
382.86	2737.12
383.085	2696.12
383.31	2680.12
383.535	2699.12
383.761	2680.12
383.986	2703.12
384.211	2704.12
384.436	2730.12
384.662	2777.12
384.887	2782.12
385.112	2736.12
385.337	2735.12
385.562	2741.12
385.787	2767.12
386.013	2800.12
386.238	2755.12
386.463	2814.12
386.688	2803.12
386.913	2749.12
387.138	2783.12
387.363	2818.12
387.588	2770.12
387.813	2781.12
388.038	2728.12
388.263	2756.12
388.488	2768.12
388.713	2784.12
388.938	2755.12
389.163	2755.12
389.387	2778.12
389.612	2758.12
389.837	2758.12
390.062	2789.12
390.287	2802.12
390.512	2779.12
390.736	2794.12
390.961	2878.12
391.186	2899.12
391.411	2880.12
391.636	2878.12
391.86	2885.12
392.085	2939.12
392.31	2919.12
392.534	2862.12
392.759	2870.12
392.984	2839.12
393.208	2865.12
393.433	2794.12
393.658	2824.12
393.882	2765.12
394.107	2746.12
394.331	2783.12
394.556	2788.12
394.78	2805.12
395.005	2828.12
395.229	2862.12
395.454	2864.12
395.678	2928.12
395.903	2868.12
396.127	2924.12
396.352	2854.12
396.576	2837.12
396.801	2857.12
397.025	2898.12
397.249	2906.12
397.474	2911.12
397.698	2886.12
397.922	2862.12
398.147	2949.12
398.371	2990.12
398.595	3045.12
398.82	3100.12
399.044	3186.12
399.268	3336.12
399.492	3532.12
399.717	3671.12
399.941	3677.12
400.165	3573.12
400.389	3454.12
400.613	3277.12
400.837	3158.12
401.062	3083.12
401.286	3103.12
401.51	3017.12
401.734	3047.12
401.958	3055.12
402.182	3038.12
402.406	3001.12
402.63	3048.12
402.854	3118.12
403.078	3145.12
403.302	3135.12
403.526	3173.12
403.75	3147.12
403.974	3210.12
404.198	3106.12
404.422	3189.12
404.645	3136.12
404.869	3148.12
405.093	3168.12
405.317	3183.12
405.541	3191.12
405.765	3256.12
405.988	3273.12
406.212	3270.12
406.436	3288.12
406.66	3271.12
406.883	3240.12
407.107	3326.12
407.331	3445.12
407.555	3499.12
407.778	3391.12
408.002	3359.12
408.226	3395.12
408.449	3400.12
408.673	3290.12
408.896	3236.12
409.12	3213.12
409.344	3205.12
409.567	3208.12
409.791	3180.12
410.014	3170.12
410.238	3106.12
410.461	3177.12
410.685	3107.12
410.908	3124.12
411.132	3084.12
411.355	3067.12
411.578	3080.12
411.802	3060.12
412.025	3063.12
412.249	3049.12
412.472	3079.12
412.695	2998.12
412.919	2989.12
413.142	2985.12
413.365	3023.12
413.589	3064.12
413.812	2981.12
414.035	3027.12
414.258	3050.12
414.482	2950.12
414.705	2992.12
414.928	3011.12
415.151	2989.12
415.374	2966.12
415.597	2962.12
415.821	2896.12
416.044	2877.12
416.267	2871.12
416.49	2880.12
416.713	2839.12
416.936	2876.12
417.159	2855.12
417.382	2827.12
417.605	2851.12
417.828	2859.12
418.051	2858.12
418.274	2905.12
418.497	2935.12
418.72	2944.12
418.943	2898.12
419.166	3072.12
419.389	3256.12
419.611	3176.12
419.834	3068.12
420.057	2966.12
420.28	2919.12
420.503	2895.12
420.726	2873.12
420.948	2836.12
421.171	2905.12
421.394	2916.12
421.617	2866.12
421.839	2919.12
422.062	2905.12
422.285	2854.12
422.507	2907.12
422.73	2950.12
422.953	2942.12
423.175	3011.12
423.398	2979.12
423.621	2833.12
423.843	2862.12
424.066	2866.12
424.288	2833.12
424.511	2885.12
424.733	2876.12
424.956	2826.12
425.178	2867.12
425.401	2821.12
425.623	2867.12
425.846	2820.12
426.068	2812.12
426.291	2748.12
426.513	2755.12
426.735	2708.12
426.958	2794.12
427.18	2691.12
427.402	2720.12
427.625	2725.12
427.847	2663.12
428.069	2648.12
428.292	2658.12
428.514	2695.12
428.736	2643.12
428.958	2676.12
429.181	2617.12
429.403	2602.12
429.625	2637.12
429.847	2612.12
430.069	2699.12
430.292	2772.12
430.514	2883.12
430.736	2864.12
430.958	2700.12
431.18	2665.12
431.402	2654.12
431.624	2594.12
431.846	2581.12
432.068	2625.12
432.29	2647.12
432.512	2606.12
432.734	2634.12
432.956	2620.12
433.178	2659.12
433.4	2661.12
433.622	2642.12
433.844	2682.12
434.066	2638.12
434.287	2662.12
434.509	2697.12
434.731	2715.12
434.953	2724.12
435.175	2765.12
435.397	2756.12
435.618	2677.12
435.84	2675.12
436.062	2583.12
436.284	2635.12
436.505	2644.12
436.727	2624.12
436.949	2586.12
437.17	2606.12
437.392	2558.12
437.614	2583.12
437.835	2558.12
438.057	2568.12
438.278	2528.12
438.5	2587.12
438.721	2596.12
438.943	2682.12
439.165	2719.12
439.386	2722.12
439.608	2683.12
439.829	2706.12
440.05	2792.12
440.272	2890.12
440.493	2769.12
440.715	2682.12
440.936	2713.12
441.158	2779.12
441.379	2795.12
441.6	2873.12
441.822	2950.12
442.043	3064.12
442.264	3160.12
442.486	2943.12
442.707	2883.12
442.928	2807.12
443.149	2849.12
443.371	2824.12
443.592	2837.12
443.813	2803.12
444.034	2822.12
444.255	2859.12
444.476	2978.12
444.698	2997.12
444.919	3057.12
445.14	3107.12
445.361	2917.12
445.582	2911.12
445.803	2840.12
446.024	2800.12
446.245	2783.12
446.466	2790.12
446.687	2700.12
446.908	2707.12
447.129	2711.12
447.35	2661.12
447.571	2640.12
447.792	2576.12
448.013	2600.12
448.234	2536.12
448.455	2591.12
448.675	2586.12
448.896	2714.12
449.117	2801.12
449.338	3006.12
449.559	3142.12
449.779	2828.12
450	2595.12
450.221	2598.12
450.442	2571.12
450.662	2532.12
450.883	2536.12
451.104	2561.12
451.324	2482.12
451.545	2539.12
451.766	2529.12
451.986	2626.12
452.207	2803.12
452.428	3569.12
452.648	5517.12
452.869	4574.12
453.089	3138.12
453.31	2923.12
453.53	2922.12
453.751	3011.12
453.971	3192.12
454.192	3085.12
454.412	2662.12
454.633	2539.12
454.853	2487.12
455.073	2461.12
455.294	2454.12
455.514	2436.12
455.734	2470.12
455.955	2394.12
456.175	2378.12
456.395	2396.12
456.616	2428.12
456.836	2448.12
457.056	2506.12
457.276	2497.12
457.497	2595.12
457.717	2663.12
457.937	2557.12
458.157	2553.12
458.377	2523.12
458.598	2592.12
458.818	2580.12
459.038	2641.12
459.258	2619.12
459.478	2593.12
459.698	2707.12
459.918	2691.12
460.138	2759.12
460.358	2804.12
460.578	2832.12
460.798	2855.12
461.018	2883.12
461.238	2885.12
461.458	2921.12
461.678	2911.12
461.898	2967.12
462.118	3017.12
462.338	3051.12
462.558	3093.12
462.777	3170.12
462.997	3234.12
463.217	3329.12
463.437	3463.12
463.657	3577.12
463.876	3514.12
464.096	3340.12
464.316	3232.12
464.536	3110.12
464.755	3094.12
464.975	3007.12
465.195	2901.12
465.414	2864.12
465.634	2747.12
465.854	2704.12
466.073	2664.12
466.293	2656.12
466.512	2658.12
466.732	2675.12
466.951	2788.12
467.171	2969.12
467.391	2956.12
467.61	2706.12
467.829	2596.12
468.049	2671.12
468.268	2573.12
468.488	2560.12
468.707	2548.12
468.927	2582.12
469.146	2571.12
469.365	2611.12
469.585	2614.12
469.804	2632.12
470.023	2728.12
470.243	2795.12
470.462	2904.12
470.681	2975.12
470.901	3266.12
471.12	3776.12
471.339	3762.12
471.558	3134.12
471.777	2876.12
471.997	2736.12
472.216	2658.12
472.435	2665.12
472.654	2578.12
472.873	2563.12
473.092	2559.12
473.311	2611.12
473.53	2642.12
473.749	2721.12
473.968	2778.12
474.187	2643.12
474.406	2617.12
474.625	2611.12
474.844	2623.12
475.063	2617.12
475.282	2648.12
475.501	2597.12
475.72	2642.12
475.939	2674.12
476.158	2698.12
476.377	2778.12
476.596	2695.12
476.814	2783.12
477.033	2752.12
477.252	2820.12
477.471	2823.12
477.69	2899.12
477.908	2887.12
478.127	2972.12
478.346	2951.12
478.564	3010.12
478.783	2958.12
479.002	3111.12
479.22	3072.12
479.439	3122.12
479.658	3076.12
479.876	3145.12
480.095	3174.12
480.313	3240.12
480.532	3247.12
480.751	3198.12
480.969	3160.12
481.188	3178.12
481.406	3093.12
481.624	3126.12
481.843	3217.12
482.061	3181.12
482.28	3170.12
482.498	3168.12
482.717	3176.12
482.935	3203.12
483.153	3191.12
483.372	3251.12
483.59	3287.12
483.808	3349.12
484.027	3454.12
484.245	3638.12
484.463	4094.12
484.681	4510.12
484.9	4151.12
485.118	3804.12
485.336	3708.12
485.554	3802.12
485.772	3946.12
485.99	4541.12
486.209	4873.12
486.427	4160.12
486.645	3619.12
486.863	3570.12
487.081	3503.12
487.299	3457.12
487.517	3380.12
487.735	3367.12
