Data from SnStandardFlinnAPT0064_LampEnergy5.5_LIBS07252019.E.O._I.C._HRD10591_15-14-53-491.txt Node
Date: Thu Jul 25 15:14:53 EDT 2019
User: cochatt
Spectrometer: HR+D1059
Trigger mode: 1
Integration Time (sec): 1.000000E-1
Scans to average: 1
Electric dark correction enabled: true
Nonlinearity correction enabled: false
Boxcar width: 0
XAxis mode: Wavelengths
Number of Pixels in Spectrum: 2048
>>>>>Begin Spectral Data<<<<<
223.165	-16.62
223.4	-16.62
223.635	-16.62
223.869	-13.62
224.104	-22.62
224.338	-12.62
224.573	-10.62
224.808	-17.62
225.042	-4.62
225.277	-5.62
225.511	1.38
225.746	8.38
225.98	-1.62
226.215	-14.62
226.449	20.38
226.683	30.38
226.918	26.38
227.152	33.38
227.387	34.38
227.621	30.38
227.856	55.38
228.09	43.38
228.324	57.38
228.559	45.38
228.793	71.38
229.027	134.38
229.262	159.38
229.496	154.38
229.73	155.38
229.964	155.38
230.199	144.38
230.433	155.38
230.667	155.38
230.901	166.38
231.136	154.38
231.37	166.38
231.604	176.38
231.838	192.38
232.072	230.38
232.306	222.38
232.541	208.38
232.775	185.38
233.009	194.38
233.243	199.38
233.477	214.38
233.711	228.38
233.945	244.38
234.179	224.38
234.413	204.38
234.647	200.38
234.881	219.38
235.115	214.38
235.349	235.38
235.583	319.38
235.817	370.38
236.051	364.38
236.285	262.38
236.519	219.38
236.753	208.38
236.987	230.38
237.221	247.38
237.455	218.38
237.689	204.38
237.922	214.38
238.156	212.38
238.39	226.38
238.624	217.38
238.858	218.38
239.091	231.38
239.325	210.38
239.559	223.38
239.793	232.38
240.027	248.38
240.26	239.38
240.494	237.38
240.728	242.38
240.961	250.38
241.195	262.38
241.429	287.38
241.662	278.38
241.896	308.38
242.13	356.38
242.363	439.38
242.597	535.38
242.83	563.38
243.064	532.38
243.298	609.38
243.531	506.38
243.765	360.38
243.998	308.38
244.232	302.38
244.465	271.38
244.699	280.38
244.932	278.38
245.166	295.38
245.399	296.38
245.633	290.38
245.866	301.38
246.099	292.38
246.333	290.38
246.566	293.38
246.8	278.38
247.033	272.38
247.266	294.38
247.5	272.38
247.733	292.38
247.966	297.38
248.2	314.38
248.433	347.38
248.666	363.38
248.899	365.38
249.133	333.38
249.366	348.38
249.599	361.38
249.832	398.38
250.066	395.38
250.299	333.38
250.532	334.38
250.765	305.38
250.998	322.38
251.231	309.38
251.465	299.38
251.698	315.38
251.931	314.38
252.164	291.38
252.397	326.38
252.63	349.38
252.863	321.38
253.096	322.38
253.329	318.38
253.562	317.38
253.795	333.38
254.028	328.38
254.261	355.38
254.494	353.38
254.727	406.38
254.96	443.38
255.193	438.38
255.426	367.38
255.659	353.38
255.892	340.38
256.124	354.38
256.357	363.38
256.59	375.38
256.823	392.38
257.056	420.38
257.289	485.38
257.521	514.38
257.754	434.38
257.987	383.38
258.22	388.38
258.452	364.38
258.685	374.38
258.918	393.38
259.151	398.38
259.383	408.38
259.616	463.38
259.849	452.38
260.081	412.38
260.314	398.38
260.547	396.38
260.779	398.38
261.012	390.38
261.244	405.38
261.477	411.38
261.71	416.38
261.942	413.38
262.175	416.38
262.407	422.38
262.64	461.38
262.872	455.38
263.105	489.38
263.337	518.38
263.57	522.38
263.802	538.38
264.035	536.38
264.267	565.38
264.499	567.38
264.732	592.38
264.964	608.38
265.197	598.38
265.429	598.38
265.661	613.38
265.894	655.38
266.126	670.38
266.358	733.38
266.591	733.38
266.823	662.38
267.055	620.38
267.287	570.38
267.52	555.38
267.752	548.38
267.984	563.38
268.216	546.38
268.448	529.38
268.681	538.38
268.913	521.38
269.145	519.38
269.377	514.38
269.609	512.38
269.841	523.38
270.073	536.38
270.306	632.38
270.538	770.38
270.77	1067.38
271.002	1266.38
271.234	932.38
271.466	668.38
271.698	573.38
271.93	542.38
272.162	540.38
272.394	525.38
272.626	522.38
272.858	507.38
273.09	492.38
273.322	502.38
273.553	475.38
273.785	496.38
274.017	478.38
274.249	499.38
274.481	495.38
274.713	502.38
274.945	498.38
275.176	511.38
275.408	499.38
275.64	461.38
275.872	500.38
276.104	496.38
276.335	500.38
276.567	487.38
276.799	515.38
277.031	532.38
277.262	535.38
277.494	552.38
277.726	589.38
277.957	655.38
278.189	708.38
278.421	675.38
278.652	617.38
278.884	610.38
279.115	576.38
279.347	555.38
279.579	540.38
279.81	538.38
280.042	556.38
280.273	538.38
280.505	579.38
280.736	564.38
280.968	600.38
281.199	628.38
281.431	684.38
281.662	693.38
281.894	641.38
282.125	630.38
282.356	631.38
282.588	631.38
282.819	613.38
283.051	676.38
283.282	710.38
283.513	869.38
283.745	1208.38
283.976	1837.38
284.207	2575.38
284.439	2287.38
284.67	1452.38
284.901	1187.38
285.132	1188.38
285.364	1124.38
285.595	910.38
285.826	842.38
286.057	936.38
286.288	1285.38
286.52	1672.38
286.751	1558.38
286.982	1028.38
287.213	820.38
287.444	729.38
287.675	708.38
287.906	684.38
288.138	674.38
288.369	654.38
288.6	664.38
288.831	659.38
289.062	663.38
289.293	660.38
289.524	645.38
289.755	682.38
289.986	663.38
290.217	698.38
290.448	676.38
290.679	665.38
290.91	668.38
291.141	709.38
291.371	737.38
291.602	728.38
291.833	716.38
292.064	658.38
292.295	661.38
292.526	646.38
292.757	622.38
292.987	617.38
293.218	626.38
293.449	626.38
293.68	629.38
293.91	625.38
294.141	637.38
294.372	604.38
294.603	630.38
294.833	634.38
295.064	618.38
295.295	624.38
295.525	612.38
295.756	620.38
295.987	613.38
296.217	612.38
296.448	599.38
296.679	611.38
296.909	635.38
297.14	649.38
297.37	635.38
297.601	624.38
297.831	628.38
298.062	642.38
298.292	627.38
298.523	650.38
298.753	653.38
298.984	691.38
299.214	658.38
299.445	688.38
299.675	663.38
299.905	692.38
300.136	709.38
300.366	774.38
300.597	958.38
300.827	1243.38
301.057	1618.38
301.288	1609.38
301.518	1120.38
301.748	930.38
301.979	873.38
302.209	820.38
302.439	835.38
302.669	886.38
302.9	1012.38
303.13	1337.38
303.36	1820.38
303.59	2434.38
303.82	2150.38
304.051	1344.38
304.281	1021.38
304.511	884.38
304.741	852.38
304.971	814.38
305.201	760.38
305.431	781.38
305.661	767.38
305.891	740.38
306.121	722.38
306.352	740.38
306.582	739.38
306.812	718.38
307.042	709.38
307.272	741.38
307.502	718.38
307.731	694.38
307.961	712.38
308.191	720.38
308.421	702.38
308.651	730.38
308.881	725.38
309.111	725.38
309.341	717.38
309.571	714.38
309.8	736.38
310.03	750.38
310.26	717.38
310.49	703.38
310.72	720.38
310.949	734.38
311.179	754.38
311.409	747.38
311.639	783.38
311.868	751.38
312.098	740.38
312.328	761.38
312.557	754.38
312.787	783.38
313.017	758.38
313.246	774.38
313.476	780.38
313.706	790.38
313.935	829.38
314.165	866.38
314.394	889.38
314.624	862.38
314.853	807.38
315.083	832.38
315.312	842.38
315.542	862.38
315.771	810.38
316.001	851.38
316.23	883.38
316.46	872.38
316.689	946.38
316.919	1098.38
317.148	1494.38
317.377	2238.38
317.607	3235.38
317.836	3310.38
318.065	2060.38
318.295	1410.38
318.524	1174.38
318.753	1079.38
318.983	1013.38
319.212	901.38
319.441	908.38
319.67	936.38
319.9	897.38
320.129	865.38
320.358	908.38
320.587	870.38
320.816	876.38
321.046	903.38
321.275	882.38
321.504	933.38
321.733	951.38
321.962	926.38
322.191	935.38
322.42	948.38
322.649	943.38
322.878	946.38
323.108	935.38
323.337	976.38
323.566	959.38
323.795	980.38
324.024	998.38
324.253	1039.38
324.482	1076.38
324.71	1115.38
324.939	1123.38
325.168	1168.38
325.397	1210.38
325.626	1407.38
325.855	1838.38
326.084	2726.38
326.313	3926.38
326.542	4236.38
326.77	2764.38
326.999	1954.38
327.228	1659.38
327.457	1622.38
327.686	1650.38
327.914	1731.38
328.143	1990.38
328.372	2213.38
328.6	2362.38
328.829	2294.38
329.058	2034.38
329.287	1826.38
329.515	1680.38
329.744	1586.38
329.972	1498.38
330.201	1448.38
330.43	1394.38
330.658	1373.38
330.887	1344.38
331.115	1297.38
331.344	1308.38
331.572	1245.38
331.801	1311.38
332.03	1297.38
332.258	1333.38
332.486	1378.38
332.715	1501.38
332.943	1813.38
333.172	2115.38
333.4	2118.38
333.629	1737.38
333.857	1632.38
334.085	1614.38
334.314	1721.38
334.542	1806.38
334.771	2072.38
334.999	2446.38
335.227	2961.38
335.455	3240.38
335.684	3034.38
335.912	2636.38
336.14	2316.38
336.369	2070.38
336.597	1920.38
336.825	1754.38
337.053	1667.38
337.281	1586.38
337.51	1508.38
337.738	1463.38
337.966	1395.38
338.194	1364.38
338.422	1323.38
338.65	1277.38
338.878	1290.38
339.106	1240.38
339.334	1202.38
339.562	1223.38
339.79	1182.38
340.018	1164.38
340.246	1149.38
340.474	1150.38
340.702	1150.38
340.93	1164.38
341.158	1155.38
341.386	1178.38
341.614	1129.38
341.842	1123.38
342.07	1098.38
342.298	1077.38
342.526	1051.38
342.754	1062.38
342.981	1053.38
343.209	1054.38
343.437	1070.38
343.665	1080.38
343.893	1098.38
344.12	1112.38
344.348	1073.38
344.576	1045.38
344.804	1044.38
345.031	991.38
345.259	1022.38
345.487	1012.38
345.714	1001.38
345.942	997.38
346.17	979.38
346.397	1011.38
346.625	996.38
346.853	1000.38
347.08	982.38
347.308	978.38
347.535	988.38
347.763	985.38
347.99	994.38
348.218	981.38
348.445	966.38
348.673	977.38
348.9	992.38
349.128	960.38
349.355	967.38
349.583	934.38
349.81	947.38
350.037	928.38
350.265	941.38
350.492	946.38
350.72	936.38
350.947	926.38
351.174	966.38
351.402	943.38
351.629	928.38
351.856	958.38
352.083	942.38
352.311	956.38
352.538	940.38
352.765	950.38
352.992	933.38
353.22	938.38
353.447	934.38
353.674	898.38
353.901	949.38
354.128	958.38
354.355	932.38
354.583	959.38
354.81	950.38
355.037	961.38
355.264	948.38
355.491	956.38
355.718	958.38
355.945	986.38
356.172	990.38
356.399	959.38
356.626	987.38
356.853	998.38
357.08	987.38
357.307	963.38
357.534	1005.38
357.761	1010.38
357.988	1024.38
358.215	1007.38
358.441	986.38
358.668	972.38
358.895	998.38
359.122	994.38
359.349	1031.38
359.576	1004.38
359.802	986.38
360.029	993.38
360.256	1018.38
360.483	1007.38
360.709	983.38
360.936	978.38
361.163	995.38
361.39	988.38
361.616	985.38
361.843	1031.38
362.07	1012.38
362.296	1005.38
362.523	991.38
362.749	990.38
362.976	1008.38
363.203	1027.38
363.429	969.38
363.656	1004.38
363.882	1016.38
364.109	1020.38
364.335	996.38
364.562	1017.38
364.788	979.38
365.015	1021.38
365.241	1013.38
365.468	1048.38
365.694	1105.38
365.92	1068.38
366.147	1031.38
366.373	1029.38
366.599	1026.38
366.826	1014.38
367.052	1034.38
367.278	1046.38
367.505	1031.38
367.731	1010.38
367.957	997.38
368.184	1054.38
368.41	1038.38
368.636	1050.38
368.862	1059.38
369.089	1040.38
369.315	1062.38
369.541	1044.38
369.767	1070.38
369.993	1060.38
370.219	1040.38
370.445	1049.38
370.672	1064.38
370.898	1086.38
371.124	1017.38
371.35	1073.38
371.576	1065.38
371.802	1074.38
372.028	1079.38
372.254	1087.38
372.48	1094.38
372.706	1128.38
372.932	1138.38
373.158	1154.38
373.384	1095.38
373.61	1115.38
373.835	1096.38
374.061	1108.38
374.287	1116.38
374.513	1147.38
374.739	1125.38
374.965	1158.38
375.191	1182.38
375.416	1103.38
375.642	1122.38
375.868	1143.38
376.094	1113.38
376.319	1104.38
376.545	1097.38
376.771	1119.38
376.997	1092.38
377.222	1074.38
377.448	1095.38
377.674	1051.38
377.899	1098.38
378.125	1090.38
378.35	1082.38
378.576	1087.38
378.802	1088.38
379.027	1090.38
379.253	1124.38
379.478	1162.38
379.704	1287.38
379.929	1706.38
380.155	2445.38
380.38	2570.38
380.606	1687.38
380.831	1309.38
381.057	1182.38
381.282	1121.38
381.507	1148.38
381.733	1087.38
381.958	1082.38
382.184	1091.38
382.409	1095.38
382.634	1071.38
382.86	1091.38
383.085	1061.38
383.31	1078.38
383.535	1074.38
383.761	1079.38
383.986	1087.38
384.211	1078.38
384.436	1111.38
384.662	1099.38
384.887	1106.38
385.112	1100.38
385.337	1106.38
385.562	1104.38
385.787	1119.38
386.013	1103.38
386.238	1114.38
386.463	1120.38
386.688	1103.38
386.913	1124.38
387.138	1119.38
387.363	1115.38
387.588	1098.38
387.813	1107.38
388.038	1090.38
388.263	1084.38
388.488	1118.38
388.713	1115.38
388.938	1106.38
389.163	1110.38
389.387	1095.38
389.612	1085.38
389.837	1090.38
390.062	1116.38
390.287	1094.38
390.512	1111.38
390.736	1124.38
390.961	1146.38
391.186	1127.38
391.411	1156.38
391.636	1155.38
391.86	1178.38
392.085	1172.38
392.31	1094.38
392.534	1117.38
392.759	1126.38
392.984	1123.38
393.208	1151.38
393.433	1122.38
393.658	1095.38
393.882	1114.38
394.107	1117.38
394.331	1125.38
394.556	1140.38
394.78	1129.38
395.005	1154.38
395.229	1123.38
395.454	1176.38
395.678	1153.38
395.903	1162.38
396.127	1145.38
396.352	1144.38
396.576	1160.38
396.801	1148.38
397.025	1148.38
397.249	1146.38
397.474	1149.38
397.698	1152.38
397.922	1210.38
398.147	1155.38
398.371	1189.38
398.595	1213.38
398.82	1224.38
399.044	1278.38
399.268	1333.38
399.492	1409.38
399.717	1424.38
399.941	1484.38
400.165	1390.38
400.389	1355.38
400.613	1348.38
400.837	1294.38
401.062	1278.38
401.286	1257.38
401.51	1212.38
401.734	1219.38
401.958	1260.38
402.182	1225.38
402.406	1249.38
402.63	1241.38
402.854	1265.38
403.078	1239.38
403.302	1232.38
403.526	1283.38
403.75	1277.38
403.974	1283.38
404.198	1289.38
404.422	1261.38
404.645	1260.38
404.869	1289.38
405.093	1285.38
405.317	1276.38
405.541	1269.38
405.765	1320.38
405.988	1310.38
406.212	1302.38
406.436	1283.38
406.66	1333.38
406.883	1322.38
407.107	1343.38
407.331	1382.38
407.555	1362.38
407.778	1391.38
408.002	1367.38
408.226	1330.38
408.449	1304.38
408.673	1312.38
408.896	1321.38
409.12	1292.38
409.344	1273.38
409.567	1279.38
409.791	1275.38
410.014	1254.38
410.238	1253.38
410.461	1240.38
410.685	1267.38
410.908	1261.38
411.132	1242.38
411.355	1199.38
411.578	1231.38
411.802	1227.38
412.025	1231.38
412.249	1211.38
412.472	1230.38
412.695	1187.38
412.919	1198.38
413.142	1210.38
413.365	1209.38
413.589	1215.38
413.812	1186.38
414.035	1148.38
414.258	1175.38
414.482	1206.38
414.705	1231.38
414.928	1214.38
415.151	1194.38
415.374	1211.38
415.597	1218.38
415.821	1164.38
416.044	1160.38
416.267	1170.38
416.49	1121.38
416.713	1144.38
416.936	1147.38
417.159	1145.38
417.382	1160.38
417.605	1150.38
417.828	1171.38
418.051	1206.38
418.274	1174.38
418.497	1191.38
418.72	1214.38
418.943	1180.38
419.166	1226.38
419.389	1314.38
419.611	1282.38
419.834	1235.38
420.057	1185.38
420.28	1182.38
420.503	1160.38
420.726	1153.38
420.948	1148.38
421.171	1151.38
421.394	1163.38
421.617	1160.38
421.839	1202.38
422.062	1190.38
422.285	1154.38
422.507	1186.38
422.73	1157.38
422.953	1161.38
423.175	1159.38
423.398	1163.38
423.621	1141.38
423.843	1180.38
424.066	1172.38
424.288	1184.38
424.511	1167.38
424.733	1159.38
424.956	1178.38
425.178	1167.38
425.401	1152.38
425.623	1169.38
425.846	1154.38
426.068	1124.38
426.291	1126.38
426.513	1100.38
426.735	1105.38
426.958	1140.38
427.18	1110.38
427.402	1125.38
427.625	1089.38
427.847	1076.38
428.069	1072.38
428.292	1078.38
428.514	1070.38
428.736	1060.38
428.958	1090.38
429.181	1074.38
429.403	1066.38
429.625	1074.38
429.847	1076.38
430.069	1100.38
430.292	1123.38
430.514	1132.38
430.736	1187.38
430.958	1101.38
431.18	1084.38
431.402	1063.38
431.624	1076.38
431.846	1032.38
432.068	1053.38
432.29	1067.38
432.512	1075.38
432.734	1093.38
432.956	1058.38
433.178	1104.38
433.4	1090.38
433.622	1101.38
433.844	1107.38
434.066	1064.38
434.287	1096.38
434.509	1091.38
434.731	1088.38
434.953	1118.38
435.175	1146.38
435.397	1108.38
435.618	1122.38
435.84	1079.38
436.062	1076.38
436.284	1062.38
436.505	1092.38
436.727	1076.38
436.949	1068.38
437.17	1072.38
437.392	1034.38
437.614	1043.38
437.835	1019.38
438.057	1040.38
438.278	1020.38
438.5	1071.38
438.721	1058.38
438.943	1092.38
439.165	1042.38
439.386	1103.38
439.608	1085.38
439.829	1100.38
440.05	1127.38
440.272	1157.38
440.493	1140.38
440.715	1107.38
440.936	1117.38
441.158	1140.38
441.379	1112.38
441.6	1149.38
441.822	1164.38
442.043	1215.38
442.264	1254.38
442.486	1172.38
442.707	1166.38
442.928	1148.38
443.149	1179.38
443.371	1134.38
443.592	1168.38
443.813	1154.38
444.034	1174.38
444.255	1179.38
444.476	1192.38
444.698	1255.38
444.919	1253.38
445.14	1335.38
445.361	1241.38
445.582	1181.38
445.803	1182.38
446.024	1140.38
446.245	1165.38
446.466	1148.38
446.687	1134.38
446.908	1141.38
447.129	1118.38
447.35	1076.38
447.571	1094.38
447.792	1051.38
448.013	1069.38
448.234	1028.38
448.455	1056.38
448.675	1111.38
448.896	1095.38
449.117	1118.38
449.338	1174.38
449.559	1182.38
449.779	1086.38
450	1051.38
450.221	1041.38
450.442	1034.38
450.662	999.38
450.883	1031.38
451.104	996.38
451.324	1039.38
451.545	1028.38
451.766	1027.38
451.986	1027.38
452.207	1082.38
452.428	1250.38
452.648	1662.38
452.869	1472.38
453.089	1161.38
453.31	1097.38
453.53	1118.38
453.751	1112.38
453.971	1139.38
454.192	1166.38
454.412	1067.38
454.633	1012.38
454.853	1030.38
455.073	979.38
455.294	994.38
455.514	1002.38
455.734	1005.38
455.955	964.38
456.175	977.38
456.395	970.38
456.616	994.38
456.836	987.38
457.056	993.38
457.276	980.38
457.497	1048.38
457.717	1050.38
457.937	1026.38
458.157	1014.38
458.377	1017.38
458.598	1044.38
458.818	1074.38
459.038	1048.38
459.258	1022.38
459.478	1064.38
459.698	1060.38
459.918	1087.38
460.138	1116.38
460.358	1160.38
460.578	1156.38
460.798	1140.38
461.018	1135.38
461.238	1174.38
461.458	1148.38
461.678	1138.38
461.898	1187.38
462.118	1193.38
462.338	1193.38
462.558	1246.38
462.777	1227.38
462.997	1312.38
463.217	1342.38
463.437	1403.38
463.657	1340.38
463.876	1374.38
464.096	1294.38
464.316	1251.38
464.536	1254.38
464.755	1245.38
464.975	1226.38
465.195	1173.38
465.414	1143.38
465.634	1143.38
465.854	1141.38
466.073	1113.38
466.293	1081.38
466.512	1073.38
466.732	1084.38
466.951	1114.38
467.171	1160.38
467.391	1147.38
467.61	1088.38
467.829	1057.38
468.049	1068.38
468.268	1085.38
468.488	1056.38
468.707	1036.38
468.927	1058.38
469.146	1059.38
469.365	1069.38
469.585	1061.38
469.804	1078.38
470.023	1107.38
470.243	1138.38
470.462	1178.38
470.681	1197.38
470.901	1282.38
471.12	1414.38
471.339	1435.38
471.558	1258.38
471.777	1160.38
471.997	1138.38
472.216	1066.38
472.435	1071.38
472.654	1049.38
472.873	1058.38
473.092	1056.38
473.311	1040.38
473.53	1048.38
473.749	1062.38
473.968	1124.38
474.187	1091.38
474.406	1043.38
474.625	1072.38
474.844	1067.38
475.063	1067.38
475.282	1100.38
475.501	1073.38
475.72	1088.38
475.939	1086.38
476.158	1099.38
476.377	1117.38
476.596	1099.38
476.814	1091.38
477.033	1088.38
477.252	1111.38
477.471	1151.38
477.69	1140.38
477.908	1195.38
478.127	1194.38
478.346	1224.38
478.564	1232.38
478.783	1216.38
479.002	1252.38
479.22	1224.38
479.439	1249.38
479.658	1253.38
479.876	1214.38
480.095	1282.38
480.313	1306.38
480.532	1308.38
480.751	1284.38
480.969	1282.38
481.188	1226.38
481.406	1235.38
481.624	1231.38
481.843	1250.38
482.061	1256.38
482.28	1256.38
482.498	1255.38
482.717	1266.38
482.935	1288.38
483.153	1301.38
483.372	1322.38
483.59	1340.38
483.808	1286.38
484.027	1309.38
484.245	1396.38
484.463	1504.38
484.681	1698.38
484.9	1553.38
485.118	1470.38
485.336	1433.38
485.554	1457.38
485.772	1504.38
485.99	1672.38
486.209	1792.38
486.427	1540.38
486.645	1407.38
486.863	1403.38
487.081	1367.38
487.299	1318.38
487.517	1303.38
487.735	1361.38
487.953	1381.38
488.171	1350.38
488.389	1346.38
488.607	1359.38
488.825	1311.38
489.043	1316.38
489.261	1310.38
489.479	1304.38
489.696	1301.38
489.914	1316.38
490.132	1329.38
490.35	1322.38
490.568	1335.38
490.786	1372.38
491.003	1416.38
491.221	1394.38
491.439	1391.38
491.657	1396.38
491.874	1406.38
492.092	1425.38
