Data from SnStandardFlinnAPT0064_QswitchEnergy10_LIBS07252019.E.O._I.C._HRD10591_15-26-14-972.txt Node
Date: Thu Jul 25 15:26:14 EDT 2019
User: cochatt
Spectrometer: HR+D1059
Trigger mode: 1
Integration Time (sec): 1.000000E-1
Scans to average: 1
Electric dark correction enabled: true
Nonlinearity correction enabled: false
Boxcar width: 0
XAxis mode: Wavelengths
Number of Pixels in Spectrum: 2048
>>>>>Begin Spectral Data<<<<<
223.165	-22.31
223.4	-22.31
223.635	-22.31
223.869	-26.31
224.104	-11.31
224.338	-4.31
224.573	-5.31
224.808	-10.31
225.042	-13.31
225.277	-2.31
225.511	-6.31
225.746	4.69
225.98	6.69
226.215	1.69
226.449	10.69
226.683	18.69
226.918	21.69
227.152	37.69
227.387	26.69
227.621	40.69
227.856	48.69
228.09	42.69
228.324	52.69
228.559	67.69
228.793	75.69
229.027	84.69
229.262	76.69
229.496	79.69
229.73	60.69
229.964	86.69
230.199	76.69
230.433	74.69
230.667	72.69
230.901	80.69
231.136	74.69
231.37	76.69
231.604	83.69
231.838	101.69
232.072	106.69
232.306	136.69
232.541	107.69
232.775	88.69
233.009	91.69
233.243	89.69
233.477	87.69
233.711	103.69
233.945	110.69
234.179	97.69
234.413	83.69
234.647	85.69
234.881	89.69
235.115	97.69
235.349	89.69
235.583	119.69
235.817	136.69
236.051	146.69
236.285	101.69
236.519	76.69
236.753	96.69
236.987	81.69
237.221	90.69
237.455	89.69
237.689	93.69
237.922	85.69
238.156	88.69
238.39	80.69
238.624	76.69
238.858	80.69
239.091	65.69
239.325	83.69
239.559	74.69
239.793	70.69
240.027	90.69
240.26	89.69
240.494	78.69
240.728	85.69
240.961	90.69
241.195	112.69
241.429	92.69
241.662	96.69
241.896	98.69
242.13	115.69
242.363	136.69
242.597	170.69
242.83	148.69
243.064	146.69
243.298	185.69
243.531	166.69
243.765	97.69
243.998	74.69
244.232	86.69
244.465	81.69
244.699	81.69
244.932	82.69
245.166	81.69
245.399	68.69
245.633	77.69
245.866	86.69
246.099	92.69
246.333	81.69
246.566	87.69
246.8	69.69
247.033	83.69
247.266	88.69
247.5	83.69
247.733	75.69
247.966	95.69
248.2	80.69
248.433	120.69
248.666	136.69
248.899	137.69
249.133	98.69
249.366	96.69
249.599	97.69
249.832	133.69
250.066	153.69
250.299	111.69
250.532	97.69
250.765	100.69
250.998	76.69
251.231	89.69
251.465	73.69
251.698	86.69
251.931	77.69
252.164	86.69
252.397	98.69
252.63	73.69
252.863	99.69
253.096	90.69
253.329	89.69
253.562	103.69
253.795	105.69
254.028	102.69
254.261	93.69
254.494	106.69
254.727	123.69
254.96	168.69
255.193	140.69
255.426	101.69
255.659	92.69
255.892	85.69
256.124	79.69
256.357	83.69
256.59	80.69
256.823	114.69
257.056	125.69
257.289	140.69
257.521	192.69
257.754	121.69
257.987	89.69
258.22	86.69
258.452	89.69
258.685	81.69
258.918	91.69
259.151	93.69
259.383	106.69
259.616	139.69
259.849	162.69
260.081	113.69
260.314	90.69
260.547	96.69
260.779	83.69
261.012	96.69
261.244	85.69
261.477	100.69
261.71	80.69
261.942	96.69
262.175	84.69
262.407	79.69
262.64	82.69
262.872	84.69
263.105	87.69
263.337	86.69
263.57	89.69
263.802	104.69
264.035	87.69
264.267	93.69
264.499	72.69
264.732	105.69
264.964	93.69
265.197	91.69
265.429	73.69
265.661	84.69
265.894	114.69
266.126	133.69
266.358	173.69
266.591	157.69
266.823	90.69
267.055	77.69
267.287	86.69
267.52	93.69
267.752	94.69
267.984	93.69
268.216	89.69
268.448	90.69
268.681	106.69
268.913	102.69
269.145	95.69
269.377	87.69
269.609	90.69
269.841	98.69
270.073	115.69
270.306	142.69
270.538	226.69
270.77	341.69
271.002	410.69
271.234	204.69
271.466	118.69
271.698	107.69
271.93	85.69
272.162	74.69
272.394	108.69
272.626	92.69
272.858	90.69
273.09	86.69
273.322	92.69
273.553	81.69
273.785	105.69
274.017	91.69
274.249	94.69
274.481	96.69
274.713	100.69
274.945	88.69
275.176	84.69
275.408	85.69
275.64	87.69
275.872	96.69
276.104	102.69
276.335	93.69
276.567	91.69
276.799	85.69
277.031	88.69
277.262	92.69
277.494	116.69
277.726	115.69
277.957	182.69
278.189	258.69
278.421	275.69
278.652	194.69
278.884	198.69
279.115	135.69
279.347	112.69
279.579	86.69
279.81	101.69
280.042	102.69
280.273	104.69
280.505	98.69
280.736	112.69
280.968	126.69
281.199	177.69
281.431	256.69
281.662	262.69
281.894	172.69
282.125	121.69
282.356	112.69
282.588	124.69
282.819	115.69
283.051	118.69
283.282	151.69
283.513	186.69
283.745	352.69
283.976	598.69
284.207	864.69
284.439	672.69
284.67	297.69
284.901	264.69
285.132	390.69
285.364	402.69
285.595	236.69
285.826	162.69
286.057	261.69
286.288	443.69
286.52	651.69
286.751	540.69
286.982	220.69
287.213	132.69
287.444	113.69
287.675	102.69
287.906	102.69
288.138	100.69
288.369	102.69
288.6	96.69
288.831	95.69
289.062	103.69
289.293	99.69
289.524	96.69
289.755	102.69
289.986	97.69
290.217	84.69
290.448	108.69
290.679	104.69
290.91	131.69
291.141	156.69
291.371	244.69
291.602	309.69
291.833	204.69
292.064	112.69
292.295	97.69
292.526	92.69
292.757	92.69
292.987	92.69
293.218	85.69
293.449	99.69
293.68	89.69
293.91	85.69
294.141	103.69
294.372	91.69
294.603	93.69
294.833	105.69
295.064	94.69
295.295	97.69
295.525	103.69
295.756	98.69
295.987	97.69
296.217	84.69
296.448	74.69
296.679	100.69
296.909	104.69
297.14	93.69
297.37	102.69
297.601	89.69
297.831	109.69
298.062	103.69
298.292	105.69
298.523	97.69
298.753	112.69
298.984	116.69
299.214	103.69
299.445	106.69
299.675	125.69
299.905	116.69
300.136	136.69
300.366	177.69
300.597	280.69
300.827	504.69
301.057	745.69
301.288	652.69
301.518	266.69
301.748	166.69
301.979	142.69
302.209	144.69
302.439	144.69
302.669	186.69
302.9	290.69
303.13	553.69
303.36	966.69
303.59	1343.69
303.82	912.69
304.051	330.69
304.281	172.69
304.511	128.69
304.741	109.69
304.971	106.69
305.201	107.69
305.431	115.69
305.661	109.69
305.891	105.69
306.121	117.69
306.352	98.69
306.582	119.69
306.812	112.69
307.042	116.69
307.272	92.69
307.502	110.69
307.731	97.69
307.961	113.69
308.191	114.69
308.421	104.69
308.651	98.69
308.881	94.69
309.111	108.69
309.341	110.69
309.571	111.69
309.8	115.69
310.03	108.69
310.26	107.69
310.49	102.69
310.72	114.69
310.949	98.69
311.179	106.69
311.409	114.69
311.639	110.69
311.868	119.69
312.098	105.69
312.328	111.69
312.557	116.69
312.787	117.69
313.017	117.69
313.246	109.69
313.476	114.69
313.706	133.69
313.935	142.69
314.165	181.69
314.394	233.69
314.624	190.69
314.853	136.69
315.083	128.69
315.312	108.69
315.542	128.69
315.771	116.69
316.001	123.69
316.23	139.69
316.46	148.69
316.689	162.69
316.919	274.69
317.148	531.69
317.377	985.69
317.607	1626.69
317.836	1458.69
318.065	571.69
318.295	235.69
318.524	165.69
318.753	133.69
318.983	132.69
319.212	117.69
319.441	130.69
319.67	120.69
319.9	97.69
320.129	112.69
320.358	116.69
320.587	115.69
320.816	106.69
321.046	124.69
321.275	134.69
321.504	125.69
321.733	154.69
321.962	167.69
322.191	155.69
322.42	119.69
322.649	131.69
322.878	137.69
323.108	120.69
323.337	140.69
323.566	132.69
323.795	130.69
324.024	140.69
324.253	135.69
324.482	176.69
324.71	237.69
324.939	280.69
325.168	231.69
325.397	187.69
325.626	267.69
325.855	507.69
326.084	1014.69
326.313	1726.69
326.542	1709.69
326.77	665.69
326.999	268.69
327.228	203.69
327.457	243.69
327.686	241.69
327.914	154.69
328.143	145.69
328.372	146.69
328.6	114.69
328.829	136.69
329.058	113.69
329.287	103.69
329.515	116.69
329.744	109.69
329.972	124.69
330.201	121.69
330.43	126.69
330.658	106.69
330.887	114.69
331.115	120.69
331.344	124.69
331.572	131.69
331.801	128.69
332.03	120.69
332.258	145.69
332.486	181.69
332.715	302.69
332.943	522.69
333.172	837.69
333.4	730.69
333.629	280.69
333.857	149.69
334.085	128.69
334.314	122.69
334.542	119.69
334.771	103.69
334.999	99.69
335.227	113.69
335.455	108.69
335.684	120.69
335.912	115.69
336.14	117.69
336.369	105.69
336.597	107.69
336.825	113.69
337.053	121.69
337.281	95.69
337.51	117.69
337.738	112.69
337.966	120.69
338.194	101.69
338.422	112.69
338.65	103.69
338.878	104.69
339.106	119.69
339.334	123.69
339.562	126.69
339.79	113.69
340.018	105.69
340.246	110.69
340.474	126.69
340.702	122.69
340.93	102.69
341.158	112.69
341.386	110.69
341.614	120.69
341.842	112.69
342.07	122.69
342.298	103.69
342.526	101.69
342.754	104.69
342.981	119.69
343.209	113.69
343.437	115.69
343.665	112.69
343.893	112.69
344.12	126.69
344.348	123.69
344.576	105.69
344.804	116.69
345.031	120.69
345.259	113.69
345.487	105.69
345.714	110.69
345.942	99.69
346.17	116.69
346.397	106.69
346.625	108.69
346.853	113.69
347.08	122.69
347.308	107.69
347.535	105.69
347.763	95.69
347.99	103.69
348.218	105.69
348.445	115.69
348.673	112.69
348.9	121.69
349.128	124.69
349.355	106.69
349.583	114.69
349.81	112.69
350.037	106.69
350.265	120.69
350.492	114.69
350.72	114.69
350.947	122.69
351.174	114.69
351.402	109.69
351.629	116.69
351.856	105.69
352.083	91.69
352.311	95.69
352.538	105.69
352.765	110.69
352.992	89.69
353.22	88.69
353.447	105.69
353.674	114.69
353.901	104.69
354.128	100.69
354.355	107.69
354.583	113.69
354.81	89.69
355.037	98.69
355.264	102.69
355.491	103.69
355.718	101.69
355.945	101.69
356.172	101.69
356.399	110.69
356.626	114.69
356.853	98.69
357.08	123.69
357.307	108.69
357.534	102.69
357.761	109.69
357.988	99.69
358.215	93.69
358.441	106.69
358.668	113.69
358.895	120.69
359.122	132.69
359.349	105.69
359.576	106.69
359.802	116.69
360.029	105.69
360.256	97.69
360.483	114.69
360.709	102.69
360.936	108.69
361.163	112.69
361.39	108.69
361.616	110.69
361.843	104.69
362.07	110.69
362.296	100.69
362.523	90.69
362.749	96.69
362.976	117.69
363.203	98.69
363.429	93.69
363.656	100.69
363.882	117.69
364.109	109.69
364.335	109.69
364.562	101.69
364.788	103.69
365.015	99.69
365.241	120.69
365.468	180.69
365.694	266.69
365.92	228.69
366.147	114.69
366.373	105.69
366.599	99.69
366.826	104.69
367.052	99.69
367.278	96.69
367.505	103.69
367.731	95.69
367.957	99.69
368.184	124.69
368.41	128.69
368.636	126.69
368.862	113.69
369.089	93.69
369.315	110.69
369.541	101.69
369.767	127.69
369.993	109.69
370.219	112.69
370.445	106.69
370.672	120.69
370.898	101.69
371.124	86.69
371.35	102.69
371.576	98.69
371.802	105.69
372.028	107.69
372.254	120.69
372.48	115.69
372.706	108.69
372.932	107.69
373.158	115.69
373.384	110.69
373.61	112.69
373.835	119.69
374.061	119.69
374.287	105.69
374.513	116.69
374.739	112.69
374.965	116.69
375.191	107.69
375.416	106.69
375.642	93.69
375.868	104.69
376.094	112.69
376.319	106.69
376.545	118.69
376.771	106.69
376.997	101.69
377.222	107.69
377.448	111.69
377.674	115.69
377.899	109.69
378.125	101.69
378.35	110.69
378.576	102.69
378.802	131.69
379.027	123.69
379.253	141.69
379.478	198.69
379.704	340.69
379.929	812.69
380.155	1690.69
380.38	1741.69
380.606	581.69
380.831	198.69
381.057	153.69
381.282	106.69
381.507	116.69
381.733	108.69
381.958	109.69
382.184	112.69
382.409	104.69
382.634	114.69
382.86	108.69
383.085	95.69
383.31	101.69
383.535	98.69
383.761	109.69
383.986	115.69
384.211	105.69
384.436	103.69
384.662	102.69
384.887	100.69
385.112	94.69
385.337	116.69
385.562	98.69
385.787	105.69
386.013	118.69
386.238	113.69
386.463	109.69
386.688	100.69
386.913	91.69
387.138	99.69
387.363	107.69
387.588	98.69
387.813	105.69
388.038	98.69
388.263	105.69
388.488	116.69
388.713	101.69
388.938	109.69
389.163	93.69
389.387	92.69
389.612	107.69
389.837	112.69
390.062	102.69
390.287	100.69
390.512	107.69
390.736	118.69
390.961	100.69
391.186	93.69
391.411	106.69
391.636	105.69
391.86	94.69
392.085	109.69
392.31	101.69
392.534	98.69
392.759	105.69
392.984	109.69
393.208	148.69
393.433	200.69
393.658	204.69
393.882	125.69
394.107	96.69
394.331	107.69
394.556	104.69
394.78	103.69
395.005	90.69
395.229	101.69
395.454	105.69
395.678	98.69
395.903	105.69
396.127	118.69
396.352	107.69
396.576	116.69
396.801	141.69
397.025	192.69
397.249	122.69
397.474	103.69
397.698	112.69
397.922	106.69
398.147	112.69
398.371	108.69
398.595	90.69
398.82	89.69
399.044	85.69
399.268	94.69
399.492	91.69
399.717	101.69
399.941	95.69
400.165	93.69
400.389	102.69
400.613	97.69
400.837	93.69
401.062	93.69
401.286	98.69
401.51	90.69
401.734	104.69
401.958	109.69
402.182	96.69
402.406	108.69
402.63	97.69
402.854	88.69
403.078	94.69
403.302	103.69
403.526	108.69
403.75	106.69
403.974	103.69
404.198	104.69
404.422	91.69
404.645	101.69
404.869	88.69
405.093	97.69
405.317	99.69
405.541	93.69
405.765	127.69
405.988	134.69
406.212	108.69
406.436	108.69
406.66	105.69
406.883	103.69
407.107	89.69
407.331	90.69
407.555	76.69
407.778	102.69
408.002	115.69
408.226	108.69
408.449	109.69
408.673	110.69
408.896	110.69
409.12	106.69
409.344	107.69
409.567	88.69
409.791	95.69
410.014	109.69
410.238	101.69
410.461	118.69
410.685	85.69
410.908	90.69
411.132	82.69
411.355	93.69
411.578	99.69
411.802	106.69
412.025	105.69
412.249	107.69
412.472	105.69
412.695	105.69
412.919	99.69
413.142	106.69
413.365	116.69
413.589	109.69
413.812	107.69
414.035	109.69
414.258	121.69
414.482	115.69
414.705	108.69
414.928	101.69
415.151	96.69
415.374	109.69
415.597	108.69
415.821	93.69
416.044	87.69
416.267	107.69
416.49	95.69
416.713	102.69
416.936	103.69
417.159	89.69
417.382	101.69
417.605	101.69
417.828	114.69
418.051	100.69
418.274	96.69
418.497	101.69
418.72	102.69
418.943	109.69
419.166	106.69
419.389	106.69
419.611	117.69
419.834	108.69
420.057	98.69
420.28	99.69
420.503	100.69
420.726	101.69
420.948	91.69
421.171	88.69
421.394	103.69
421.617	95.69
421.839	86.69
422.062	112.69
422.285	99.69
422.507	96.69
422.73	160.69
422.953	166.69
423.175	125.69
423.398	103.69
423.621	92.69
423.843	98.69
424.066	107.69
424.288	103.69
424.511	107.69
424.733	96.69
424.956	98.69
425.178	100.69
425.401	92.69
425.623	86.69
425.846	97.69
426.068	98.69
426.291	103.69
426.513	97.69
426.735	102.69
426.958	93.69
427.18	102.69
427.402	109.69
427.625	100.69
427.847	89.69
428.069	103.69
428.292	88.69
428.514	102.69
428.736	115.69
428.958	99.69
429.181	104.69
429.403	100.69
429.625	103.69
429.847	114.69
430.069	109.69
430.292	106.69
430.514	97.69
430.736	97.69
430.958	93.69
431.18	88.69
431.402	110.69
431.624	94.69
431.846	98.69
432.068	96.69
432.29	84.69
432.512	85.69
432.734	79.69
432.956	97.69
433.178	88.69
433.4	91.69
433.622	94.69
433.844	99.69
434.066	97.69
434.287	108.69
434.509	111.69
434.731	106.69
434.953	99.69
435.175	86.69
435.397	107.69
435.618	98.69
435.84	95.69
436.062	92.69
436.284	108.69
436.505	107.69
436.727	80.69
436.949	93.69
437.17	93.69
437.392	88.69
437.614	97.69
437.835	89.69
438.057	89.69
438.278	79.69
438.5	99.69
438.721	105.69
438.943	125.69
439.165	117.69
439.386	115.69
439.608	100.69
439.829	119.69
440.05	117.69
440.272	117.69
440.493	104.69
440.715	108.69
440.936	97.69
441.158	87.69
441.379	97.69
441.6	104.69
441.822	107.69
442.043	126.69
442.264	142.69
442.486	113.69
442.707	105.69
442.928	108.69
443.149	102.69
443.371	96.69
443.592	100.69
443.813	100.69
444.034	107.69
444.255	80.69
444.476	102.69
444.698	84.69
444.919	97.69
445.14	213.69
445.361	146.69
445.582	110.69
445.803	114.69
446.024	107.69
446.245	103.69
446.466	103.69
446.687	112.69
446.908	111.69
447.129	97.69
447.35	80.69
447.571	98.69
447.792	103.69
448.013	115.69
448.234	102.69
448.455	86.69
448.675	97.69
448.896	116.69
449.117	105.69
449.338	128.69
449.559	162.69
449.779	126.69
450	110.69
450.221	105.69
450.442	116.69
450.662	118.69
450.883	106.69
451.104	126.69
451.324	125.69
451.545	116.69
451.766	126.69
451.986	138.69
452.207	209.69
452.428	568.69
452.648	1408.69
452.869	809.69
453.089	210.69
453.31	132.69
453.53	137.69
453.751	163.69
453.971	179.69
454.192	153.69
454.412	107.69
454.633	103.69
454.853	102.69
455.073	96.69
455.294	93.69
455.514	92.69
455.734	96.69
455.955	91.69
456.175	93.69
456.395	93.69
456.616	97.69
456.836	103.69
457.056	120.69
457.276	112.69
457.497	122.69
457.717	129.69
457.937	105.69
458.157	67.69
458.377	83.69
458.598	91.69
458.818	102.69
459.038	84.69
459.258	94.69
459.478	89.69
459.698	99.69
459.918	84.69
460.138	100.69
460.358	99.69
460.578	80.69
460.798	95.69
461.018	94.69
461.238	104.69
461.458	104.69
461.678	94.69
461.898	100.69
462.118	94.69
462.338	112.69
462.558	93.69
462.777	90.69
462.997	105.69
463.217	102.69
463.437	121.69
463.657	198.69
463.876	200.69
464.096	122.69
464.316	93.69
464.536	103.69
464.755	91.69
464.975	96.69
465.195	101.69
465.414	94.69
465.634	90.69
465.854	88.69
466.073	82.69
466.293	98.69
466.512	99.69
466.732	93.69
466.951	110.69
467.171	148.69
467.391	167.69
467.61	118.69
467.829	112.69
468.049	107.69
468.268	90.69
468.488	97.69
468.707	84.69
468.927	111.69
469.146	97.69
469.365	96.69
469.585	102.69
469.804	96.69
470.023	105.69
470.243	96.69
470.462	100.69
470.681	106.69
470.901	138.69
471.12	202.69
471.339	227.69
471.558	147.69
471.777	108.69
471.997	100.69
472.216	94.69
472.435	112.69
472.654	97.69
472.873	105.69
473.092	90.69
473.311	112.69
473.53	93.69
473.749	101.69
473.968	96.69
474.187	88.69
474.406	90.69
474.625	103.69
474.844	114.69
475.063	112.69
475.282	91.69
475.501	98.69
475.72	107.69
475.939	96.69
476.158	90.69
476.377	114.69
476.596	108.69
476.814	102.69
477.033	99.69
477.252	97.69
477.471	91.69
477.69	100.69
477.908	103.69
478.127	96.69
478.346	90.69
478.564	95.69
478.783	96.69
479.002	106.69
479.22	98.69
479.439	85.69
479.658	104.69
479.876	83.69
480.095	106.69
480.313	99.69
480.532	99.69
480.751	95.69
480.969	93.69
481.188	96.69
481.406	95.69
481.624	99.69
481.843	124.69
482.061	117.69
482.28	97.69
482.498	106.69
482.717	101.69
482.935	100.69
483.153	114.69
483.372	102.69
483.59	110.69
483.808	100.69
484.027	99.69
484.245	113.69
484.463	186.69
484.681	228.69
484.9	150.69
485.118	134.69
485.336	118.69
485.554	107.69
485.772	130.69
485.99	212.69
486.209	290.69
486.427	189.69
486.645	120.69
486.863	124.69
487.081	83.69
487.299	92.69
487.517	101.69
487.735	97.69
487.953	93.69
488.171	117.69
488.389	102.69
488.607	99.69
488.825	106.69
489.043	104.69
489.261	85.69
489.479	110.69
489.696	107.69
489.914	112.69
490.132	87.69
490.35	110.69
490.568	106.69
490.786	108.69
491.003	97.69
491.221	108.69
491.439	116.69
491.657	108.69
491.874	116.69
492.092	121.69
492.31	107.69
492.527	113.69
492.745	106.69
492.963	98.69
493.18	117.69
493.398	104.69
493.615	101.69
493.833	102.69
494.05	100.69
494.268	112.69
494.485	101.69
494.703	116.69
494.92	112.69
495.138	94.69
495.355	99.69
495.573	104.69
495.79	99.69
496.008	118.69
496.225	97.69
496.442	113.69
496.66	122.69
496.877	167.69
497.094	169.69
497.312	116.69
497.529	116.69
497.746	102.69
497.963	104.69
498.181	100.69
498.398	91.69
498.615	120.69
498.832	108.69
499.049	110.69
499.267	132.69
499.484	189.69
499.701	109.69
499.918	115.69
500.135	94.69
500.352	97.69
500.569	93.69
500.786	100.69
501.003	104.69
501.22	104.69
501.437	99.69
501.654	103.69
501.871	98.69
502.088	87.69
502.305	102.69
502.522	94.69
502.739	91.69
502.956	98.69
503.172	101.69
503.389	105.69
503.606	99.69
503.823	97.69
504.04	109.69
504.256	90.69
504.473	93.69
504.69	95.69
504.907	109.69
505.123	128.69
505.34	106.69
505.557	99.69
505.773	118.69
505.99	115.69
506.207	88.69
506.423	114.69
506.64	98.69
506.856	100.69
507.073	93.69
507.289	101.69
507.506	95.69
