Data from SnStandardFlinnAPT0064_QswitchEnergy10_LIBS07252019.E.O._I.C._HRD10591_15-27-40-973.txt Node
Date: Thu Jul 25 15:27:40 EDT 2019
User: cochatt
Spectrometer: HR+D1059
Trigger mode: 1
Integration Time (sec): 1.000000E-1
Scans to average: 1
Electric dark correction enabled: true
Nonlinearity correction enabled: false
Boxcar width: 0
XAxis mode: Wavelengths
Number of Pixels in Spectrum: 2048
>>>>>Begin Spectral Data<<<<<
223.165	-7.06
223.4	-7.06
223.635	-7.06
223.869	-19.06
224.104	-27.06
224.338	-30.06
224.573	-19.06
224.808	-10.06
225.042	1.94
225.277	-16.06
225.511	11.94
225.746	1.94
225.98	2.94
226.215	6.94
226.449	6.94
226.683	21.94
226.918	31.94
227.152	41.94
227.387	29.94
227.621	51.94
227.856	54.94
228.09	31.94
228.324	53.94
228.559	40.94
228.793	68.94
229.027	68.94
229.262	70.94
229.496	61.94
229.73	58.94
229.964	59.94
230.199	78.94
230.433	64.94
230.667	66.94
230.901	63.94
231.136	84.94
231.37	77.94
231.604	84.94
231.838	81.94
232.072	115.94
232.306	114.94
232.541	90.94
232.775	92.94
233.009	75.94
233.243	78.94
233.477	85.94
233.711	89.94
233.945	97.94
234.179	91.94
234.413	92.94
234.647	75.94
234.881	75.94
235.115	84.94
235.349	81.94
235.583	90.94
235.817	129.94
236.051	112.94
236.285	98.94
236.519	68.94
236.753	70.94
236.987	79.94
237.221	71.94
237.455	78.94
237.689	84.94
237.922	89.94
238.156	90.94
238.39	78.94
238.624	83.94
238.858	72.94
239.091	84.94
239.325	70.94
239.559	92.94
239.793	77.94
240.027	76.94
240.26	88.94
240.494	71.94
240.728	90.94
240.961	71.94
241.195	89.94
241.429	91.94
241.662	90.94
241.896	109.94
242.13	102.94
242.363	127.94
242.597	153.94
242.83	125.94
243.064	123.94
243.298	157.94
243.531	139.94
243.765	96.94
243.998	78.94
244.232	78.94
244.465	81.94
244.699	85.94
244.932	80.94
245.166	64.94
245.399	80.94
245.633	93.94
245.866	89.94
246.099	84.94
246.333	78.94
246.566	90.94
246.8	77.94
247.033	68.94
247.266	82.94
247.5	76.94
247.733	74.94
247.966	73.94
248.2	87.94
248.433	92.94
248.666	132.94
248.899	118.94
249.133	100.94
249.366	92.94
249.599	110.94
249.832	124.94
250.066	108.94
250.299	90.94
250.532	80.94
250.765	81.94
250.998	78.94
251.231	84.94
251.465	81.94
251.698	74.94
251.931	85.94
252.164	93.94
252.397	101.94
252.63	77.94
252.863	103.94
253.096	76.94
253.329	100.94
253.562	97.94
253.795	88.94
254.028	94.94
254.261	87.94
254.494	89.94
254.727	109.94
254.96	130.94
255.193	141.94
255.426	96.94
255.659	105.94
255.892	88.94
256.124	102.94
256.357	77.94
256.59	80.94
256.823	93.94
257.056	102.94
257.289	124.94
257.521	172.94
257.754	101.94
257.987	110.94
258.22	84.94
258.452	80.94
258.685	93.94
258.918	82.94
259.151	72.94
259.383	119.94
259.616	132.94
259.849	136.94
260.081	98.94
260.314	92.94
260.547	82.94
260.779	93.94
261.012	89.94
261.244	87.94
261.477	83.94
261.71	83.94
261.942	77.94
262.175	76.94
262.407	79.94
262.64	84.94
262.872	94.94
263.105	88.94
263.337	74.94
263.57	76.94
263.802	99.94
264.035	80.94
264.267	88.94
264.499	70.94
264.732	71.94
264.964	89.94
265.197	92.94
265.429	80.94
265.661	93.94
265.894	94.94
266.126	117.94
266.358	134.94
266.591	142.94
266.823	103.94
267.055	70.94
267.287	84.94
267.52	83.94
267.752	93.94
267.984	79.94
268.216	84.94
268.448	87.94
268.681	83.94
268.913	91.94
269.145	86.94
269.377	80.94
269.609	96.94
269.841	94.94
270.073	90.94
270.306	129.94
270.538	172.94
270.77	292.94
271.002	331.94
271.234	167.94
271.466	110.94
271.698	81.94
271.93	88.94
272.162	97.94
272.394	92.94
272.626	85.94
272.858	82.94
273.09	100.94
273.322	88.94
273.553	77.94
273.785	80.94
274.017	83.94
274.249	92.94
274.481	73.94
274.713	83.94
274.945	87.94
275.176	77.94
275.408	88.94
275.64	92.94
275.872	86.94
276.104	102.94
276.335	93.94
276.567	103.94
276.799	87.94
277.031	90.94
277.262	70.94
277.494	96.94
277.726	138.94
277.957	170.94
278.189	216.94
278.421	228.94
278.652	186.94
278.884	164.94
279.115	131.94
279.347	113.94
279.579	99.94
279.81	86.94
280.042	98.94
280.273	96.94
280.505	90.94
280.736	99.94
280.968	114.94
281.199	160.94
281.431	219.94
281.662	242.94
281.894	148.94
282.125	104.94
282.356	108.94
282.588	111.94
282.819	120.94
283.051	103.94
283.282	132.94
283.513	156.94
283.745	281.94
283.976	495.94
284.207	702.94
284.439	550.94
284.67	262.94
284.901	229.94
285.132	328.94
285.364	341.94
285.595	203.94
285.826	168.94
286.057	239.94
286.288	382.94
286.52	566.94
286.751	449.94
286.982	182.94
287.213	112.94
287.444	96.94
287.675	96.94
287.906	102.94
288.138	96.94
288.369	104.94
288.6	89.94
288.831	86.94
289.062	90.94
289.293	94.94
289.524	95.94
289.755	90.94
289.986	78.94
290.217	101.94
290.448	92.94
290.679	110.94
290.91	113.94
291.141	150.94
291.371	200.94
291.602	259.94
291.833	180.94
292.064	114.94
292.295	94.94
292.526	106.94
292.757	94.94
292.987	84.94
293.218	91.94
293.449	93.94
293.68	96.94
293.91	91.94
294.141	85.94
294.372	85.94
294.603	83.94
294.833	84.94
295.064	88.94
295.295	85.94
295.525	78.94
295.756	95.94
295.987	108.94
296.217	85.94
296.448	92.94
296.679	97.94
296.909	98.94
297.14	94.94
297.37	103.94
297.601	104.94
297.831	99.94
298.062	100.94
298.292	102.94
298.523	93.94
298.753	98.94
298.984	89.94
299.214	114.94
299.445	119.94
299.675	101.94
299.905	117.94
300.136	121.94
300.366	166.94
300.597	260.94
300.827	406.94
301.057	641.94
301.288	578.94
301.518	233.94
301.748	142.94
301.979	124.94
302.209	135.94
302.439	146.94
302.669	177.94
302.9	272.94
303.13	454.94
303.36	779.94
303.59	1102.94
303.82	768.94
304.051	290.94
304.281	139.94
304.511	129.94
304.741	112.94
304.971	102.94
305.201	118.94
305.431	93.94
305.661	111.94
305.891	114.94
306.121	100.94
306.352	113.94
306.582	99.94
306.812	108.94
307.042	114.94
307.272	116.94
307.502	115.94
307.731	106.94
307.961	106.94
308.191	103.94
308.421	98.94
308.651	96.94
308.881	104.94
309.111	98.94
309.341	107.94
309.571	112.94
309.8	110.94
310.03	97.94
310.26	99.94
310.49	105.94
310.72	96.94
310.949	120.94
311.179	115.94
311.409	106.94
311.639	112.94
311.868	114.94
312.098	101.94
312.328	117.94
312.557	108.94
312.787	118.94
313.017	121.94
313.246	117.94
313.476	109.94
313.706	110.94
313.935	137.94
314.165	181.94
314.394	203.94
314.624	160.94
314.853	130.94
315.083	122.94
315.312	134.94
315.542	120.94
315.771	118.94
316.001	105.94
316.23	128.94
316.46	135.94
316.689	179.94
316.919	227.94
317.148	454.94
317.377	838.94
317.607	1380.94
317.836	1246.94
318.065	480.94
318.295	206.94
318.524	140.94
318.753	119.94
318.983	129.94
319.212	115.94
319.441	130.94
319.67	107.94
319.9	120.94
320.129	98.94
320.358	102.94
320.587	107.94
320.816	112.94
321.046	108.94
321.275	119.94
321.504	132.94
321.733	128.94
321.962	146.94
322.191	158.94
322.42	123.94
322.649	123.94
322.878	119.94
323.108	110.94
323.337	120.94
323.566	112.94
323.795	118.94
324.024	121.94
324.253	124.94
324.482	182.94
324.71	204.94
324.939	270.94
325.168	218.94
325.397	177.94
325.626	231.94
325.855	446.94
326.084	860.94
326.313	1430.94
326.542	1432.94
326.77	566.94
326.999	242.94
327.228	185.94
327.457	209.94
327.686	223.94
327.914	154.94
328.143	126.94
328.372	114.94
328.6	120.94
328.829	117.94
329.058	111.94
329.287	98.94
329.515	108.94
329.744	124.94
329.972	106.94
330.201	117.94
330.43	113.94
330.658	118.94
330.887	120.94
331.115	105.94
331.344	116.94
331.572	112.94
331.801	101.94
332.03	126.94
332.258	122.94
332.486	155.94
332.715	279.94
332.943	455.94
333.172	688.94
333.4	599.94
333.629	225.94
333.857	164.94
334.085	110.94
334.314	116.94
334.542	114.94
334.771	122.94
334.999	113.94
335.227	122.94
335.455	119.94
335.684	118.94
335.912	115.94
336.14	123.94
336.369	121.94
336.597	110.94
336.825	128.94
337.053	107.94
337.281	117.94
337.51	105.94
337.738	100.94
337.966	109.94
338.194	128.94
338.422	116.94
338.65	102.94
338.878	112.94
339.106	110.94
339.334	112.94
339.562	131.94
339.79	115.94
340.018	95.94
340.246	102.94
340.474	113.94
340.702	103.94
340.93	112.94
341.158	112.94
341.386	112.94
341.614	111.94
341.842	110.94
342.07	109.94
342.298	111.94
342.526	113.94
342.754	98.94
342.981	105.94
343.209	112.94
343.437	116.94
343.665	101.94
343.893	110.94
344.12	96.94
344.348	101.94
344.576	106.94
344.804	118.94
345.031	100.94
345.259	105.94
345.487	117.94
345.714	105.94
345.942	117.94
346.17	98.94
346.397	112.94
346.625	103.94
346.853	88.94
347.08	103.94
347.308	99.94
347.535	92.94
347.763	113.94
347.99	108.94
348.218	90.94
348.445	108.94
348.673	116.94
348.9	113.94
349.128	110.94
349.355	128.94
349.583	99.94
349.81	95.94
350.037	120.94
350.265	112.94
350.492	113.94
350.72	108.94
350.947	95.94
351.174	106.94
351.402	103.94
351.629	116.94
351.856	113.94
352.083	104.94
352.311	100.94
352.538	117.94
352.765	111.94
352.992	119.94
353.22	96.94
353.447	106.94
353.674	99.94
353.901	103.94
354.128	90.94
354.355	92.94
354.583	98.94
354.81	87.94
355.037	114.94
355.264	111.94
355.491	88.94
355.718	101.94
355.945	105.94
356.172	101.94
356.399	95.94
356.626	93.94
356.853	117.94
357.08	94.94
357.307	107.94
357.534	101.94
357.761	106.94
357.988	113.94
358.215	108.94
358.441	102.94
358.668	104.94
358.895	122.94
359.122	89.94
359.349	110.94
359.576	112.94
359.802	104.94
360.029	97.94
360.256	108.94
360.483	109.94
360.709	128.94
360.936	121.94
361.163	98.94
361.39	100.94
361.616	103.94
361.843	105.94
362.07	97.94
362.296	116.94
362.523	92.94
362.749	100.94
362.976	114.94
363.203	97.94
363.429	113.94
363.656	110.94
363.882	91.94
364.109	122.94
364.335	112.94
364.562	105.94
364.788	121.94
365.015	114.94
365.241	137.94
365.468	177.94
365.694	230.94
365.92	185.94
366.147	108.94
366.373	103.94
366.599	87.94
366.826	96.94
367.052	91.94
367.278	114.94
367.505	88.94
367.731	102.94
367.957	110.94
368.184	108.94
368.41	102.94
368.636	128.94
368.862	94.94
369.089	104.94
369.315	94.94
369.541	113.94
369.767	113.94
369.993	108.94
370.219	88.94
370.445	110.94
370.672	95.94
370.898	102.94
371.124	101.94
371.35	108.94
371.576	101.94
371.802	112.94
372.028	110.94
372.254	101.94
372.48	105.94
372.706	108.94
372.932	112.94
373.158	118.94
373.384	110.94
373.61	108.94
373.835	112.94
374.061	102.94
374.287	108.94
374.513	116.94
374.739	112.94
374.965	96.94
375.191	101.94
375.416	107.94
375.642	103.94
375.868	92.94
376.094	98.94
376.319	91.94
376.545	103.94
376.771	107.94
376.997	103.94
377.222	96.94
377.448	101.94
377.674	108.94
377.899	101.94
378.125	114.94
378.35	104.94
378.576	116.94
378.802	112.94
379.027	116.94
379.253	125.94
379.478	172.94
379.704	300.94
379.929	710.94
380.155	1431.94
380.38	1466.94
380.606	496.94
380.831	176.94
381.057	120.94
381.282	115.94
381.507	110.94
381.733	105.94
381.958	116.94
382.184	88.94
382.409	111.94
382.634	95.94
382.86	101.94
383.085	98.94
383.31	112.94
383.535	111.94
383.761	99.94
383.986	118.94
384.211	98.94
384.436	110.94
384.662	87.94
384.887	96.94
385.112	91.94
385.337	95.94
385.562	89.94
385.787	106.94
386.013	97.94
386.238	95.94
386.463	97.94
386.688	94.94
386.913	98.94
387.138	83.94
387.363	108.94
387.588	111.94
387.813	89.94
388.038	101.94
388.263	94.94
388.488	105.94
388.713	101.94
388.938	111.94
389.163	93.94
389.387	91.94
389.612	98.94
389.837	113.94
390.062	102.94
390.287	97.94
390.512	114.94
390.736	102.94
390.961	98.94
391.186	101.94
391.411	88.94
391.636	100.94
391.86	83.94
392.085	101.94
392.31	97.94
392.534	97.94
392.759	94.94
392.984	96.94
393.208	98.94
393.433	157.94
393.658	151.94
393.882	100.94
394.107	110.94
394.331	93.94
394.556	80.94
394.78	99.94
395.005	85.94
395.229	90.94
395.454	100.94
395.678	110.94
395.903	98.94
396.127	95.94
396.352	103.94
396.576	94.94
396.801	116.94
397.025	122.94
397.249	114.94
397.474	108.94
397.698	98.94
397.922	96.94
398.147	96.94
398.371	97.94
398.595	106.94
398.82	119.94
399.044	91.94
399.268	103.94
399.492	95.94
399.717	105.94
399.941	95.94
400.165	93.94
400.389	83.94
400.613	89.94
400.837	95.94
401.062	103.94
401.286	94.94
401.51	93.94
401.734	86.94
401.958	101.94
402.182	105.94
402.406	87.94
402.63	88.94
402.854	96.94
403.078	94.94
403.302	100.94
403.526	95.94
403.75	82.94
403.974	94.94
404.198	94.94
404.422	92.94
404.645	86.94
404.869	96.94
405.093	97.94
405.317	100.94
405.541	89.94
405.765	122.94
405.988	133.94
406.212	113.94
406.436	95.94
406.66	87.94
406.883	86.94
407.107	89.94
407.331	92.94
407.555	82.94
407.778	97.94
408.002	100.94
408.226	76.94
408.449	101.94
408.673	106.94
408.896	99.94
409.12	86.94
409.344	91.94
409.567	89.94
409.791	106.94
410.014	92.94
410.238	95.94
410.461	95.94
410.685	91.94
410.908	102.94
411.132	95.94
411.355	87.94
411.578	108.94
411.802	93.94
412.025	102.94
412.249	104.94
412.472	77.94
412.695	86.94
412.919	88.94
413.142	89.94
413.365	88.94
413.589	93.94
413.812	95.94
414.035	103.94
414.258	115.94
414.482	105.94
414.705	105.94
414.928	103.94
415.151	98.94
415.374	92.94
415.597	92.94
415.821	106.94
416.044	86.94
416.267	88.94
416.49	92.94
416.713	95.94
416.936	90.94
417.159	91.94
417.382	96.94
417.605	95.94
417.828	96.94
418.051	94.94
418.274	90.94
418.497	102.94
418.72	95.94
418.943	77.94
419.166	90.94
419.389	103.94
419.611	114.94
419.834	98.94
420.057	106.94
420.28	92.94
420.503	97.94
420.726	99.94
420.948	90.94
421.171	91.94
421.394	91.94
421.617	82.94
421.839	94.94
422.062	82.94
422.285	90.94
422.507	114.94
422.73	132.94
422.953	120.94
423.175	108.94
423.398	96.94
423.621	93.94
423.843	82.94
424.066	110.94
424.288	93.94
424.511	81.94
424.733	97.94
424.956	94.94
425.178	90.94
425.401	88.94
425.623	97.94
425.846	91.94
426.068	101.94
426.291	89.94
426.513	80.94
426.735	94.94
426.958	94.94
427.18	82.94
427.402	85.94
427.625	77.94
427.847	89.94
428.069	92.94
428.292	97.94
428.514	106.94
428.736	92.94
428.958	101.94
429.181	99.94
429.403	99.94
429.625	101.94
429.847	85.94
430.069	95.94
430.292	103.94
430.514	91.94
430.736	102.94
430.958	85.94
431.18	89.94
431.402	100.94
431.624	103.94
431.846	83.94
432.068	77.94
432.29	90.94
432.512	105.94
432.734	106.94
432.956	86.94
433.178	86.94
433.4	93.94
433.622	92.94
433.844	93.94
434.066	96.94
434.287	92.94
434.509	89.94
434.731	89.94
434.953	87.94
435.175	82.94
435.397	101.94
435.618	99.94
435.84	90.94
436.062	101.94
436.284	76.94
436.505	86.94
436.727	86.94
436.949	87.94
437.17	95.94
437.392	86.94
437.614	91.94
437.835	83.94
438.057	85.94
438.278	96.94
438.5	94.94
438.721	91.94
438.943	89.94
439.165	97.94
439.386	99.94
439.608	89.94
439.829	98.94
440.05	116.94
440.272	106.94
440.493	111.94
440.715	88.94
440.936	88.94
441.158	86.94
441.379	85.94
441.6	95.94
441.822	102.94
442.043	106.94
442.264	123.94
442.486	105.94
442.707	92.94
442.928	84.94
443.149	85.94
443.371	96.94
443.592	98.94
443.813	101.94
444.034	95.94
444.255	87.94
444.476	75.94
444.698	107.94
444.919	86.94
445.14	189.94
445.361	138.94
445.582	106.94
445.803	92.94
446.024	92.94
446.245	101.94
446.466	104.94
446.687	110.94
446.908	94.94
447.129	91.94
447.35	98.94
447.571	92.94
447.792	95.94
448.013	108.94
448.234	101.94
448.455	108.94
448.675	79.94
448.896	87.94
449.117	104.94
449.338	131.94
449.559	142.94
449.779	115.94
450	112.94
450.221	105.94
450.442	103.94
450.662	120.94
450.883	92.94
451.104	109.94
451.324	112.94
451.545	98.94
451.766	97.94
451.986	143.94
452.207	193.94
452.428	494.94
452.648	1209.94
452.869	673.94
453.089	199.94
453.31	128.94
453.53	124.94
453.751	135.94
453.971	154.94
454.192	156.94
454.412	105.94
454.633	94.94
454.853	99.94
455.073	103.94
455.294	91.94
455.514	98.94
455.734	98.94
455.955	99.94
456.175	92.94
456.395	80.94
456.616	97.94
456.836	105.94
457.056	85.94
457.276	93.94
457.497	111.94
457.717	99.94
457.937	97.94
458.157	87.94
458.377	82.94
458.598	99.94
458.818	81.94
459.038	88.94
459.258	88.94
459.478	81.94
459.698	86.94
459.918	76.94
460.138	88.94
460.358	99.94
460.578	82.94
460.798	85.94
461.018	96.94
461.238	93.94
461.458	86.94
461.678	86.94
461.898	93.94
462.118	94.94
462.338	91.94
462.558	82.94
462.777	89.94
462.997	85.94
463.217	82.94
463.437	136.94
463.657	178.94
463.876	162.94
464.096	117.94
464.316	93.94
464.536	89.94
464.755	80.94
464.975	85.94
465.195	101.94
465.414	98.94
465.634	91.94
465.854	83.94
466.073	93.94
466.293	105.94
466.512	84.94
466.732	89.94
466.951	113.94
467.171	136.94
467.391	135.94
467.61	107.94
467.829	94.94
468.049	105.94
468.268	89.94
468.488	79.94
468.707	98.94
468.927	93.94
469.146	96.94
469.365	89.94
469.585	92.94
469.804	83.94
470.023	91.94
470.243	105.94
470.462	92.94
470.681	116.94
470.901	128.94
471.12	169.94
471.339	215.94
471.558	118.94
471.777	110.94
471.997	92.94
472.216	87.94
472.435	87.94
472.654	94.94
472.873	93.94
473.092	97.94
473.311	109.94
473.53	90.94
473.749	77.94
473.968	85.94
474.187	100.94
474.406	86.94
474.625	92.94
474.844	89.94
475.063	84.94
475.282	106.94
475.501	91.94
475.72	101.94
475.939	94.94
476.158	92.94
476.377	102.94
476.596	115.94
476.814	100.94
477.033	86.94
477.252	98.94
477.471	107.94
477.69	84.94
477.908	97.94
478.127	81.94
478.346	96.94
478.564	108.94
478.783	110.94
479.002	102.94
479.22	108.94
479.439	93.94
479.658	98.94
479.876	75.94
480.095	82.94
480.313	93.94
480.532	100.94
480.751	87.94
480.969	89.94
481.188	95.94
481.406	96.94
481.624	82.94
481.843	92.94
482.061	98.94
482.28	90.94
482.498	87.94
482.717	78.94
482.935	86.94
483.153	102.94
483.372	110.94
483.59	107.94
483.808	99.94
484.027	124.94
484.245	108.94
484.463	166.94
484.681	221.94
484.9	132.94
485.118	124.94
485.336	97.94
485.554	107.94
485.772	136.94
485.99	159.94
486.209	236.94
486.427	156.94
486.645	111.94
486.863	97.94
487.081	109.94
487.299	90.94
487.517	100.94
487.735	98.94
487.953	104.94
488.171	88.94
488.389	86.94
488.607	88.94
488.825	85.94
489.043	101.94
489.261	96.94
489.479	91.94
489.696	92.94
489.914	79.94
490.132	104.94
490.35	106.94
490.568	95.94
490.786	89.94
491.003	97.94
491.221	119.94
491.439	108.94
491.657	87.94
491.874	98.94
492.092	113.94
492.31	114.94
492.527	103.94
492.745	102.94
492.963	104.94
493.18	101.94
493.398	115.94
493.615	90.94
493.833	91.94
494.05	95.94
494.268	95.94
494.485	94.94
494.703	88.94
494.92	98.94
495.138	91.94
495.355	102.94
495.573	100.94
495.79	104.94
496.008	124.94
496.225	105.94
496.442	109.94
496.66	111.94
496.877	146.94
497.094	151.94
497.312	109.94
497.529	103.94
497.746	90.94
497.963	100.94
498.181	101.94
498.398	107.94
498.615	102.94
498.832	104.94
499.049	93.94
499.267	140.94
499.484	168.94
499.701	93.94
499.918	112.94
500.135	92.94
500.352	93.94
500.569	112.94
500.786	101.94
501.003	113.94
501.22	86.94
501.437	93.94
501.654	96.94
501.871	97.94
502.088	98.94
502.305	98.94
502.522	90.94
502.739	94.94
502.956	87.94
503.172	92.94
503.389	88.94
503.606	103.94
503.823	98.94
504.04	97.94
504.256	111.94
504.473	94.94
504.69	93.94
504.907	103.94
505.123	102.94
505.34	102.94
505.557	93.94
505.773	104.94
505.99	103.94
506.207	90.94
506.423	102.94
506.64	102.94
506.856	97.94
507.073	91.94
507.289	92.94
507.506	113.94
507.722	99.94
507.939	97.94
508.155	88.94
508.372	104.94
508.588	98.94
508.805	94.94
509.021	103.94
509.238	98.94
509.454	131.94
509.67	144.94
509.887	126.94
510.103	98.94
