Data from SnStandardFlinnAPT0064_QswitchEnergy10_LIBS07252019.E.O._I.C._HRD10591_15-27-23-973.txt Node
Date: Thu Jul 25 15:27:23 EDT 2019
User: cochatt
Spectrometer: HR+D1059
Trigger mode: 1
Integration Time (sec): 1.000000E-1
Scans to average: 1
Electric dark correction enabled: true
Nonlinearity correction enabled: false
Boxcar width: 0
XAxis mode: Wavelengths
Number of Pixels in Spectrum: 2048
>>>>>Begin Spectral Data<<<<<
223.165	-17.62
223.4	-17.62
223.635	-17.62
223.869	-28.62
224.104	-19.62
224.338	-10.62
224.573	-15.62
224.808	-3.62
225.042	-28.62
225.277	0.38
225.511	-7.62
225.746	22.38
225.98	-3.62
226.215	8.38
226.449	12.38
226.683	25.38
226.918	31.38
227.152	35.38
227.387	31.38
227.621	37.38
227.856	29.38
228.09	41.38
228.324	47.38
228.559	54.38
228.793	65.38
229.027	73.38
229.262	72.38
229.496	72.38
229.73	50.38
229.964	71.38
230.199	66.38
230.433	67.38
230.667	74.38
230.901	64.38
231.136	74.38
231.37	92.38
231.604	94.38
231.838	95.38
232.072	110.38
232.306	126.38
232.541	95.38
232.775	80.38
233.009	85.38
233.243	86.38
233.477	88.38
233.711	97.38
233.945	101.38
234.179	90.38
234.413	102.38
234.647	85.38
234.881	87.38
235.115	72.38
235.349	102.38
235.583	109.38
235.817	119.38
236.051	112.38
236.285	86.38
236.519	89.38
236.753	82.38
236.987	77.38
237.221	80.38
237.455	78.38
237.689	77.38
237.922	86.38
238.156	86.38
238.39	74.38
238.624	82.38
238.858	84.38
239.091	77.38
239.325	72.38
239.559	79.38
239.793	62.38
240.027	86.38
240.26	81.38
240.494	78.38
240.728	99.38
240.961	94.38
241.195	93.38
241.429	89.38
241.662	91.38
241.896	78.38
242.13	108.38
242.363	103.38
242.597	142.38
242.83	130.38
243.064	128.38
243.298	169.38
243.531	138.38
243.765	93.38
243.998	83.38
244.232	81.38
244.465	79.38
244.699	69.38
244.932	71.38
245.166	89.38
245.399	90.38
245.633	87.38
245.866	85.38
246.099	87.38
246.333	83.38
246.566	77.38
246.8	72.38
247.033	83.38
247.266	76.38
247.5	76.38
247.733	78.38
247.966	73.38
248.2	91.38
248.433	112.38
248.666	117.38
248.899	114.38
249.133	86.38
249.366	80.38
249.599	100.38
249.832	111.38
250.066	124.38
250.299	108.38
250.532	85.38
250.765	74.38
250.998	90.38
251.231	84.38
251.465	72.38
251.698	73.38
251.931	84.38
252.164	74.38
252.397	70.38
252.63	92.38
252.863	97.38
253.096	87.38
253.329	79.38
253.562	101.38
253.795	83.38
254.028	87.38
254.261	93.38
254.494	88.38
254.727	114.38
254.96	154.38
255.193	120.38
255.426	88.38
255.659	78.38
255.892	93.38
256.124	78.38
256.357	98.38
256.59	88.38
256.823	94.38
257.056	109.38
257.289	136.38
257.521	156.38
257.754	112.38
257.987	82.38
258.22	90.38
258.452	89.38
258.685	85.38
258.918	80.38
259.151	88.38
259.383	104.38
259.616	118.38
259.849	152.38
260.081	83.38
260.314	64.38
260.547	86.38
260.779	72.38
261.012	86.38
261.244	84.38
261.477	87.38
261.71	95.38
261.942	95.38
262.175	74.38
262.407	70.38
262.64	77.38
262.872	78.38
263.105	100.38
263.337	93.38
263.57	90.38
263.802	96.38
264.035	100.38
264.267	91.38
264.499	82.38
264.732	97.38
264.964	82.38
265.197	98.38
265.429	84.38
265.661	95.38
265.894	98.38
266.126	135.38
266.358	164.38
266.591	154.38
266.823	97.38
267.055	72.38
267.287	79.38
267.52	85.38
267.752	93.38
267.984	89.38
268.216	93.38
268.448	81.38
268.681	95.38
268.913	86.38
269.145	96.38
269.377	91.38
269.609	86.38
269.841	105.38
270.073	96.38
270.306	125.38
270.538	188.38
270.77	297.38
271.002	338.38
271.234	180.38
271.466	97.38
271.698	91.38
271.93	84.38
272.162	74.38
272.394	89.38
272.626	74.38
272.858	69.38
273.09	78.38
273.322	101.38
273.553	82.38
273.785	88.38
274.017	89.38
274.249	78.38
274.481	89.38
274.713	93.38
274.945	80.38
275.176	76.38
275.408	89.38
275.64	91.38
275.872	92.38
276.104	77.38
276.335	113.38
276.567	98.38
276.799	80.38
277.031	85.38
277.262	84.38
277.494	99.38
277.726	138.38
277.957	167.38
278.189	224.38
278.421	215.38
278.652	184.38
278.884	167.38
279.115	116.38
279.347	119.38
279.579	96.38
279.81	92.38
280.042	101.38
280.273	91.38
280.505	108.38
280.736	101.38
280.968	116.38
281.199	150.38
281.431	208.38
281.662	221.38
281.894	142.38
282.125	108.38
282.356	112.38
282.588	100.38
282.819	97.38
283.051	107.38
283.282	128.38
283.513	172.38
283.745	295.38
283.976	514.38
284.207	751.38
284.439	582.38
284.67	258.38
284.901	220.38
285.132	317.38
285.364	379.38
285.595	230.38
285.826	144.38
286.057	230.38
286.288	375.38
286.52	589.38
286.751	462.38
286.982	173.38
287.213	112.38
287.444	109.38
287.675	100.38
287.906	99.38
288.138	95.38
288.369	85.38
288.6	91.38
288.831	94.38
289.062	85.38
289.293	96.38
289.524	91.38
289.755	88.38
289.986	88.38
290.217	97.38
290.448	82.38
290.679	100.38
290.91	114.38
291.141	137.38
291.371	205.38
291.602	247.38
291.833	159.38
292.064	112.38
292.295	102.38
292.526	108.38
292.757	87.38
292.987	93.38
293.218	79.38
293.449	85.38
293.68	76.38
293.91	83.38
294.141	88.38
294.372	97.38
294.603	80.38
294.833	93.38
295.064	95.38
295.295	88.38
295.525	96.38
295.756	70.38
295.987	97.38
296.217	87.38
296.448	88.38
296.679	95.38
296.909	98.38
297.14	106.38
297.37	97.38
297.601	101.38
297.831	96.38
298.062	93.38
298.292	108.38
298.523	101.38
298.753	94.38
298.984	93.38
299.214	103.38
299.445	102.38
299.675	120.38
299.905	105.38
300.136	124.38
300.366	155.38
300.597	261.38
300.827	417.38
301.057	640.38
301.288	586.38
301.518	225.38
301.748	142.38
301.979	124.38
302.209	115.38
302.439	139.38
302.669	145.38
302.9	243.38
303.13	470.38
303.36	818.38
303.59	1104.38
303.82	789.38
304.051	275.38
304.281	137.38
304.511	125.38
304.741	106.38
304.971	112.38
305.201	112.38
305.431	108.38
305.661	116.38
305.891	104.38
306.121	108.38
306.352	82.38
306.582	92.38
306.812	97.38
307.042	114.38
307.272	88.38
307.502	104.38
307.731	94.38
307.961	101.38
308.191	100.38
308.421	99.38
308.651	112.38
308.881	84.38
309.111	95.38
309.341	109.38
309.571	117.38
309.8	101.38
310.03	111.38
310.26	105.38
310.49	100.38
310.72	101.38
310.949	104.38
311.179	105.38
311.409	96.38
311.639	121.38
311.868	99.38
312.098	98.38
312.328	103.38
312.557	100.38
312.787	118.38
313.017	112.38
313.246	118.38
313.476	119.38
313.706	117.38
313.935	141.38
314.165	182.38
314.394	202.38
314.624	181.38
314.853	130.38
315.083	121.38
315.312	113.38
315.542	130.38
315.771	122.38
316.001	117.38
316.23	134.38
316.46	142.38
316.689	168.38
316.919	244.38
317.148	443.38
317.377	831.38
317.607	1362.38
317.836	1266.38
318.065	477.38
318.295	198.38
318.524	148.38
318.753	132.38
318.983	136.38
319.212	116.38
319.441	113.38
319.67	112.38
319.9	119.38
320.129	94.38
320.358	106.38
320.587	114.38
320.816	108.38
321.046	96.38
321.275	121.38
321.504	102.38
321.733	126.38
321.962	149.38
322.191	135.38
322.42	116.38
322.649	114.38
322.878	117.38
323.108	122.38
323.337	130.38
323.566	122.38
323.795	124.38
324.024	134.38
324.253	134.38
324.482	172.38
324.71	194.38
324.939	245.38
325.168	230.38
325.397	168.38
325.626	246.38
325.855	456.38
326.084	876.38
326.313	1498.38
326.542	1452.38
326.77	564.38
326.999	221.38
327.228	193.38
327.457	219.38
327.686	201.38
327.914	166.38
328.143	132.38
328.372	122.38
328.6	116.38
328.829	120.38
329.058	115.38
329.287	101.38
329.515	104.38
329.744	120.38
329.972	108.38
330.201	109.38
330.43	113.38
330.658	105.38
330.887	104.38
331.115	103.38
331.344	118.38
331.572	112.38
331.801	109.38
332.03	112.38
332.258	138.38
332.486	169.38
332.715	261.38
332.943	466.38
333.172	709.38
333.4	616.38
333.629	236.38
333.857	142.38
334.085	115.38
334.314	117.38
334.542	105.38
334.771	122.38
334.999	110.38
335.227	121.38
335.455	104.38
335.684	118.38
335.912	115.38
336.14	121.38
336.369	116.38
336.597	108.38
336.825	108.38
337.053	114.38
337.281	102.38
337.51	89.38
337.738	94.38
337.966	89.38
338.194	101.38
338.422	114.38
338.65	115.38
338.878	120.38
339.106	120.38
339.334	119.38
339.562	111.38
339.79	113.38
340.018	103.38
340.246	118.38
340.474	99.38
340.702	108.38
340.93	107.38
341.158	106.38
341.386	132.38
341.614	110.38
341.842	117.38
342.07	106.38
342.298	110.38
342.526	101.38
342.754	113.38
342.981	90.38
343.209	108.38
343.437	99.38
343.665	95.38
343.893	118.38
344.12	116.38
344.348	120.38
344.576	109.38
344.804	117.38
345.031	106.38
345.259	94.38
345.487	100.38
345.714	105.38
345.942	111.38
346.17	118.38
346.397	102.38
346.625	101.38
346.853	97.38
347.08	101.38
347.308	112.38
347.535	107.38
347.763	88.38
347.99	95.38
348.218	113.38
348.445	112.38
348.673	113.38
348.9	123.38
349.128	131.38
349.355	115.38
349.583	120.38
349.81	121.38
350.037	108.38
350.265	112.38
350.492	109.38
350.72	103.38
350.947	96.38
351.174	113.38
351.402	99.38
351.629	112.38
351.856	105.38
352.083	102.38
352.311	100.38
352.538	108.38
352.765	97.38
352.992	91.38
353.22	90.38
353.447	110.38
353.674	97.38
353.901	97.38
354.128	89.38
354.355	99.38
354.583	92.38
354.81	83.38
355.037	88.38
355.264	105.38
355.491	94.38
355.718	90.38
355.945	109.38
356.172	102.38
356.399	100.38
356.626	91.38
356.853	102.38
357.08	115.38
357.307	104.38
357.534	102.38
357.761	116.38
357.988	102.38
358.215	96.38
358.441	97.38
358.668	115.38
358.895	102.38
359.122	118.38
359.349	108.38
359.576	101.38
359.802	114.38
360.029	108.38
360.256	99.38
360.483	100.38
360.709	91.38
360.936	106.38
361.163	110.38
361.39	95.38
361.616	87.38
361.843	99.38
362.07	111.38
362.296	100.38
362.523	109.38
362.749	96.38
362.976	108.38
363.203	112.38
363.429	114.38
363.656	128.38
363.882	112.38
364.109	111.38
364.335	98.38
364.562	97.38
364.788	85.38
365.015	118.38
365.241	120.38
365.468	169.38
365.694	225.38
365.92	169.38
366.147	115.38
366.373	94.38
366.599	102.38
366.826	110.38
367.052	98.38
367.278	99.38
367.505	92.38
367.731	97.38
367.957	96.38
368.184	111.38
368.41	113.38
368.636	119.38
368.862	108.38
369.089	103.38
369.315	98.38
369.541	99.38
369.767	112.38
369.993	112.38
370.219	115.38
370.445	94.38
370.672	92.38
370.898	104.38
371.124	98.38
371.35	94.38
371.576	88.38
371.802	98.38
372.028	103.38
372.254	103.38
372.48	89.38
372.706	116.38
372.932	110.38
373.158	105.38
373.384	111.38
373.61	121.38
373.835	122.38
374.061	105.38
374.287	100.38
374.513	93.38
374.739	101.38
374.965	107.38
375.191	107.38
375.416	97.38
375.642	88.38
375.868	111.38
376.094	108.38
376.319	96.38
376.545	99.38
376.771	91.38
376.997	99.38
377.222	99.38
377.448	107.38
377.674	108.38
377.899	91.38
378.125	112.38
378.35	90.38
378.576	96.38
378.802	90.38
379.027	108.38
379.253	134.38
379.478	161.38
379.704	297.38
379.929	709.38
380.155	1447.38
380.38	1476.38
380.606	476.38
380.831	172.38
381.057	117.38
381.282	102.38
381.507	115.38
381.733	102.38
381.958	93.38
382.184	110.38
382.409	96.38
382.634	109.38
382.86	95.38
383.085	97.38
383.31	94.38
383.535	84.38
383.761	96.38
383.986	111.38
384.211	98.38
384.436	103.38
384.662	97.38
384.887	113.38
385.112	104.38
385.337	95.38
385.562	113.38
385.787	98.38
386.013	102.38
386.238	113.38
386.463	100.38
386.688	96.38
386.913	104.38
387.138	102.38
387.363	105.38
387.588	87.38
387.813	105.38
388.038	95.38
388.263	102.38
388.488	110.38
388.713	98.38
388.938	84.38
389.163	88.38
389.387	87.38
389.612	94.38
389.837	101.38
390.062	94.38
390.287	89.38
390.512	96.38
390.736	101.38
390.961	99.38
391.186	98.38
391.411	98.38
391.636	91.38
391.86	89.38
392.085	91.38
392.31	97.38
392.534	99.38
392.759	108.38
392.984	92.38
393.208	116.38
393.433	118.38
393.658	128.38
393.882	110.38
394.107	92.38
394.331	89.38
394.556	88.38
394.78	96.38
395.005	98.38
395.229	88.38
395.454	102.38
395.678	89.38
395.903	100.38
396.127	107.38
396.352	108.38
396.576	92.38
396.801	102.38
397.025	111.38
397.249	108.38
397.474	89.38
397.698	102.38
397.922	98.38
398.147	88.38
398.371	70.38
398.595	88.38
398.82	92.38
399.044	95.38
399.268	104.38
399.492	99.38
399.717	88.38
399.941	91.38
400.165	100.38
400.389	92.38
400.613	91.38
400.837	87.38
401.062	87.38
401.286	85.38
401.51	84.38
401.734	85.38
401.958	89.38
402.182	100.38
402.406	96.38
402.63	98.38
402.854	99.38
403.078	89.38
403.302	82.38
403.526	95.38
403.75	98.38
403.974	79.38
404.198	92.38
404.422	78.38
404.645	84.38
404.869	100.38
405.093	99.38
405.317	104.38
405.541	104.38
405.765	113.38
405.988	130.38
406.212	105.38
406.436	90.38
406.66	98.38
406.883	102.38
407.107	88.38
407.331	101.38
407.555	89.38
407.778	89.38
408.002	95.38
408.226	98.38
408.449	108.38
408.673	98.38
408.896	106.38
409.12	83.38
409.344	91.38
409.567	93.38
409.791	94.38
410.014	92.38
410.238	114.38
410.461	104.38
410.685	90.38
410.908	103.38
411.132	100.38
411.355	95.38
411.578	104.38
411.802	92.38
412.025	93.38
412.249	88.38
412.472	93.38
412.695	83.38
412.919	100.38
413.142	91.38
413.365	94.38
413.589	103.38
413.812	92.38
414.035	91.38
414.258	113.38
414.482	101.38
414.705	92.38
414.928	94.38
415.151	101.38
415.374	105.38
415.597	103.38
415.821	91.38
416.044	90.38
416.267	87.38
416.49	83.38
416.713	70.38
416.936	104.38
417.159	98.38
417.382	82.38
417.605	91.38
417.828	72.38
418.051	75.38
418.274	88.38
418.497	85.38
418.72	79.38
418.943	80.38
419.166	95.38
419.389	101.38
419.611	96.38
419.834	101.38
420.057	89.38
420.28	102.38
420.503	100.38
420.726	106.38
420.948	83.38
421.171	92.38
421.394	94.38
421.617	90.38
421.839	108.38
422.062	82.38
422.285	78.38
422.507	89.38
422.73	119.38
422.953	116.38
423.175	94.38
423.398	100.38
423.621	103.38
423.843	97.38
424.066	85.38
424.288	97.38
424.511	91.38
424.733	105.38
424.956	88.38
425.178	84.38
425.401	95.38
425.623	102.38
425.846	90.38
426.068	74.38
426.291	90.38
426.513	77.38
426.735	100.38
426.958	88.38
427.18	90.38
427.402	81.38
427.625	89.38
427.847	95.38
428.069	69.38
428.292	105.38
428.514	98.38
428.736	97.38
428.958	102.38
429.181	88.38
429.403	93.38
429.625	95.38
429.847	103.38
430.069	89.38
430.292	90.38
430.514	98.38
430.736	98.38
430.958	97.38
431.18	93.38
431.402	100.38
431.624	85.38
431.846	93.38
432.068	72.38
432.29	88.38
432.512	79.38
432.734	96.38
432.956	99.38
433.178	72.38
433.4	82.38
433.622	90.38
433.844	90.38
434.066	96.38
434.287	89.38
434.509	106.38
434.731	96.38
434.953	96.38
435.175	89.38
435.397	82.38
435.618	95.38
435.84	82.38
436.062	87.38
436.284	89.38
436.505	85.38
436.727	88.38
436.949	89.38
437.17	84.38
437.392	86.38
437.614	100.38
437.835	86.38
438.057	93.38
438.278	93.38
438.5	86.38
438.721	92.38
438.943	105.38
439.165	100.38
439.386	103.38
439.608	84.38
439.829	106.38
440.05	97.38
440.272	114.38
440.493	90.38
440.715	96.38
440.936	108.38
441.158	88.38
441.379	96.38
441.6	95.38
441.822	104.38
442.043	111.38
442.264	131.38
442.486	111.38
442.707	97.38
442.928	85.38
443.149	86.38
443.371	91.38
443.592	84.38
443.813	97.38
444.034	86.38
444.255	76.38
444.476	90.38
444.698	103.38
444.919	94.38
445.14	196.38
445.361	130.38
445.582	84.38
445.803	102.38
446.024	73.38
446.245	103.38
446.466	106.38
446.687	102.38
446.908	97.38
447.129	120.38
447.35	98.38
447.571	91.38
447.792	95.38
448.013	90.38
448.234	95.38
448.455	77.38
448.675	96.38
448.896	87.38
449.117	108.38
449.338	121.38
449.559	151.38
449.779	117.38
450	106.38
450.221	102.38
450.442	103.38
450.662	102.38
450.883	102.38
451.104	110.38
451.324	113.38
451.545	100.38
451.766	115.38
451.986	137.38
452.207	198.38
452.428	492.38
452.648	1170.38
452.869	680.38
453.089	188.38
453.31	120.38
453.53	110.38
453.751	149.38
453.971	162.38
454.192	135.38
454.412	98.38
454.633	99.38
454.853	88.38
455.073	94.38
455.294	83.38
455.514	96.38
455.734	89.38
455.955	95.38
456.175	88.38
456.395	101.38
456.616	98.38
456.836	92.38
457.056	106.38
457.276	101.38
457.497	101.38
457.717	113.38
457.937	97.38
458.157	92.38
458.377	89.38
458.598	90.38
458.818	95.38
459.038	83.38
459.258	84.38
459.478	84.38
459.698	93.38
459.918	80.38
460.138	83.38
460.358	78.38
460.578	74.38
460.798	94.38
461.018	86.38
461.238	101.38
461.458	83.38
461.678	83.38
461.898	88.38
462.118	101.38
462.338	107.38
462.558	99.38
462.777	92.38
462.997	98.38
463.217	118.38
463.437	126.38
463.657	184.38
463.876	188.38
464.096	111.38
464.316	86.38
464.536	97.38
464.755	90.38
464.975	74.38
465.195	95.38
465.414	96.38
465.634	94.38
465.854	86.38
466.073	83.38
466.293	89.38
466.512	106.38
466.732	86.38
466.951	105.38
467.171	154.38
467.391	129.38
467.61	114.38
467.829	101.38
468.049	91.38
468.268	88.38
468.488	94.38
468.707	101.38
468.927	101.38
469.146	95.38
469.365	92.38
469.585	90.38
469.804	91.38
470.023	96.38
470.243	84.38
470.462	101.38
470.681	119.38
470.901	133.38
471.12	181.38
471.339	220.38
471.558	128.38
471.777	111.38
471.997	105.38
472.216	98.38
472.435	95.38
472.654	79.38
472.873	99.38
473.092	106.38
473.311	86.38
473.53	87.38
473.749	95.38
473.968	87.38
474.187	83.38
474.406	84.38
474.625	88.38
474.844	99.38
475.063	96.38
475.282	98.38
475.501	85.38
475.72	103.38
475.939	114.38
476.158	100.38
476.377	108.38
476.596	105.38
476.814	92.38
477.033	98.38
477.252	97.38
477.471	98.38
477.69	105.38
477.908	102.38
478.127	103.38
478.346	84.38
478.564	103.38
478.783	102.38
479.002	78.38
479.22	90.38
479.439	96.38
479.658	101.38
479.876	86.38
480.095	74.38
480.313	88.38
480.532	98.38
480.751	89.38
480.969	100.38
481.188	104.38
481.406	110.38
481.624	98.38
481.843	115.38
482.061	92.38
482.28	95.38
482.498	102.38
482.717	100.38
482.935	91.38
483.153	96.38
483.372	102.38
483.59	116.38
483.808	97.38
484.027	96.38
484.245	118.38
484.463	171.38
484.681	218.38
484.9	144.38
485.118	113.38
485.336	104.38
485.554	104.38
485.772	126.38
485.99	164.38
486.209	242.38
486.427	156.38
486.645	98.38
486.863	105.38
487.081	95.38
487.299	76.38
487.517	95.38
487.735	83.38
487.953	92.38
488.171	102.38
488.389	103.38
488.607	82.38
488.825	92.38
489.043	90.38
489.261	81.38
489.479	96.38
489.696	100.38
489.914	88.38
490.132	94.38
490.35	100.38
490.568	105.38
490.786	90.38
491.003	83.38
491.221	101.38
491.439	108.38
491.657	104.38
491.874	99.38
492.092	102.38
492.31	98.38
492.527	100.38
492.745	116.38
492.963	108.38
493.18	114.38
493.398	115.38
493.615	99.38
493.833	85.38
494.05	100.38
494.268	101.38
494.485	94.38
494.703	95.38
494.92	99.38
495.138	109.38
495.355	112.38
495.573	108.38
495.79	94.38
496.008	119.38
496.225	100.38
496.442	101.38
496.66	116.38
496.877	154.38
497.094	161.38
497.312	103.38
497.529	101.38
497.746	96.38
497.963	93.38
498.181	110.38
498.398	99.38
498.615	102.38
498.832	87.38
499.049	102.38
499.267	124.38
499.484	157.38
499.701	103.38
499.918	99.38
500.135	106.38
500.352	108.38
500.569	90.38
500.786	111.38
501.003	98.38
501.22	97.38
501.437	103.38
501.654	98.38
501.871	90.38
502.088	97.38
502.305	98.38
502.522	95.38
502.739	90.38
502.956	98.38
503.172	101.38
503.389	99.38
503.606	88.38
503.823	93.38
504.04	100.38
504.256	86.38
504.473	111.38
504.69	88.38
504.907	110.38
505.123	104.38
505.34	99.38
505.557	88.38
505.773	112.38
505.99	102.38
506.207	94.38
506.423	108.38
506.64	108.38
506.856	98.38
507.073	97.38
507.289	86.38
507.506	100.38
507.722	92.38
507.939	95.38
508.155	97.38
508.372	86.38
508.588	103.38
508.805	91.38
509.021	105.38
509.238	105.38
509.454	127.38
509.67	146.38
509.887	113.38
510.103	81.38
510.319	89.38
