Data from SnStandardFlinnAPT0064_LampEnergy5.5_LIBS07252019.E.O._I.C._HRD10591_15-17-39-493.txt Node
Date: Thu Jul 25 15:17:39 EDT 2019
User: cochatt
Spectrometer: HR+D1059
Trigger mode: 1
Integration Time (sec): 1.000000E-1
Scans to average: 1
Electric dark correction enabled: true
Nonlinearity correction enabled: false
Boxcar width: 0
XAxis mode: Wavelengths
Number of Pixels in Spectrum: 2048
>>>>>Begin Spectral Data<<<<<
223.165	-14.62
223.4	-14.62
223.635	-14.62
223.869	-11.62
224.104	-15.62
224.338	-1.62
224.573	0.38
224.808	-21.62
225.042	-15.62
225.277	-3.62
225.511	1.38
225.746	2.38
225.98	1.38
226.215	8.38
226.449	0.38
226.683	13.38
226.918	26.38
227.152	30.38
227.387	31.38
227.621	39.38
227.856	38.38
228.09	29.38
228.324	35.38
228.559	58.38
228.793	93.38
229.027	172.38
229.262	183.38
229.496	150.38
229.73	150.38
229.964	165.38
230.199	156.38
230.433	161.38
230.667	181.38
230.901	184.38
231.136	160.38
231.37	181.38
231.604	202.38
231.838	229.38
232.072	256.38
232.306	270.38
232.541	237.38
232.775	206.38
233.009	193.38
233.243	221.38
233.477	241.38
233.711	250.38
233.945	273.38
234.179	252.38
234.413	216.38
234.647	223.38
234.881	232.38
235.115	239.38
235.349	284.38
235.583	354.38
235.817	451.38
236.051	449.38
236.285	316.38
236.519	246.38
236.753	241.38
236.987	227.38
237.221	252.38
237.455	240.38
237.689	216.38
237.922	236.38
238.156	233.38
238.39	263.38
238.624	232.38
238.858	230.38
239.091	239.38
239.325	233.38
239.559	221.38
239.793	238.38
240.027	255.38
240.26	245.38
240.494	256.38
240.728	254.38
240.961	290.38
241.195	296.38
241.429	288.38
241.662	313.38
241.896	350.38
242.13	423.38
242.363	543.38
242.597	679.38
242.83	678.38
243.064	681.38
243.298	776.38
243.531	672.38
243.765	417.38
243.998	336.38
244.232	319.38
244.465	324.38
244.699	306.38
244.932	306.38
245.166	278.38
245.399	310.38
245.633	304.38
245.866	324.38
246.099	285.38
246.333	321.38
246.566	310.38
246.8	291.38
247.033	290.38
247.266	291.38
247.5	302.38
247.733	289.38
247.966	308.38
248.2	327.38
248.433	376.38
248.666	457.38
248.899	418.38
249.133	373.38
249.366	386.38
249.599	424.38
249.832	485.38
250.066	446.38
250.299	375.38
250.532	344.38
250.765	356.38
250.998	331.38
251.231	357.38
251.465	328.38
251.698	325.38
251.931	343.38
252.164	332.38
252.397	337.38
252.63	378.38
252.863	366.38
253.096	372.38
253.329	359.38
253.562	330.38
253.795	354.38
254.028	371.38
254.261	374.38
254.494	392.38
254.727	447.38
254.96	543.38
255.193	546.38
255.426	414.38
255.659	364.38
255.892	385.38
256.124	405.38
256.357	404.38
256.59	401.38
256.823	414.38
257.056	481.38
257.289	579.38
257.521	609.38
257.754	496.38
257.987	432.38
258.22	419.38
258.452	392.38
258.685	403.38
258.918	424.38
259.151	447.38
259.383	460.38
259.616	528.38
259.849	523.38
260.081	457.38
260.314	437.38
260.547	425.38
260.779	414.38
261.012	441.38
261.244	438.38
261.477	426.38
261.71	437.38
261.942	446.38
262.175	456.38
262.407	458.38
262.64	468.38
262.872	508.38
263.105	517.38
263.337	526.38
263.57	568.38
263.802	562.38
264.035	581.38
264.267	589.38
264.499	591.38
264.732	638.38
264.964	654.38
265.197	640.38
265.429	627.38
265.661	648.38
265.894	698.38
266.126	777.38
266.358	860.38
266.591	803.38
266.823	687.38
267.055	646.38
267.287	626.38
267.52	588.38
267.752	585.38
267.984	578.38
268.216	585.38
268.448	564.38
268.681	543.38
268.913	563.38
269.145	564.38
269.377	552.38
269.609	544.38
269.841	573.38
270.073	613.38
270.306	678.38
270.538	954.38
270.77	1392.38
271.002	1673.38
271.234	1152.38
271.466	786.38
271.698	632.38
271.93	565.38
272.162	580.38
272.394	563.38
272.626	535.38
272.858	527.38
273.09	535.38
273.322	529.38
273.553	528.38
273.785	538.38
274.017	522.38
274.249	539.38
274.481	543.38
274.713	531.38
274.945	532.38
275.176	545.38
275.408	559.38
275.64	535.38
275.872	538.38
276.104	557.38
276.335	546.38
276.567	551.38
276.799	541.38
277.031	572.38
277.262	570.38
277.494	626.38
277.726	648.38
277.957	748.38
278.189	860.38
278.421	836.38
278.652	720.38
278.884	681.38
279.115	636.38
279.347	629.38
279.579	608.38
279.81	612.38
280.042	624.38
280.273	625.38
280.505	616.38
280.736	632.38
280.968	667.38
281.199	745.38
281.431	823.38
281.662	853.38
281.894	734.38
282.125	677.38
282.356	682.38
282.588	714.38
282.819	730.38
283.051	759.38
283.282	818.38
283.513	1042.38
283.745	1494.38
283.976	2461.38
284.207	3537.38
284.439	3101.38
284.67	1776.38
284.901	1472.38
285.132	1438.38
285.364	1405.38
285.595	1079.38
285.826	985.38
286.057	1216.38
286.288	1652.38
286.52	2214.38
286.751	2018.38
286.982	1241.38
287.213	931.38
287.444	806.38
287.675	750.38
287.906	753.38
288.138	734.38
288.369	703.38
288.6	718.38
288.831	704.38
289.062	727.38
289.293	714.38
289.524	717.38
289.755	722.38
289.986	710.38
290.217	761.38
290.448	714.38
290.679	718.38
290.91	756.38
291.141	794.38
291.371	816.38
291.602	868.38
291.833	768.38
292.064	748.38
292.295	720.38
292.526	710.38
292.757	674.38
292.987	703.38
293.218	679.38
293.449	682.38
293.68	661.38
293.91	682.38
294.141	672.38
294.372	672.38
294.603	639.38
294.833	677.38
295.064	665.38
295.295	660.38
295.525	652.38
295.756	669.38
295.987	664.38
296.217	674.38
296.448	665.38
296.679	676.38
296.909	692.38
297.14	693.38
297.37	724.38
297.601	713.38
297.831	685.38
298.062	706.38
298.292	710.38
298.523	694.38
298.753	717.38
298.984	715.38
299.214	737.38
299.445	750.38
299.675	754.38
299.905	751.38
300.136	819.38
300.366	896.38
300.597	1156.38
300.827	1665.38
301.057	2120.38
301.288	2176.38
301.518	1361.38
301.748	1036.38
301.979	963.38
302.209	921.38
302.439	924.38
302.669	992.38
302.9	1205.38
303.13	1745.38
303.36	2554.38
303.59	3468.38
303.82	2939.38
304.051	1657.38
304.281	1220.38
304.511	992.38
304.741	940.38
304.971	889.38
305.201	842.38
305.431	810.38
305.661	784.38
305.891	787.38
306.121	800.38
306.352	791.38
306.582	782.38
306.812	788.38
307.042	781.38
307.272	794.38
307.502	789.38
307.731	778.38
307.961	772.38
308.191	756.38
308.421	771.38
308.651	791.38
308.881	783.38
309.111	770.38
309.341	788.38
309.571	804.38
309.8	786.38
310.03	801.38
310.26	786.38
310.49	802.38
310.72	797.38
310.949	801.38
311.179	800.38
311.409	791.38
311.639	826.38
311.868	816.38
312.098	831.38
312.328	828.38
312.557	847.38
312.787	838.38
313.017	848.38
313.246	856.38
313.476	830.38
313.706	869.38
313.935	893.38
314.165	969.38
314.394	989.38
314.624	972.38
314.853	913.38
315.083	904.38
315.312	903.38
315.542	930.38
315.771	921.38
316.001	945.38
316.23	978.38
316.46	1004.38
316.689	1129.38
316.919	1351.38
317.148	1953.38
317.377	3007.38
317.607	4555.38
317.836	4696.38
318.065	2634.38
318.295	1670.38
318.524	1331.38
318.753	1190.38
318.983	1098.38
319.212	1040.38
319.441	1026.38
319.67	993.38
319.9	999.38
320.129	1006.38
320.358	954.38
320.587	983.38
320.816	973.38
321.046	969.38
321.275	983.38
321.504	1015.38
321.733	1044.38
321.962	1021.38
322.191	1043.38
322.42	1071.38
322.649	1057.38
322.878	1027.38
323.108	1031.38
323.337	1066.38
323.566	1070.38
323.795	1076.38
324.024	1112.38
324.253	1144.38
324.482	1160.38
324.71	1222.38
324.939	1276.38
325.168	1290.38
325.397	1344.38
325.626	1620.38
325.855	2326.38
326.084	3647.38
326.313	5596.38
326.542	5944.38
326.77	3580.38
326.999	2268.38
327.228	1949.38
327.457	1872.38
327.686	1859.38
327.914	1957.38
328.143	2242.38
328.372	2617.38
328.6	2788.38
328.829	2543.38
329.058	2269.38
329.287	1982.38
329.515	1841.38
329.744	1700.38
329.972	1641.38
330.201	1570.38
330.43	1480.38
330.658	1454.38
330.887	1400.38
331.115	1413.38
331.344	1416.38
331.572	1421.38
331.801	1421.38
332.03	1434.38
332.258	1441.38
332.486	1542.38
332.715	1751.38
332.943	2150.38
333.172	2644.38
333.4	2599.38
333.629	1960.38
333.857	1766.38
334.085	1801.38
334.314	1882.38
334.542	1995.38
334.771	2321.38
334.999	2814.38
335.227	3356.38
335.455	3834.38
335.684	3490.38
335.912	2940.38
336.14	2520.38
336.369	2273.38
336.597	2068.38
336.825	1924.38
337.053	1813.38
337.281	1709.38
337.51	1619.38
337.738	1563.38
337.966	1488.38
338.194	1438.38
338.422	1440.38
338.65	1394.38
338.878	1373.38
339.106	1346.38
339.334	1333.38
339.562	1325.38
339.79	1251.38
340.018	1255.38
340.246	1257.38
340.474	1275.38
340.702	1264.38
340.93	1308.38
341.158	1246.38
341.386	1249.38
341.614	1266.38
341.842	1241.38
342.07	1214.38
342.298	1186.38
342.526	1180.38
342.754	1127.38
342.981	1183.38
343.209	1141.38
343.437	1184.38
343.665	1173.38
343.893	1172.38
344.12	1188.38
344.348	1185.38
344.576	1132.38
344.804	1181.38
345.031	1116.38
345.259	1103.38
345.487	1097.38
345.714	1092.38
345.942	1079.38
346.17	1139.38
346.397	1077.38
346.625	1085.38
346.853	1060.38
347.08	1072.38
347.308	1090.38
347.535	1052.38
347.763	1059.38
347.99	1047.38
348.218	1047.38
348.445	1056.38
348.673	1019.38
348.9	1061.38
349.128	1084.38
349.355	1032.38
349.583	1039.38
349.81	1041.38
350.037	1009.38
350.265	1045.38
350.492	1019.38
350.72	1050.38
350.947	1029.38
351.174	1032.38
351.402	1038.38
351.629	1016.38
351.856	1038.38
352.083	1001.38
352.311	1010.38
352.538	1018.38
352.765	1026.38
352.992	1029.38
353.22	1034.38
353.447	1050.38
353.674	1029.38
353.901	1045.38
354.128	1022.38
354.355	1029.38
354.583	1030.38
354.81	1002.38
355.037	1049.38
355.264	998.38
355.491	1032.38
355.718	1035.38
355.945	1063.38
356.172	1043.38
356.399	1089.38
356.626	1040.38
356.853	1070.38
357.08	1047.38
357.307	1082.38
357.534	1084.38
357.761	1060.38
357.988	1073.38
358.215	1064.38
358.441	1085.38
358.668	1110.38
358.895	1094.38
359.122	1068.38
359.349	1087.38
359.576	1091.38
359.802	1075.38
360.029	1074.38
360.256	1106.38
360.483	1080.38
360.709	1098.38
360.936	1104.38
361.163	1089.38
361.39	1096.38
361.616	1092.38
361.843	1123.38
362.07	1103.38
362.296	1090.38
362.523	1072.38
362.749	1082.38
362.976	1080.38
363.203	1068.38
363.429	1065.38
363.656	1078.38
363.882	1081.38
364.109	1066.38
364.335	1060.38
364.562	1086.38
364.788	1119.38
365.015	1104.38
365.241	1130.38
365.468	1141.38
365.694	1218.38
365.92	1181.38
366.147	1128.38
366.373	1095.38
366.599	1077.38
366.826	1091.38
367.052	1097.38
367.278	1086.38
367.505	1104.38
367.731	1091.38
367.957	1125.38
368.184	1122.38
368.41	1159.38
368.636	1121.38
368.862	1151.38
369.089	1117.38
369.315	1141.38
369.541	1137.38
369.767	1143.38
369.993	1105.38
370.219	1143.38
370.445	1127.38
370.672	1136.38
370.898	1106.38
371.124	1148.38
371.35	1142.38
371.576	1144.38
371.802	1156.38
372.028	1152.38
372.254	1192.38
372.48	1168.38
372.706	1184.38
372.932	1179.38
373.158	1173.38
373.384	1212.38
373.61	1191.38
373.835	1192.38
374.061	1218.38
374.287	1198.38
374.513	1168.38
374.739	1246.38
374.965	1238.38
375.191	1222.38
375.416	1235.38
375.642	1220.38
375.868	1199.38
376.094	1191.38
376.319	1169.38
376.545	1179.38
376.771	1181.38
376.997	1151.38
377.222	1174.38
377.448	1192.38
377.674	1170.38
377.899	1175.38
378.125	1168.38
378.35	1177.38
378.576	1163.38
378.802	1172.38
379.027	1189.38
379.253	1246.38
379.478	1294.38
379.704	1502.38
379.929	2184.38
380.155	3337.38
380.38	3614.38
380.606	2169.38
380.831	1494.38
381.057	1301.38
381.282	1249.38
381.507	1204.38
381.733	1150.38
381.958	1176.38
382.184	1144.38
382.409	1144.38
382.634	1159.38
382.86	1161.38
383.085	1132.38
383.31	1166.38
383.535	1168.38
383.761	1143.38
383.986	1163.38
384.211	1166.38
384.436	1176.38
384.662	1168.38
384.887	1201.38
385.112	1182.38
385.337	1164.38
385.562	1191.38
385.787	1168.38
386.013	1204.38
386.238	1212.38
386.463	1213.38
386.688	1178.38
386.913	1188.38
387.138	1198.38
387.363	1175.38
387.588	1191.38
387.813	1190.38
388.038	1154.38
388.263	1207.38
388.488	1230.38
388.713	1199.38
388.938	1166.38
389.163	1169.38
389.387	1205.38
389.612	1200.38
389.837	1186.38
390.062	1185.38
390.287	1193.38
390.512	1174.38
390.736	1198.38
390.961	1242.38
391.186	1223.38
391.411	1231.38
391.636	1286.38
391.86	1262.38
392.085	1252.38
392.31	1252.38
392.534	1204.38
392.759	1251.38
392.984	1210.38
393.208	1228.38
393.433	1264.38
393.658	1226.38
393.882	1252.38
394.107	1205.38
394.331	1200.38
394.556	1182.38
394.78	1234.38
395.005	1237.38
395.229	1210.38
395.454	1248.38
395.678	1254.38
395.903	1247.38
396.127	1248.38
396.352	1225.38
396.576	1238.38
396.801	1263.38
397.025	1240.38
397.249	1269.38
397.474	1272.38
397.698	1262.38
397.922	1261.38
398.147	1279.38
398.371	1305.38
398.595	1316.38
398.82	1324.38
399.044	1399.38
399.268	1444.38
399.492	1485.38
399.717	1552.38
399.941	1542.38
400.165	1498.38
400.389	1473.38
400.613	1415.38
400.837	1352.38
401.062	1344.38
401.286	1318.38
401.51	1336.38
401.734	1308.38
401.958	1350.38
402.182	1328.38
402.406	1319.38
402.63	1306.38
402.854	1353.38
403.078	1325.38
403.302	1309.38
403.526	1330.38
403.75	1348.38
403.974	1392.38
404.198	1351.38
404.422	1374.38
404.645	1388.38
404.869	1358.38
405.093	1378.38
405.317	1349.38
405.541	1366.38
405.765	1391.38
405.988	1414.38
406.212	1401.38
406.436	1378.38
406.66	1408.38
406.883	1388.38
407.107	1428.38
407.331	1460.38
407.555	1476.38
407.778	1462.38
408.002	1472.38
408.226	1447.38
408.449	1422.38
408.673	1410.38
408.896	1402.38
409.12	1349.38
409.344	1366.38
409.567	1377.38
409.791	1385.38
410.014	1391.38
410.238	1362.38
410.461	1380.38
410.685	1320.38
410.908	1324.38
411.132	1338.38
411.355	1334.38
411.578	1328.38
411.802	1324.38
412.025	1324.38
412.249	1317.38
412.472	1284.38
412.695	1326.38
412.919	1310.38
413.142	1310.38
413.365	1281.38
413.589	1300.38
413.812	1296.38
414.035	1297.38
414.258	1282.38
414.482	1307.38
414.705	1307.38
414.928	1300.38
415.151	1310.38
415.374	1288.38
415.597	1247.38
415.821	1249.38
416.044	1253.38
416.267	1263.38
416.49	1255.38
416.713	1238.38
416.936	1276.38
417.159	1218.38
417.382	1228.38
417.605	1210.38
417.828	1249.38
418.051	1253.38
418.274	1244.38
418.497	1280.38
418.72	1290.38
418.943	1284.38
419.166	1305.38
419.389	1356.38
419.611	1363.38
419.834	1351.38
420.057	1282.38
420.28	1227.38
420.503	1214.38
420.726	1220.38
420.948	1216.38
421.171	1246.38
421.394	1240.38
421.617	1267.38
421.839	1290.38
422.062	1286.38
422.285	1242.38
422.507	1277.38
422.73	1282.38
422.953	1263.38
423.175	1301.38
423.398	1305.38
423.621	1220.38
423.843	1291.38
424.066	1257.38
424.288	1264.38
424.511	1237.38
424.733	1232.38
424.956	1254.38
425.178	1265.38
425.401	1244.38
425.623	1249.38
425.846	1231.38
426.068	1210.38
426.291	1231.38
426.513	1214.38
426.735	1219.38
426.958	1244.38
427.18	1164.38
427.402	1172.38
427.625	1182.38
427.847	1158.38
428.069	1202.38
428.292	1167.38
428.514	1189.38
428.736	1176.38
428.958	1149.38
429.181	1170.38
429.403	1126.38
429.625	1148.38
429.847	1183.38
430.069	1170.38
430.292	1216.38
430.514	1245.38
430.736	1233.38
430.958	1165.38
431.18	1154.38
431.402	1152.38
431.624	1123.38
431.846	1126.38
432.068	1159.38
432.29	1168.38
432.512	1109.38
432.734	1153.38
432.956	1139.38
433.178	1162.38
433.4	1183.38
433.622	1170.38
433.844	1157.38
434.066	1177.38
434.287	1133.38
434.509	1154.38
434.731	1182.38
434.953	1207.38
435.175	1210.38
435.397	1228.38
435.618	1137.38
435.84	1144.38
436.062	1106.38
436.284	1143.38
436.505	1119.38
436.727	1126.38
436.949	1164.38
437.17	1140.38
437.392	1133.38
437.614	1119.38
437.835	1100.38
438.057	1121.38
438.278	1089.38
438.5	1095.38
438.721	1141.38
438.943	1146.38
439.165	1219.38
439.386	1199.38
439.608	1172.38
439.829	1186.38
440.05	1272.38
440.272	1255.38
440.493	1202.38
440.715	1197.38
440.936	1198.38
441.158	1194.38
441.379	1222.38
441.6	1258.38
441.822	1289.38
442.043	1344.38
442.264	1360.38
442.486	1264.38
442.707	1256.38
442.928	1233.38
443.149	1245.38
443.371	1204.38
443.592	1233.38
443.813	1219.38
444.034	1252.38
444.255	1295.38
444.476	1290.38
444.698	1325.38
444.919	1317.38
445.14	1383.38
445.361	1300.38
445.582	1285.38
445.803	1253.38
446.024	1241.38
446.245	1230.38
446.466	1247.38
446.687	1206.38
446.908	1223.38
447.129	1206.38
447.35	1179.38
447.571	1169.38
447.792	1145.38
448.013	1147.38
448.234	1125.38
448.455	1134.38
448.675	1158.38
448.896	1188.38
449.117	1186.38
449.338	1321.38
449.559	1353.38
449.779	1227.38
450	1156.38
450.221	1120.38
450.442	1110.38
450.662	1104.38
450.883	1092.38
451.104	1124.38
451.324	1108.38
451.545	1085.38
451.766	1092.38
451.986	1147.38
452.207	1189.38
452.428	1496.38
452.648	2147.38
452.869	1856.38
453.089	1329.38
453.31	1232.38
453.53	1208.38
453.751	1279.38
453.971	1361.38
454.192	1332.38
454.412	1168.38
454.633	1090.38
454.853	1090.38
455.073	1076.38
455.294	1040.38
455.514	1043.38
455.734	1048.38
455.955	1035.38
456.175	1073.38
456.395	1061.38
456.616	1058.38
456.836	1050.38
457.056	1080.38
457.276	1073.38
457.497	1169.38
457.717	1139.38
457.937	1106.38
458.157	1113.38
458.377	1137.38
458.598	1129.38
458.818	1122.38
459.038	1106.38
459.258	1129.38
459.478	1137.38
459.698	1147.38
459.918	1167.38
460.138	1174.38
460.358	1207.38
460.578	1230.38
460.798	1270.38
461.018	1224.38
461.238	1239.38
461.458	1269.38
461.678	1258.38
461.898	1288.38
462.118	1326.38
462.338	1288.38
462.558	1303.38
462.777	1361.38
462.997	1394.38
463.217	1455.38
463.437	1512.38
463.657	1522.38
463.876	1504.38
464.096	1447.38
464.316	1363.38
464.536	1333.38
464.755	1354.38
464.975	1308.38
465.195	1264.38
465.414	1231.38
465.634	1173.38
465.854	1152.38
466.073	1160.38
466.293	1170.38
466.512	1165.38
466.732	1158.38
466.951	1217.38
467.171	1301.38
467.391	1260.38
467.61	1189.38
467.829	1172.38
468.049	1155.38
468.268	1119.38
468.488	1130.38
468.707	1133.38
468.927	1128.38
469.146	1124.38
469.365	1153.38
469.585	1138.38
469.804	1181.38
470.023	1208.38
470.243	1178.38
470.462	1271.38
470.681	1344.38
470.901	1408.38
471.12	1612.38
471.339	1665.38
471.558	1360.38
471.777	1263.38
471.997	1209.38
472.216	1193.38
472.435	1122.38
472.654	1117.38
472.873	1144.38
473.092	1138.38
473.311	1141.38
473.53	1137.38
473.749	1173.38
473.968	1190.38
474.187	1152.38
474.406	1134.38
474.625	1144.38
474.844	1131.38
475.063	1141.38
475.282	1160.38
475.501	1157.38
475.72	1161.38
475.939	1162.38
476.158	1183.38
476.377	1216.38
476.596	1171.38
476.814	1176.38
477.033	1168.38
477.252	1201.38
477.471	1209.38
477.69	1288.38
477.908	1253.38
478.127	1328.38
478.346	1281.38
478.564	1337.38
478.783	1317.38
479.002	1342.38
479.22	1329.38
479.439	1369.38
479.658	1341.38
479.876	1347.38
480.095	1356.38
480.313	1365.38
480.532	1372.38
480.751	1366.38
480.969	1319.38
481.188	1316.38
481.406	1373.38
481.624	1349.38
481.843	1344.38
482.061	1330.38
482.28	1341.38
482.498	1369.38
482.717	1378.38
482.935	1340.38
483.153	1407.38
483.372	1439.38
483.59	1436.38
483.808	1439.38
484.027	1469.38
484.245	1543.38
484.463	1715.38
484.681	1920.38
484.9	1768.38
485.118	1607.38
485.336	1554.38
485.554	1569.38
485.772	1678.38
485.99	1915.38
486.209	2108.38
486.427	1711.38
486.645	1541.38
486.863	1507.38
487.081	1489.38
487.299	1463.38
487.517	1478.38
487.735	1460.38
487.953	1511.38
488.171	1442.38
488.389	1433.38
488.607	1473.38
488.825	1422.38
489.043	1416.38
489.261	1391.38
489.479	1399.38
489.696	1421.38
489.914	1416.38
490.132	1404.38
490.35	1418.38
490.568	1419.38
490.786	1444.38
491.003	1458.38
