Data from SnStandardFlinnAPT0064_LampEnergy10_LIBS07252019.E.O._I.C._HRD10591_15-19-19-494.txt Node
Date: Thu Jul 25 15:19:19 EDT 2019
User: cochatt
Spectrometer: HR+D1059
Trigger mode: 1
Integration Time (sec): 1.000000E-1
Scans to average: 1
Electric dark correction enabled: true
Nonlinearity correction enabled: false
Boxcar width: 0
XAxis mode: Wavelengths
Number of Pixels in Spectrum: 2048
>>>>>Begin Spectral Data<<<<<
223.165	-12.44
223.4	-12.44
223.635	-12.44
223.869	-25.44
224.104	-14.44
224.338	-11.44
224.573	-9.44
224.808	-1.44
225.042	-2.44
225.277	-10.44
225.511	-17.44
225.746	-4.44
225.98	6.56
226.215	19.56
226.449	18.56
226.683	17.56
226.918	26.56
227.152	20.56
227.387	41.56
227.621	38.56
227.856	52.56
228.09	40.56
228.324	56.56
228.559	52.56
228.793	133.56
229.027	324.56
229.262	353.56
229.496	312.56
229.73	344.56
229.964	312.56
230.199	306.56
230.433	298.56
230.667	347.56
230.901	330.56
231.136	336.56
231.37	382.56
231.604	407.56
231.838	473.56
232.072	568.56
232.306	631.56
232.541	519.56
232.775	463.56
233.009	436.56
233.243	440.56
233.477	487.56
233.711	562.56
233.945	652.56
234.179	541.56
234.413	473.56
234.647	498.56
234.881	498.56
235.115	552.56
235.349	664.56
235.583	867.56
235.817	1107.56
236.051	1066.56
236.285	724.56
236.519	576.56
236.753	531.56
236.987	515.56
237.221	522.56
237.455	522.56
237.689	491.56
237.922	463.56
238.156	506.56
238.39	504.56
238.624	525.56
238.858	492.56
239.091	500.56
239.325	548.56
239.559	499.56
239.793	523.56
240.027	543.56
240.26	536.56
240.494	565.56
240.728	577.56
240.961	642.56
241.195	682.56
241.429	740.56
241.662	737.56
241.896	863.56
242.13	1018.56
242.363	1392.56
242.597	1800.56
242.83	1750.56
243.064	1731.56
243.298	2050.56
243.531	1643.56
243.765	1018.56
243.998	814.56
244.232	742.56
244.465	688.56
244.699	665.56
244.932	672.56
245.166	668.56
245.399	670.56
245.633	681.56
245.866	678.56
246.099	670.56
246.333	668.56
246.566	652.56
246.8	653.56
247.033	638.56
247.266	670.56
247.5	638.56
247.733	692.56
247.966	735.56
248.2	798.56
248.433	923.56
248.666	1090.56
248.899	985.56
249.133	887.56
249.366	905.56
249.599	995.56
249.832	1162.56
250.066	1158.56
250.299	883.56
250.532	784.56
250.765	763.56
250.998	751.56
251.231	729.56
251.465	735.56
251.698	740.56
251.931	712.56
252.164	714.56
252.397	771.56
252.63	802.56
252.863	806.56
253.096	794.56
253.329	789.56
253.562	775.56
253.795	765.56
254.028	803.56
254.261	835.56
254.494	903.56
254.727	1077.56
254.96	1320.56
255.193	1326.56
255.426	1024.56
255.659	888.56
255.892	890.56
256.124	896.56
256.357	879.56
256.59	934.56
256.823	1019.56
257.056	1167.56
257.289	1454.56
257.521	1646.56
257.754	1236.56
257.987	1009.56
258.22	928.56
258.452	912.56
258.685	911.56
258.918	937.56
259.151	996.56
259.383	1120.56
259.616	1264.56
259.849	1315.56
260.081	1134.56
260.314	1021.56
260.547	942.56
260.779	937.56
261.012	950.56
261.244	944.56
261.477	975.56
261.71	983.56
261.942	992.56
262.175	955.56
262.407	976.56
262.64	1037.56
262.872	1042.56
263.105	1097.56
263.337	1098.56
263.57	1196.56
263.802	1243.56
264.035	1280.56
264.267	1266.56
264.499	1303.56
264.732	1362.56
264.964	1374.56
265.197	1377.56
265.429	1368.56
265.661	1392.56
265.894	1516.56
266.126	1692.56
266.358	1968.56
266.591	1936.56
266.823	1601.56
267.055	1416.56
267.287	1355.56
267.52	1287.56
267.752	1245.56
267.984	1231.56
268.216	1235.56
268.448	1223.56
268.681	1191.56
268.913	1190.56
269.145	1215.56
269.377	1218.56
269.609	1242.56
269.841	1322.56
270.073	1379.56
270.306	1657.56
270.538	2304.56
270.77	3612.56
271.002	4445.56
271.234	3078.56
271.466	2004.56
271.698	1577.56
271.93	1413.56
272.162	1335.56
272.394	1271.56
272.626	1249.56
272.858	1221.56
273.09	1228.56
273.322	1194.56
273.553	1194.56
273.785	1206.56
274.017	1211.56
274.249	1198.56
274.481	1184.56
274.713	1184.56
274.945	1189.56
275.176	1195.56
275.408	1170.56
275.64	1220.56
275.872	1178.56
276.104	1228.56
276.335	1220.56
276.567	1279.56
276.799	1266.56
277.031	1322.56
277.262	1296.56
277.494	1414.56
277.726	1587.56
277.957	1966.56
278.189	2290.56
278.421	2105.56
278.652	1866.56
278.884	1718.56
279.115	1522.56
279.347	1458.56
279.579	1419.56
279.81	1417.56
280.042	1388.56
280.273	1462.56
280.505	1484.56
280.736	1550.56
280.968	1620.56
281.199	1867.56
281.431	2207.56
281.662	2296.56
281.894	1880.56
282.125	1688.56
282.356	1670.56
282.588	1714.56
282.819	1748.56
283.051	1903.56
283.282	2158.56
283.513	2706.56
283.745	3930.56
283.976	6342.56
284.207	9029.56
284.439	8210.56
284.67	5187.56
284.901	4235.56
285.132	4251.56
285.364	4021.56
285.595	2974.56
285.826	2686.56
286.057	3161.56
286.288	4338.56
286.52	5954.56
286.751	5498.56
286.982	3410.56
287.213	2490.56
287.444	2106.56
287.675	1958.56
287.906	1868.56
288.138	1756.56
288.369	1696.56
288.6	1698.56
288.831	1710.56
289.062	1666.56
289.293	1662.56
289.524	1676.56
289.755	1698.56
289.986	1674.56
290.217	1694.56
290.448	1699.56
290.679	1759.56
290.91	1750.56
291.141	1869.56
291.371	2089.56
291.602	2188.56
291.833	1955.56
292.064	1751.56
292.295	1700.56
292.526	1678.56
292.757	1620.56
292.987	1637.56
293.218	1587.56
293.449	1590.56
293.68	1580.56
293.91	1591.56
294.141	1538.56
294.372	1542.56
294.603	1546.56
294.833	1523.56
295.064	1529.56
295.295	1541.56
295.525	1518.56
295.756	1530.56
295.987	1513.56
296.217	1561.56
296.448	1521.56
296.679	1496.56
296.909	1543.56
297.14	1577.56
297.37	1577.56
297.601	1589.56
297.831	1598.56
298.062	1603.56
298.292	1611.56
298.523	1636.56
298.753	1680.56
298.984	1706.56
299.214	1716.56
299.445	1721.56
299.675	1770.56
299.905	1874.56
300.136	1980.56
300.366	2245.56
300.597	2950.56
300.827	4277.56
301.057	5898.56
301.288	6022.56
301.518	3748.56
301.748	2750.56
301.979	2492.56
302.209	2391.56
302.439	2459.56
302.669	2578.56
302.9	3237.56
303.13	4586.56
303.36	7002.56
303.59	9353.56
303.82	8129.56
304.051	4790.56
304.281	3346.56
304.511	2734.56
304.741	2404.56
304.971	2237.56
305.201	2112.56
305.431	2039.56
305.661	2000.56
305.891	1955.56
306.121	1903.56
306.352	1851.56
306.582	1830.56
306.812	1808.56
307.042	1842.56
307.272	1851.56
307.502	1794.56
307.731	1824.56
307.961	1798.56
308.191	1779.56
308.421	1746.56
308.651	1767.56
308.881	1778.56
309.111	1770.56
309.341	1814.56
309.571	1835.56
309.8	1802.56
310.03	1858.56
310.26	1854.56
310.49	1818.56
310.72	1846.56
310.949	1850.56
311.179	1842.56
311.409	1867.56
311.639	1892.56
311.868	1943.56
312.098	1937.56
312.328	1932.56
312.557	1917.56
312.787	1914.56
313.017	1989.56
313.246	1974.56
313.476	2010.56
313.706	2071.56
313.935	2222.56
314.165	2377.56
314.394	2562.56
314.624	2421.56
314.853	2240.56
315.083	2148.56
315.312	2163.56
315.542	2208.56
315.771	2226.56
316.001	2292.56
316.23	2363.56
316.46	2484.56
316.689	2838.56
316.919	3460.56
317.148	5086.56
317.377	7973.56
317.607	11702.56
317.836	12267.56
318.065	7516.56
318.295	4837.56
318.524	3782.56
318.753	3203.56
318.983	2902.56
319.212	2692.56
319.441	2544.56
319.67	2542.56
319.9	2412.56
320.129	2382.56
320.358	2353.56
320.587	2370.56
320.816	2383.56
321.046	2331.56
321.275	2317.56
321.504	2389.56
321.733	2424.56
321.962	2484.56
322.191	2566.56
322.42	2490.56
322.649	2443.56
322.878	2464.56
323.108	2478.56
323.337	2566.56
323.566	2602.56
323.795	2706.56
324.024	2707.56
324.253	2754.56
324.482	2874.56
324.71	3092.56
324.939	3327.56
325.168	3397.56
325.397	3544.56
325.626	4299.56
325.855	6146.56
326.084	9696.56
326.313	13776.56
326.542	14474.56
326.77	10303.56
326.999	6528.56
327.228	5349.56
327.457	5040.56
327.686	5007.56
327.914	5295.56
328.143	6102.56
328.372	7202.56
328.6	7841.56
328.829	7039.56
329.058	5943.56
329.287	5164.56
329.515	4685.56
329.744	4297.56
329.972	3996.56
330.201	3888.56
330.43	3718.56
330.658	3588.56
330.887	3549.56
331.115	3502.56
331.344	3471.56
331.572	3422.56
331.801	3403.56
332.03	3481.56
332.258	3503.56
332.486	3787.56
332.715	4425.56
332.943	5649.56
333.172	7174.56
333.4	7129.56
333.629	5234.56
333.857	4583.56
334.085	4524.56
334.314	4712.56
334.542	5060.56
334.771	5999.56
334.999	7504.56
335.227	9370.56
335.455	10469.56
335.684	9430.56
335.912	7711.56
336.14	6390.56
336.369	5708.56
336.597	5169.56
336.825	4788.56
337.053	4488.56
337.281	4206.56
337.51	3960.56
337.738	3848.56
337.966	3611.56
338.194	3458.56
338.422	3342.56
338.65	3292.56
338.878	3236.56
339.106	3161.56
339.334	3094.56
339.562	3069.56
339.79	3005.56
340.018	2958.56
340.246	2957.56
340.474	2931.56
340.702	2930.56
340.93	2929.56
341.158	2950.56
341.386	2935.56
341.614	2869.56
341.842	2849.56
342.07	2787.56
342.298	2748.56
342.526	2704.56
342.754	2684.56
342.981	2642.56
343.209	2651.56
343.437	2693.56
343.665	2695.56
343.893	2721.56
344.12	2745.56
344.348	2673.56
344.576	2632.56
344.804	2630.56
345.031	2564.56
345.259	2555.56
345.487	2508.56
345.714	2494.56
345.942	2445.56
346.17	2507.56
346.397	2489.56
346.625	2505.56
346.853	2424.56
347.08	2434.56
347.308	2482.56
347.535	2462.56
347.763	2418.56
347.99	2424.56
348.218	2418.56
348.445	2398.56
348.673	2408.56
348.9	2401.56
349.128	2369.56
349.355	2358.56
349.583	2377.56
349.81	2344.56
350.037	2355.56
350.265	2425.56
350.492	2374.56
350.72	2352.56
350.947	2316.56
351.174	2340.56
351.402	2377.56
351.629	2284.56
351.856	2354.56
352.083	2324.56
352.311	2316.56
352.538	2280.56
352.765	2325.56
352.992	2328.56
353.22	2287.56
353.447	2286.56
353.674	2345.56
353.901	2320.56
354.128	2360.56
354.355	2321.56
354.583	2313.56
354.81	2347.56
355.037	2370.56
355.264	2345.56
355.491	2363.56
355.718	2339.56
355.945	2343.56
356.172	2411.56
356.399	2382.56
356.626	2400.56
356.853	2451.56
357.08	2432.56
357.307	2434.56
357.534	2478.56
357.761	2464.56
357.988	2494.56
358.215	2499.56
358.441	2473.56
358.668	2443.56
358.895	2488.56
359.122	2437.56
359.349	2458.56
359.576	2454.56
359.802	2480.56
360.029	2446.56
360.256	2493.56
360.483	2478.56
360.709	2442.56
360.936	2487.56
361.163	2436.56
361.39	2475.56
361.616	2466.56
361.843	2528.56
362.07	2448.56
362.296	2458.56
362.523	2414.56
362.749	2465.56
362.976	2480.56
363.203	2490.56
363.429	2447.56
363.656	2414.56
363.882	2460.56
364.109	2465.56
364.335	2469.56
364.562	2425.56
364.788	2429.56
365.015	2500.56
365.241	2538.56
365.468	2714.56
365.694	2921.56
365.92	2793.56
366.147	2564.56
366.373	2545.56
366.599	2510.56
366.826	2529.56
367.052	2492.56
367.278	2498.56
367.505	2558.56
367.731	2524.56
367.957	2518.56
368.184	2533.56
368.41	2575.56
368.636	2567.56
368.862	2593.56
369.089	2541.56
369.315	2552.56
369.541	2566.56
369.767	2546.56
369.993	2521.56
370.219	2549.56
370.445	2552.56
370.672	2576.56
370.898	2527.56
371.124	2576.56
371.35	2602.56
371.576	2584.56
371.802	2600.56
372.028	2651.56
372.254	2655.56
372.48	2630.56
372.706	2691.56
372.932	2694.56
373.158	2708.56
373.384	2685.56
373.61	2683.56
373.835	2700.56
374.061	2683.56
374.287	2670.56
374.513	2776.56
374.739	2796.56
374.965	2822.56
375.191	2798.56
375.416	2802.56
375.642	2743.56
375.868	2745.56
376.094	2741.56
376.319	2652.56
376.545	2651.56
376.771	2682.56
376.997	2623.56
377.222	2656.56
377.448	2604.56
377.674	2657.56
377.899	2608.56
378.125	2618.56
378.35	2659.56
378.576	2675.56
378.802	2690.56
379.027	2761.56
379.253	2828.56
379.478	3042.56
379.704	3643.56
379.929	5530.56
380.155	8788.56
380.38	9762.56
380.606	5848.56
380.831	3899.56
381.057	3307.56
381.282	3001.56
381.507	2866.56
381.733	2755.56
381.958	2676.56
382.184	2622.56
382.409	2622.56
382.634	2635.56
382.86	2615.56
383.085	2578.56
383.31	2594.56
383.535	2584.56
383.761	2578.56
383.986	2578.56
384.211	2677.56
384.436	2703.56
384.662	2704.56
384.887	2687.56
385.112	2648.56
385.337	2700.56
385.562	2690.56
385.787	2690.56
386.013	2650.56
386.238	2675.56
386.463	2674.56
386.688	2712.56
386.913	2663.56
387.138	2673.56
387.363	2684.56
387.588	2616.56
387.813	2654.56
388.038	2634.56
388.263	2652.56
388.488	2642.56
388.713	2706.56
388.938	2691.56
389.163	2644.56
389.387	2658.56
389.612	2659.56
389.837	2645.56
390.062	2641.56
390.287	2693.56
390.512	2661.56
390.736	2728.56
390.961	2753.56
391.186	2739.56
391.411	2801.56
391.636	2795.56
391.86	2810.56
392.085	2797.56
392.31	2731.56
392.534	2771.56
392.759	2785.56
392.984	2762.56
393.208	2769.56
393.433	2896.56
393.658	2847.56
393.882	2693.56
394.107	2662.56
394.331	2740.56
394.556	2681.56
394.78	2726.56
395.005	2750.56
395.229	2736.56
395.454	2815.56
395.678	2743.56
395.903	2764.56
396.127	2812.56
396.352	2786.56
396.576	2767.56
396.801	2783.56
397.025	2901.56
397.249	2790.56
397.474	2843.56
397.698	2814.56
397.922	2841.56
398.147	2864.56
398.371	2884.56
398.595	2886.56
398.82	2975.56
399.044	3134.56
399.268	3226.56
399.492	3445.56
399.717	3513.56
399.941	3506.56
400.165	3402.56
400.389	3218.56
400.613	3119.56
400.837	3026.56
401.062	2964.56
401.286	2964.56
401.51	2983.56
401.734	2892.56
401.958	2996.56
402.182	2950.56
402.406	2922.56
402.63	2944.56
402.854	2979.56
403.078	3008.56
403.302	3017.56
403.526	3038.56
403.75	3034.56
403.974	3082.56
404.198	3035.56
404.422	3046.56
404.645	3046.56
404.869	3007.56
405.093	3065.56
405.317	3042.56
405.541	3088.56
405.765	3160.56
405.988	3248.56
406.212	3200.56
406.436	3147.56
406.66	3162.56
406.883	3136.56
407.107	3208.56
407.331	3251.56
407.555	3352.56
407.778	3286.56
408.002	3272.56
408.226	3281.56
408.449	3347.56
408.673	3207.56
408.896	3175.56
409.12	3032.56
409.344	3118.56
409.567	3069.56
409.791	3088.56
410.014	3026.56
410.238	3056.56
410.461	3090.56
410.685	3012.56
410.908	2998.56
411.132	2942.56
411.355	2923.56
411.578	2957.56
411.802	2918.56
412.025	2904.56
412.249	2938.56
412.472	2952.56
412.695	2965.56
412.919	2884.56
413.142	2873.56
413.365	2929.56
413.589	2887.56
413.812	2847.56
414.035	2920.56
414.258	2966.56
414.482	2888.56
414.705	2874.56
414.928	2916.56
415.151	2859.56
415.374	2855.56
415.597	2868.56
415.821	2821.56
416.044	2786.56
416.267	2772.56
416.49	2760.56
416.713	2773.56
416.936	2778.56
417.159	2720.56
417.382	2697.56
417.605	2726.56
417.828	2726.56
418.051	2770.56
418.274	2826.56
418.497	2780.56
418.72	2906.56
418.943	2794.56
419.166	2981.56
419.389	3112.56
419.611	3015.56
419.834	3004.56
420.057	2938.56
420.28	2800.56
420.503	2774.56
420.726	2784.56
420.948	2793.56
421.171	2780.56
421.394	2789.56
421.617	2734.56
421.839	2799.56
422.062	2808.56
422.285	2788.56
422.507	2783.56
422.73	2888.56
422.953	2915.56
423.175	2903.56
423.398	2839.56
423.621	2761.56
423.843	2824.56
424.066	2804.56
424.288	2762.56
424.511	2742.56
424.733	2766.56
424.956	2763.56
425.178	2794.56
425.401	2790.56
425.623	2761.56
425.846	2710.56
426.068	2676.56
426.291	2671.56
426.513	2670.56
426.735	2636.56
426.958	2670.56
427.18	2650.56
427.402	2678.56
427.625	2651.56
427.847	2580.56
428.069	2537.56
428.292	2626.56
428.514	2594.56
428.736	2577.56
428.958	2542.56
429.181	2557.56
429.403	2538.56
429.625	2552.56
429.847	2578.56
430.069	2646.56
430.292	2743.56
430.514	2787.56
430.736	2770.56
430.958	2641.56
431.18	2595.56
431.402	2554.56
431.624	2522.56
431.846	2541.56
432.068	2520.56
432.29	2516.56
432.512	2508.56
432.734	2575.56
432.956	2556.56
433.178	2590.56
433.4	2536.56
433.622	2561.56
433.844	2584.56
434.066	2556.56
434.287	2561.56
434.509	2616.56
434.731	2598.56
434.953	2615.56
435.175	2651.56
435.397	2674.56
435.618	2588.56
435.84	2590.56
436.062	2543.56
436.284	2570.56
436.505	2527.56
436.727	2576.56
436.949	2532.56
437.17	2513.56
437.392	2509.56
437.614	2495.56
437.835	2442.56
438.057	2530.56
438.278	2450.56
438.5	2491.56
438.721	2571.56
438.943	2634.56
439.165	2672.56
439.386	2728.56
439.608	2665.56
439.829	2659.56
440.05	2762.56
440.272	2856.56
440.493	2736.56
440.715	2645.56
440.936	2684.56
441.158	2702.56
441.379	2725.56
441.6	2819.56
441.822	2907.56
442.043	3034.56
442.264	3191.56
442.486	2929.56
442.707	2799.56
442.928	2726.56
443.149	2770.56
443.371	2708.56
443.592	2734.56
443.813	2783.56
444.034	2743.56
444.255	2803.56
444.476	2866.56
444.698	2863.56
444.919	2907.56
445.14	3023.56
445.361	2883.56
445.582	2807.56
445.803	2707.56
446.024	2683.56
446.245	2677.56
446.466	2763.56
446.687	2667.56
446.908	2732.56
447.129	2641.56
447.35	2611.56
447.571	2602.56
447.792	2566.56
448.013	2533.56
448.234	2502.56
448.455	2556.56
448.675	2596.56
448.896	2648.56
449.117	2781.56
449.338	3054.56
449.559	3100.56
449.779	2783.56
450	2582.56
450.221	2538.56
450.442	2497.56
450.662	2514.56
450.883	2496.56
451.104	2498.56
451.324	2475.56
451.545	2513.56
451.766	2515.56
451.986	2585.56
452.207	2849.56
452.428	3823.56
452.648	6117.56
452.869	5080.56
453.089	3317.56
453.31	3045.56
453.53	3035.56
453.751	3156.56
453.971	3267.56
454.192	3209.56
454.412	2754.56
454.633	2516.56
454.853	2444.56
455.073	2440.56
455.294	2391.56
455.514	2314.56
455.734	2357.56
455.955	2334.56
456.175	2339.56
456.395	2339.56
456.616	2394.56
456.836	2436.56
457.056	2448.56
457.276	2404.56
457.497	2579.56
457.717	2638.56
457.937	2534.56
458.157	2462.56
458.377	2511.56
458.598	2547.56
458.818	2556.56
459.038	2564.56
459.258	2509.56
459.478	2572.56
459.698	2591.56
459.918	2531.56
460.138	2688.56
460.358	2758.56
460.578	2721.56
460.798	2778.56
461.018	2815.56
461.238	2830.56
461.458	2788.56
461.678	2886.56
461.898	2913.56
462.118	2920.56
462.338	2967.56
462.558	2970.56
462.777	3028.56
462.997	3206.56
463.217	3304.56
463.437	3399.56
463.657	3504.56
463.876	3536.56
464.096	3293.56
464.316	3185.56
464.536	3106.56
464.755	3048.56
464.975	2966.56
465.195	2808.56
465.414	2763.56
465.634	2696.56
465.854	2678.56
466.073	2618.56
466.293	2621.56
466.512	2648.56
466.732	2686.56
466.951	2791.56
467.171	2997.56
467.391	2964.56
467.61	2690.56
467.829	2616.56
468.049	2610.56
468.268	2483.56
468.488	2510.56
468.707	2528.56
468.927	2508.56
469.146	2519.56
469.365	2577.56
469.585	2588.56
469.804	2649.56
470.023	2765.56
470.243	2758.56
470.462	2866.56
470.681	2979.56
470.901	3359.56
471.12	3854.56
471.339	3824.56
471.558	3180.56
471.777	2872.56
471.997	2732.56
472.216	2662.56
472.435	2639.56
472.654	2615.56
472.873	2566.56
473.092	2558.56
473.311	2595.56
473.53	2551.56
473.749	2643.56
473.968	2749.56
474.187	2601.56
474.406	2538.56
474.625	2582.56
474.844	2549.56
475.063	2557.56
475.282	2567.56
475.501	2586.56
475.72	2599.56
475.939	2576.56
476.158	2671.56
476.377	2740.56
476.596	2727.56
476.814	2685.56
477.033	2662.56
477.252	2690.56
477.471	2800.56
477.69	2782.56
477.908	2843.56
478.127	2849.56
478.346	2895.56
478.564	2952.56
478.783	2966.56
479.002	2956.56
479.22	3015.56
479.439	3082.56
479.658	3012.56
479.876	3083.56
480.095	3080.56
480.313	3142.56
480.532	3185.56
480.751	3184.56
480.969	3100.56
481.188	3042.56
481.406	3105.56
481.624	3099.56
481.843	3184.56
482.061	3098.56
482.28	3083.56
482.498	3048.56
482.717	3045.56
482.935	3116.56
483.153	3150.56
483.372	3211.56
483.59	3272.56
483.808	3278.56
484.027	3414.56
484.245	3665.56
484.463	4117.56
484.681	4641.56
484.9	4212.56
485.118	3854.56
485.336	3813.56
485.554	3827.56
485.772	4220.56
485.99	4749.56
486.209	5048.56
486.427	4168.56
486.645	3690.56
486.863	3544.56
487.081	3388.56
487.299	3375.56
487.517	3324.56
487.735	3369.56
