Data from SnStandardFlinnAPT0064_QswitchEnergy10_LIBS07252019.E.O._I.C._HRD10591_15-28-09-974.txt Node
Date: Thu Jul 25 15:28:09 EDT 2019
User: cochatt
Spectrometer: HR+D1059
Trigger mode: 1
Integration Time (sec): 1.000000E-1
Scans to average: 1
Electric dark correction enabled: true
Nonlinearity correction enabled: false
Boxcar width: 0
XAxis mode: Wavelengths
Number of Pixels in Spectrum: 2048
>>>>>Begin Spectral Data<<<<<
223.165	-9.81
223.4	-9.81
223.635	-9.81
223.869	-8.81
224.104	-35.81
224.338	-26.81
224.573	-15.81
224.808	-14.81
225.042	-0.81
225.277	-0.81
225.511	5.19
225.746	9.19
225.98	16.19
226.215	1.19
226.449	10.19
226.683	15.19
226.918	29.19
227.152	27.19
227.387	29.19
227.621	29.19
227.856	27.19
228.09	56.19
228.324	57.19
228.559	58.19
228.793	66.19
229.027	69.19
229.262	72.19
229.496	70.19
229.73	65.19
229.964	74.19
230.199	66.19
230.433	82.19
230.667	93.19
230.901	74.19
231.136	88.19
231.37	69.19
231.604	85.19
231.838	93.19
232.072	119.19
232.306	122.19
232.541	97.19
232.775	86.19
233.009	80.19
233.243	70.19
233.477	85.19
233.711	108.19
233.945	119.19
234.179	86.19
234.413	75.19
234.647	76.19
234.881	87.19
235.115	93.19
235.349	86.19
235.583	121.19
235.817	135.19
236.051	126.19
236.285	95.19
236.519	67.19
236.753	81.19
236.987	72.19
237.221	75.19
237.455	77.19
237.689	82.19
237.922	73.19
238.156	74.19
238.39	81.19
238.624	78.19
238.858	85.19
239.091	82.19
239.325	71.19
239.559	75.19
239.793	80.19
240.027	67.19
240.26	87.19
240.494	72.19
240.728	80.19
240.961	90.19
241.195	97.19
241.429	85.19
241.662	77.19
241.896	79.19
242.13	88.19
242.363	136.19
242.597	164.19
242.83	135.19
243.064	133.19
243.298	178.19
243.531	155.19
243.765	94.19
243.998	73.19
244.232	93.19
244.465	88.19
244.699	74.19
244.932	67.19
245.166	74.19
245.399	86.19
245.633	83.19
245.866	81.19
246.099	92.19
246.333	88.19
246.566	81.19
246.8	98.19
247.033	87.19
247.266	83.19
247.5	89.19
247.733	84.19
247.966	78.19
248.2	81.19
248.433	99.19
248.666	115.19
248.899	117.19
249.133	83.19
249.366	94.19
249.599	106.19
249.832	106.19
250.066	114.19
250.299	88.19
250.532	88.19
250.765	84.19
250.998	66.19
251.231	93.19
251.465	86.19
251.698	86.19
251.931	86.19
252.164	89.19
252.397	78.19
252.63	95.19
252.863	93.19
253.096	87.19
253.329	84.19
253.562	94.19
253.795	88.19
254.028	89.19
254.261	96.19
254.494	104.19
254.727	117.19
254.96	155.19
255.193	133.19
255.426	117.19
255.659	83.19
255.892	79.19
256.124	93.19
256.357	89.19
256.59	81.19
256.823	90.19
257.056	110.19
257.289	144.19
257.521	185.19
257.754	107.19
257.987	103.19
258.22	82.19
258.452	73.19
258.685	85.19
258.918	89.19
259.151	87.19
259.383	109.19
259.616	127.19
259.849	154.19
260.081	116.19
260.314	79.19
260.547	85.19
260.779	77.19
261.012	85.19
261.244	84.19
261.477	84.19
261.71	75.19
261.942	68.19
262.175	77.19
262.407	96.19
262.64	70.19
262.872	77.19
263.105	82.19
263.337	77.19
263.57	75.19
263.802	94.19
264.035	85.19
264.267	95.19
264.499	83.19
264.732	94.19
264.964	85.19
265.197	74.19
265.429	78.19
265.661	93.19
265.894	87.19
266.126	111.19
266.358	133.19
266.591	138.19
266.823	87.19
267.055	75.19
267.287	91.19
267.52	87.19
267.752	84.19
267.984	94.19
268.216	89.19
268.448	84.19
268.681	80.19
268.913	91.19
269.145	76.19
269.377	93.19
269.609	87.19
269.841	81.19
270.073	95.19
270.306	124.19
270.538	189.19
270.77	331.19
271.002	407.19
271.234	200.19
271.466	121.19
271.698	100.19
271.93	90.19
272.162	91.19
272.394	97.19
272.626	95.19
272.858	94.19
273.09	89.19
273.322	88.19
273.553	83.19
273.785	89.19
274.017	82.19
274.249	73.19
274.481	95.19
274.713	95.19
274.945	99.19
275.176	76.19
275.408	75.19
275.64	95.19
275.872	101.19
276.104	80.19
276.335	101.19
276.567	105.19
276.799	88.19
277.031	87.19
277.262	84.19
277.494	97.19
277.726	127.19
277.957	165.19
278.189	243.19
278.421	225.19
278.652	183.19
278.884	177.19
279.115	123.19
279.347	102.19
279.579	85.19
279.81	94.19
280.042	94.19
280.273	98.19
280.505	102.19
280.736	102.19
280.968	116.19
281.199	171.19
281.431	245.19
281.662	239.19
281.894	164.19
282.125	114.19
282.356	122.19
282.588	91.19
282.819	122.19
283.051	119.19
283.282	137.19
283.513	173.19
283.745	299.19
283.976	554.19
284.207	830.19
284.439	622.19
284.67	249.19
284.901	259.19
285.132	327.19
285.364	371.19
285.595	212.19
285.826	166.19
286.057	255.19
286.288	427.19
286.52	637.19
286.751	515.19
286.982	185.19
287.213	117.19
287.444	109.19
287.675	106.19
287.906	97.19
288.138	103.19
288.369	95.19
288.6	89.19
288.831	83.19
289.062	100.19
289.293	83.19
289.524	100.19
289.755	86.19
289.986	86.19
290.217	89.19
290.448	91.19
290.679	84.19
290.91	123.19
291.141	156.19
291.371	203.19
291.602	256.19
291.833	166.19
292.064	123.19
292.295	92.19
292.526	89.19
292.757	80.19
292.987	87.19
293.218	102.19
293.449	90.19
293.68	71.19
293.91	88.19
294.141	103.19
294.372	87.19
294.603	81.19
294.833	82.19
295.064	82.19
295.295	99.19
295.525	106.19
295.756	85.19
295.987	87.19
296.217	93.19
296.448	105.19
296.679	93.19
296.909	101.19
297.14	80.19
297.37	95.19
297.601	98.19
297.831	83.19
298.062	100.19
298.292	109.19
298.523	103.19
298.753	102.19
298.984	86.19
299.214	114.19
299.445	109.19
299.675	106.19
299.905	102.19
300.136	138.19
300.366	168.19
300.597	264.19
300.827	449.19
301.057	692.19
301.288	633.19
301.518	254.19
301.748	145.19
301.979	131.19
302.209	110.19
302.439	149.19
302.669	161.19
302.9	254.19
303.13	486.19
303.36	856.19
303.59	1286.19
303.82	869.19
304.051	296.19
304.281	155.19
304.511	124.19
304.741	123.19
304.971	105.19
305.201	114.19
305.431	78.19
305.661	103.19
305.891	97.19
306.121	114.19
306.352	107.19
306.582	87.19
306.812	111.19
307.042	109.19
307.272	110.19
307.502	106.19
307.731	118.19
307.961	96.19
308.191	113.19
308.421	106.19
308.651	112.19
308.881	113.19
309.111	105.19
309.341	98.19
309.571	93.19
309.8	96.19
310.03	110.19
310.26	113.19
310.49	105.19
310.72	106.19
310.949	99.19
311.179	97.19
311.409	110.19
311.639	109.19
311.868	115.19
312.098	101.19
312.328	94.19
312.557	122.19
312.787	121.19
313.017	119.19
313.246	114.19
313.476	117.19
313.706	112.19
313.935	143.19
314.165	169.19
314.394	211.19
314.624	182.19
314.853	136.19
315.083	119.19
315.312	123.19
315.542	119.19
315.771	139.19
316.001	135.19
316.23	148.19
316.46	147.19
316.689	161.19
316.919	251.19
317.148	488.19
317.377	932.19
317.607	1542.19
317.836	1421.19
318.065	551.19
318.295	219.19
318.524	147.19
318.753	138.19
318.983	122.19
319.212	113.19
319.441	112.19
319.67	119.19
319.9	100.19
320.129	109.19
320.358	114.19
320.587	113.19
320.816	119.19
321.046	124.19
321.275	119.19
321.504	131.19
321.733	137.19
321.962	156.19
322.191	151.19
322.42	124.19
322.649	131.19
322.878	121.19
323.108	117.19
323.337	118.19
323.566	118.19
323.795	136.19
324.024	137.19
324.253	138.19
324.482	173.19
324.71	217.19
324.939	275.19
325.168	227.19
325.397	192.19
325.626	257.19
325.855	485.19
326.084	965.19
326.313	1615.19
326.542	1608.19
326.77	621.19
326.999	243.19
327.228	205.19
327.457	223.19
327.686	216.19
327.914	151.19
328.143	128.19
328.372	121.19
328.6	129.19
328.829	121.19
329.058	111.19
329.287	109.19
329.515	132.19
329.744	123.19
329.972	114.19
330.201	114.19
330.43	103.19
330.658	121.19
330.887	116.19
331.115	116.19
331.344	119.19
331.572	114.19
331.801	105.19
332.03	123.19
332.258	141.19
332.486	151.19
332.715	286.19
332.943	503.19
333.172	765.19
333.4	673.19
333.629	266.19
333.857	139.19
334.085	130.19
334.314	121.19
334.542	114.19
334.771	125.19
334.999	116.19
335.227	126.19
335.455	129.19
335.684	119.19
335.912	118.19
336.14	106.19
336.369	113.19
336.597	100.19
336.825	105.19
337.053	116.19
337.281	99.19
337.51	109.19
337.738	104.19
337.966	115.19
338.194	118.19
338.422	112.19
338.65	103.19
338.878	109.19
339.106	125.19
339.334	111.19
339.562	119.19
339.79	105.19
340.018	92.19
340.246	98.19
340.474	104.19
340.702	127.19
340.93	99.19
341.158	113.19
341.386	113.19
341.614	128.19
341.842	111.19
342.07	122.19
342.298	109.19
342.526	114.19
342.754	101.19
342.981	122.19
343.209	99.19
343.437	115.19
343.665	96.19
343.893	107.19
344.12	99.19
344.348	95.19
344.576	111.19
344.804	105.19
345.031	114.19
345.259	97.19
345.487	96.19
345.714	102.19
345.942	87.19
346.17	105.19
346.397	115.19
346.625	111.19
346.853	104.19
347.08	102.19
347.308	103.19
347.535	106.19
347.763	97.19
347.99	110.19
348.218	97.19
348.445	107.19
348.673	117.19
348.9	120.19
349.128	121.19
349.355	111.19
349.583	102.19
349.81	100.19
350.037	118.19
350.265	119.19
350.492	114.19
350.72	117.19
350.947	99.19
351.174	91.19
351.402	118.19
351.629	105.19
351.856	114.19
352.083	104.19
352.311	104.19
352.538	106.19
352.765	119.19
352.992	104.19
353.22	98.19
353.447	97.19
353.674	97.19
353.901	113.19
354.128	102.19
354.355	81.19
354.583	109.19
354.81	94.19
355.037	97.19
355.264	97.19
355.491	98.19
355.718	110.19
355.945	101.19
356.172	101.19
356.399	127.19
356.626	98.19
356.853	113.19
357.08	109.19
357.307	97.19
357.534	118.19
357.761	109.19
357.988	89.19
358.215	90.19
358.441	95.19
358.668	115.19
358.895	111.19
359.122	118.19
359.349	109.19
359.576	121.19
359.802	104.19
360.029	112.19
360.256	122.19
360.483	104.19
360.709	109.19
360.936	121.19
361.163	103.19
361.39	117.19
361.616	101.19
361.843	121.19
362.07	118.19
362.296	112.19
362.523	101.19
362.749	91.19
362.976	101.19
363.203	122.19
363.429	107.19
363.656	118.19
363.882	102.19
364.109	111.19
364.335	104.19
364.562	104.19
364.788	105.19
365.015	110.19
365.241	129.19
365.468	192.19
365.694	214.19
365.92	178.19
366.147	99.19
366.373	101.19
366.599	107.19
366.826	93.19
367.052	108.19
367.278	91.19
367.505	106.19
367.731	91.19
367.957	88.19
368.184	91.19
368.41	104.19
368.636	109.19
368.862	113.19
369.089	114.19
369.315	107.19
369.541	105.19
369.767	107.19
369.993	101.19
370.219	113.19
370.445	97.19
370.672	117.19
370.898	106.19
371.124	112.19
371.35	111.19
371.576	109.19
371.802	91.19
372.028	104.19
372.254	108.19
372.48	119.19
372.706	112.19
372.932	113.19
373.158	106.19
373.384	112.19
373.61	105.19
373.835	113.19
374.061	111.19
374.287	116.19
374.513	104.19
374.739	117.19
374.965	105.19
375.191	101.19
375.416	104.19
375.642	108.19
375.868	116.19
376.094	99.19
376.319	93.19
376.545	104.19
376.771	113.19
376.997	86.19
377.222	96.19
377.448	111.19
377.674	114.19
377.899	110.19
378.125	101.19
378.35	105.19
378.576	104.19
378.802	116.19
379.027	125.19
379.253	146.19
379.478	176.19
379.704	291.19
379.929	771.19
380.155	1569.19
380.38	1635.19
380.606	542.19
380.831	201.19
381.057	119.19
381.282	115.19
381.507	118.19
381.733	89.19
381.958	109.19
382.184	110.19
382.409	106.19
382.634	106.19
382.86	97.19
383.085	95.19
383.31	98.19
383.535	108.19
383.761	96.19
383.986	107.19
384.211	101.19
384.436	93.19
384.662	90.19
384.887	106.19
385.112	109.19
385.337	103.19
385.562	103.19
385.787	91.19
386.013	110.19
386.238	109.19
386.463	105.19
386.688	87.19
386.913	101.19
387.138	104.19
387.363	120.19
387.588	96.19
387.813	96.19
388.038	93.19
388.263	113.19
388.488	106.19
388.713	122.19
388.938	96.19
389.163	102.19
389.387	96.19
389.612	105.19
389.837	98.19
390.062	109.19
390.287	103.19
390.512	83.19
390.736	104.19
390.961	97.19
391.186	101.19
391.411	99.19
391.636	94.19
391.86	96.19
392.085	87.19
392.31	101.19
392.534	91.19
392.759	92.19
392.984	96.19
393.208	104.19
393.433	122.19
393.658	125.19
393.882	88.19
394.107	92.19
394.331	88.19
394.556	88.19
394.78	98.19
395.005	94.19
395.229	95.19
395.454	105.19
395.678	103.19
395.903	90.19
396.127	102.19
396.352	111.19
396.576	99.19
396.801	101.19
397.025	105.19
397.249	121.19
397.474	93.19
397.698	96.19
397.922	95.19
398.147	98.19
398.371	75.19
398.595	102.19
398.82	87.19
399.044	99.19
399.268	103.19
399.492	96.19
399.717	114.19
399.941	98.19
400.165	111.19
400.389	83.19
400.613	97.19
400.837	98.19
401.062	92.19
401.286	103.19
401.51	93.19
401.734	89.19
401.958	103.19
402.182	90.19
402.406	91.19
402.63	96.19
402.854	101.19
403.078	87.19
403.302	99.19
403.526	93.19
403.75	91.19
403.974	88.19
404.198	83.19
404.422	93.19
404.645	104.19
404.869	90.19
405.093	95.19
405.317	106.19
405.541	95.19
405.765	136.19
405.988	123.19
406.212	100.19
406.436	100.19
406.66	105.19
406.883	91.19
407.107	101.19
407.331	102.19
407.555	98.19
407.778	101.19
408.002	98.19
408.226	92.19
408.449	119.19
408.673	104.19
408.896	97.19
409.12	98.19
409.344	105.19
409.567	80.19
409.791	104.19
410.014	95.19
410.238	107.19
410.461	99.19
410.685	95.19
410.908	103.19
411.132	96.19
411.355	95.19
411.578	96.19
411.802	85.19
412.025	97.19
412.249	98.19
412.472	102.19
412.695	106.19
412.919	94.19
413.142	115.19
413.365	104.19
413.589	101.19
413.812	96.19
414.035	113.19
414.258	112.19
414.482	102.19
414.705	111.19
414.928	110.19
415.151	101.19
415.374	109.19
415.597	106.19
415.821	83.19
416.044	85.19
416.267	99.19
416.49	87.19
416.713	95.19
416.936	90.19
417.159	98.19
417.382	94.19
417.605	90.19
417.828	100.19
418.051	109.19
418.274	105.19
418.497	104.19
418.72	105.19
418.943	90.19
419.166	101.19
419.389	106.19
419.611	102.19
419.834	107.19
420.057	111.19
420.28	96.19
420.503	106.19
420.726	93.19
420.948	87.19
421.171	94.19
421.394	81.19
421.617	86.19
421.839	88.19
422.062	94.19
422.285	98.19
422.507	98.19
422.73	114.19
422.953	125.19
423.175	104.19
423.398	110.19
423.621	96.19
423.843	77.19
424.066	91.19
424.288	80.19
424.511	77.19
424.733	96.19
424.956	99.19
425.178	93.19
425.401	92.19
425.623	103.19
425.846	81.19
426.068	86.19
426.291	95.19
426.513	101.19
426.735	99.19
426.958	103.19
427.18	84.19
427.402	91.19
427.625	85.19
427.847	86.19
428.069	97.19
428.292	97.19
428.514	95.19
428.736	94.19
428.958	112.19
429.181	91.19
429.403	106.19
429.625	98.19
429.847	105.19
430.069	118.19
430.292	101.19
430.514	96.19
430.736	109.19
430.958	101.19
431.18	94.19
431.402	77.19
431.624	101.19
431.846	91.19
432.068	94.19
432.29	86.19
432.512	90.19
432.734	100.19
432.956	102.19
433.178	90.19
433.4	88.19
433.622	93.19
433.844	86.19
434.066	94.19
434.287	87.19
434.509	92.19
434.731	92.19
434.953	91.19
435.175	101.19
435.397	77.19
435.618	91.19
435.84	88.19
436.062	92.19
436.284	110.19
436.505	111.19
436.727	94.19
436.949	83.19
437.17	92.19
437.392	77.19
437.614	79.19
437.835	71.19
438.057	88.19
438.278	97.19
438.5	84.19
438.721	97.19
438.943	107.19
439.165	100.19
439.386	107.19
439.608	98.19
439.829	109.19
440.05	120.19
440.272	128.19
440.493	94.19
440.715	89.19
440.936	89.19
441.158	80.19
441.379	86.19
441.6	85.19
441.822	104.19
442.043	114.19
442.264	125.19
442.486	103.19
442.707	85.19
442.928	87.19
443.149	95.19
443.371	93.19
443.592	90.19
443.813	86.19
444.034	92.19
444.255	94.19
444.476	97.19
444.698	93.19
444.919	87.19
445.14	189.19
445.361	143.19
445.582	99.19
445.803	92.19
446.024	88.19
446.245	104.19
446.466	99.19
446.687	111.19
446.908	105.19
447.129	93.19
447.35	99.19
447.571	97.19
447.792	94.19
448.013	79.19
448.234	95.19
448.455	96.19
448.675	117.19
448.896	105.19
449.117	116.19
449.338	133.19
449.559	155.19
449.779	126.19
450	95.19
450.221	106.19
450.442	120.19
450.662	113.19
450.883	92.19
451.104	97.19
451.324	110.19
451.545	129.19
451.766	130.19
451.986	139.19
452.207	219.19
452.428	530.19
452.648	1245.19
452.869	729.19
453.089	190.19
453.31	127.19
453.53	116.19
453.751	138.19
453.971	179.19
454.192	165.19
454.412	111.19
454.633	114.19
454.853	95.19
455.073	91.19
455.294	82.19
455.514	89.19
455.734	89.19
455.955	94.19
456.175	108.19
456.395	102.19
456.616	87.19
456.836	98.19
457.056	95.19
457.276	91.19
457.497	109.19
457.717	130.19
457.937	88.19
458.157	88.19
458.377	95.19
458.598	85.19
458.818	100.19
459.038	92.19
459.258	91.19
459.478	96.19
459.698	96.19
459.918	111.19
460.138	90.19
460.358	107.19
460.578	87.19
460.798	93.19
461.018	90.19
461.238	94.19
461.458	85.19
461.678	96.19
461.898	99.19
462.118	102.19
462.338	94.19
462.558	100.19
462.777	103.19
462.997	99.19
463.217	86.19
463.437	124.19
463.657	179.19
463.876	199.19
464.096	121.19
464.316	106.19
464.536	89.19
464.755	89.19
464.975	93.19
465.195	94.19
465.414	101.19
465.634	97.19
465.854	94.19
466.073	103.19
466.293	95.19
466.512	95.19
466.732	101.19
466.951	114.19
467.171	138.19
467.391	130.19
467.61	103.19
467.829	100.19
468.049	100.19
468.268	104.19
468.488	98.19
468.707	93.19
468.927	96.19
469.146	91.19
469.365	92.19
469.585	83.19
469.804	87.19
470.023	95.19
470.243	93.19
470.462	105.19
470.681	102.19
470.901	125.19
471.12	197.19
471.339	230.19
471.558	137.19
471.777	91.19
471.997	109.19
472.216	100.19
472.435	81.19
472.654	87.19
472.873	103.19
473.092	96.19
473.311	82.19
473.53	87.19
473.749	107.19
473.968	88.19
474.187	95.19
474.406	94.19
474.625	93.19
474.844	84.19
475.063	86.19
475.282	87.19
475.501	108.19
475.72	106.19
475.939	106.19
476.158	97.19
476.377	125.19
476.596	104.19
476.814	87.19
477.033	78.19
477.252	88.19
477.471	102.19
477.69	98.19
477.908	93.19
478.127	106.19
478.346	99.19
478.564	98.19
478.783	86.19
479.002	100.19
479.22	78.19
479.439	94.19
479.658	81.19
479.876	96.19
480.095	105.19
480.313	90.19
480.532	96.19
480.751	92.19
480.969	94.19
481.188	91.19
481.406	96.19
481.624	94.19
481.843	118.19
482.061	119.19
482.28	96.19
482.498	91.19
482.717	90.19
482.935	95.19
483.153	94.19
483.372	82.19
483.59	91.19
483.808	106.19
484.027	91.19
484.245	122.19
484.463	189.19
484.681	249.19
484.9	141.19
485.118	109.19
485.336	103.19
485.554	102.19
485.772	118.19
485.99	192.19
486.209	264.19
486.427	162.19
486.645	114.19
486.863	112.19
487.081	97.19
487.299	95.19
487.517	104.19
487.735	101.19
487.953	96.19
488.171	118.19
488.389	86.19
488.607	91.19
488.825	87.19
489.043	98.19
489.261	103.19
489.479	91.19
489.696	91.19
489.914	103.19
490.132	84.19
490.35	103.19
490.568	89.19
490.786	89.19
491.003	102.19
491.221	108.19
491.439	106.19
491.657	113.19
491.874	113.19
492.092	107.19
492.31	93.19
492.527	88.19
492.745	98.19
492.963	107.19
493.18	105.19
493.398	111.19
493.615	111.19
493.833	97.19
494.05	91.19
494.268	104.19
494.485	111.19
494.703	98.19
494.92	95.19
495.138	94.19
495.355	92.19
495.573	105.19
495.79	102.19
496.008	104.19
496.225	93.19
496.442	97.19
496.66	109.19
496.877	146.19
497.094	147.19
497.312	113.19
497.529	98.19
497.746	95.19
497.963	102.19
498.181	98.19
498.398	94.19
498.615	106.19
498.832	116.19
499.049	105.19
499.267	131.19
499.484	141.19
499.701	101.19
499.918	107.19
500.135	97.19
500.352	91.19
500.569	98.19
500.786	87.19
501.003	99.19
501.22	102.19
501.437	95.19
501.654	98.19
501.871	99.19
502.088	99.19
502.305	94.19
502.522	104.19
502.739	84.19
502.956	109.19
503.172	117.19
503.389	98.19
503.606	111.19
503.823	96.19
504.04	101.19
504.256	96.19
504.473	101.19
504.69	109.19
504.907	110.19
505.123	114.19
505.34	96.19
505.557	99.19
505.773	93.19
505.99	90.19
506.207	101.19
506.423	102.19
506.64	101.19
506.856	109.19
507.073	102.19
507.289	110.19
507.506	106.19
507.722	99.19
507.939	106.19
508.155	93.19
508.372	87.19
508.588	97.19
508.805	107.19
509.021	99.19
509.238	114.19
509.454	143.19
509.67	158.19
