Data from SnStandardFlinnAPT0064_QswitchEnergy10_LIBS07252019.E.O._I.C._HRD10591_15-25-57-973.txt Node
Date: Thu Jul 25 15:25:57 EDT 2019
User: cochatt
Spectrometer: HR+D1059
Trigger mode: 1
Integration Time (sec): 1.000000E-1
Scans to average: 1
Electric dark correction enabled: true
Nonlinearity correction enabled: false
Boxcar width: 0
XAxis mode: Wavelengths
Number of Pixels in Spectrum: 2048
>>>>>Begin Spectral Data<<<<<
223.165	-15.31
223.4	-15.31
223.635	-15.31
223.869	-5.31
224.104	-7.31
224.338	-34.31
224.573	-19.31
224.808	-5.31
225.042	2.69
225.277	-4.31
225.511	-1.31
225.746	7.69
225.98	6.69
226.215	6.69
226.449	9.69
226.683	19.69
226.918	14.69
227.152	24.69
227.387	42.69
227.621	36.69
227.856	41.69
228.09	50.69
228.324	34.69
228.559	40.69
228.793	62.69
229.027	62.69
229.262	67.69
229.496	74.69
229.73	76.69
229.964	57.69
230.199	70.69
230.433	87.69
230.667	68.69
230.901	68.69
231.136	73.69
231.37	94.69
231.604	91.69
231.838	98.69
232.072	124.69
232.306	110.69
232.541	95.69
232.775	84.69
233.009	82.69
233.243	93.69
233.477	91.69
233.711	98.69
233.945	90.69
234.179	85.69
234.413	76.69
234.647	87.69
234.881	81.69
235.115	85.69
235.349	99.69
235.583	92.69
235.817	126.69
236.051	113.69
236.285	99.69
236.519	101.69
236.753	78.69
236.987	66.69
237.221	84.69
237.455	91.69
237.689	71.69
237.922	92.69
238.156	82.69
238.39	81.69
238.624	81.69
238.858	84.69
239.091	86.69
239.325	79.69
239.559	66.69
239.793	85.69
240.027	73.69
240.26	84.69
240.494	82.69
240.728	65.69
240.961	72.69
241.195	92.69
241.429	98.69
241.662	90.69
241.896	83.69
242.13	103.69
242.363	128.69
242.597	148.69
242.83	128.69
243.064	111.69
243.298	158.69
243.531	122.69
243.765	84.69
243.998	83.69
244.232	83.69
244.465	86.69
244.699	76.69
244.932	74.69
245.166	83.69
245.399	79.69
245.633	77.69
245.866	75.69
246.099	93.69
246.333	84.69
246.566	73.69
246.8	73.69
247.033	68.69
247.266	83.69
247.5	72.69
247.733	89.69
247.966	90.69
248.2	87.69
248.433	94.69
248.666	128.69
248.899	112.69
249.133	94.69
249.366	105.69
249.599	92.69
249.832	101.69
250.066	119.69
250.299	92.69
250.532	92.69
250.765	82.69
250.998	81.69
251.231	84.69
251.465	83.69
251.698	71.69
251.931	82.69
252.164	86.69
252.397	76.69
252.63	105.69
252.863	98.69
253.096	90.69
253.329	89.69
253.562	87.69
253.795	84.69
254.028	81.69
254.261	86.69
254.494	84.69
254.727	106.69
254.96	134.69
255.193	119.69
255.426	102.69
255.659	95.69
255.892	90.69
256.124	97.69
256.357	96.69
256.59	103.69
256.823	88.69
257.056	109.69
257.289	138.69
257.521	144.69
257.754	112.69
257.987	86.69
258.22	84.69
258.452	76.69
258.685	92.69
258.918	81.69
259.151	92.69
259.383	90.69
259.616	142.69
259.849	136.69
260.081	96.69
260.314	78.69
260.547	74.69
260.779	74.69
261.012	81.69
261.244	71.69
261.477	85.69
261.71	85.69
261.942	79.69
262.175	70.69
262.407	79.69
262.64	91.69
262.872	83.69
263.105	83.69
263.337	78.69
263.57	87.69
263.802	63.69
264.035	83.69
264.267	83.69
264.499	92.69
264.732	85.69
264.964	82.69
265.197	90.69
265.429	86.69
265.661	90.69
265.894	95.69
266.126	97.69
266.358	145.69
266.591	133.69
266.823	95.69
267.055	82.69
267.287	75.69
267.52	86.69
267.752	86.69
267.984	89.69
268.216	71.69
268.448	86.69
268.681	105.69
268.913	91.69
269.145	94.69
269.377	84.69
269.609	96.69
269.841	97.69
270.073	94.69
270.306	123.69
270.538	167.69
270.77	260.69
271.002	319.69
271.234	180.69
271.466	105.69
271.698	85.69
271.93	83.69
272.162	78.69
272.394	92.69
272.626	77.69
272.858	91.69
273.09	99.69
273.322	82.69
273.553	74.69
273.785	87.69
274.017	88.69
274.249	95.69
274.481	95.69
274.713	110.69
274.945	99.69
275.176	92.69
275.408	92.69
275.64	92.69
275.872	76.69
276.104	87.69
276.335	89.69
276.567	104.69
276.799	88.69
277.031	93.69
277.262	103.69
277.494	98.69
277.726	115.69
277.957	159.69
278.189	199.69
278.421	202.69
278.652	195.69
278.884	184.69
279.115	131.69
279.347	96.69
279.579	94.69
279.81	100.69
280.042	95.69
280.273	94.69
280.505	104.69
280.736	98.69
280.968	112.69
281.199	161.69
281.431	238.69
281.662	248.69
281.894	154.69
282.125	116.69
282.356	107.69
282.588	99.69
282.819	116.69
283.051	117.69
283.282	126.69
283.513	168.69
283.745	259.69
283.976	455.69
284.207	656.69
284.439	496.69
284.67	223.69
284.901	209.69
285.132	313.69
285.364	339.69
285.595	186.69
285.826	150.69
286.057	201.69
286.288	368.69
286.52	516.69
286.751	423.69
286.982	178.69
287.213	118.69
287.444	106.69
287.675	82.69
287.906	89.69
288.138	98.69
288.369	77.69
288.6	79.69
288.831	79.69
289.062	102.69
289.293	88.69
289.524	90.69
289.755	93.69
289.986	75.69
290.217	95.69
290.448	83.69
290.679	103.69
290.91	106.69
291.141	132.69
291.371	211.69
291.602	264.69
291.833	176.69
292.064	113.69
292.295	89.69
292.526	92.69
292.757	94.69
292.987	92.69
293.218	100.69
293.449	94.69
293.68	93.69
293.91	96.69
294.141	97.69
294.372	96.69
294.603	89.69
294.833	99.69
295.064	88.69
295.295	91.69
295.525	109.69
295.756	86.69
295.987	104.69
296.217	99.69
296.448	86.69
296.679	87.69
296.909	103.69
297.14	102.69
297.37	94.69
297.601	107.69
297.831	108.69
298.062	88.69
298.292	100.69
298.523	93.69
298.753	105.69
298.984	103.69
299.214	98.69
299.445	103.69
299.675	119.69
299.905	116.69
300.136	131.69
300.366	138.69
300.597	246.69
300.827	392.69
301.057	566.69
301.288	546.69
301.518	219.69
301.748	136.69
301.979	130.69
302.209	118.69
302.439	133.69
302.669	151.69
302.9	226.69
303.13	423.69
303.36	764.69
303.59	1023.69
303.82	702.69
304.051	274.69
304.281	141.69
304.511	113.69
304.741	109.69
304.971	100.69
305.201	108.69
305.431	104.69
305.661	88.69
305.891	87.69
306.121	113.69
306.352	99.69
306.582	110.69
306.812	93.69
307.042	117.69
307.272	98.69
307.502	98.69
307.731	120.69
307.961	98.69
308.191	108.69
308.421	91.69
308.651	96.69
308.881	114.69
309.111	90.69
309.341	87.69
309.571	102.69
309.8	118.69
310.03	118.69
310.26	107.69
310.49	123.69
310.72	112.69
310.949	116.69
311.179	118.69
311.409	99.69
311.639	94.69
311.868	121.69
312.098	108.69
312.328	118.69
312.557	101.69
312.787	111.69
313.017	112.69
313.246	104.69
313.476	114.69
313.706	107.69
313.935	135.69
314.165	184.69
314.394	204.69
314.624	180.69
314.853	111.69
315.083	143.69
315.312	121.69
315.542	114.69
315.771	128.69
316.001	124.69
316.23	119.69
316.46	144.69
316.689	161.69
316.919	213.69
317.148	413.69
317.377	735.69
317.607	1186.69
317.836	1147.69
318.065	450.69
318.295	190.69
318.524	154.69
318.753	136.69
318.983	131.69
319.212	116.69
319.441	123.69
319.67	115.69
319.9	115.69
320.129	112.69
320.358	111.69
320.587	114.69
320.816	118.69
321.046	111.69
321.275	134.69
321.504	115.69
321.733	136.69
321.962	160.69
322.191	168.69
322.42	132.69
322.649	131.69
322.878	108.69
323.108	128.69
323.337	110.69
323.566	120.69
323.795	114.69
324.024	126.69
324.253	131.69
324.482	165.69
324.71	199.69
324.939	258.69
325.168	195.69
325.397	163.69
325.626	228.69
325.855	409.69
326.084	777.69
326.313	1323.69
326.542	1345.69
326.77	537.69
326.999	226.69
327.228	204.69
327.457	199.69
327.686	206.69
327.914	145.69
328.143	124.69
328.372	114.69
328.6	136.69
328.829	124.69
329.058	123.69
329.287	121.69
329.515	110.69
329.744	104.69
329.972	120.69
330.201	126.69
330.43	114.69
330.658	116.69
330.887	109.69
331.115	104.69
331.344	112.69
331.572	126.69
331.801	128.69
332.03	106.69
332.258	138.69
332.486	145.69
332.715	245.69
332.943	424.69
333.172	638.69
333.4	554.69
333.629	225.69
333.857	142.69
334.085	126.69
334.314	116.69
334.542	123.69
334.771	128.69
334.999	118.69
335.227	137.69
335.455	131.69
335.684	116.69
335.912	116.69
336.14	96.69
336.369	116.69
336.597	116.69
336.825	116.69
337.053	120.69
337.281	105.69
337.51	103.69
337.738	97.69
337.966	107.69
338.194	104.69
338.422	107.69
338.65	109.69
338.878	118.69
339.106	114.69
339.334	108.69
339.562	114.69
339.79	121.69
340.018	124.69
340.246	102.69
340.474	120.69
340.702	121.69
340.93	111.69
341.158	107.69
341.386	114.69
341.614	116.69
341.842	114.69
342.07	108.69
342.298	112.69
342.526	120.69
342.754	119.69
342.981	104.69
343.209	104.69
343.437	110.69
343.665	126.69
343.893	100.69
344.12	103.69
344.348	111.69
344.576	104.69
344.804	111.69
345.031	104.69
345.259	113.69
345.487	102.69
345.714	105.69
345.942	94.69
346.17	96.69
346.397	108.69
346.625	118.69
346.853	108.69
347.08	102.69
347.308	100.69
347.535	103.69
347.763	108.69
347.99	111.69
348.218	92.69
348.445	91.69
348.673	105.69
348.9	121.69
349.128	102.69
349.355	117.69
349.583	118.69
349.81	116.69
350.037	98.69
350.265	102.69
350.492	114.69
350.72	104.69
350.947	112.69
351.174	103.69
351.402	107.69
351.629	104.69
351.856	117.69
352.083	87.69
352.311	96.69
352.538	91.69
352.765	91.69
352.992	101.69
353.22	104.69
353.447	85.69
353.674	101.69
353.901	102.69
354.128	97.69
354.355	98.69
354.583	103.69
354.81	104.69
355.037	98.69
355.264	108.69
355.491	101.69
355.718	96.69
355.945	96.69
356.172	96.69
356.399	97.69
356.626	114.69
356.853	102.69
357.08	98.69
357.307	105.69
357.534	101.69
357.761	99.69
357.988	98.69
358.215	99.69
358.441	99.69
358.668	120.69
358.895	120.69
359.122	114.69
359.349	110.69
359.576	124.69
359.802	104.69
360.029	115.69
360.256	114.69
360.483	102.69
360.709	116.69
360.936	103.69
361.163	105.69
361.39	97.69
361.616	106.69
361.843	112.69
362.07	106.69
362.296	112.69
362.523	104.69
362.749	112.69
362.976	108.69
363.203	104.69
363.429	103.69
363.656	112.69
363.882	112.69
364.109	122.69
364.335	121.69
364.562	92.69
364.788	102.69
365.015	107.69
365.241	123.69
365.468	162.69
365.694	232.69
365.92	208.69
366.147	117.69
366.373	102.69
366.599	100.69
366.826	102.69
367.052	85.69
367.278	103.69
367.505	110.69
367.731	84.69
367.957	94.69
368.184	103.69
368.41	114.69
368.636	118.69
368.862	102.69
369.089	80.69
369.315	104.69
369.541	99.69
369.767	116.69
369.993	112.69
370.219	118.69
370.445	111.69
370.672	103.69
370.898	112.69
371.124	113.69
371.35	97.69
371.576	99.69
371.802	100.69
372.028	100.69
372.254	106.69
372.48	102.69
372.706	111.69
372.932	99.69
373.158	114.69
373.384	108.69
373.61	117.69
373.835	122.69
374.061	97.69
374.287	105.69
374.513	110.69
374.739	98.69
374.965	119.69
375.191	116.69
375.416	95.69
375.642	111.69
375.868	101.69
376.094	107.69
376.319	104.69
376.545	92.69
376.771	100.69
376.997	99.69
377.222	103.69
377.448	102.69
377.674	108.69
377.899	103.69
378.125	106.69
378.35	107.69
378.576	121.69
378.802	104.69
379.027	119.69
379.253	129.69
379.478	152.69
379.704	280.69
379.929	659.69
380.155	1312.69
380.38	1393.69
380.606	448.69
380.831	167.69
381.057	118.69
381.282	121.69
381.507	103.69
381.733	113.69
381.958	98.69
382.184	103.69
382.409	112.69
382.634	99.69
382.86	106.69
383.085	103.69
383.31	103.69
383.535	97.69
383.761	97.69
383.986	102.69
384.211	101.69
384.436	85.69
384.662	101.69
384.887	114.69
385.112	106.69
385.337	97.69
385.562	104.69
385.787	92.69
386.013	102.69
386.238	94.69
386.463	91.69
386.688	106.69
386.913	113.69
387.138	118.69
387.363	126.69
387.588	105.69
387.813	98.69
388.038	110.69
388.263	112.69
388.488	116.69
388.713	81.69
388.938	90.69
389.163	103.69
389.387	98.69
389.612	98.69
389.837	98.69
390.062	102.69
390.287	101.69
390.512	105.69
390.736	92.69
390.961	96.69
391.186	97.69
391.411	100.69
391.636	108.69
391.86	100.69
392.085	99.69
392.31	91.69
392.534	117.69
392.759	100.69
392.984	104.69
393.208	110.69
393.433	130.69
393.658	126.69
393.882	123.69
394.107	96.69
394.331	90.69
394.556	87.69
394.78	93.69
395.005	104.69
395.229	97.69
395.454	95.69
395.678	107.69
395.903	106.69
396.127	117.69
396.352	111.69
396.576	101.69
396.801	114.69
397.025	126.69
397.249	104.69
397.474	95.69
397.698	95.69
397.922	90.69
398.147	106.69
398.371	86.69
398.595	101.69
398.82	103.69
399.044	99.69
399.268	94.69
399.492	103.69
399.717	78.69
399.941	107.69
400.165	98.69
400.389	90.69
400.613	102.69
400.837	112.69
401.062	96.69
401.286	110.69
401.51	105.69
401.734	86.69
401.958	104.69
402.182	86.69
402.406	96.69
402.63	89.69
402.854	95.69
403.078	89.69
403.302	94.69
403.526	99.69
403.75	97.69
403.974	92.69
404.198	110.69
404.422	90.69
404.645	86.69
404.869	101.69
405.093	94.69
405.317	118.69
405.541	118.69
405.765	113.69
405.988	141.69
406.212	104.69
406.436	97.69
406.66	95.69
406.883	107.69
407.107	98.69
407.331	91.69
407.555	95.69
407.778	103.69
408.002	101.69
408.226	84.69
408.449	105.69
408.673	94.69
408.896	96.69
409.12	96.69
409.344	101.69
409.567	95.69
409.791	105.69
410.014	95.69
410.238	90.69
410.461	99.69
410.685	99.69
410.908	112.69
411.132	110.69
411.355	98.69
411.578	107.69
411.802	97.69
412.025	93.69
412.249	111.69
412.472	116.69
412.695	103.69
412.919	98.69
413.142	100.69
413.365	97.69
413.589	99.69
413.812	110.69
414.035	92.69
414.258	92.69
414.482	102.69
414.705	97.69
414.928	99.69
415.151	100.69
415.374	81.69
415.597	81.69
415.821	79.69
416.044	100.69
416.267	105.69
416.49	106.69
416.713	85.69
416.936	95.69
417.159	95.69
417.382	93.69
417.605	102.69
417.828	91.69
418.051	100.69
418.274	90.69
418.497	107.69
418.72	102.69
418.943	104.69
419.166	104.69
419.389	103.69
419.611	101.69
419.834	107.69
420.057	96.69
420.28	110.69
420.503	106.69
420.726	92.69
420.948	88.69
421.171	100.69
421.394	90.69
421.617	87.69
421.839	99.69
422.062	93.69
422.285	104.69
422.507	87.69
422.73	104.69
422.953	115.69
423.175	102.69
423.398	87.69
423.621	84.69
423.843	98.69
424.066	96.69
424.288	90.69
424.511	106.69
424.733	99.69
424.956	95.69
425.178	103.69
425.401	110.69
425.623	99.69
425.846	102.69
426.068	88.69
426.291	96.69
426.513	108.69
426.735	94.69
426.958	97.69
427.18	107.69
427.402	95.69
427.625	91.69
427.847	104.69
428.069	92.69
428.292	114.69
428.514	99.69
428.736	98.69
428.958	93.69
429.181	95.69
429.403	102.69
429.625	69.69
429.847	103.69
430.069	99.69
430.292	99.69
430.514	107.69
430.736	111.69
430.958	86.69
431.18	88.69
431.402	85.69
431.624	107.69
431.846	83.69
432.068	95.69
432.29	101.69
432.512	99.69
432.734	81.69
432.956	98.69
433.178	97.69
433.4	84.69
433.622	100.69
433.844	76.69
434.066	78.69
434.287	110.69
434.509	100.69
434.731	98.69
434.953	81.69
435.175	99.69
435.397	95.69
435.618	94.69
435.84	94.69
436.062	89.69
436.284	97.69
436.505	86.69
436.727	88.69
436.949	82.69
437.17	89.69
437.392	87.69
437.614	103.69
437.835	86.69
438.057	74.69
438.278	94.69
438.5	106.69
438.721	88.69
438.943	112.69
439.165	101.69
439.386	100.69
439.608	116.69
439.829	101.69
440.05	115.69
440.272	115.69
440.493	108.69
440.715	89.69
440.936	93.69
441.158	99.69
441.379	89.69
441.6	99.69
441.822	100.69
442.043	100.69
442.264	118.69
442.486	107.69
442.707	100.69
442.928	95.69
443.149	97.69
443.371	99.69
443.592	101.69
443.813	98.69
444.034	88.69
444.255	94.69
444.476	108.69
444.698	95.69
444.919	86.69
445.14	208.69
445.361	163.69
445.582	107.69
445.803	85.69
446.024	91.69
446.245	99.69
446.466	95.69
446.687	105.69
446.908	91.69
447.129	104.69
447.35	95.69
447.571	98.69
447.792	90.69
448.013	94.69
448.234	90.69
448.455	88.69
448.675	88.69
448.896	90.69
449.117	107.69
449.338	126.69
449.559	134.69
449.779	101.69
450	100.69
450.221	90.69
450.442	116.69
450.662	95.69
450.883	96.69
451.104	92.69
451.324	126.69
451.545	102.69
451.766	105.69
451.986	134.69
452.207	182.69
452.428	464.69
452.648	1186.69
452.869	712.69
453.089	193.69
453.31	128.69
453.53	112.69
453.751	120.69
453.971	137.69
454.192	132.69
454.412	107.69
454.633	94.69
454.853	89.69
455.073	108.69
455.294	94.69
455.514	81.69
455.734	82.69
455.955	96.69
456.175	100.69
456.395	83.69
456.616	88.69
456.836	98.69
457.056	97.69
457.276	87.69
457.497	86.69
457.717	115.69
457.937	99.69
458.157	93.69
458.377	94.69
458.598	91.69
458.818	97.69
459.038	81.69
459.258	93.69
459.478	83.69
459.698	92.69
459.918	78.69
460.138	92.69
460.358	85.69
460.578	95.69
460.798	82.69
461.018	69.69
461.238	100.69
461.458	105.69
461.678	84.69
461.898	88.69
462.118	105.69
462.338	90.69
462.558	84.69
462.777	98.69
462.997	100.69
463.217	105.69
463.437	134.69
463.657	164.69
463.876	184.69
464.096	124.69
464.316	96.69
464.536	90.69
464.755	106.69
464.975	90.69
465.195	79.69
465.414	81.69
465.634	88.69
465.854	105.69
466.073	106.69
466.293	85.69
466.512	103.69
466.732	79.69
466.951	93.69
467.171	141.69
467.391	120.69
467.61	108.69
467.829	95.69
468.049	96.69
468.268	94.69
468.488	103.69
468.707	72.69
468.927	95.69
469.146	84.69
469.365	97.69
469.585	107.69
469.804	101.69
470.023	84.69
470.243	106.69
470.462	99.69
470.681	96.69
470.901	129.69
471.12	166.69
471.339	182.69
471.558	130.69
471.777	105.69
471.997	95.69
472.216	100.69
472.435	98.69
472.654	90.69
472.873	90.69
473.092	104.69
473.311	100.69
473.53	97.69
473.749	99.69
473.968	92.69
474.187	79.69
474.406	95.69
474.625	92.69
474.844	105.69
475.063	102.69
475.282	90.69
475.501	84.69
475.72	98.69
475.939	101.69
476.158	103.69
476.377	108.69
476.596	100.69
476.814	103.69
477.033	102.69
477.252	109.69
477.471	97.69
477.69	102.69
477.908	92.69
478.127	96.69
478.346	97.69
478.564	89.69
478.783	95.69
479.002	99.69
479.22	93.69
479.439	91.69
479.658	96.69
479.876	91.69
480.095	88.69
480.313	79.69
480.532	104.69
480.751	87.69
480.969	98.69
481.188	105.69
481.406	83.69
481.624	97.69
481.843	98.69
482.061	106.69
482.28	99.69
482.498	95.69
482.717	95.69
482.935	83.69
483.153	94.69
483.372	100.69
483.59	103.69
483.808	91.69
484.027	103.69
484.245	122.69
484.463	163.69
484.681	200.69
484.9	151.69
485.118	114.69
485.336	110.69
485.554	107.69
485.772	98.69
485.99	154.69
486.209	215.69
486.427	159.69
486.645	118.69
486.863	98.69
487.081	120.69
487.299	104.69
487.517	105.69
487.735	109.69
487.953	94.69
488.171	99.69
488.389	98.69
488.607	101.69
488.825	106.69
489.043	99.69
489.261	105.69
489.479	96.69
489.696	101.69
489.914	95.69
490.132	82.69
490.35	93.69
490.568	100.69
490.786	97.69
491.003	103.69
491.221	116.69
491.439	113.69
491.657	105.69
491.874	111.69
492.092	103.69
492.31	105.69
492.527	106.69
492.745	101.69
492.963	114.69
493.18	100.69
493.398	103.69
493.615	118.69
493.833	98.69
494.05	108.69
494.268	98.69
494.485	104.69
494.703	107.69
494.92	98.69
495.138	123.69
495.355	104.69
495.573	110.69
495.79	107.69
496.008	102.69
496.225	114.69
496.442	99.69
496.66	105.69
496.877	143.69
497.094	146.69
497.312	114.69
497.529	116.69
497.746	111.69
497.963	90.69
498.181	104.69
498.398	100.69
498.615	90.69
498.832	105.69
499.049	101.69
499.267	129.69
499.484	150.69
499.701	113.69
499.918	96.69
500.135	91.69
500.352	85.69
500.569	97.69
500.786	90.69
501.003	90.69
501.22	103.69
501.437	96.69
501.654	88.69
501.871	82.69
502.088	103.69
502.305	108.69
502.522	107.69
502.739	101.69
502.956	75.69
503.172	96.69
503.389	99.69
503.606	98.69
503.823	101.69
504.04	97.69
504.256	84.69
504.473	95.69
504.69	105.69
504.907	106.69
505.123	116.69
505.34	98.69
505.557	97.69
505.773	106.69
505.99	91.69
506.207	99.69
506.423	95.69
506.64	112.69
506.856	103.69
507.073	112.69
507.289	100.69
507.506	99.69
507.722	103.69
507.939	100.69
508.155	87.69
508.372	99.69
508.588	93.69
508.805	97.69
509.021	91.69
509.238	101.69
509.454	121.69
