Data from SnStandardFlinnAPT0064_LampEnergy10_LIBS07252019.E.O._I.C._HRD10591_15-21-01-494.txt Node
Date: Thu Jul 25 15:21:01 EDT 2019
User: cochatt
Spectrometer: HR+D1059
Trigger mode: 1
Integration Time (sec): 1.000000E-1
Scans to average: 1
Electric dark correction enabled: true
Nonlinearity correction enabled: false
Boxcar width: 0
XAxis mode: Wavelengths
Number of Pixels in Spectrum: 2048
>>>>>Begin Spectral Data<<<<<
223.165	-21.81
223.4	-21.81
223.635	-21.81
223.869	-14.81
224.104	-22.81
224.338	-14.81
224.573	-12.81
224.808	-12.81
225.042	-14.81
225.277	-13.81
225.511	-0.81
225.746	8.19
225.98	21.19
226.215	7.19
226.449	11.19
226.683	19.19
226.918	26.19
227.152	36.19
227.387	25.19
227.621	31.19
227.856	27.19
228.09	52.19
228.324	47.19
228.559	55.19
228.793	130.19
229.027	318.19
229.262	327.19
229.496	302.19
229.73	298.19
229.964	297.19
230.199	313.19
230.433	320.19
230.667	315.19
230.901	314.19
231.136	342.19
231.37	362.19
231.604	397.19
231.838	445.19
232.072	560.19
232.306	599.19
232.541	477.19
232.775	438.19
233.009	405.19
233.243	428.19
233.477	469.19
233.711	533.19
233.945	598.19
234.179	525.19
234.413	456.19
234.647	449.19
234.881	497.19
235.115	524.19
235.349	624.19
235.583	817.19
235.817	1031.19
236.051	1037.19
236.285	657.19
236.519	537.19
236.753	506.19
236.987	511.19
237.221	527.19
237.455	513.19
237.689	480.19
237.922	471.19
238.156	494.19
238.39	498.19
238.624	487.19
238.858	479.19
239.091	476.19
239.325	486.19
239.559	502.19
239.793	517.19
240.027	533.19
240.26	534.19
240.494	577.19
240.728	589.19
240.961	624.19
241.195	651.19
241.429	704.19
241.662	713.19
241.896	818.19
242.13	965.19
242.363	1297.19
242.597	1699.19
242.83	1602.19
243.064	1610.19
243.298	1866.19
243.531	1553.19
243.765	963.19
243.998	813.19
244.232	722.19
244.465	667.19
244.699	658.19
244.932	682.19
245.166	683.19
245.399	699.19
245.633	693.19
245.866	692.19
246.099	673.19
246.333	673.19
246.566	646.19
246.8	669.19
247.033	639.19
247.266	649.19
247.5	671.19
247.733	676.19
247.966	718.19
248.2	747.19
248.433	899.19
248.666	1021.19
248.899	991.19
249.133	885.19
249.366	884.19
249.599	1007.19
249.832	1123.19
250.066	1120.19
250.299	857.19
250.532	783.19
250.765	779.19
250.998	760.19
251.231	730.19
251.465	724.19
251.698	750.19
251.931	730.19
252.164	771.19
252.397	768.19
252.63	775.19
252.863	827.19
253.096	827.19
253.329	799.19
253.562	799.19
253.795	798.19
254.028	816.19
254.261	856.19
254.494	879.19
254.727	1033.19
254.96	1250.19
255.193	1263.19
255.426	953.19
255.659	888.19
255.892	873.19
256.124	866.19
256.357	904.19
256.59	937.19
256.823	976.19
257.056	1146.19
257.289	1396.19
257.521	1533.19
257.754	1234.19
257.987	1001.19
258.22	929.19
258.452	895.19
258.685	935.19
258.918	962.19
259.151	1011.19
259.383	1061.19
259.616	1262.19
259.849	1287.19
260.081	1112.19
260.314	1026.19
260.547	999.19
260.779	983.19
261.012	979.19
261.244	975.19
261.477	974.19
261.71	1014.19
261.942	991.19
262.175	1046.19
262.407	1077.19
262.64	1065.19
262.872	1106.19
263.105	1145.19
263.337	1226.19
263.57	1292.19
263.802	1335.19
264.035	1345.19
264.267	1337.19
264.499	1377.19
264.732	1425.19
264.964	1473.19
265.197	1454.19
265.429	1482.19
265.661	1484.19
265.894	1589.19
266.126	1761.19
266.358	2007.19
266.591	1958.19
266.823	1626.19
267.055	1494.19
267.287	1407.19
267.52	1338.19
267.752	1297.19
267.984	1287.19
268.216	1293.19
268.448	1278.19
268.681	1256.19
268.913	1226.19
269.145	1246.19
269.377	1252.19
269.609	1270.19
269.841	1279.19
270.073	1409.19
270.306	1634.19
270.538	2227.19
270.77	3395.19
271.002	4102.19
271.234	2891.19
271.466	1931.19
271.698	1585.19
271.93	1429.19
272.162	1322.19
272.394	1309.19
272.626	1263.19
272.858	1251.19
273.09	1244.19
273.322	1223.19
273.553	1193.19
273.785	1201.19
274.017	1222.19
274.249	1232.19
274.481	1193.19
274.713	1239.19
274.945	1217.19
275.176	1224.19
275.408	1222.19
275.64	1232.19
275.872	1220.19
276.104	1288.19
276.335	1302.19
276.567	1300.19
276.799	1284.19
277.031	1298.19
277.262	1361.19
277.494	1430.19
277.726	1529.19
277.957	1899.19
278.189	2142.19
278.421	2010.19
278.652	1821.19
278.884	1700.19
279.115	1502.19
279.347	1432.19
279.579	1409.19
279.81	1399.19
280.042	1371.19
280.273	1443.19
280.505	1455.19
280.736	1527.19
280.968	1607.19
281.199	1804.19
281.431	2058.19
281.662	2127.19
281.894	1843.19
282.125	1657.19
282.356	1669.19
282.588	1699.19
282.819	1757.19
283.051	1841.19
283.282	2031.19
283.513	2535.19
283.745	3800.19
283.976	5929.19
284.207	8557.19
284.439	7733.19
284.67	4681.19
284.901	3885.19
285.132	3871.19
285.364	3723.19
285.595	2762.19
285.826	2541.19
286.057	2945.19
286.288	4116.19
286.52	5472.19
286.751	5054.19
286.982	3162.19
287.213	2343.19
287.444	2042.19
287.675	1862.19
287.906	1805.19
288.138	1750.19
288.369	1731.19
288.6	1737.19
288.831	1674.19
289.062	1682.19
289.293	1734.19
289.524	1735.19
289.755	1748.19
289.986	1742.19
290.217	1717.19
290.448	1731.19
290.679	1723.19
290.91	1807.19
291.141	1917.19
291.371	2071.19
291.602	2120.19
291.833	1939.19
292.064	1737.19
292.295	1713.19
292.526	1698.19
292.757	1637.19
292.987	1601.19
293.218	1555.19
293.449	1606.19
293.68	1611.19
293.91	1646.19
294.141	1561.19
294.372	1595.19
294.603	1577.19
294.833	1576.19
295.064	1580.19
295.295	1585.19
295.525	1556.19
295.756	1545.19
295.987	1575.19
296.217	1565.19
296.448	1622.19
296.679	1596.19
296.909	1605.19
297.14	1603.19
297.37	1645.19
297.601	1635.19
297.831	1649.19
298.062	1635.19
298.292	1641.19
298.523	1697.19
298.753	1711.19
298.984	1731.19
299.214	1730.19
299.445	1741.19
299.675	1829.19
299.905	1898.19
300.136	1906.19
300.366	2175.19
300.597	2827.19
300.827	3987.19
301.057	5461.19
301.288	5516.19
301.518	3462.19
301.748	2657.19
301.979	2431.19
302.209	2302.19
302.439	2364.19
302.669	2539.19
302.9	3040.19
303.13	4320.19
303.36	6486.19
303.59	8597.19
303.82	7472.19
304.051	4355.19
304.281	3101.19
304.511	2601.19
304.741	2374.19
304.971	2199.19
305.201	2106.19
305.431	2005.19
305.661	1961.19
305.891	1929.19
306.121	1878.19
306.352	1924.19
306.582	1843.19
306.812	1781.19
307.042	1884.19
307.272	1861.19
307.502	1863.19
307.731	1834.19
307.961	1846.19
308.191	1793.19
308.421	1803.19
308.651	1844.19
308.881	1822.19
309.111	1840.19
309.341	1802.19
309.571	1859.19
309.8	1894.19
310.03	1894.19
310.26	1901.19
310.49	1895.19
310.72	1894.19
310.949	1866.19
311.179	1920.19
311.409	1910.19
311.639	1934.19
311.868	1909.19
312.098	1926.19
312.328	1986.19
312.557	1999.19
312.787	1959.19
313.017	2014.19
313.246	2039.19
313.476	2070.19
313.706	2133.19
313.935	2271.19
314.165	2364.19
314.394	2548.19
314.624	2397.19
314.853	2185.19
315.083	2214.19
315.312	2164.19
315.542	2210.19
315.771	2228.19
316.001	2295.19
316.23	2337.19
316.46	2482.19
316.689	2743.19
316.919	3313.19
317.148	4786.19
317.377	7421.19
317.607	10895.19
317.836	11389.19
318.065	6807.19
318.295	4365.19
318.524	3530.19
318.753	3022.19
318.983	2762.19
319.212	2631.19
319.441	2543.19
319.67	2495.19
319.9	2428.19
320.129	2409.19
320.358	2395.19
320.587	2341.19
320.816	2365.19
321.046	2338.19
321.275	2350.19
321.504	2424.19
321.733	2464.19
321.962	2506.19
322.191	2581.19
322.42	2522.19
322.649	2550.19
322.878	2549.19
323.108	2494.19
323.337	2577.19
323.566	2599.19
323.795	2621.19
324.024	2697.19
324.253	2746.19
324.482	2821.19
324.71	3043.19
324.939	3288.19
325.168	3320.19
325.397	3439.19
325.626	4066.19
325.855	5799.19
326.084	9154.19
326.313	13248.19
326.542	13865.19
326.77	9330.19
326.999	6105.19
327.228	5157.19
327.457	4870.19
327.686	4919.19
327.914	5242.19
328.143	6193.19
328.372	7248.19
328.6	8035.19
328.829	7095.19
329.058	5954.19
329.287	5167.19
329.515	4694.19
329.744	4314.19
329.972	4077.19
330.201	3897.19
330.43	3829.19
330.658	3672.19
330.887	3599.19
331.115	3545.19
331.344	3503.19
331.572	3493.19
331.801	3505.19
332.03	3584.19
332.258	3636.19
332.486	3861.19
332.715	4401.19
332.943	5466.19
333.172	6782.19
333.4	6803.19
333.629	5085.19
333.857	4572.19
334.085	4549.19
334.314	4847.19
334.542	5225.19
334.771	6187.19
334.999	7668.19
335.227	9597.19
335.455	10671.19
335.684	9575.19
335.912	7773.19
336.14	6685.19
336.369	5797.19
336.597	5329.19
336.825	4909.19
337.053	4587.19
337.281	4342.19
337.51	4115.19
337.738	3914.19
337.966	3771.19
338.194	3598.19
338.422	3528.19
338.65	3472.19
338.878	3410.19
339.106	3250.19
339.334	3295.19
339.562	3207.19
339.79	3148.19
340.018	3115.19
340.246	3090.19
340.474	3035.19
340.702	3050.19
340.93	3034.19
341.158	3033.19
341.386	2998.19
341.614	2989.19
341.842	2930.19
342.07	2852.19
342.298	2870.19
342.526	2782.19
342.754	2761.19
342.981	2782.19
343.209	2785.19
343.437	2799.19
343.665	2815.19
343.893	2846.19
344.12	2870.19
344.348	2788.19
344.576	2745.19
344.804	2763.19
345.031	2707.19
345.259	2666.19
345.487	2618.19
345.714	2630.19
345.942	2617.19
346.17	2599.19
346.397	2537.19
346.625	2593.19
346.853	2543.19
347.08	2559.19
347.308	2539.19
347.535	2532.19
347.763	2544.19
347.99	2503.19
348.218	2531.19
348.445	2503.19
348.673	2482.19
348.9	2528.19
349.128	2475.19
349.355	2482.19
349.583	2500.19
349.81	2489.19
350.037	2461.19
350.265	2453.19
350.492	2448.19
350.72	2436.19
350.947	2365.19
351.174	2426.19
351.402	2445.19
351.629	2437.19
351.856	2369.19
352.083	2402.19
352.311	2393.19
352.538	2386.19
352.765	2421.19
352.992	2382.19
353.22	2387.19
353.447	2374.19
353.674	2431.19
353.901	2406.19
354.128	2424.19
354.355	2429.19
354.583	2410.19
354.81	2395.19
355.037	2478.19
355.264	2437.19
355.491	2483.19
355.718	2457.19
355.945	2457.19
356.172	2502.19
356.399	2521.19
356.626	2545.19
356.853	2549.19
357.08	2534.19
357.307	2572.19
357.534	2620.19
357.761	2642.19
357.988	2665.19
358.215	2585.19
358.441	2606.19
358.668	2608.19
358.895	2621.19
359.122	2545.19
359.349	2575.19
359.576	2518.19
359.802	2579.19
360.029	2568.19
360.256	2548.19
360.483	2546.19
360.709	2553.19
360.936	2559.19
361.163	2582.19
361.39	2575.19
361.616	2629.19
361.843	2583.19
362.07	2612.19
362.296	2586.19
362.523	2546.19
362.749	2571.19
362.976	2598.19
363.203	2593.19
363.429	2532.19
363.656	2557.19
363.882	2587.19
364.109	2532.19
364.335	2509.19
364.562	2554.19
364.788	2536.19
365.015	2635.19
365.241	2720.19
365.468	2795.19
365.694	2992.19
365.92	2921.19
366.147	2633.19
366.373	2640.19
366.599	2633.19
366.826	2644.19
367.052	2606.19
367.278	2656.19
367.505	2644.19
367.731	2651.19
367.957	2621.19
368.184	2629.19
368.41	2690.19
368.636	2700.19
368.862	2695.19
369.089	2685.19
369.315	2639.19
369.541	2687.19
369.767	2641.19
369.993	2634.19
370.219	2624.19
370.445	2629.19
370.672	2726.19
370.898	2712.19
371.124	2645.19
371.35	2760.19
371.576	2722.19
371.802	2807.19
372.028	2813.19
372.254	2798.19
372.48	2788.19
372.706	2801.19
372.932	2816.19
373.158	2749.19
373.384	2801.19
373.61	2773.19
373.835	2816.19
374.061	2845.19
374.287	2863.19
374.513	2850.19
374.739	2964.19
374.965	2876.19
375.191	2930.19
375.416	2927.19
375.642	2897.19
375.868	2859.19
376.094	2831.19
376.319	2832.19
376.545	2769.19
376.771	2769.19
376.997	2752.19
377.222	2767.19
377.448	2752.19
377.674	2757.19
377.899	2770.19
378.125	2802.19
378.35	2744.19
378.576	2745.19
378.802	2801.19
379.027	2825.19
379.253	2924.19
379.478	3136.19
379.704	3630.19
379.929	5273.19
380.155	8202.19
380.38	9015.19
380.606	5389.19
380.831	3721.19
381.057	3281.19
381.282	2981.19
381.507	2943.19
381.733	2841.19
381.958	2791.19
382.184	2709.19
382.409	2771.19
382.634	2698.19
382.86	2711.19
383.085	2681.19
383.31	2704.19
383.535	2737.19
383.761	2774.19
383.986	2740.19
384.211	2781.19
384.436	2729.19
384.662	2847.19
384.887	2849.19
385.112	2754.19
385.337	2800.19
385.562	2798.19
385.787	2806.19
386.013	2808.19
386.238	2808.19
386.463	2790.19
386.688	2799.19
386.913	2784.19
387.138	2784.19
387.363	2786.19
387.588	2749.19
387.813	2796.19
388.038	2782.19
388.263	2753.19
388.488	2717.19
388.713	2810.19
388.938	2761.19
389.163	2699.19
389.387	2749.19
389.612	2780.19
389.837	2823.19
390.062	2778.19
390.287	2833.19
390.512	2819.19
390.736	2914.19
390.961	2914.19
391.186	2875.19
391.411	2943.19
391.636	2916.19
391.86	2948.19
392.085	2943.19
392.31	2950.19
392.534	2904.19
392.759	2890.19
392.984	2831.19
393.208	2804.19
393.433	2772.19
393.658	2855.19
393.882	2801.19
394.107	2824.19
394.331	2836.19
394.556	2846.19
394.78	2874.19
395.005	2926.19
395.229	2878.19
395.454	2916.19
395.678	2925.19
395.903	2937.19
396.127	2870.19
396.352	2872.19
396.576	2837.19
396.801	2851.19
397.025	2945.19
397.249	2916.19
397.474	2915.19
397.698	2916.19
397.922	3034.19
398.147	2960.19
398.371	3048.19
398.595	3038.19
398.82	3129.19
399.044	3223.19
399.268	3402.19
399.492	3611.19
399.717	3703.19
399.941	3671.19
400.165	3572.19
400.389	3441.19
400.613	3302.19
400.837	3142.19
401.062	3139.19
401.286	3156.19
401.51	3064.19
401.734	3087.19
401.958	3089.19
402.182	3098.19
402.406	3049.19
402.63	3081.19
402.854	3178.19
403.078	3135.19
403.302	3119.19
403.526	3202.19
403.75	3137.19
403.974	3214.19
404.198	3185.19
404.422	3211.19
404.645	3213.19
404.869	3171.19
405.093	3218.19
405.317	3195.19
405.541	3271.19
405.765	3271.19
405.988	3320.19
406.212	3307.19
406.436	3297.19
406.66	3359.19
406.883	3316.19
407.107	3391.19
407.331	3467.19
407.555	3498.19
407.778	3482.19
408.002	3509.19
408.226	3451.19
408.449	3402.19
408.673	3312.19
408.896	3248.19
409.12	3253.19
409.344	3270.19
409.567	3232.19
409.791	3225.19
410.014	3188.19
410.238	3220.19
410.461	3184.19
410.685	3186.19
410.908	3181.19
411.132	3107.19
411.355	3081.19
411.578	3128.19
411.802	3113.19
412.025	3096.19
412.249	3089.19
412.472	3059.19
412.695	3005.19
412.919	3032.19
413.142	3045.19
413.365	3026.19
413.589	3071.19
413.812	3013.19
414.035	3025.19
414.258	3044.19
414.482	3025.19
414.705	3029.19
414.928	3050.19
415.151	3000.19
415.374	2965.19
415.597	2966.19
415.821	2871.19
416.044	2844.19
416.267	2934.19
416.49	2906.19
416.713	2884.19
416.936	2889.19
417.159	2870.19
417.382	2884.19
417.605	2865.19
417.828	2842.19
418.051	2938.19
418.274	2929.19
418.497	2926.19
418.72	3008.19
418.943	2951.19
419.166	3027.19
419.389	3270.19
419.611	3196.19
419.834	3173.19
420.057	3025.19
420.28	2978.19
420.503	2912.19
420.726	2889.19
420.948	2885.19
421.171	2906.19
421.394	2905.19
421.617	2882.19
421.839	2948.19
422.062	2941.19
422.285	2899.19
422.507	2910.19
422.73	2911.19
422.953	3025.19
423.175	3027.19
423.398	2981.19
423.621	2885.19
423.843	2898.19
424.066	2905.19
424.288	2908.19
424.511	2921.19
424.733	2920.19
424.956	2848.19
425.178	2865.19
425.401	2855.19
425.623	2884.19
425.846	2806.19
426.068	2776.19
426.291	2760.19
426.513	2809.19
426.735	2738.19
426.958	2770.19
427.18	2709.19
427.402	2699.19
427.625	2709.19
427.847	2705.19
428.069	2655.19
428.292	2763.19
428.514	2696.19
428.736	2649.19
428.958	2665.19
429.181	2625.19
429.403	2612.19
429.625	2651.19
429.847	2681.19
430.069	2717.19
430.292	2813.19
430.514	2885.19
430.736	2904.19
430.958	2715.19
431.18	2675.19
431.402	2611.19
431.624	2600.19
431.846	2659.19
432.068	2590.19
432.29	2656.19
432.512	2618.19
432.734	2688.19
432.956	2637.19
433.178	2697.19
433.4	2684.19
433.622	2673.19
433.844	2719.19
434.066	2710.19
434.287	2654.19
434.509	2714.19
434.731	2726.19
434.953	2757.19
435.175	2758.19
435.397	2741.19
435.618	2703.19
435.84	2709.19
436.062	2671.19
436.284	2661.19
436.505	2647.19
436.727	2617.19
436.949	2617.19
437.17	2610.19
437.392	2583.19
437.614	2580.19
437.835	2557.19
438.057	2575.19
438.278	2593.19
438.5	2586.19
438.721	2641.19
438.943	2676.19
439.165	2761.19
439.386	2778.19
439.608	2728.19
439.829	2718.19
440.05	2905.19
440.272	2973.19
440.493	2767.19
440.715	2745.19
440.936	2778.19
441.158	2819.19
441.379	2801.19
441.6	2854.19
441.822	2978.19
442.043	3107.19
442.264	3237.19
442.486	2988.19
442.707	2931.19
442.928	2823.19
443.149	2831.19
443.371	2798.19
443.592	2864.19
443.813	2874.19
444.034	2863.19
444.255	2888.19
444.476	2931.19
444.698	2989.19
444.919	3005.19
445.14	3153.19
445.361	3019.19
445.582	2905.19
445.803	2820.19
446.024	2832.19
446.245	2784.19
446.466	2842.19
446.687	2767.19
446.908	2799.19
447.129	2728.19
447.35	2669.19
447.571	2678.19
447.792	2612.19
448.013	2629.19
448.234	2624.19
448.455	2615.19
448.675	2667.19
448.896	2705.19
449.117	2795.19
449.338	3081.19
449.559	3194.19
449.779	2842.19
450	2649.19
450.221	2574.19
450.442	2544.19
450.662	2568.19
450.883	2569.19
451.104	2574.19
451.324	2552.19
451.545	2570.19
451.766	2571.19
451.986	2607.19
452.207	2839.19
452.428	3711.19
452.648	5668.19
452.869	4659.19
453.089	3240.19
453.31	2997.19
453.53	3043.19
453.751	3108.19
453.971	3269.19
454.192	3207.19
454.412	2737.19
454.633	2589.19
454.853	2506.19
455.073	2458.19
455.294	2467.19
455.514	2469.19
455.734	2468.19
455.955	2450.19
456.175	2463.19
456.395	2429.19
456.616	2413.19
456.836	2524.19
457.056	2526.19
457.276	2494.19
457.497	2650.19
457.717	2679.19
457.937	2591.19
458.157	2589.19
458.377	2583.19
458.598	2559.19
458.818	2671.19
459.038	2685.19
459.258	2678.19
459.478	2711.19
459.698	2711.19
459.918	2702.19
460.138	2757.19
460.358	2847.19
460.578	2805.19
460.798	2836.19
461.018	2875.19
461.238	2879.19
461.458	2895.19
461.678	2907.19
461.898	3072.19
462.118	3013.19
462.338	3087.19
462.558	3147.19
462.777	3213.19
462.997	3263.19
463.217	3447.19
463.437	3551.19
463.657	3634.19
463.876	3611.19
464.096	3374.19
464.316	3277.19
464.536	3224.19
464.755	3082.19
464.975	3064.19
465.195	2927.19
465.414	2898.19
465.634	2761.19
465.854	2733.19
466.073	2733.19
466.293	2666.19
466.512	2708.19
466.732	2727.19
466.951	2882.19
467.171	3064.19
467.391	3037.19
467.61	2733.19
467.829	2665.19
468.049	2624.19
468.268	2579.19
468.488	2565.19
468.707	2555.19
468.927	2587.19
469.146	2590.19
469.365	2657.19
469.585	2595.19
469.804	2712.19
470.023	2744.19
470.243	2798.19
470.462	2925.19
470.681	3063.19
470.901	3328.19
471.12	3888.19
471.339	3899.19
471.558	3229.19
471.777	2925.19
471.997	2837.19
472.216	2700.19
472.435	2711.19
472.654	2677.19
472.873	2641.19
473.092	2691.19
473.311	2623.19
473.53	2661.19
473.749	2719.19
473.968	2789.19
474.187	2673.19
474.406	2607.19
474.625	2646.19
474.844	2629.19
475.063	2669.19
475.282	2629.19
475.501	2648.19
475.72	2717.19
475.939	2705.19
476.158	2727.19
476.377	2799.19
476.596	2784.19
476.814	2788.19
477.033	2726.19
477.252	2781.19
477.471	2869.19
477.69	2867.19
477.908	2906.19
478.127	3019.19
478.346	2959.19
478.564	3065.19
478.783	3039.19
479.002	3149.19
479.22	3156.19
479.439	3133.19
479.658	3177.19
479.876	3146.19
480.095	3199.19
480.313	3230.19
480.532	3225.19
480.751	3321.19
480.969	3211.19
481.188	3169.19
481.406	3186.19
481.624	3186.19
481.843	3189.19
482.061	3217.19
482.28	3207.19
482.498	3163.19
482.717	3204.19
482.935	3249.19
483.153	3310.19
483.372	3290.19
483.59	3362.19
483.808	3398.19
484.027	3504.19
484.245	3625.19
484.463	4143.19
484.681	4678.19
484.9	4189.19
485.118	3885.19
485.336	3786.19
485.554	3841.19
485.772	4066.19
485.99	4638.19
486.209	5035.19
486.427	4248.19
486.645	3754.19
486.863	3635.19
487.081	3484.19
487.299	3416.19
487.517	3400.19
487.735	3414.19
