Data from SnStandardFlinnAPT0064_LampEnergy5.5_LIBS07252019.E.O._I.C._HRD10591_15-17-26-492.txt Node
Date: Thu Jul 25 15:17:26 EDT 2019
User: cochatt
Spectrometer: HR+D1059
Trigger mode: 1
Integration Time (sec): 1.000000E-1
Scans to average: 1
Electric dark correction enabled: true
Nonlinearity correction enabled: false
Boxcar width: 0
XAxis mode: Wavelengths
Number of Pixels in Spectrum: 2048
>>>>>Begin Spectral Data<<<<<
223.165	-21.5
223.4	-21.5
223.635	-21.5
223.869	-13.5
224.104	-3.5
224.338	-21.5
224.573	-13.5
224.808	-19.5
225.042	-15.5
225.277	-2.5
225.511	1.5
225.746	1.5
225.98	-0.5
226.215	6.5
226.449	27.5
226.683	18.5
226.918	35.5
227.152	20.5
227.387	30.5
227.621	46.5
227.856	37.5
228.09	32.5
228.324	51.5
228.559	47.5
228.793	76.5
229.027	139.5
229.262	153.5
229.496	144.5
229.73	170.5
229.964	172.5
230.199	164.5
230.433	152.5
230.667	185.5
230.901	174.5
231.136	180.5
231.37	197.5
231.604	204.5
231.838	214.5
232.072	255.5
232.306	260.5
232.541	222.5
232.775	213.5
233.009	208.5
233.243	207.5
233.477	212.5
233.711	246.5
233.945	299.5
234.179	260.5
234.413	234.5
234.647	227.5
234.881	218.5
235.115	254.5
235.349	306.5
235.583	352.5
235.817	452.5
236.051	465.5
236.285	310.5
236.519	259.5
236.753	253.5
236.987	270.5
237.221	251.5
237.455	249.5
237.689	201.5
237.922	209.5
238.156	243.5
238.39	251.5
238.624	233.5
238.858	230.5
239.091	230.5
239.325	228.5
239.559	239.5
239.793	250.5
240.027	250.5
240.26	263.5
240.494	272.5
240.728	277.5
240.961	288.5
241.195	300.5
241.429	300.5
241.662	305.5
241.896	337.5
242.13	422.5
242.363	537.5
242.597	711.5
242.83	676.5
243.064	676.5
243.298	775.5
243.531	680.5
243.765	453.5
243.998	360.5
244.232	340.5
244.465	296.5
244.699	286.5
244.932	291.5
245.166	310.5
245.399	308.5
245.633	323.5
245.866	333.5
246.099	292.5
246.333	297.5
246.566	309.5
246.8	297.5
247.033	282.5
247.266	303.5
247.5	310.5
247.733	313.5
247.966	327.5
248.2	359.5
248.433	389.5
248.666	405.5
248.899	433.5
249.133	362.5
249.366	384.5
249.599	403.5
249.832	469.5
250.066	451.5
250.299	371.5
250.532	354.5
250.765	342.5
250.998	336.5
251.231	348.5
251.465	334.5
251.698	313.5
251.931	357.5
252.164	348.5
252.397	347.5
252.63	343.5
252.863	377.5
253.096	353.5
253.329	382.5
253.562	370.5
253.795	355.5
254.028	352.5
254.261	388.5
254.494	399.5
254.727	463.5
254.96	541.5
255.193	544.5
255.426	420.5
255.659	386.5
255.892	388.5
256.124	368.5
256.357	405.5
256.59	425.5
256.823	455.5
257.056	480.5
257.289	549.5
257.521	625.5
257.754	518.5
257.987	434.5
258.22	434.5
258.452	413.5
258.685	422.5
258.918	452.5
259.151	442.5
259.383	480.5
259.616	532.5
259.849	554.5
260.081	483.5
260.314	472.5
260.547	443.5
260.779	419.5
261.012	442.5
261.244	457.5
261.477	466.5
261.71	466.5
261.942	444.5
262.175	464.5
262.407	471.5
262.64	497.5
262.872	504.5
263.105	518.5
263.337	552.5
263.57	584.5
263.802	598.5
264.035	583.5
264.267	607.5
264.499	629.5
264.732	641.5
264.964	643.5
265.197	649.5
265.429	662.5
265.661	641.5
265.894	699.5
266.126	792.5
266.358	861.5
266.591	811.5
266.823	701.5
267.055	656.5
267.287	616.5
267.52	608.5
267.752	577.5
267.984	578.5
268.216	560.5
268.448	558.5
268.681	580.5
268.913	573.5
269.145	562.5
269.377	567.5
269.609	566.5
269.841	575.5
270.073	607.5
270.306	720.5
270.538	940.5
270.77	1380.5
271.002	1685.5
271.234	1159.5
271.466	784.5
271.698	665.5
271.93	617.5
272.162	589.5
272.394	557.5
272.626	553.5
272.858	558.5
273.09	558.5
273.322	552.5
273.553	541.5
273.785	536.5
274.017	532.5
274.249	536.5
274.481	540.5
274.713	540.5
274.945	551.5
275.176	545.5
275.408	542.5
275.64	580.5
275.872	545.5
276.104	552.5
276.335	552.5
276.567	584.5
276.799	559.5
277.031	572.5
277.262	579.5
277.494	624.5
277.726	674.5
277.957	768.5
278.189	865.5
278.421	827.5
278.652	755.5
278.884	691.5
279.115	674.5
279.347	631.5
279.579	626.5
279.81	612.5
280.042	601.5
280.273	615.5
280.505	657.5
280.736	676.5
280.968	668.5
281.199	741.5
281.431	814.5
281.662	857.5
281.894	774.5
282.125	702.5
282.356	689.5
282.588	731.5
282.819	708.5
283.051	780.5
283.282	834.5
283.513	1014.5
283.745	1518.5
283.976	2473.5
284.207	3476.5
284.439	3117.5
284.67	1806.5
284.901	1484.5
285.132	1479.5
285.364	1443.5
285.595	1104.5
285.826	994.5
286.057	1192.5
286.288	1650.5
286.52	2229.5
286.751	2093.5
286.982	1238.5
287.213	937.5
287.444	824.5
287.675	797.5
287.906	768.5
288.138	729.5
288.369	741.5
288.6	729.5
288.831	744.5
289.062	731.5
289.293	719.5
289.524	737.5
289.755	708.5
289.986	735.5
290.217	727.5
290.448	770.5
290.679	716.5
290.91	755.5
291.141	788.5
291.371	832.5
291.602	861.5
291.833	818.5
292.064	749.5
292.295	708.5
292.526	712.5
292.757	710.5
292.987	693.5
293.218	694.5
293.449	721.5
293.68	680.5
293.91	691.5
294.141	706.5
294.372	672.5
294.603	656.5
294.833	665.5
295.064	678.5
295.295	671.5
295.525	689.5
295.756	690.5
295.987	674.5
296.217	693.5
296.448	672.5
296.679	700.5
296.909	654.5
297.14	694.5
297.37	689.5
297.601	687.5
297.831	716.5
298.062	707.5
298.292	746.5
298.523	729.5
298.753	737.5
298.984	712.5
299.214	729.5
299.445	758.5
299.675	782.5
299.905	792.5
300.136	834.5
300.366	911.5
300.597	1148.5
300.827	1605.5
301.057	2227.5
301.288	2156.5
301.518	1364.5
301.748	1094.5
301.979	960.5
302.209	958.5
302.439	973.5
302.669	1013.5
302.9	1213.5
303.13	1710.5
303.36	2536.5
303.59	3462.5
303.82	2952.5
304.051	1691.5
304.281	1242.5
304.511	1034.5
304.741	969.5
304.971	890.5
305.201	885.5
305.431	844.5
305.661	867.5
305.891	810.5
306.121	815.5
306.352	801.5
306.582	802.5
306.812	794.5
307.042	802.5
307.272	794.5
307.502	765.5
307.731	798.5
307.961	803.5
308.191	813.5
308.421	804.5
308.651	792.5
308.881	773.5
309.111	777.5
309.341	820.5
309.571	807.5
309.8	826.5
310.03	844.5
310.26	815.5
310.49	801.5
310.72	820.5
310.949	805.5
311.179	816.5
311.409	838.5
311.639	839.5
311.868	848.5
312.098	831.5
312.328	865.5
312.557	865.5
312.787	864.5
313.017	866.5
313.246	856.5
313.476	850.5
313.706	899.5
313.935	912.5
314.165	976.5
314.394	989.5
314.624	1018.5
314.853	945.5
315.083	914.5
315.312	944.5
315.542	967.5
315.771	945.5
316.001	965.5
316.23	980.5
316.46	1040.5
316.689	1136.5
316.919	1344.5
317.148	1944.5
317.377	3103.5
317.607	4559.5
317.836	4648.5
318.065	2633.5
318.295	1689.5
318.524	1347.5
318.753	1181.5
318.983	1150.5
319.212	1058.5
319.441	1059.5
319.67	1034.5
319.9	1012.5
320.129	987.5
320.358	990.5
320.587	1000.5
320.816	985.5
321.046	985.5
321.275	982.5
321.504	962.5
321.733	996.5
321.962	1069.5
322.191	1076.5
322.42	1040.5
322.649	1060.5
322.878	1051.5
323.108	1060.5
323.337	1079.5
323.566	1074.5
323.795	1116.5
324.024	1118.5
324.253	1137.5
324.482	1189.5
324.71	1218.5
324.939	1330.5
325.168	1333.5
325.397	1358.5
325.626	1671.5
325.855	2344.5
326.084	3711.5
326.313	5522.5
326.542	5857.5
326.77	3622.5
326.999	2316.5
327.228	1945.5
327.457	1853.5
327.686	1860.5
327.914	1986.5
328.143	2233.5
328.372	2625.5
328.6	2846.5
328.829	2612.5
329.058	2254.5
329.287	2065.5
329.515	1879.5
329.744	1730.5
329.972	1634.5
330.201	1578.5
330.43	1536.5
330.658	1484.5
330.887	1456.5
331.115	1442.5
331.344	1406.5
331.572	1423.5
331.801	1448.5
332.03	1447.5
332.258	1461.5
332.486	1562.5
332.715	1772.5
332.943	2164.5
333.172	2589.5
333.4	2616.5
333.629	2001.5
333.857	1813.5
334.085	1826.5
334.314	1918.5
334.542	1992.5
334.771	2378.5
334.999	2780.5
335.227	3396.5
335.455	3823.5
335.684	3517.5
335.912	2984.5
336.14	2588.5
336.369	2333.5
336.597	2156.5
336.825	1948.5
337.053	1842.5
337.281	1730.5
337.51	1672.5
337.738	1615.5
337.966	1553.5
338.194	1496.5
338.422	1464.5
338.65	1439.5
338.878	1384.5
339.106	1350.5
339.334	1339.5
339.562	1314.5
339.79	1293.5
340.018	1308.5
340.246	1293.5
340.474	1290.5
340.702	1276.5
340.93	1273.5
341.158	1272.5
341.386	1245.5
341.614	1251.5
341.842	1252.5
342.07	1190.5
342.298	1237.5
342.526	1190.5
342.754	1117.5
342.981	1168.5
343.209	1174.5
343.437	1166.5
343.665	1171.5
343.893	1217.5
344.12	1209.5
344.348	1183.5
344.576	1186.5
344.804	1144.5
345.031	1136.5
345.259	1162.5
345.487	1111.5
345.714	1159.5
345.942	1092.5
346.17	1092.5
346.397	1093.5
346.625	1092.5
346.853	1084.5
347.08	1062.5
347.308	1082.5
347.535	1071.5
347.763	1072.5
347.99	1057.5
348.218	1096.5
348.445	1052.5
348.673	1058.5
348.9	1080.5
349.128	1071.5
349.355	1061.5
349.583	1064.5
349.81	1042.5
350.037	1031.5
350.265	1053.5
350.492	1058.5
350.72	1038.5
350.947	1039.5
351.174	1042.5
351.402	1045.5
351.629	1044.5
351.856	1052.5
352.083	1036.5
352.311	1052.5
352.538	1032.5
352.765	1007.5
352.992	1036.5
353.22	1008.5
353.447	1058.5
353.674	1045.5
353.901	1037.5
354.128	1036.5
354.355	1047.5
354.583	1030.5
354.81	1034.5
355.037	1047.5
355.264	1065.5
355.491	1042.5
355.718	1033.5
355.945	1062.5
356.172	1059.5
356.399	1067.5
356.626	1072.5
356.853	1052.5
357.08	1110.5
357.307	1093.5
357.534	1122.5
357.761	1098.5
357.988	1113.5
358.215	1117.5
358.441	1130.5
358.668	1070.5
358.895	1098.5
359.122	1084.5
359.349	1116.5
359.576	1098.5
359.802	1084.5
360.029	1123.5
360.256	1121.5
360.483	1109.5
360.709	1124.5
360.936	1110.5
361.163	1119.5
361.39	1106.5
361.616	1085.5
361.843	1086.5
362.07	1116.5
362.296	1126.5
362.523	1113.5
362.749	1132.5
362.976	1106.5
363.203	1100.5
363.429	1089.5
363.656	1113.5
363.882	1100.5
364.109	1088.5
364.335	1096.5
364.562	1097.5
364.788	1093.5
365.015	1098.5
365.241	1118.5
365.468	1186.5
365.694	1192.5
365.92	1208.5
366.147	1118.5
366.373	1113.5
366.599	1114.5
366.826	1118.5
367.052	1124.5
367.278	1161.5
367.505	1114.5
367.731	1124.5
367.957	1120.5
368.184	1140.5
368.41	1156.5
368.636	1151.5
368.862	1129.5
369.089	1128.5
369.315	1137.5
369.541	1174.5
369.767	1175.5
369.993	1154.5
370.219	1145.5
370.445	1159.5
370.672	1170.5
370.898	1172.5
371.124	1142.5
371.35	1190.5
371.576	1157.5
371.802	1163.5
372.028	1186.5
372.254	1213.5
372.48	1190.5
372.706	1210.5
372.932	1221.5
373.158	1229.5
373.384	1196.5
373.61	1189.5
373.835	1206.5
374.061	1205.5
374.287	1223.5
374.513	1212.5
374.739	1239.5
374.965	1236.5
375.191	1261.5
375.416	1246.5
375.642	1204.5
375.868	1207.5
376.094	1219.5
376.319	1233.5
376.545	1215.5
376.771	1182.5
376.997	1198.5
377.222	1194.5
377.448	1160.5
377.674	1167.5
377.899	1178.5
378.125	1169.5
378.35	1202.5
378.576	1190.5
378.802	1177.5
379.027	1204.5
379.253	1285.5
379.478	1318.5
379.704	1535.5
379.929	2186.5
380.155	3301.5
380.38	3559.5
380.606	2120.5
380.831	1551.5
381.057	1337.5
381.282	1242.5
381.507	1227.5
381.733	1201.5
381.958	1166.5
382.184	1174.5
382.409	1186.5
382.634	1150.5
382.86	1181.5
383.085	1174.5
383.31	1148.5
383.535	1154.5
383.761	1212.5
383.986	1185.5
384.211	1181.5
384.436	1216.5
384.662	1211.5
384.887	1194.5
385.112	1212.5
385.337	1233.5
385.562	1212.5
385.787	1211.5
386.013	1216.5
386.238	1217.5
386.463	1203.5
386.688	1218.5
386.913	1194.5
387.138	1202.5
387.363	1214.5
387.588	1213.5
387.813	1226.5
388.038	1218.5
388.263	1222.5
388.488	1211.5
388.713	1227.5
388.938	1241.5
389.163	1200.5
389.387	1209.5
389.612	1190.5
389.837	1212.5
390.062	1195.5
390.287	1210.5
390.512	1222.5
390.736	1230.5
390.961	1224.5
391.186	1245.5
391.411	1251.5
391.636	1254.5
391.86	1261.5
392.085	1272.5
392.31	1274.5
392.534	1244.5
392.759	1267.5
392.984	1238.5
393.208	1206.5
393.433	1300.5
393.658	1246.5
393.882	1214.5
394.107	1213.5
394.331	1214.5
394.556	1245.5
394.78	1227.5
395.005	1244.5
395.229	1239.5
395.454	1297.5
395.678	1292.5
395.903	1296.5
396.127	1275.5
396.352	1263.5
396.576	1253.5
396.801	1280.5
397.025	1261.5
397.249	1273.5
397.474	1281.5
397.698	1257.5
397.922	1294.5
398.147	1268.5
398.371	1302.5
398.595	1330.5
398.82	1375.5
399.044	1399.5
399.268	1441.5
399.492	1550.5
399.717	1567.5
399.941	1599.5
400.165	1512.5
400.389	1490.5
400.613	1453.5
400.837	1395.5
401.062	1404.5
401.286	1343.5
401.51	1346.5
401.734	1317.5
401.958	1381.5
402.182	1329.5
402.406	1332.5
402.63	1352.5
402.854	1364.5
403.078	1358.5
403.302	1366.5
403.526	1395.5
403.75	1374.5
403.974	1400.5
404.198	1402.5
404.422	1399.5
404.645	1408.5
404.869	1397.5
405.093	1401.5
405.317	1416.5
405.541	1382.5
405.765	1391.5
405.988	1452.5
406.212	1439.5
406.436	1421.5
406.66	1418.5
406.883	1418.5
407.107	1485.5
407.331	1500.5
407.555	1511.5
407.778	1514.5
408.002	1493.5
408.226	1478.5
408.449	1485.5
408.673	1439.5
408.896	1445.5
409.12	1415.5
409.344	1418.5
409.567	1382.5
409.791	1408.5
410.014	1406.5
410.238	1430.5
410.461	1364.5
410.685	1369.5
410.908	1350.5
411.132	1373.5
411.355	1361.5
411.578	1365.5
411.802	1332.5
412.025	1310.5
412.249	1324.5
412.472	1338.5
412.695	1339.5
412.919	1308.5
413.142	1345.5
413.365	1355.5
413.589	1341.5
413.812	1313.5
414.035	1308.5
414.258	1303.5
414.482	1324.5
414.705	1314.5
414.928	1346.5
415.151	1288.5
415.374	1330.5
415.597	1319.5
415.821	1274.5
416.044	1257.5
416.267	1260.5
416.49	1262.5
416.713	1309.5
416.936	1279.5
417.159	1231.5
417.382	1221.5
417.605	1278.5
417.828	1269.5
418.051	1228.5
418.274	1289.5
418.497	1281.5
418.72	1296.5
418.943	1295.5
419.166	1344.5
419.389	1397.5
419.611	1381.5
419.834	1312.5
420.057	1305.5
420.28	1308.5
420.503	1292.5
420.726	1249.5
420.948	1265.5
421.171	1259.5
421.394	1286.5
421.617	1304.5
421.839	1262.5
422.062	1279.5
422.285	1242.5
422.507	1258.5
422.73	1297.5
422.953	1322.5
423.175	1304.5
423.398	1292.5
423.621	1287.5
423.843	1272.5
424.066	1290.5
424.288	1272.5
424.511	1267.5
424.733	1250.5
424.956	1260.5
425.178	1274.5
425.401	1276.5
425.623	1263.5
425.846	1231.5
426.068	1244.5
426.291	1222.5
426.513	1246.5
426.735	1223.5
426.958	1247.5
427.18	1177.5
427.402	1196.5
427.625	1194.5
427.847	1188.5
428.069	1165.5
428.292	1184.5
428.514	1178.5
428.736	1166.5
428.958	1212.5
429.181	1189.5
429.403	1164.5
429.625	1162.5
429.847	1164.5
430.069	1226.5
430.292	1229.5
430.514	1262.5
430.736	1262.5
430.958	1215.5
431.18	1168.5
431.402	1169.5
431.624	1166.5
431.846	1182.5
432.068	1170.5
432.29	1156.5
432.512	1148.5
432.734	1171.5
432.956	1178.5
433.178	1144.5
433.4	1189.5
433.622	1218.5
433.844	1202.5
434.066	1195.5
434.287	1134.5
434.509	1189.5
434.731	1190.5
434.953	1225.5
435.175	1202.5
435.397	1219.5
435.618	1203.5
435.84	1168.5
436.062	1141.5
436.284	1159.5
436.505	1163.5
436.727	1177.5
436.949	1165.5
437.17	1182.5
437.392	1119.5
437.614	1129.5
437.835	1139.5
438.057	1103.5
438.278	1096.5
438.5	1138.5
438.721	1170.5
438.943	1212.5
439.165	1184.5
439.386	1226.5
439.608	1241.5
439.829	1213.5
440.05	1215.5
440.272	1293.5
440.493	1232.5
440.715	1183.5
440.936	1235.5
441.158	1249.5
441.379	1264.5
441.6	1306.5
441.822	1308.5
442.043	1364.5
442.264	1412.5
442.486	1328.5
442.707	1236.5
442.928	1238.5
443.149	1265.5
443.371	1209.5
443.592	1264.5
443.813	1233.5
444.034	1308.5
444.255	1295.5
444.476	1332.5
444.698	1341.5
444.919	1352.5
445.14	1419.5
445.361	1344.5
445.582	1307.5
445.803	1286.5
446.024	1251.5
446.245	1249.5
446.466	1242.5
446.687	1260.5
446.908	1262.5
447.129	1191.5
447.35	1208.5
447.571	1189.5
447.792	1152.5
448.013	1167.5
448.234	1178.5
448.455	1198.5
448.675	1168.5
448.896	1204.5
449.117	1218.5
449.338	1324.5
449.559	1397.5
449.779	1280.5
450	1183.5
450.221	1140.5
450.442	1123.5
450.662	1127.5
450.883	1104.5
451.104	1136.5
451.324	1142.5
451.545	1118.5
451.766	1106.5
451.986	1142.5
452.207	1226.5
452.428	1500.5
452.648	2146.5
452.869	1773.5
453.089	1300.5
453.31	1252.5
453.53	1248.5
453.751	1297.5
453.971	1351.5
454.192	1376.5
454.412	1178.5
454.633	1145.5
454.853	1107.5
455.073	1084.5
455.294	1112.5
455.514	1061.5
455.734	1072.5
455.955	1084.5
456.175	1070.5
456.395	1065.5
456.616	1072.5
456.836	1087.5
457.056	1083.5
457.276	1072.5
457.497	1140.5
457.717	1150.5
457.937	1132.5
458.157	1134.5
458.377	1087.5
458.598	1130.5
458.818	1096.5
459.038	1127.5
459.258	1124.5
459.478	1174.5
459.698	1160.5
459.918	1181.5
460.138	1217.5
460.358	1245.5
460.578	1275.5
460.798	1289.5
461.018	1282.5
461.238	1278.5
461.458	1278.5
461.678	1266.5
461.898	1321.5
462.118	1316.5
462.338	1353.5
462.558	1319.5
462.777	1340.5
462.997	1393.5
463.217	1492.5
463.437	1524.5
463.657	1573.5
463.876	1504.5
464.096	1430.5
464.316	1401.5
464.536	1385.5
464.755	1362.5
464.975	1305.5
465.195	1290.5
465.414	1286.5
465.634	1201.5
465.854	1166.5
466.073	1182.5
466.293	1190.5
466.512	1168.5
466.732	1173.5
466.951	1242.5
467.171	1331.5
467.391	1289.5
467.61	1214.5
467.829	1151.5
468.049	1166.5
468.268	1128.5
468.488	1139.5
468.707	1132.5
468.927	1190.5
469.146	1153.5
469.365	1178.5
469.585	1151.5
469.804	1206.5
470.023	1214.5
470.243	1248.5
470.462	1258.5
470.681	1310.5
470.901	1439.5
471.12	1662.5
471.339	1678.5
471.558	1397.5
471.777	1250.5
471.997	1241.5
472.216	1164.5
472.435	1194.5
472.654	1158.5
472.873	1152.5
473.092	1155.5
473.311	1176.5
473.53	1166.5
473.749	1201.5
473.968	1210.5
474.187	1181.5
474.406	1143.5
474.625	1153.5
474.844	1166.5
475.063	1167.5
475.282	1170.5
475.501	1172.5
475.72	1171.5
475.939	1208.5
476.158	1203.5
476.377	1245.5
476.596	1226.5
476.814	1200.5
477.033	1236.5
477.252	1236.5
477.471	1234.5
477.69	1314.5
477.908	1317.5
478.127	1333.5
478.346	1287.5
478.564	1326.5
478.783	1342.5
479.002	1364.5
479.22	1367.5
479.439	1382.5
479.658	1327.5
479.876	1319.5
480.095	1388.5
480.313	1414.5
480.532	1442.5
480.751	1402.5
480.969	1345.5
481.188	1371.5
481.406	1357.5
481.624	1365.5
481.843	1382.5
482.061	1394.5
482.28	1370.5
482.498	1348.5
482.717	1375.5
482.935	1384.5
483.153	1429.5
483.372	1432.5
483.59	1474.5
483.808	1468.5
484.027	1468.5
484.245	1566.5
484.463	1760.5
484.681	1940.5
484.9	1733.5
485.118	1615.5
485.336	1596.5
485.554	1622.5
485.772	1710.5
485.99	1930.5
486.209	2143.5
486.427	1746.5
486.645	1583.5
486.863	1539.5
487.081	1494.5
487.299	1474.5
487.517	1471.5
487.735	1479.5
487.953	1496.5
488.171	1477.5
488.389	1474.5
488.607	1461.5
488.825	1445.5
489.043	1412.5
489.261	1437.5
489.479	1424.5
489.696	1433.5
489.914	1460.5
490.132	1443.5
490.35	1444.5
490.568	1480.5
490.786	1514.5
491.003	1510.5
491.221	1501.5
491.439	1498.5
491.657	1502.5
491.874	1529.5
492.092	1556.5
492.31	1576.5
492.527	1596.5
492.745	1556.5
492.963	1541.5
493.18	1510.5
493.398	1549.5
493.615	1528.5
493.833	1550.5
494.05	1539.5
494.268	1555.5
494.485	1490.5
494.703	1535.5
494.92	1517.5
495.138	1538.5
495.355	1541.5
495.573	1570.5
495.79	1523.5
496.008	1584.5
496.225	1557.5
496.442	1574.5
496.66	1602.5
496.877	1664.5
497.094	1666.5
497.312	1632.5
497.529	1610.5
497.746	1640.5
497.963	1649.5
498.181	1704.5
498.398	1725.5
498.615	1780.5
498.832	1875.5
499.049	1945.5
499.267	2092.5
499.484	2219.5
499.701	2224.5
499.918	2278.5
500.135	2386.5
500.352	2549.5
500.569	2592.5
500.786	2530.5
501.003	2463.5
501.22	2366.5
501.437	2222.5
501.654	2117.5
501.871	2002.5
502.088	1921.5
502.305	1863.5
502.522	1833.5
502.739	1781.5
502.956	1705.5
503.172	1614.5
503.389	1647.5
503.606	1603.5
503.823	1613.5
504.04	1562.5
504.256	1540.5
504.473	1559.5
504.69	1558.5
504.907	1526.5
505.123	1510.5
505.34	1496.5
505.557	1445.5
505.773	1468.5
505.99	1417.5
506.207	1398.5
506.423	1380.5
506.64	1353.5
506.856	1349.5
507.073	1317.5
