Data from SnStandardFlinnAPT0064_LampEnergy5.5_LIBS07252019.E.O._I.C._HRD10591_15-14-38-490.txt Node
Date: Thu Jul 25 15:14:38 EDT 2019
User: cochatt
Spectrometer: HR+D1059
Trigger mode: 1
Integration Time (sec): 1.000000E-1
Scans to average: 1
Electric dark correction enabled: true
Nonlinearity correction enabled: false
Boxcar width: 0
XAxis mode: Wavelengths
Number of Pixels in Spectrum: 2048
>>>>>Begin Spectral Data<<<<<
223.165	-15.62
223.4	-15.62
223.635	-15.62
223.869	-17.62
224.104	-1.62
224.338	-21.62
224.573	-1.62
224.808	2.38
225.042	-4.62
225.277	-6.62
225.511	-19.62
225.746	-4.62
225.98	8.38
226.215	11.38
226.449	14.38
226.683	13.38
226.918	31.38
227.152	12.38
227.387	29.38
227.621	46.38
227.856	18.38
228.09	45.38
228.324	52.38
228.559	51.38
228.793	82.38
229.027	134.38
229.262	152.38
229.496	149.38
229.73	152.38
229.964	137.38
230.199	139.38
230.433	148.38
230.667	148.38
230.901	161.38
231.136	165.38
231.37	168.38
231.604	183.38
231.838	176.38
232.072	205.38
232.306	233.38
232.541	199.38
232.775	188.38
233.009	193.38
233.243	188.38
233.477	194.38
233.711	213.38
233.945	246.38
234.179	225.38
234.413	213.38
234.647	210.38
234.881	223.38
235.115	222.38
235.349	268.38
235.583	291.38
235.817	368.38
236.051	362.38
236.285	262.38
236.519	232.38
236.753	224.38
236.987	220.38
237.221	224.38
237.455	229.38
237.689	228.38
237.922	202.38
238.156	223.38
238.39	210.38
238.624	218.38
238.858	210.38
239.091	229.38
239.325	212.38
239.559	209.38
239.793	219.38
240.027	229.38
240.26	247.38
240.494	260.38
240.728	252.38
240.961	245.38
241.195	272.38
241.429	269.38
241.662	279.38
241.896	304.38
242.13	349.38
242.363	419.38
242.597	527.38
242.83	520.38
243.064	520.38
243.298	607.38
243.531	513.38
243.765	372.38
243.998	318.38
244.232	280.38
244.465	281.38
244.699	275.38
244.932	291.38
245.166	297.38
245.399	279.38
245.633	291.38
245.866	283.38
246.099	274.38
246.333	284.38
246.566	280.38
246.8	279.38
247.033	274.38
247.266	271.38
247.5	277.38
247.733	295.38
247.966	299.38
248.2	320.38
248.433	320.38
248.666	370.38
248.899	362.38
249.133	328.38
249.366	344.38
249.599	354.38
249.832	412.38
250.066	404.38
250.299	352.38
250.532	314.38
250.765	305.38
250.998	314.38
251.231	313.38
251.465	308.38
251.698	312.38
251.931	302.38
252.164	326.38
252.397	328.38
252.63	310.38
252.863	333.38
253.096	330.38
253.329	341.38
253.562	331.38
253.795	324.38
254.028	352.38
254.261	352.38
254.494	363.38
254.727	403.38
254.96	456.38
255.193	442.38
255.426	378.38
255.659	362.38
255.892	368.38
256.124	364.38
256.357	366.38
256.59	369.38
256.823	396.38
257.056	428.38
257.289	470.38
257.521	484.38
257.754	457.38
257.987	385.38
258.22	370.38
258.452	386.38
258.685	381.38
258.918	384.38
259.151	393.38
259.383	399.38
259.616	441.38
259.849	467.38
260.081	439.38
260.314	408.38
260.547	393.38
260.779	395.38
261.012	387.38
261.244	401.38
261.477	426.38
261.71	446.38
261.942	439.38
262.175	428.38
262.407	448.38
262.64	441.38
262.872	455.38
263.105	492.38
263.337	498.38
263.57	524.38
263.802	536.38
264.035	547.38
264.267	574.38
264.499	547.38
264.732	613.38
264.964	585.38
265.197	598.38
265.429	603.38
265.661	626.38
265.894	644.38
266.126	702.38
266.358	733.38
266.591	731.38
266.823	640.38
267.055	600.38
267.287	562.38
267.52	542.38
267.752	556.38
267.984	524.38
268.216	522.38
268.448	525.38
268.681	513.38
268.913	500.38
269.145	497.38
269.377	512.38
269.609	528.38
269.841	521.38
270.073	556.38
270.306	610.38
270.538	767.38
270.77	1055.38
271.002	1245.38
271.234	944.38
271.466	675.38
271.698	578.38
271.93	546.38
272.162	529.38
272.394	530.38
272.626	518.38
272.858	499.38
273.09	498.38
273.322	486.38
273.553	497.38
273.785	508.38
274.017	503.38
274.249	500.38
274.481	522.38
274.713	500.38
274.945	498.38
275.176	478.38
275.408	518.38
275.64	507.38
275.872	525.38
276.104	500.38
276.335	530.38
276.567	527.38
276.799	498.38
277.031	522.38
277.262	519.38
277.494	536.38
277.726	589.38
277.957	670.38
278.189	682.38
278.421	683.38
278.652	611.38
278.884	592.38
279.115	565.38
279.347	546.38
279.579	560.38
279.81	544.38
280.042	532.38
280.273	570.38
280.505	573.38
280.736	569.38
280.968	592.38
281.199	639.38
281.431	680.38
281.662	700.38
281.894	660.38
282.125	623.38
282.356	619.38
282.588	635.38
282.819	668.38
283.051	680.38
283.282	763.38
283.513	876.38
283.745	1202.38
283.976	1816.38
284.207	2456.38
284.439	2250.38
284.67	1476.38
284.901	1198.38
285.132	1128.38
285.364	1089.38
285.595	912.38
285.826	856.38
286.057	981.38
286.288	1257.38
286.52	1620.38
286.751	1515.38
286.982	1046.38
287.213	838.38
287.444	744.38
287.675	672.38
287.906	709.38
288.138	669.38
288.369	660.38
288.6	670.38
288.831	658.38
289.062	667.38
289.293	651.38
289.524	648.38
289.755	682.38
289.986	663.38
290.217	646.38
290.448	664.38
290.679	669.38
290.91	703.38
291.141	690.38
291.371	723.38
291.602	706.38
291.833	698.38
292.064	679.38
292.295	660.38
292.526	692.38
292.757	646.38
292.987	607.38
293.218	639.38
293.449	616.38
293.68	652.38
293.91	628.38
294.141	638.38
294.372	649.38
294.603	632.38
294.833	631.38
295.064	630.38
295.295	635.38
295.525	621.38
295.756	598.38
295.987	633.38
296.217	636.38
296.448	653.38
296.679	633.38
296.909	628.38
297.14	654.38
297.37	646.38
297.601	644.38
297.831	638.38
298.062	660.38
298.292	653.38
298.523	670.38
298.753	688.38
298.984	655.38
299.214	658.38
299.445	678.38
299.675	705.38
299.905	696.38
300.136	716.38
300.366	755.38
300.597	956.38
300.827	1226.38
301.057	1599.38
301.288	1567.38
301.518	1106.38
301.748	913.38
301.979	856.38
302.209	836.38
302.439	821.38
302.669	873.38
302.9	990.38
303.13	1296.38
303.36	1818.38
303.59	2341.38
303.82	2080.38
304.051	1349.38
304.281	1038.38
304.511	911.38
304.741	845.38
304.971	829.38
305.201	804.38
305.431	780.38
305.661	772.38
305.891	738.38
306.121	752.38
306.352	730.38
306.582	739.38
306.812	712.38
307.042	719.38
307.272	726.38
307.502	699.38
307.731	722.38
307.961	712.38
308.191	710.38
308.421	715.38
308.651	720.38
308.881	706.38
309.111	729.38
309.341	726.38
309.571	724.38
309.8	744.38
310.03	730.38
310.26	729.38
310.49	734.38
310.72	730.38
310.949	734.38
311.179	771.38
311.409	751.38
311.639	760.38
311.868	769.38
312.098	755.38
312.328	780.38
312.557	767.38
312.787	776.38
313.017	797.38
313.246	788.38
313.476	773.38
313.706	786.38
313.935	829.38
314.165	861.38
314.394	881.38
314.624	863.38
314.853	825.38
315.083	832.38
315.312	811.38
315.542	853.38
315.771	845.38
316.001	849.38
316.23	893.38
316.46	918.38
316.689	980.38
316.919	1127.38
317.148	1522.38
317.377	2242.38
317.607	3074.38
317.836	3241.38
318.065	2039.38
318.295	1402.38
318.524	1163.38
318.753	1041.38
318.983	986.38
319.212	955.38
319.441	959.38
319.67	950.38
319.9	926.38
320.129	937.38
320.358	910.38
320.587	904.38
320.816	898.38
321.046	910.38
321.275	916.38
321.504	908.38
321.733	921.38
321.962	935.38
322.191	958.38
322.42	933.38
322.649	962.38
322.878	920.38
323.108	945.38
323.337	984.38
323.566	958.38
323.795	1005.38
324.024	997.38
324.253	1090.38
324.482	1036.38
324.71	1086.38
324.939	1151.38
325.168	1157.38
325.397	1213.38
325.626	1360.38
325.855	1820.38
326.084	2722.38
326.313	3888.38
326.542	4133.38
326.77	2765.38
326.999	1952.38
327.228	1677.38
327.457	1592.38
327.686	1660.38
327.914	1768.38
328.143	1961.38
328.372	2252.38
328.6	2492.38
328.829	2307.38
329.058	2046.38
329.287	1816.38
329.515	1709.38
329.744	1588.38
329.972	1520.38
330.201	1461.38
330.43	1422.38
330.658	1348.38
330.887	1320.38
331.115	1316.38
331.344	1303.38
331.572	1288.38
331.801	1316.38
332.03	1330.38
332.258	1350.38
332.486	1395.38
332.715	1538.38
332.943	1740.38
333.172	2087.38
333.4	2060.38
333.629	1722.38
333.857	1622.38
334.085	1626.38
334.314	1685.38
334.542	1801.38
334.771	2101.38
334.999	2448.38
335.227	2912.38
335.455	3260.38
335.684	3068.38
335.912	2651.38
336.14	2337.38
336.369	2073.38
336.597	1907.38
336.825	1799.38
337.053	1671.38
337.281	1601.38
337.51	1549.38
337.738	1485.38
337.966	1396.38
338.194	1369.38
338.422	1333.38
338.65	1304.38
338.878	1271.38
339.106	1255.38
339.334	1252.38
339.562	1189.38
339.79	1158.38
340.018	1189.38
340.246	1171.38
340.474	1164.38
340.702	1190.38
340.93	1187.38
341.158	1160.38
341.386	1157.38
341.614	1180.38
341.842	1165.38
342.07	1138.38
342.298	1106.38
342.526	1088.38
342.754	1061.38
342.981	1078.38
343.209	1090.38
343.437	1070.38
343.665	1093.38
343.893	1096.38
344.12	1112.38
344.348	1115.38
344.576	1089.38
344.804	1066.38
345.031	1033.38
345.259	1034.38
345.487	1018.38
345.714	1032.38
345.942	1012.38
346.17	1033.38
346.397	993.38
346.625	980.38
346.853	1021.38
347.08	977.38
347.308	1012.38
347.535	997.38
347.763	972.38
347.99	953.38
348.218	965.38
348.445	963.38
348.673	952.38
348.9	976.38
349.128	976.38
349.355	973.38
349.583	993.38
349.81	974.38
350.037	956.38
350.265	952.38
350.492	965.38
350.72	925.38
350.947	939.38
351.174	966.38
351.402	949.38
351.629	959.38
351.856	976.38
352.083	963.38
352.311	947.38
352.538	980.38
352.765	957.38
352.992	956.38
353.22	949.38
353.447	937.38
353.674	941.38
353.901	963.38
354.128	952.38
354.355	944.38
354.583	961.38
354.81	963.38
355.037	949.38
355.264	980.38
355.491	926.38
355.718	954.38
355.945	1005.38
356.172	962.38
356.399	949.38
356.626	980.38
356.853	969.38
357.08	946.38
357.307	988.38
357.534	1008.38
357.761	1015.38
357.988	1026.38
358.215	1010.38
358.441	998.38
358.668	1000.38
358.895	1014.38
359.122	1014.38
359.349	1001.38
359.576	991.38
359.802	980.38
360.029	992.38
360.256	993.38
360.483	996.38
360.709	1011.38
360.936	1028.38
361.163	1027.38
361.39	1021.38
361.616	1009.38
361.843	1015.38
362.07	997.38
362.296	1024.38
362.523	1004.38
362.749	1027.38
362.976	1008.38
363.203	981.38
363.429	986.38
363.656	1008.38
363.882	1030.38
364.109	1022.38
364.335	1018.38
364.562	988.38
364.788	980.38
365.015	1031.38
365.241	1034.38
365.468	1064.38
365.694	1114.38
365.92	1044.38
366.147	1012.38
366.373	1057.38
366.599	1029.38
366.826	1042.38
367.052	1004.38
367.278	1038.38
367.505	1038.38
367.731	1047.38
367.957	1047.38
368.184	1064.38
368.41	1067.38
368.636	1037.38
368.862	1038.38
369.089	1054.38
369.315	1041.38
369.541	1049.38
369.767	1052.38
369.993	1057.38
370.219	1061.38
370.445	1053.38
370.672	1060.38
370.898	1063.38
371.124	1072.38
371.35	1071.38
371.576	1093.38
371.802	1096.38
372.028	1061.38
372.254	1116.38
372.48	1082.38
372.706	1088.38
372.932	1138.38
373.158	1084.38
373.384	1124.38
373.61	1129.38
373.835	1128.38
374.061	1126.38
374.287	1142.38
374.513	1150.38
374.739	1146.38
374.965	1147.38
375.191	1146.38
375.416	1132.38
375.642	1096.38
375.868	1146.38
376.094	1136.38
376.319	1130.38
376.545	1114.38
376.771	1116.38
376.997	1097.38
377.222	1096.38
377.448	1057.38
377.674	1086.38
377.899	1076.38
378.125	1093.38
378.35	1068.38
378.576	1053.38
378.802	1072.38
379.027	1106.38
379.253	1144.38
379.478	1180.38
379.704	1298.38
379.929	1670.38
380.155	2389.38
380.38	2522.38
380.606	1758.38
380.831	1331.38
381.057	1208.38
381.282	1137.38
381.507	1105.38
381.733	1119.38
381.958	1102.38
382.184	1089.38
382.409	1108.38
382.634	1090.38
382.86	1053.38
383.085	1076.38
383.31	1106.38
383.535	1116.38
383.761	1095.38
383.986	1097.38
384.211	1100.38
384.436	1091.38
384.662	1099.38
384.887	1110.38
385.112	1098.38
385.337	1115.38
385.562	1094.38
385.787	1122.38
386.013	1145.38
386.238	1120.38
386.463	1125.38
386.688	1141.38
386.913	1102.38
387.138	1105.38
387.363	1105.38
387.588	1076.38
387.813	1109.38
388.038	1108.38
388.263	1097.38
388.488	1089.38
388.713	1097.38
388.938	1099.38
389.163	1092.38
389.387	1090.38
389.612	1138.38
389.837	1139.38
390.062	1133.38
390.287	1126.38
390.512	1104.38
390.736	1142.38
390.961	1146.38
391.186	1163.38
391.411	1182.38
391.636	1150.38
391.86	1154.38
392.085	1161.38
392.31	1147.38
392.534	1112.38
392.759	1156.38
392.984	1148.38
393.208	1137.38
393.433	1148.38
393.658	1154.38
393.882	1134.38
394.107	1129.38
394.331	1120.38
394.556	1103.38
394.78	1148.38
395.005	1148.38
395.229	1150.38
395.454	1147.38
395.678	1170.38
395.903	1189.38
396.127	1160.38
396.352	1184.38
396.576	1173.38
396.801	1176.38
397.025	1169.38
397.249	1167.38
397.474	1194.38
397.698	1189.38
397.922	1212.38
398.147	1192.38
398.371	1196.38
398.595	1212.38
398.82	1251.38
399.044	1305.38
399.268	1352.38
399.492	1415.38
399.717	1477.38
399.941	1486.38
400.165	1430.38
400.389	1382.38
400.613	1337.38
400.837	1303.38
401.062	1251.38
401.286	1270.38
401.51	1256.38
401.734	1236.38
401.958	1228.38
402.182	1278.38
402.406	1220.38
402.63	1273.38
402.854	1272.38
403.078	1253.38
403.302	1283.38
403.526	1264.38
403.75	1266.38
403.974	1295.38
404.198	1304.38
404.422	1293.38
404.645	1276.38
404.869	1284.38
405.093	1255.38
405.317	1253.38
405.541	1306.38
405.765	1316.38
405.988	1297.38
406.212	1298.38
406.436	1283.38
406.66	1301.38
406.883	1333.38
407.107	1378.38
407.331	1374.38
407.555	1392.38
407.778	1402.38
408.002	1357.38
408.226	1390.38
408.449	1388.38
408.673	1307.38
408.896	1267.38
409.12	1303.38
409.344	1308.38
409.567	1282.38
409.791	1305.38
410.014	1292.38
410.238	1280.38
410.461	1276.38
410.685	1246.38
410.908	1266.38
411.132	1249.38
411.355	1258.38
411.578	1232.38
411.802	1228.38
412.025	1229.38
412.249	1249.38
412.472	1232.38
412.695	1261.38
412.919	1209.38
413.142	1226.38
413.365	1212.38
413.589	1256.38
413.812	1212.38
414.035	1211.38
414.258	1191.38
414.482	1204.38
414.705	1227.38
414.928	1241.38
415.151	1225.38
415.374	1196.38
415.597	1189.38
415.821	1182.38
416.044	1194.38
416.267	1151.38
416.49	1194.38
416.713	1165.38
416.936	1178.38
417.159	1126.38
417.382	1144.38
417.605	1166.38
417.828	1182.38
418.051	1192.38
418.274	1170.38
418.497	1202.38
418.72	1208.38
418.943	1192.38
419.166	1272.38
419.389	1289.38
419.611	1285.38
419.834	1264.38
420.057	1238.38
420.28	1213.38
420.503	1214.38
420.726	1159.38
420.948	1190.38
421.171	1175.38
421.394	1156.38
421.617	1195.38
421.839	1205.38
422.062	1184.38
422.285	1165.38
422.507	1193.38
422.73	1185.38
422.953	1222.38
423.175	1195.38
423.398	1192.38
423.621	1195.38
423.843	1215.38
424.066	1198.38
424.288	1198.38
424.511	1196.38
424.733	1198.38
424.956	1148.38
425.178	1175.38
425.401	1205.38
425.623	1164.38
425.846	1128.38
426.068	1141.38
426.291	1152.38
426.513	1102.38
426.735	1146.38
426.958	1122.38
427.18	1099.38
427.402	1136.38
427.625	1137.38
427.847	1098.38
428.069	1109.38
428.292	1110.38
428.514	1111.38
428.736	1090.38
428.958	1085.38
429.181	1062.38
429.403	1087.38
429.625	1098.38
429.847	1098.38
430.069	1124.38
430.292	1133.38
430.514	1144.38
430.736	1136.38
430.958	1097.38
431.18	1083.38
431.402	1094.38
431.624	1089.38
431.846	1057.38
432.068	1024.38
432.29	1052.38
432.512	1062.38
432.734	1108.38
432.956	1065.38
433.178	1110.38
433.4	1090.38
433.622	1085.38
433.844	1126.38
434.066	1092.38
434.287	1065.38
434.509	1077.38
434.731	1091.38
434.953	1130.38
435.175	1160.38
435.397	1137.38
435.618	1099.38
435.84	1059.38
436.062	1091.38
436.284	1061.38
436.505	1084.38
436.727	1107.38
436.949	1077.38
437.17	1077.38
437.392	1062.38
437.614	1027.38
437.835	1039.38
438.057	1018.38
438.278	1027.38
438.5	1027.38
438.721	1060.38
438.943	1074.38
439.165	1092.38
439.386	1120.38
439.608	1125.38
439.829	1096.38
440.05	1160.38
440.272	1129.38
440.493	1115.38
440.715	1120.38
440.936	1119.38
441.158	1117.38
441.379	1152.38
441.6	1198.38
441.822	1179.38
442.043	1217.38
442.264	1240.38
442.486	1200.38
442.707	1175.38
442.928	1175.38
443.149	1158.38
443.371	1168.38
443.592	1169.38
443.813	1190.38
444.034	1178.38
444.255	1177.38
444.476	1211.38
444.698	1220.38
444.919	1252.38
445.14	1315.38
445.361	1239.38
445.582	1207.38
445.803	1186.38
446.024	1176.38
446.245	1187.38
446.466	1172.38
446.687	1116.38
446.908	1153.38
447.129	1124.38
447.35	1117.38
447.571	1114.38
447.792	1078.38
448.013	1099.38
448.234	1047.38
448.455	1119.38
448.675	1078.38
448.896	1102.38
449.117	1100.38
449.338	1166.38
449.559	1223.38
449.779	1117.38
450	1087.38
450.221	1016.38
450.442	1040.38
450.662	1036.38
450.883	1023.38
451.104	1060.38
451.324	1045.38
451.545	1048.38
451.766	1045.38
451.986	1078.38
452.207	1108.38
452.428	1245.38
452.648	1594.38
452.869	1438.38
453.089	1148.38
453.31	1126.38
453.53	1117.38
453.751	1126.38
453.971	1189.38
454.192	1147.38
454.412	1057.38
454.633	1015.38
454.853	1015.38
455.073	995.38
455.294	989.38
455.514	978.38
455.734	960.38
455.955	978.38
456.175	1009.38
456.395	999.38
456.616	996.38
456.836	1021.38
457.056	1028.38
457.276	965.38
457.497	1032.38
457.717	1061.38
457.937	1047.38
458.157	1034.38
458.377	1056.38
458.598	1049.38
458.818	1060.38
459.038	1060.38
459.258	1074.38
459.478	1067.38
459.698	1084.38
459.918	1112.38
460.138	1133.38
460.358	1127.38
460.578	1177.38
460.798	1189.38
461.018	1166.38
461.238	1199.38
461.458	1210.38
461.678	1196.38
461.898	1257.38
462.118	1202.38
462.338	1260.38
462.558	1272.38
462.777	1246.38
462.997	1304.38
463.217	1358.38
463.437	1390.38
463.657	1370.38
463.876	1366.38
464.096	1308.38
464.316	1274.38
464.536	1285.38
464.755	1236.38
464.975	1202.38
465.195	1200.38
465.414	1190.38
465.634	1128.38
465.854	1112.38
466.073	1083.38
466.293	1083.38
466.512	1099.38
466.732	1110.38
466.951	1133.38
467.171	1156.38
467.391	1164.38
467.61	1110.38
467.829	1121.38
468.049	1062.38
468.268	1064.38
468.488	1061.38
468.707	1087.38
468.927	1093.38
469.146	1093.38
469.365	1075.38
469.585	1084.38
469.804	1113.38
470.023	1112.38
470.243	1111.38
470.462	1142.38
470.681	1215.38
470.901	1305.38
471.12	1427.38
471.339	1388.38
471.558	1234.38
471.777	1168.38
471.997	1132.38
472.216	1093.38
472.435	1101.38
472.654	1063.38
472.873	1060.38
473.092	1082.38
473.311	1103.38
473.53	1079.38
473.749	1101.38
473.968	1102.38
474.187	1113.38
474.406	1067.38
474.625	1102.38
474.844	1094.38
475.063	1085.38
475.282	1088.38
475.501	1077.38
475.72	1124.38
475.939	1099.38
476.158	1128.38
476.377	1125.38
476.596	1141.38
476.814	1121.38
477.033	1116.38
477.252	1140.38
477.471	1155.38
477.69	1172.38
477.908	1186.38
478.127	1246.38
478.346	1222.38
478.564	1222.38
478.783	1237.38
479.002	1243.38
479.22	1277.38
479.439	1287.38
479.658	1239.38
479.876	1277.38
480.095	1248.38
480.313	1336.38
480.532	1302.38
480.751	1328.38
480.969	1256.38
481.188	1237.38
481.406	1260.38
481.624	1225.38
481.843	1267.38
482.061	1283.38
482.28	1282.38
482.498	1266.38
482.717	1251.38
482.935	1268.38
483.153	1316.38
483.372	1336.38
483.59	1318.38
483.808	1322.38
484.027	1370.38
484.245	1392.38
484.463	1520.38
484.681	1635.38
484.9	1543.38
485.118	1460.38
485.336	1456.38
485.554	1501.38
485.772	1556.38
485.99	1673.38
486.209	1769.38
486.427	1561.38
486.645	1451.38
486.863	1416.38
487.081	1373.38
487.299	1378.38
487.517	1392.38
487.735	1376.38
487.953	1406.38
488.171	1399.38
488.389	1364.38
488.607	1347.38
488.825	1285.38
489.043	1299.38
489.261	1330.38
489.479	1304.38
489.696	1350.38
489.914	1314.38
490.132	1352.38
490.35	1361.38
490.568	1357.38
490.786	1369.38
491.003	1371.38
491.221	1420.38
491.439	1430.38
491.657	1393.38
491.874	1454.38
492.092	1440.38
