Data from SnStandardFlinnAPT0064_LampEnergy10_LIBS07252019.E.O._I.C._HRD10591_15-21-37-494.txt Node
Date: Thu Jul 25 15:21:37 EDT 2019
User: cochatt
Spectrometer: HR+D1059
Trigger mode: 1
Integration Time (sec): 1.000000E-1
Scans to average: 1
Electric dark correction enabled: true
Nonlinearity correction enabled: false
Boxcar width: 0
XAxis mode: Wavelengths
Number of Pixels in Spectrum: 2048
>>>>>Begin Spectral Data<<<<<
223.165	-14.81
223.4	-14.81
223.635	-14.81
223.869	-16.81
224.104	-10.81
224.338	-15.81
224.573	-18.81
224.808	-8.81
225.042	-11.81
225.277	-1.81
225.511	-3.81
225.746	2.19
225.98	7.19
226.215	12.19
226.449	6.19
226.683	19.19
226.918	25.19
227.152	31.19
227.387	34.19
227.621	44.19
227.856	58.19
228.09	44.19
228.324	47.19
228.559	53.19
228.793	115.19
229.027	300.19
229.262	348.19
229.496	315.19
229.73	306.19
229.964	293.19
230.199	301.19
230.433	301.19
230.667	307.19
230.901	315.19
231.136	327.19
231.37	344.19
231.604	393.19
231.838	441.19
232.072	530.19
232.306	563.19
232.541	466.19
232.775	413.19
233.009	399.19
233.243	420.19
233.477	454.19
233.711	519.19
233.945	571.19
234.179	527.19
234.413	453.19
234.647	433.19
234.881	460.19
235.115	507.19
235.349	614.19
235.583	769.19
235.817	1032.19
236.051	971.19
236.285	654.19
236.519	536.19
236.753	489.19
236.987	501.19
237.221	532.19
237.455	509.19
237.689	486.19
237.922	459.19
238.156	461.19
238.39	491.19
238.624	516.19
238.858	472.19
239.091	466.19
239.325	473.19
239.559	507.19
239.793	508.19
240.027	526.19
240.26	530.19
240.494	557.19
240.728	563.19
240.961	610.19
241.195	636.19
241.429	681.19
241.662	710.19
241.896	781.19
242.13	919.19
242.363	1254.19
242.597	1615.19
242.83	1549.19
243.064	1546.19
243.298	1816.19
243.531	1467.19
243.765	957.19
243.998	794.19
244.232	683.19
244.465	657.19
244.699	630.19
244.932	651.19
245.166	668.19
245.399	677.19
245.633	676.19
245.866	682.19
246.099	659.19
246.333	646.19
246.566	644.19
246.8	656.19
247.033	637.19
247.266	629.19
247.5	635.19
247.733	690.19
247.966	712.19
248.2	767.19
248.433	868.19
248.666	999.19
248.899	964.19
249.133	851.19
249.366	866.19
249.599	964.19
249.832	1101.19
250.066	1095.19
250.299	866.19
250.532	752.19
250.765	715.19
250.998	744.19
251.231	718.19
251.465	723.19
251.698	736.19
251.931	763.19
252.164	755.19
252.397	768.19
252.63	786.19
252.863	811.19
253.096	777.19
253.329	751.19
253.562	769.19
253.795	752.19
254.028	793.19
254.261	828.19
254.494	872.19
254.727	1016.19
254.96	1232.19
255.193	1204.19
255.426	957.19
255.659	872.19
255.892	853.19
256.124	866.19
256.357	897.19
256.59	895.19
256.823	970.19
257.056	1111.19
257.289	1357.19
257.521	1483.19
257.754	1185.19
257.987	997.19
258.22	917.19
258.452	923.19
258.685	930.19
258.918	970.19
259.151	1016.19
259.383	1080.19
259.616	1207.19
259.849	1301.19
260.081	1096.19
260.314	982.19
260.547	944.19
260.779	961.19
261.012	960.19
261.244	982.19
261.477	979.19
261.71	983.19
261.942	979.19
262.175	1004.19
262.407	1047.19
262.64	1057.19
262.872	1095.19
263.105	1125.19
263.337	1201.19
263.57	1287.19
263.802	1286.19
264.035	1308.19
264.267	1313.19
264.499	1380.19
264.732	1420.19
264.964	1445.19
265.197	1440.19
265.429	1413.19
265.661	1481.19
265.894	1565.19
266.126	1714.19
266.358	1960.19
266.591	1893.19
266.823	1612.19
267.055	1459.19
267.287	1400.19
267.52	1361.19
267.752	1318.19
267.984	1259.19
268.216	1251.19
268.448	1238.19
268.681	1227.19
268.913	1209.19
269.145	1210.19
269.377	1240.19
269.609	1239.19
269.841	1289.19
270.073	1377.19
270.306	1582.19
270.538	2175.19
270.77	3197.19
271.002	3945.19
271.234	2772.19
271.466	1847.19
271.698	1522.19
271.93	1393.19
272.162	1304.19
272.394	1307.19
272.626	1277.19
272.858	1247.19
273.09	1209.19
273.322	1227.19
273.553	1187.19
273.785	1196.19
274.017	1206.19
274.249	1211.19
274.481	1175.19
274.713	1191.19
274.945	1219.19
275.176	1219.19
275.408	1228.19
275.64	1208.19
275.872	1231.19
276.104	1247.19
276.335	1263.19
276.567	1288.19
276.799	1268.19
277.031	1316.19
277.262	1317.19
277.494	1417.19
277.726	1563.19
277.957	1862.19
278.189	2124.19
278.421	1974.19
278.652	1753.19
278.884	1670.19
279.115	1501.19
279.347	1425.19
279.579	1391.19
279.81	1375.19
280.042	1384.19
280.273	1392.19
280.505	1431.19
280.736	1496.19
280.968	1565.19
281.199	1780.19
281.431	2050.19
281.662	2067.19
281.894	1793.19
282.125	1595.19
282.356	1652.19
282.588	1651.19
282.819	1681.19
283.051	1808.19
283.282	1954.19
283.513	2420.19
283.745	3556.19
283.976	5691.19
284.207	8116.19
284.439	7239.19
284.67	4505.19
284.901	3711.19
285.132	3801.19
285.364	3603.19
285.595	2701.19
285.826	2441.19
286.057	2840.19
286.288	3850.19
286.52	5247.19
286.751	4887.19
286.982	3079.19
287.213	2247.19
287.444	1961.19
287.675	1823.19
287.906	1766.19
288.138	1727.19
288.369	1656.19
288.6	1665.19
288.831	1675.19
289.062	1674.19
289.293	1675.19
289.524	1734.19
289.755	1707.19
289.986	1735.19
290.217	1692.19
290.448	1703.19
290.679	1730.19
290.91	1748.19
291.141	1849.19
291.371	2029.19
291.602	2126.19
291.833	1933.19
292.064	1763.19
292.295	1699.19
292.526	1664.19
292.757	1612.19
292.987	1625.19
293.218	1577.19
293.449	1605.19
293.68	1596.19
293.91	1556.19
294.141	1593.19
294.372	1570.19
294.603	1587.19
294.833	1566.19
295.064	1583.19
295.295	1552.19
295.525	1519.19
295.756	1568.19
295.987	1573.19
296.217	1551.19
296.448	1510.19
296.679	1582.19
296.909	1584.19
297.14	1557.19
297.37	1618.19
297.601	1632.19
297.831	1601.19
298.062	1661.19
298.292	1621.19
298.523	1694.19
298.753	1684.19
298.984	1718.19
299.214	1772.19
299.445	1771.19
299.675	1791.19
299.905	1827.19
300.136	1884.19
300.366	2139.19
300.597	2716.19
300.827	3863.19
301.057	5209.19
301.288	5219.19
301.518	3359.19
301.748	2589.19
301.979	2391.19
302.209	2271.19
302.439	2317.19
302.669	2439.19
302.9	3026.19
303.13	4258.19
303.36	6207.19
303.59	8292.19
303.82	7268.19
304.051	4231.19
304.281	3058.19
304.511	2538.19
304.741	2283.19
304.971	2174.19
305.201	2097.19
305.431	1981.19
305.661	1956.19
305.891	1892.19
306.121	1807.19
306.352	1898.19
306.582	1816.19
306.812	1827.19
307.042	1823.19
307.272	1856.19
307.502	1784.19
307.731	1836.19
307.961	1831.19
308.191	1796.19
308.421	1785.19
308.651	1821.19
308.881	1864.19
309.111	1797.19
309.341	1807.19
309.571	1830.19
309.8	1843.19
310.03	1846.19
310.26	1870.19
310.49	1844.19
310.72	1841.19
310.949	1866.19
311.179	1914.19
311.409	1903.19
311.639	1921.19
311.868	1925.19
312.098	1920.19
312.328	1948.19
312.557	1995.19
312.787	2004.19
313.017	1989.19
313.246	1978.19
313.476	1998.19
313.706	2104.19
313.935	2266.19
314.165	2371.19
314.394	2471.19
314.624	2372.19
314.853	2228.19
315.083	2119.19
315.312	2139.19
315.542	2156.19
315.771	2225.19
316.001	2257.19
316.23	2325.19
316.46	2427.19
316.689	2653.19
316.919	3194.19
317.148	4648.19
317.377	7055.19
317.607	10465.19
317.836	10816.19
318.065	6575.19
318.295	4291.19
318.524	3417.19
318.753	2942.19
318.983	2716.19
319.212	2598.19
319.441	2527.19
319.67	2416.19
319.9	2373.19
320.129	2408.19
320.358	2409.19
320.587	2345.19
320.816	2351.19
321.046	2355.19
321.275	2347.19
321.504	2381.19
321.733	2467.19
321.962	2464.19
322.191	2534.19
322.42	2486.19
322.649	2495.19
322.878	2491.19
323.108	2465.19
323.337	2540.19
323.566	2543.19
323.795	2619.19
324.024	2675.19
324.253	2727.19
324.482	2879.19
324.71	2978.19
324.939	3270.19
325.168	3302.19
325.397	3410.19
325.626	4128.19
325.855	5630.19
326.084	8761.19
326.313	12770.19
326.542	13469.19
326.77	9088.19
326.999	5928.19
327.228	4929.19
327.457	4749.19
327.686	4756.19
327.914	5078.19
328.143	6021.19
328.372	7123.19
328.6	7734.19
328.829	6777.19
329.058	5828.19
329.287	5039.19
329.515	4649.19
329.744	4235.19
329.972	4054.19
330.201	3869.19
330.43	3649.19
330.658	3623.19
330.887	3528.19
331.115	3521.19
331.344	3473.19
331.572	3384.19
331.801	3521.19
332.03	3503.19
332.258	3561.19
332.486	3733.19
332.715	4320.19
332.943	5269.19
333.172	6593.19
333.4	6609.19
333.629	4930.19
333.857	4507.19
334.085	4485.19
334.314	4700.19
334.542	5005.19
334.771	5953.19
334.999	7338.19
335.227	9322.19
335.455	10319.19
335.684	9262.19
335.912	7555.19
336.14	6297.19
336.369	5673.19
336.597	5163.19
336.825	4808.19
337.053	4497.19
337.281	4239.19
337.51	3956.19
337.738	3844.19
337.966	3679.19
338.194	3599.19
338.422	3442.19
338.65	3393.19
338.878	3271.19
339.106	3257.19
339.334	3236.19
339.562	3141.19
339.79	3001.19
340.018	3043.19
340.246	3010.19
340.474	3009.19
340.702	3015.19
340.93	3047.19
341.158	3076.19
341.386	3010.19
341.614	2965.19
341.842	2919.19
342.07	2872.19
342.298	2830.19
342.526	2771.19
342.754	2682.19
342.981	2798.19
343.209	2723.19
343.437	2711.19
343.665	2831.19
343.893	2879.19
344.12	2875.19
344.348	2850.19
344.576	2745.19
344.804	2737.19
345.031	2662.19
345.259	2633.19
345.487	2560.19
345.714	2555.19
345.942	2550.19
346.17	2577.19
346.397	2518.19
346.625	2531.19
346.853	2527.19
347.08	2531.19
347.308	2546.19
347.535	2535.19
347.763	2513.19
347.99	2523.19
348.218	2493.19
348.445	2472.19
348.673	2450.19
348.9	2411.19
349.128	2475.19
349.355	2463.19
349.583	2459.19
349.81	2358.19
350.037	2382.19
350.265	2368.19
350.492	2395.19
350.72	2394.19
350.947	2418.19
351.174	2447.19
351.402	2444.19
351.629	2409.19
351.856	2403.19
352.083	2417.19
352.311	2430.19
352.538	2375.19
352.765	2370.19
352.992	2404.19
353.22	2384.19
353.447	2335.19
353.674	2399.19
353.901	2387.19
354.128	2409.19
354.355	2421.19
354.583	2392.19
354.81	2403.19
355.037	2437.19
355.264	2449.19
355.491	2415.19
355.718	2471.19
355.945	2533.19
356.172	2448.19
356.399	2520.19
356.626	2530.19
356.853	2536.19
357.08	2489.19
357.307	2558.19
357.534	2563.19
357.761	2567.19
357.988	2612.19
358.215	2554.19
358.441	2569.19
358.668	2537.19
358.895	2567.19
359.122	2521.19
359.349	2560.19
359.576	2570.19
359.802	2539.19
360.029	2518.19
360.256	2537.19
360.483	2555.19
360.709	2550.19
360.936	2571.19
361.163	2596.19
361.39	2564.19
361.616	2562.19
361.843	2539.19
362.07	2587.19
362.296	2568.19
362.523	2536.19
362.749	2540.19
362.976	2545.19
363.203	2528.19
363.429	2512.19
363.656	2530.19
363.882	2537.19
364.109	2519.19
364.335	2524.19
364.562	2531.19
364.788	2548.19
365.015	2589.19
365.241	2688.19
365.468	2761.19
365.694	2952.19
365.92	2811.19
366.147	2650.19
366.373	2610.19
366.599	2618.19
366.826	2621.19
367.052	2627.19
367.278	2645.19
367.505	2613.19
367.731	2648.19
367.957	2593.19
368.184	2596.19
368.41	2658.19
368.636	2676.19
368.862	2631.19
369.089	2661.19
369.315	2665.19
369.541	2640.19
369.767	2644.19
369.993	2663.19
370.219	2617.19
370.445	2689.19
370.672	2695.19
370.898	2678.19
371.124	2664.19
371.35	2735.19
371.576	2735.19
371.802	2755.19
372.028	2769.19
372.254	2748.19
372.48	2745.19
372.706	2763.19
372.932	2776.19
373.158	2768.19
373.384	2810.19
373.61	2780.19
373.835	2845.19
374.061	2781.19
374.287	2796.19
374.513	2859.19
374.739	2905.19
374.965	2953.19
375.191	2873.19
375.416	2898.19
375.642	2867.19
375.868	2824.19
376.094	2761.19
376.319	2764.19
376.545	2755.19
376.771	2801.19
376.997	2720.19
377.222	2765.19
377.448	2696.19
377.674	2710.19
377.899	2757.19
378.125	2765.19
378.35	2703.19
378.576	2740.19
378.802	2756.19
379.027	2773.19
379.253	2901.19
379.478	3024.19
379.704	3611.19
379.929	5220.19
380.155	7959.19
380.38	8578.19
380.606	5237.19
380.831	3725.19
381.057	3229.19
381.282	2967.19
381.507	2884.19
381.733	2819.19
381.958	2723.19
382.184	2716.19
382.409	2697.19
382.634	2683.19
382.86	2701.19
383.085	2667.19
383.31	2678.19
383.535	2698.19
383.761	2703.19
383.986	2732.19
384.211	2730.19
384.436	2724.19
384.662	2774.19
384.887	2781.19
385.112	2744.19
385.337	2807.19
385.562	2771.19
385.787	2780.19
386.013	2786.19
386.238	2784.19
386.463	2761.19
386.688	2831.19
386.913	2729.19
387.138	2765.19
387.363	2739.19
387.588	2728.19
387.813	2768.19
388.038	2758.19
388.263	2760.19
388.488	2779.19
388.713	2762.19
388.938	2839.19
389.163	2720.19
389.387	2739.19
389.612	2752.19
389.837	2775.19
390.062	2780.19
390.287	2831.19
390.512	2835.19
390.736	2854.19
390.961	2863.19
391.186	2867.19
391.411	2933.19
391.636	2914.19
391.86	2948.19
392.085	2976.19
392.31	2897.19
392.534	2893.19
392.759	2853.19
392.984	2800.19
393.208	2803.19
393.433	2810.19
393.658	2821.19
393.882	2769.19
394.107	2775.19
394.331	2808.19
394.556	2795.19
394.78	2840.19
395.005	2841.19
395.229	2772.19
395.454	2913.19
395.678	2927.19
395.903	2950.19
396.127	2904.19
396.352	2870.19
396.576	2852.19
396.801	2875.19
397.025	2962.19
397.249	2862.19
397.474	2937.19
397.698	2935.19
397.922	2956.19
398.147	2953.19
398.371	2976.19
398.595	3039.19
398.82	3063.19
399.044	3236.19
399.268	3375.19
399.492	3604.19
399.717	3731.19
399.941	3733.19
400.165	3545.19
400.389	3407.19
400.613	3303.19
400.837	3188.19
401.062	3160.19
401.286	3129.19
401.51	3049.19
401.734	3010.19
401.958	3054.19
402.182	3036.19
402.406	3039.19
402.63	3115.19
402.854	3143.19
403.078	3129.19
403.302	3184.19
403.526	3189.19
403.75	3187.19
403.974	3176.19
404.198	3131.19
404.422	3255.19
404.645	3193.19
404.869	3158.19
405.093	3212.19
405.317	3186.19
405.541	3274.19
405.765	3273.19
405.988	3260.19
406.212	3343.19
406.436	3288.19
406.66	3270.19
406.883	3286.19
407.107	3405.19
407.331	3410.19
407.555	3471.19
407.778	3482.19
408.002	3401.19
408.226	3360.19
408.449	3420.19
408.673	3371.19
408.896	3280.19
409.12	3271.19
409.344	3280.19
409.567	3193.19
409.791	3206.19
410.014	3196.19
410.238	3197.19
410.461	3174.19
410.685	3177.19
410.908	3155.19
411.132	3122.19
411.355	3056.19
411.578	3079.19
411.802	3101.19
412.025	3050.19
412.249	3113.19
412.472	3072.19
412.695	3045.19
412.919	2986.19
413.142	2993.19
413.365	3010.19
413.589	3003.19
413.812	3021.19
414.035	3012.19
414.258	3029.19
414.482	2981.19
414.705	3059.19
414.928	3025.19
415.151	2970.19
415.374	2996.19
415.597	2961.19
415.821	2886.19
416.044	2906.19
416.267	2875.19
416.49	2919.19
416.713	2897.19
416.936	2884.19
417.159	2871.19
417.382	2867.19
417.605	2840.19
417.828	2883.19
418.051	2872.19
418.274	2922.19
418.497	2900.19
418.72	2980.19
418.943	2906.19
419.166	3039.19
419.389	3197.19
419.611	3170.19
419.834	3056.19
420.057	3025.19
420.28	2962.19
420.503	2930.19
420.726	2881.19
420.948	2833.19
421.171	2860.19
421.394	2908.19
421.617	2887.19
421.839	2893.19
422.062	2908.19
422.285	2898.19
422.507	2892.19
422.73	2913.19
422.953	2949.19
423.175	3009.19
423.398	2992.19
423.621	2871.19
423.843	2914.19
424.066	2944.19
424.288	2938.19
424.511	2905.19
424.733	2881.19
424.956	2837.19
425.178	2861.19
425.401	2892.19
425.623	2876.19
425.846	2779.19
426.068	2781.19
426.291	2720.19
426.513	2743.19
426.735	2764.19
426.958	2714.19
427.18	2688.19
427.402	2764.19
427.625	2775.19
427.847	2701.19
428.069	2681.19
428.292	2767.19
428.514	2677.19
428.736	2673.19
428.958	2738.19
429.181	2623.19
429.403	2654.19
429.625	2675.19
429.847	2645.19
430.069	2747.19
430.292	2785.19
430.514	2837.19
430.736	2905.19
430.958	2742.19
431.18	2665.19
431.402	2665.19
431.624	2619.19
431.846	2637.19
432.068	2620.19
432.29	2663.19
432.512	2621.19
432.734	2678.19
432.956	2651.19
433.178	2683.19
433.4	2661.19
433.622	2669.19
433.844	2620.19
434.066	2664.19
434.287	2628.19
434.509	2681.19
434.731	2741.19
434.953	2751.19
435.175	2795.19
435.397	2791.19
435.618	2685.19
435.84	2716.19
436.062	2649.19
436.284	2594.19
436.505	2605.19
436.727	2657.19
436.949	2656.19
437.17	2578.19
437.392	2573.19
437.614	2584.19
437.835	2524.19
438.057	2571.19
438.278	2505.19
438.5	2543.19
438.721	2595.19
438.943	2672.19
439.165	2729.19
439.386	2772.19
439.608	2711.19
439.829	2738.19
440.05	2802.19
440.272	2850.19
440.493	2760.19
440.715	2680.19
440.936	2754.19
441.158	2794.19
441.379	2719.19
441.6	2906.19
441.822	2945.19
442.043	3057.19
442.264	3200.19
442.486	2977.19
442.707	2950.19
442.928	2801.19
443.149	2867.19
443.371	2818.19
443.592	2848.19
443.813	2868.19
444.034	2909.19
444.255	2910.19
444.476	2969.19
444.698	2963.19
444.919	2998.19
445.14	3123.19
445.361	3038.19
445.582	2916.19
445.803	2860.19
446.024	2769.19
446.245	2841.19
446.466	2809.19
446.687	2729.19
446.908	2765.19
447.129	2689.19
447.35	2676.19
447.571	2614.19
447.792	2647.19
448.013	2591.19
448.234	2573.19
448.455	2607.19
448.675	2647.19
448.896	2700.19
449.117	2784.19
449.338	3034.19
449.559	3159.19
449.779	2808.19
450	2639.19
450.221	2594.19
450.442	2571.19
450.662	2556.19
450.883	2540.19
451.104	2579.19
451.324	2525.19
451.545	2582.19
451.766	2575.19
451.986	2656.19
452.207	2859.19
452.428	3568.19
452.648	5439.19
452.869	4585.19
453.089	3148.19
453.31	2983.19
453.53	2970.19
453.751	3039.19
453.971	3194.19
454.192	3139.19
454.412	2699.19
454.633	2586.19
454.853	2535.19
455.073	2487.19
455.294	2489.19
455.514	2437.19
455.734	2448.19
455.955	2464.19
456.175	2430.19
456.395	2449.19
456.616	2445.19
456.836	2509.19
457.056	2497.19
457.276	2469.19
457.497	2601.19
457.717	2628.19
457.937	2564.19
458.157	2614.19
458.377	2561.19
458.598	2642.19
458.818	2615.19
459.038	2629.19
459.258	2636.19
459.478	2667.19
459.698	2696.19
459.918	2682.19
460.138	2755.19
460.358	2794.19
460.578	2818.19
460.798	2835.19
461.018	2907.19
461.238	2880.19
461.458	2941.19
461.678	2927.19
461.898	2950.19
462.118	2984.19
462.338	3121.19
462.558	3110.19
462.777	3132.19
462.997	3295.19
463.217	3406.19
463.437	3519.19
463.657	3644.19
463.876	3615.19
464.096	3348.19
464.316	3243.19
464.536	3167.19
464.755	3118.19
464.975	2999.19
465.195	2920.19
465.414	2832.19
465.634	2708.19
465.854	2706.19
466.073	2742.19
466.293	2691.19
466.512	2631.19
466.732	2735.19
466.951	2869.19
467.171	3040.19
467.391	2967.19
467.61	2689.19
467.829	2645.19
468.049	2630.19
468.268	2565.19
468.488	2591.19
468.707	2599.19
468.927	2588.19
469.146	2619.19
469.365	2625.19
469.585	2616.19
469.804	2746.19
470.023	2792.19
470.243	2796.19
470.462	2840.19
470.681	3030.19
470.901	3341.19
471.12	3773.19
471.339	3771.19
471.558	3201.19
471.777	2891.19
471.997	2835.19
472.216	2747.19
472.435	2701.19
472.654	2630.19
472.873	2585.19
473.092	2623.19
473.311	2610.19
473.53	2644.19
473.749	2699.19
473.968	2788.19
474.187	2689.19
474.406	2598.19
474.625	2599.19
474.844	2609.19
475.063	2627.19
475.282	2631.19
475.501	2627.19
475.72	2650.19
475.939	2656.19
476.158	2787.19
476.377	2801.19
476.596	2759.19
476.814	2780.19
477.033	2737.19
477.252	2823.19
477.471	2828.19
477.69	2889.19
477.908	2915.19
478.127	2934.19
478.346	2953.19
478.564	3036.19
478.783	3007.19
479.002	3113.19
479.22	3128.19
479.439	3097.19
479.658	3121.19
479.876	3121.19
480.095	3119.19
480.313	3223.19
480.532	3210.19
480.751	3230.19
480.969	3183.19
481.188	3161.19
481.406	3115.19
481.624	3170.19
481.843	3156.19
482.061	3215.19
482.28	3211.19
482.498	3196.19
482.717	3219.19
482.935	3213.19
483.153	3247.19
483.372	3238.19
483.59	3321.19
483.808	3373.19
484.027	3442.19
484.245	3619.19
484.463	4053.19
484.681	4471.19
484.9	4174.19
485.118	3798.19
485.336	3696.19
485.554	3811.19
485.772	4017.19
485.99	4520.19
486.209	4831.19
486.427	4114.19
486.645	3685.19
486.863	3566.19
487.081	3463.19
487.299	3432.19
487.517	3345.19
487.735	3382.19
