Data from SnStandardFlinnAPT0064_QswitchEnergy10_LIBS07252019.E.O._I.C._HRD10591_15-25-59-973.txt Node
Date: Thu Jul 25 15:25:59 EDT 2019
User: cochatt
Spectrometer: HR+D1059
Trigger mode: 1
Integration Time (sec): 1.000000E-1
Scans to average: 1
Electric dark correction enabled: true
Nonlinearity correction enabled: false
Boxcar width: 0
XAxis mode: Wavelengths
Number of Pixels in Spectrum: 2048
>>>>>Begin Spectral Data<<<<<
223.165	-12.75
223.4	-12.75
223.635	-12.75
223.869	-9.75
224.104	-7.75
224.338	-13.75
224.573	-13.75
224.808	-6.75
225.042	-6.75
225.277	-23.75
225.511	1.25
225.746	9.25
225.98	13.25
226.215	7.25
226.449	16.25
226.683	11.25
226.918	18.25
227.152	18.25
227.387	26.25
227.621	38.25
227.856	50.25
228.09	28.25
228.324	44.25
228.559	41.25
228.793	46.25
229.027	67.25
229.262	84.25
229.496	66.25
229.73	64.25
229.964	77.25
230.199	75.25
230.433	71.25
230.667	81.25
230.901	75.25
231.136	84.25
231.37	99.25
231.604	75.25
231.838	105.25
232.072	105.25
232.306	112.25
232.541	102.25
232.775	80.25
233.009	85.25
233.243	98.25
233.477	94.25
233.711	103.25
233.945	109.25
234.179	103.25
234.413	85.25
234.647	81.25
234.881	89.25
235.115	87.25
235.349	102.25
235.583	85.25
235.817	123.25
236.051	120.25
236.285	101.25
236.519	73.25
236.753	80.25
236.987	82.25
237.221	89.25
237.455	84.25
237.689	72.25
237.922	75.25
238.156	82.25
238.39	93.25
238.624	87.25
238.858	78.25
239.091	76.25
239.325	65.25
239.559	81.25
239.793	76.25
240.027	74.25
240.26	69.25
240.494	73.25
240.728	64.25
240.961	74.25
241.195	95.25
241.429	90.25
241.662	82.25
241.896	104.25
242.13	107.25
242.363	119.25
242.597	156.25
242.83	127.25
243.064	116.25
243.298	154.25
243.531	134.25
243.765	90.25
243.998	67.25
244.232	90.25
244.465	79.25
244.699	95.25
244.932	81.25
245.166	79.25
245.399	95.25
245.633	75.25
245.866	82.25
246.099	76.25
246.333	76.25
246.566	79.25
246.8	81.25
247.033	76.25
247.266	86.25
247.5	89.25
247.733	77.25
247.966	83.25
248.2	89.25
248.433	96.25
248.666	115.25
248.899	110.25
249.133	85.25
249.366	92.25
249.599	98.25
249.832	139.25
250.066	124.25
250.299	91.25
250.532	92.25
250.765	93.25
250.998	78.25
251.231	78.25
251.465	77.25
251.698	78.25
251.931	74.25
252.164	88.25
252.397	96.25
252.63	92.25
252.863	102.25
253.096	96.25
253.329	97.25
253.562	94.25
253.795	86.25
254.028	81.25
254.261	99.25
254.494	102.25
254.727	116.25
254.96	132.25
255.193	123.25
255.426	84.25
255.659	94.25
255.892	89.25
256.124	97.25
256.357	90.25
256.59	80.25
256.823	86.25
257.056	105.25
257.289	137.25
257.521	156.25
257.754	139.25
257.987	102.25
258.22	85.25
258.452	86.25
258.685	91.25
258.918	88.25
259.151	94.25
259.383	114.25
259.616	124.25
259.849	130.25
260.081	102.25
260.314	74.25
260.547	74.25
260.779	87.25
261.012	85.25
261.244	85.25
261.477	94.25
261.71	90.25
261.942	83.25
262.175	68.25
262.407	92.25
262.64	64.25
262.872	75.25
263.105	84.25
263.337	74.25
263.57	80.25
263.802	83.25
264.035	94.25
264.267	86.25
264.499	94.25
264.732	88.25
264.964	92.25
265.197	99.25
265.429	80.25
265.661	100.25
265.894	94.25
266.126	105.25
266.358	176.25
266.591	136.25
266.823	103.25
267.055	79.25
267.287	74.25
267.52	88.25
267.752	73.25
267.984	86.25
268.216	104.25
268.448	98.25
268.681	103.25
268.913	82.25
269.145	90.25
269.377	99.25
269.609	87.25
269.841	82.25
270.073	94.25
270.306	127.25
270.538	185.25
270.77	298.25
271.002	343.25
271.234	174.25
271.466	110.25
271.698	94.25
271.93	86.25
272.162	90.25
272.394	90.25
272.626	82.25
272.858	92.25
273.09	86.25
273.322	111.25
273.553	90.25
273.785	84.25
274.017	91.25
274.249	87.25
274.481	84.25
274.713	86.25
274.945	99.25
275.176	87.25
275.408	81.25
275.64	81.25
275.872	90.25
276.104	77.25
276.335	105.25
276.567	92.25
276.799	106.25
277.031	101.25
277.262	94.25
277.494	118.25
277.726	126.25
277.957	180.25
278.189	223.25
278.421	229.25
278.652	168.25
278.884	174.25
279.115	128.25
279.347	95.25
279.579	106.25
279.81	110.25
280.042	85.25
280.273	103.25
280.505	99.25
280.736	104.25
280.968	116.25
281.199	164.25
281.431	219.25
281.662	237.25
281.894	146.25
282.125	112.25
282.356	114.25
282.588	108.25
282.819	114.25
283.051	111.25
283.282	139.25
283.513	183.25
283.745	268.25
283.976	475.25
284.207	720.25
284.439	553.25
284.67	226.25
284.901	242.25
285.132	328.25
285.364	358.25
285.595	204.25
285.826	147.25
286.057	231.25
286.288	365.25
286.52	558.25
286.751	446.25
286.982	160.25
287.213	114.25
287.444	105.25
287.675	100.25
287.906	95.25
288.138	102.25
288.369	100.25
288.6	84.25
288.831	91.25
289.062	95.25
289.293	93.25
289.524	81.25
289.755	90.25
289.986	100.25
290.217	87.25
290.448	87.25
290.679	98.25
290.91	125.25
291.141	162.25
291.371	215.25
291.602	258.25
291.833	178.25
292.064	114.25
292.295	113.25
292.526	94.25
292.757	92.25
292.987	89.25
293.218	100.25
293.449	105.25
293.68	88.25
293.91	84.25
294.141	96.25
294.372	85.25
294.603	86.25
294.833	82.25
295.064	103.25
295.295	91.25
295.525	84.25
295.756	91.25
295.987	103.25
296.217	92.25
296.448	97.25
296.679	110.25
296.909	98.25
297.14	101.25
297.37	105.25
297.601	88.25
297.831	94.25
298.062	98.25
298.292	103.25
298.523	100.25
298.753	101.25
298.984	91.25
299.214	97.25
299.445	103.25
299.675	104.25
299.905	98.25
300.136	120.25
300.366	155.25
300.597	242.25
300.827	398.25
301.057	633.25
301.288	553.25
301.518	233.25
301.748	146.25
301.979	128.25
302.209	122.25
302.439	129.25
302.669	158.25
302.9	244.25
303.13	464.25
303.36	805.25
303.59	1118.25
303.82	761.25
304.051	278.25
304.281	134.25
304.511	131.25
304.741	123.25
304.971	108.25
305.201	98.25
305.431	124.25
305.661	102.25
305.891	109.25
306.121	102.25
306.352	103.25
306.582	92.25
306.812	102.25
307.042	115.25
307.272	99.25
307.502	105.25
307.731	102.25
307.961	96.25
308.191	92.25
308.421	99.25
308.651	95.25
308.881	107.25
309.111	108.25
309.341	97.25
309.571	107.25
309.8	97.25
310.03	101.25
310.26	110.25
310.49	87.25
310.72	84.25
310.949	93.25
311.179	109.25
311.409	95.25
311.639	110.25
311.868	114.25
312.098	102.25
312.328	105.25
312.557	99.25
312.787	109.25
313.017	103.25
313.246	111.25
313.476	112.25
313.706	136.25
313.935	160.25
314.165	169.25
314.394	211.25
314.624	165.25
314.853	115.25
315.083	118.25
315.312	126.25
315.542	116.25
315.771	126.25
316.001	125.25
316.23	125.25
316.46	150.25
316.689	170.25
316.919	228.25
317.148	427.25
317.377	793.25
317.607	1342.25
317.836	1239.25
318.065	467.25
318.295	214.25
318.524	156.25
318.753	127.25
318.983	123.25
319.212	119.25
319.441	102.25
319.67	105.25
319.9	114.25
320.129	123.25
320.358	104.25
320.587	110.25
320.816	114.25
321.046	109.25
321.275	117.25
321.504	124.25
321.733	134.25
321.962	148.25
322.191	150.25
322.42	124.25
322.649	121.25
322.878	108.25
323.108	120.25
323.337	122.25
323.566	132.25
323.795	118.25
324.024	132.25
324.253	138.25
324.482	177.25
324.71	226.25
324.939	259.25
325.168	215.25
325.397	174.25
325.626	230.25
325.855	435.25
326.084	854.25
326.313	1444.25
326.542	1403.25
326.77	559.25
326.999	231.25
327.228	199.25
327.457	226.25
327.686	210.25
327.914	155.25
328.143	128.25
328.372	130.25
328.6	122.25
328.829	115.25
329.058	94.25
329.287	104.25
329.515	112.25
329.744	112.25
329.972	98.25
330.201	122.25
330.43	126.25
330.658	115.25
330.887	115.25
331.115	111.25
331.344	120.25
331.572	114.25
331.801	97.25
332.03	133.25
332.258	122.25
332.486	165.25
332.715	274.25
332.943	446.25
333.172	676.25
333.4	606.25
333.629	231.25
333.857	141.25
334.085	118.25
334.314	121.25
334.542	123.25
334.771	119.25
334.999	112.25
335.227	138.25
335.455	111.25
335.684	120.25
335.912	116.25
336.14	114.25
336.369	115.25
336.597	112.25
336.825	115.25
337.053	104.25
337.281	112.25
337.51	118.25
337.738	112.25
337.966	118.25
338.194	110.25
338.422	99.25
338.65	110.25
338.878	110.25
339.106	111.25
339.334	113.25
339.562	109.25
339.79	108.25
340.018	120.25
340.246	119.25
340.474	115.25
340.702	116.25
340.93	105.25
341.158	112.25
341.386	116.25
341.614	107.25
341.842	118.25
342.07	110.25
342.298	108.25
342.526	101.25
342.754	104.25
342.981	110.25
343.209	99.25
343.437	118.25
343.665	106.25
343.893	104.25
344.12	113.25
344.348	99.25
344.576	120.25
344.804	102.25
345.031	110.25
345.259	98.25
345.487	103.25
345.714	114.25
345.942	104.25
346.17	95.25
346.397	114.25
346.625	97.25
346.853	104.25
347.08	109.25
347.308	93.25
347.535	98.25
347.763	106.25
347.99	95.25
348.218	100.25
348.445	101.25
348.673	100.25
348.9	120.25
349.128	124.25
349.355	119.25
349.583	112.25
349.81	104.25
350.037	116.25
350.265	107.25
350.492	103.25
350.72	95.25
350.947	102.25
351.174	113.25
351.402	112.25
351.629	115.25
351.856	104.25
352.083	99.25
352.311	93.25
352.538	109.25
352.765	102.25
352.992	97.25
353.22	100.25
353.447	97.25
353.674	111.25
353.901	105.25
354.128	100.25
354.355	85.25
354.583	110.25
354.81	116.25
355.037	101.25
355.264	114.25
355.491	93.25
355.718	95.25
355.945	107.25
356.172	106.25
356.399	95.25
356.626	91.25
356.853	119.25
357.08	98.25
357.307	110.25
357.534	108.25
357.761	107.25
357.988	112.25
358.215	99.25
358.441	117.25
358.668	98.25
358.895	111.25
359.122	111.25
359.349	126.25
359.576	102.25
359.802	112.25
360.029	100.25
360.256	105.25
360.483	97.25
360.709	112.25
360.936	107.25
361.163	97.25
361.39	98.25
361.616	106.25
361.843	116.25
362.07	113.25
362.296	102.25
362.523	108.25
362.749	105.25
362.976	106.25
363.203	97.25
363.429	107.25
363.656	98.25
363.882	96.25
364.109	107.25
364.335	111.25
364.562	106.25
364.788	94.25
365.015	103.25
365.241	121.25
365.468	169.25
365.694	221.25
365.92	200.25
366.147	122.25
366.373	92.25
366.599	88.25
366.826	108.25
367.052	104.25
367.278	94.25
367.505	89.25
367.731	98.25
367.957	88.25
368.184	114.25
368.41	118.25
368.636	123.25
368.862	100.25
369.089	95.25
369.315	106.25
369.541	98.25
369.767	95.25
369.993	98.25
370.219	107.25
370.445	114.25
370.672	120.25
370.898	107.25
371.124	94.25
371.35	85.25
371.576	102.25
371.802	101.25
372.028	100.25
372.254	116.25
372.48	103.25
372.706	115.25
372.932	124.25
373.158	105.25
373.384	110.25
373.61	99.25
373.835	100.25
374.061	106.25
374.287	120.25
374.513	99.25
374.739	110.25
374.965	107.25
375.191	109.25
375.416	99.25
375.642	117.25
375.868	102.25
376.094	104.25
376.319	104.25
376.545	106.25
376.771	111.25
376.997	105.25
377.222	121.25
377.448	101.25
377.674	100.25
377.899	106.25
378.125	109.25
378.35	86.25
378.576	111.25
378.802	122.25
379.027	119.25
379.253	132.25
379.478	161.25
379.704	267.25
379.929	676.25
380.155	1423.25
380.38	1456.25
380.606	484.25
380.831	177.25
381.057	115.25
381.282	111.25
381.507	112.25
381.733	101.25
381.958	114.25
382.184	98.25
382.409	97.25
382.634	94.25
382.86	99.25
383.085	106.25
383.31	98.25
383.535	94.25
383.761	100.25
383.986	94.25
384.211	94.25
384.436	103.25
384.662	100.25
384.887	112.25
385.112	96.25
385.337	97.25
385.562	106.25
385.787	87.25
386.013	112.25
386.238	100.25
386.463	88.25
386.688	104.25
386.913	123.25
387.138	96.25
387.363	107.25
387.588	105.25
387.813	99.25
388.038	99.25
388.263	97.25
388.488	85.25
388.713	95.25
388.938	106.25
389.163	80.25
389.387	106.25
389.612	101.25
389.837	107.25
390.062	105.25
390.287	97.25
390.512	93.25
390.736	101.25
390.961	108.25
391.186	114.25
391.411	104.25
391.636	105.25
391.86	96.25
392.085	94.25
392.31	88.25
392.534	102.25
392.759	105.25
392.984	97.25
393.208	111.25
393.433	126.25
393.658	125.25
393.882	111.25
394.107	87.25
394.331	100.25
394.556	100.25
394.78	103.25
395.005	90.25
395.229	111.25
395.454	98.25
395.678	86.25
395.903	80.25
396.127	124.25
396.352	99.25
396.576	122.25
396.801	120.25
397.025	123.25
397.249	100.25
397.474	114.25
397.698	99.25
397.922	86.25
398.147	84.25
398.371	87.25
398.595	97.25
398.82	95.25
399.044	103.25
399.268	95.25
399.492	111.25
399.717	98.25
399.941	97.25
400.165	106.25
400.389	89.25
400.613	87.25
400.837	98.25
401.062	87.25
401.286	101.25
401.51	88.25
401.734	87.25
401.958	108.25
402.182	101.25
402.406	100.25
402.63	110.25
402.854	97.25
403.078	94.25
403.302	90.25
403.526	114.25
403.75	102.25
403.974	91.25
404.198	101.25
404.422	104.25
404.645	105.25
404.869	97.25
405.093	85.25
405.317	79.25
405.541	118.25
405.765	120.25
405.988	147.25
406.212	112.25
406.436	104.25
406.66	104.25
406.883	101.25
407.107	93.25
407.331	98.25
407.555	94.25
407.778	102.25
408.002	98.25
408.226	88.25
408.449	104.25
408.673	101.25
408.896	96.25
409.12	111.25
409.344	86.25
409.567	91.25
409.791	102.25
410.014	95.25
410.238	91.25
410.461	101.25
410.685	93.25
410.908	84.25
411.132	92.25
411.355	94.25
411.578	87.25
411.802	95.25
412.025	106.25
412.249	90.25
412.472	110.25
412.695	122.25
412.919	96.25
413.142	94.25
413.365	94.25
413.589	96.25
413.812	101.25
414.035	114.25
414.258	95.25
414.482	114.25
414.705	102.25
414.928	112.25
415.151	107.25
415.374	98.25
415.597	110.25
415.821	110.25
416.044	102.25
416.267	98.25
416.49	102.25
416.713	104.25
416.936	93.25
417.159	90.25
417.382	86.25
417.605	84.25
417.828	95.25
418.051	85.25
418.274	97.25
418.497	104.25
418.72	106.25
418.943	97.25
419.166	95.25
419.389	99.25
419.611	111.25
419.834	96.25
420.057	95.25
420.28	94.25
420.503	100.25
420.726	92.25
420.948	106.25
421.171	96.25
421.394	94.25
421.617	92.25
421.839	93.25
422.062	96.25
422.285	98.25
422.507	100.25
422.73	122.25
422.953	137.25
423.175	98.25
423.398	103.25
423.621	91.25
423.843	87.25
424.066	85.25
424.288	94.25
424.511	91.25
424.733	93.25
424.956	87.25
425.178	89.25
425.401	89.25
425.623	101.25
425.846	88.25
426.068	98.25
426.291	103.25
426.513	87.25
426.735	90.25
426.958	72.25
427.18	81.25
427.402	93.25
427.625	86.25
427.847	100.25
428.069	104.25
428.292	96.25
428.514	98.25
428.736	101.25
428.958	72.25
429.181	92.25
429.403	86.25
429.625	95.25
429.847	99.25
430.069	108.25
430.292	100.25
430.514	100.25
430.736	91.25
430.958	94.25
431.18	78.25
431.402	98.25
431.624	97.25
431.846	87.25
432.068	92.25
432.29	84.25
432.512	85.25
432.734	95.25
432.956	87.25
433.178	105.25
433.4	106.25
433.622	96.25
433.844	102.25
434.066	85.25
434.287	88.25
434.509	93.25
434.731	98.25
434.953	91.25
435.175	90.25
435.397	80.25
435.618	95.25
435.84	99.25
436.062	89.25
436.284	92.25
436.505	105.25
436.727	109.25
436.949	95.25
437.17	89.25
437.392	87.25
437.614	89.25
437.835	89.25
438.057	85.25
438.278	90.25
438.5	94.25
438.721	101.25
438.943	91.25
439.165	98.25
439.386	103.25
439.608	112.25
439.829	101.25
440.05	122.25
440.272	109.25
440.493	110.25
440.715	96.25
440.936	90.25
441.158	89.25
441.379	112.25
441.6	88.25
441.822	89.25
442.043	116.25
442.264	128.25
442.486	116.25
442.707	85.25
442.928	98.25
443.149	94.25
443.371	97.25
443.592	95.25
443.813	86.25
444.034	98.25
444.255	83.25
444.476	89.25
444.698	100.25
444.919	73.25
445.14	225.25
445.361	140.25
445.582	101.25
445.803	98.25
446.024	104.25
446.245	106.25
446.466	94.25
446.687	112.25
446.908	99.25
447.129	87.25
447.35	107.25
447.571	107.25
447.792	108.25
448.013	89.25
448.234	104.25
448.455	98.25
448.675	95.25
448.896	100.25
449.117	104.25
449.338	129.25
449.559	155.25
449.779	111.25
450	99.25
450.221	110.25
450.442	110.25
450.662	114.25
450.883	108.25
451.104	101.25
451.324	97.25
451.545	113.25
451.766	123.25
451.986	132.25
452.207	205.25
452.428	482.25
452.648	1202.25
452.869	674.25
453.089	198.25
453.31	127.25
453.53	112.25
453.751	132.25
453.971	146.25
454.192	152.25
454.412	107.25
454.633	92.25
454.853	104.25
455.073	94.25
455.294	102.25
455.514	102.25
455.734	92.25
455.955	94.25
456.175	80.25
456.395	104.25
456.616	80.25
456.836	89.25
457.056	102.25
457.276	100.25
457.497	108.25
457.717	107.25
457.937	93.25
458.157	98.25
458.377	98.25
458.598	88.25
458.818	98.25
459.038	78.25
459.258	82.25
459.478	90.25
459.698	92.25
459.918	93.25
460.138	105.25
460.358	104.25
460.578	100.25
460.798	90.25
461.018	96.25
461.238	106.25
461.458	97.25
461.678	91.25
461.898	98.25
462.118	98.25
462.338	94.25
462.558	93.25
462.777	102.25
462.997	90.25
463.217	96.25
463.437	123.25
463.657	165.25
463.876	191.25
464.096	126.25
464.316	84.25
464.536	90.25
464.755	93.25
464.975	92.25
465.195	85.25
465.414	96.25
465.634	97.25
465.854	94.25
466.073	83.25
466.293	85.25
466.512	94.25
466.732	91.25
466.951	103.25
467.171	130.25
467.391	131.25
467.61	112.25
467.829	84.25
468.049	91.25
468.268	80.25
468.488	101.25
468.707	89.25
468.927	102.25
469.146	96.25
469.365	104.25
469.585	91.25
469.804	90.25
470.023	91.25
470.243	104.25
470.462	87.25
470.681	102.25
470.901	133.25
471.12	182.25
471.339	187.25
471.558	130.25
471.777	111.25
471.997	93.25
472.216	79.25
472.435	96.25
472.654	89.25
472.873	100.25
473.092	83.25
473.311	97.25
473.53	94.25
473.749	100.25
473.968	94.25
474.187	101.25
474.406	95.25
474.625	111.25
474.844	107.25
475.063	104.25
475.282	96.25
475.501	100.25
475.72	88.25
475.939	105.25
476.158	98.25
476.377	107.25
476.596	96.25
476.814	107.25
477.033	115.25
477.252	84.25
477.471	97.25
477.69	100.25
477.908	88.25
478.127	86.25
478.346	93.25
478.564	102.25
478.783	81.25
479.002	75.25
479.22	98.25
479.439	95.25
479.658	100.25
479.876	105.25
480.095	107.25
480.313	91.25
480.532	106.25
480.751	88.25
480.969	99.25
481.188	98.25
481.406	93.25
481.624	109.25
481.843	112.25
482.061	106.25
482.28	91.25
482.498	96.25
482.717	103.25
482.935	92.25
483.153	103.25
483.372	99.25
483.59	103.25
483.808	98.25
484.027	108.25
484.245	115.25
484.463	170.25
484.681	215.25
484.9	155.25
485.118	118.25
485.336	107.25
485.554	99.25
485.772	129.25
485.99	170.25
486.209	234.25
486.427	149.25
486.645	112.25
486.863	111.25
487.081	102.25
487.299	86.25
487.517	100.25
487.735	92.25
487.953	99.25
488.171	96.25
488.389	90.25
488.607	102.25
488.825	91.25
489.043	96.25
489.261	101.25
489.479	94.25
489.696	91.25
489.914	89.25
490.132	103.25
490.35	102.25
490.568	100.25
490.786	104.25
491.003	93.25
491.221	98.25
491.439	116.25
491.657	101.25
491.874	108.25
492.092	97.25
492.31	110.25
492.527	103.25
492.745	109.25
492.963	108.25
493.18	99.25
493.398	83.25
493.615	113.25
493.833	122.25
494.05	94.25
494.268	103.25
494.485	107.25
494.703	114.25
494.92	104.25
495.138	116.25
495.355	89.25
495.573	108.25
495.79	107.25
496.008	115.25
496.225	96.25
496.442	101.25
496.66	125.25
496.877	156.25
497.094	158.25
497.312	117.25
497.529	94.25
497.746	99.25
497.963	115.25
498.181	104.25
498.398	102.25
498.615	97.25
498.832	87.25
499.049	102.25
499.267	124.25
499.484	163.25
499.701	119.25
499.918	104.25
500.135	96.25
500.352	103.25
500.569	103.25
500.786	100.25
501.003	95.25
501.22	102.25
501.437	102.25
501.654	95.25
501.871	104.25
502.088	108.25
502.305	112.25
502.522	103.25
502.739	94.25
502.956	100.25
503.172	93.25
503.389	86.25
503.606	102.25
503.823	93.25
504.04	95.25
504.256	93.25
504.473	92.25
504.69	86.25
504.907	101.25
505.123	111.25
505.34	114.25
505.557	96.25
505.773	97.25
505.99	100.25
506.207	100.25
506.423	99.25
506.64	96.25
506.856	94.25
507.073	95.25
507.289	114.25
507.506	96.25
507.722	92.25
507.939	111.25
508.155	102.25
508.372	94.25
508.588	106.25
508.805	106.25
509.021	93.25
509.238	101.25
