Data from SnStandardFlinnAPT0064_LampEnergy5.5_LIBS07252019.E.O._I.C._HRD10591_15-15-38-492.txt Node
Date: Thu Jul 25 15:15:38 EDT 2019
User: cochatt
Spectrometer: HR+D1059
Trigger mode: 1
Integration Time (sec): 1.000000E-1
Scans to average: 1
Electric dark correction enabled: true
Nonlinearity correction enabled: false
Boxcar width: 0
XAxis mode: Wavelengths
Number of Pixels in Spectrum: 2048
>>>>>Begin Spectral Data<<<<<
223.165	-15.12
223.4	-15.12
223.635	-15.12
223.869	-26.12
224.104	-29.12
224.338	-13.12
224.573	-12.12
224.808	-3.12
225.042	2.88
225.277	-7.12
225.511	-11.12
225.746	-0.12
225.98	10.88
226.215	2.88
226.449	22.88
226.683	20.88
226.918	24.88
227.152	31.88
227.387	33.88
227.621	35.88
227.856	49.88
228.09	44.88
228.324	33.88
228.559	49.88
228.793	80.88
229.027	137.88
229.262	159.88
229.496	135.88
229.73	148.88
229.964	148.88
230.199	158.88
230.433	143.88
230.667	144.88
230.901	147.88
231.136	156.88
231.37	176.88
231.604	187.88
231.838	189.88
232.072	198.88
232.306	228.88
232.541	213.88
232.775	193.88
233.009	212.88
233.243	193.88
233.477	206.88
233.711	228.88
233.945	247.88
234.179	224.88
234.413	208.88
234.647	194.88
234.881	227.88
235.115	216.88
235.349	267.88
235.583	327.88
235.817	416.88
236.051	379.88
236.285	265.88
236.519	235.88
236.753	226.88
236.987	236.88
237.221	236.88
237.455	219.88
237.689	212.88
237.922	206.88
238.156	216.88
238.39	214.88
238.624	211.88
238.858	212.88
239.091	221.88
239.325	242.88
239.559	230.88
239.793	220.88
240.027	243.88
240.26	247.88
240.494	237.88
240.728	265.88
240.961	252.88
241.195	285.88
241.429	297.88
241.662	298.88
241.896	329.88
242.13	375.88
242.363	419.88
242.597	571.88
242.83	563.88
243.064	547.88
243.298	644.88
243.531	571.88
243.765	381.88
243.998	340.88
244.232	286.88
244.465	280.88
244.699	289.88
244.932	280.88
245.166	298.88
245.399	282.88
245.633	298.88
245.866	307.88
246.099	270.88
246.333	265.88
246.566	291.88
246.8	265.88
247.033	267.88
247.266	275.88
247.5	284.88
247.733	308.88
247.966	299.88
248.2	320.88
248.433	336.88
248.666	362.88
248.899	379.88
249.133	357.88
249.366	334.88
249.599	372.88
249.832	419.88
250.066	407.88
250.299	330.88
250.532	331.88
250.765	319.88
250.998	327.88
251.231	329.88
251.465	316.88
251.698	322.88
251.931	332.88
252.164	307.88
252.397	327.88
252.63	333.88
252.863	341.88
253.096	341.88
253.329	337.88
253.562	349.88
253.795	336.88
254.028	342.88
254.261	341.88
254.494	349.88
254.727	416.88
254.96	465.88
255.193	460.88
255.426	370.88
255.659	356.88
255.892	365.88
256.124	358.88
256.357	369.88
256.59	377.88
256.823	417.88
257.056	431.88
257.289	497.88
257.521	545.88
257.754	444.88
257.987	409.88
258.22	397.88
258.452	372.88
258.685	373.88
258.918	409.88
259.151	389.88
259.383	425.88
259.616	460.88
259.849	453.88
260.081	442.88
260.314	419.88
260.547	422.88
260.779	405.88
261.012	403.88
261.244	402.88
261.477	433.88
261.71	422.88
261.942	414.88
262.175	466.88
262.407	465.88
262.64	453.88
262.872	471.88
263.105	476.88
263.337	494.88
263.57	529.88
263.802	535.88
264.035	529.88
264.267	571.88
264.499	577.88
264.732	591.88
264.964	608.88
265.197	605.88
265.429	619.88
265.661	614.88
265.894	650.88
266.126	695.88
266.358	768.88
266.591	741.88
266.823	663.88
267.055	620.88
267.287	593.88
267.52	583.88
267.752	559.88
267.984	538.88
268.216	538.88
268.448	560.88
268.681	511.88
268.913	525.88
269.145	528.88
269.377	525.88
269.609	549.88
269.841	524.88
270.073	567.88
270.306	625.88
270.538	825.88
270.77	1137.88
271.002	1318.88
271.234	1002.88
271.466	728.88
271.698	608.88
271.93	569.88
272.162	542.88
272.394	527.88
272.626	522.88
272.858	514.88
273.09	525.88
273.322	514.88
273.553	485.88
273.785	503.88
274.017	514.88
274.249	516.88
274.481	513.88
274.713	511.88
274.945	522.88
275.176	520.88
275.408	508.88
275.64	527.88
275.872	518.88
276.104	519.88
276.335	529.88
276.567	561.88
276.799	516.88
277.031	533.88
277.262	546.88
277.494	556.88
277.726	614.88
277.957	666.88
278.189	766.88
278.421	703.88
278.652	627.88
278.884	612.88
279.115	563.88
279.347	579.88
279.579	589.88
279.81	593.88
280.042	541.88
280.273	569.88
280.505	555.88
280.736	618.88
280.968	595.88
281.199	656.88
281.431	745.88
281.662	732.88
281.894	665.88
282.125	620.88
282.356	662.88
282.588	652.88
282.819	670.88
283.051	724.88
283.282	798.88
283.513	901.88
283.745	1247.88
283.976	1948.88
284.207	2746.88
284.439	2476.88
284.67	1523.88
284.901	1267.88
285.132	1210.88
285.364	1192.88
285.595	943.88
285.826	885.88
286.057	1028.88
286.288	1358.88
286.52	1736.88
286.751	1664.88
286.982	1085.88
287.213	835.88
287.444	724.88
287.675	724.88
287.906	683.88
288.138	665.88
288.369	689.88
288.6	697.88
288.831	685.88
289.062	678.88
289.293	677.88
289.524	698.88
289.755	679.88
289.986	685.88
290.217	691.88
290.448	699.88
290.679	676.88
290.91	689.88
291.141	711.88
291.371	746.88
291.602	773.88
291.833	716.88
292.064	680.88
292.295	698.88
292.526	659.88
292.757	659.88
292.987	653.88
293.218	642.88
293.449	665.88
293.68	639.88
293.91	663.88
294.141	633.88
294.372	618.88
294.603	631.88
294.833	636.88
295.064	630.88
295.295	634.88
295.525	627.88
295.756	641.88
295.987	635.88
296.217	644.88
296.448	638.88
296.679	666.88
296.909	635.88
297.14	667.88
297.37	652.88
297.601	658.88
297.831	641.88
298.062	636.88
298.292	681.88
298.523	668.88
298.753	695.88
298.984	689.88
299.214	686.88
299.445	675.88
299.675	682.88
299.905	716.88
300.136	756.88
300.366	834.88
300.597	986.88
300.827	1312.88
301.057	1713.88
301.288	1737.88
301.518	1159.88
301.748	942.88
301.979	857.88
302.209	869.88
302.439	865.88
302.669	898.88
302.9	1068.88
303.13	1425.88
303.36	2029.88
303.59	2633.88
303.82	2313.88
304.051	1438.88
304.281	1064.88
304.511	949.88
304.741	866.88
304.971	813.88
305.201	767.88
305.431	805.88
305.661	767.88
305.891	755.88
306.121	740.88
306.352	726.88
306.582	744.88
306.812	717.88
307.042	753.88
307.272	759.88
307.502	731.88
307.731	755.88
307.961	744.88
308.191	710.88
308.421	720.88
308.651	734.88
308.881	747.88
309.111	732.88
309.341	736.88
309.571	710.88
309.8	763.88
310.03	765.88
310.26	781.88
310.49	761.88
310.72	767.88
310.949	755.88
311.179	780.88
311.409	785.88
311.639	792.88
311.868	760.88
312.098	776.88
312.328	805.88
312.557	788.88
312.787	789.88
313.017	809.88
313.246	817.88
313.476	805.88
313.706	826.88
313.935	871.88
314.165	874.88
314.394	909.88
314.624	886.88
314.853	849.88
315.083	846.88
315.312	812.88
315.542	855.88
315.771	871.88
316.001	885.88
316.23	907.88
316.46	922.88
316.689	989.88
316.919	1170.88
317.148	1644.88
317.377	2421.88
317.607	3457.88
317.836	3561.88
318.065	2176.88
318.295	1479.88
318.524	1233.88
318.753	1090.88
318.983	1024.88
319.212	969.88
319.441	945.88
319.67	940.88
319.9	933.88
320.129	902.88
320.358	938.88
320.587	937.88
320.816	915.88
321.046	926.88
321.275	938.88
321.504	954.88
321.733	921.88
321.962	945.88
322.191	956.88
322.42	983.88
322.649	997.88
322.878	979.88
323.108	987.88
323.337	1013.88
323.566	1034.88
323.795	1047.88
324.024	1023.88
324.253	1047.88
324.482	1062.88
324.71	1141.88
324.939	1186.88
325.168	1225.88
325.397	1240.88
325.626	1430.88
325.855	1962.88
326.084	2911.88
326.313	4309.88
326.542	4568.88
326.77	2944.88
326.999	2064.88
327.228	1734.88
327.457	1692.88
327.686	1677.88
327.914	1788.88
328.143	2024.88
328.372	2361.88
328.6	2529.88
328.829	2321.88
329.058	2036.88
329.287	1885.88
329.515	1701.88
329.744	1593.88
329.972	1511.88
330.201	1491.88
330.43	1468.88
330.658	1372.88
330.887	1391.88
331.115	1341.88
331.344	1365.88
331.572	1323.88
331.801	1349.88
332.03	1336.88
332.258	1361.88
332.486	1416.88
332.715	1555.88
332.943	1872.88
333.172	2256.88
333.4	2141.88
333.629	1777.88
333.857	1665.88
334.085	1664.88
334.314	1781.88
334.542	1885.88
334.771	2151.88
334.999	2519.88
335.227	3027.88
335.455	3367.88
335.684	3183.88
335.912	2745.88
336.14	2406.88
336.369	2140.88
336.597	1996.88
336.825	1823.88
337.053	1713.88
337.281	1625.88
337.51	1559.88
337.738	1517.88
337.966	1448.88
338.194	1373.88
338.422	1359.88
338.65	1322.88
338.878	1291.88
339.106	1271.88
339.334	1290.88
339.562	1215.88
339.79	1204.88
340.018	1201.88
340.246	1227.88
340.474	1201.88
340.702	1164.88
340.93	1157.88
341.158	1227.88
341.386	1196.88
341.614	1194.88
341.842	1151.88
342.07	1145.88
342.298	1136.88
342.526	1096.88
342.754	1103.88
342.981	1124.88
343.209	1141.88
343.437	1100.88
343.665	1089.88
343.893	1178.88
344.12	1135.88
344.348	1135.88
344.576	1092.88
344.804	1100.88
345.031	1072.88
345.259	1041.88
345.487	1021.88
345.714	1044.88
345.942	1043.88
346.17	1036.88
346.397	1033.88
346.625	1023.88
346.853	979.88
347.08	995.88
347.308	1025.88
347.535	996.88
347.763	1007.88
347.99	1001.88
348.218	981.88
348.445	977.88
348.673	982.88
348.9	988.88
349.128	986.88
349.355	992.88
349.583	982.88
349.81	982.88
350.037	970.88
350.265	1001.88
350.492	964.88
350.72	998.88
350.947	965.88
351.174	982.88
351.402	989.88
351.629	968.88
351.856	960.88
352.083	984.88
352.311	971.88
352.538	963.88
352.765	976.88
352.992	961.88
353.22	953.88
353.447	973.88
353.674	962.88
353.901	964.88
354.128	971.88
354.355	963.88
354.583	988.88
354.81	986.88
355.037	970.88
355.264	991.88
355.491	980.88
355.718	1014.88
355.945	974.88
356.172	990.88
356.399	997.88
356.626	1016.88
356.853	1027.88
357.08	1002.88
357.307	1015.88
357.534	1032.88
357.761	1059.88
357.988	1035.88
358.215	1039.88
358.441	1033.88
358.668	1028.88
358.895	1047.88
359.122	1045.88
359.349	1038.88
359.576	1037.88
359.802	1039.88
360.029	1050.88
360.256	1010.88
360.483	1041.88
360.709	1017.88
360.936	1045.88
361.163	1041.88
361.39	1049.88
361.616	1035.88
361.843	1028.88
362.07	1030.88
362.296	1023.88
362.523	1023.88
362.749	1057.88
362.976	1056.88
363.203	1068.88
363.429	1023.88
363.656	1010.88
363.882	1027.88
364.109	1050.88
364.335	1038.88
364.562	1035.88
364.788	1049.88
365.015	1057.88
365.241	1046.88
365.468	1080.88
365.694	1088.88
365.92	1078.88
366.147	1061.88
366.373	1063.88
366.599	1048.88
366.826	1056.88
367.052	1047.88
367.278	1025.88
367.505	1060.88
367.731	1077.88
367.957	1042.88
368.184	1055.88
368.41	1099.88
368.636	1083.88
368.862	1077.88
369.089	1071.88
369.315	1042.88
369.541	1087.88
369.767	1062.88
369.993	1089.88
370.219	1072.88
370.445	1075.88
370.672	1096.88
370.898	1109.88
371.124	1110.88
371.35	1099.88
371.576	1121.88
371.802	1083.88
372.028	1105.88
372.254	1116.88
372.48	1142.88
372.706	1093.88
372.932	1123.88
373.158	1109.88
373.384	1144.88
373.61	1126.88
373.835	1159.88
374.061	1139.88
374.287	1139.88
374.513	1133.88
374.739	1169.88
374.965	1167.88
375.191	1200.88
375.416	1188.88
375.642	1136.88
375.868	1158.88
376.094	1148.88
376.319	1113.88
376.545	1147.88
376.771	1121.88
376.997	1103.88
377.222	1112.88
377.448	1120.88
377.674	1091.88
377.899	1092.88
378.125	1113.88
378.35	1080.88
378.576	1091.88
378.802	1130.88
379.027	1147.88
379.253	1169.88
379.478	1186.88
379.704	1371.88
379.929	1805.88
380.155	2573.88
380.38	2713.88
380.606	1815.88
380.831	1366.88
381.057	1249.88
381.282	1175.88
381.507	1163.88
381.733	1137.88
381.958	1130.88
382.184	1120.88
382.409	1088.88
382.634	1096.88
382.86	1102.88
383.085	1103.88
383.31	1087.88
383.535	1124.88
383.761	1108.88
383.986	1117.88
384.211	1156.88
384.436	1125.88
384.662	1111.88
384.887	1147.88
385.112	1155.88
385.337	1116.88
385.562	1128.88
385.787	1157.88
386.013	1149.88
386.238	1138.88
386.463	1141.88
386.688	1146.88
386.913	1117.88
387.138	1159.88
387.363	1151.88
387.588	1153.88
387.813	1165.88
388.038	1129.88
388.263	1108.88
388.488	1152.88
388.713	1165.88
388.938	1137.88
389.163	1143.88
389.387	1160.88
389.612	1133.88
389.837	1138.88
390.062	1149.88
390.287	1172.88
390.512	1148.88
390.736	1151.88
390.961	1179.88
391.186	1179.88
391.411	1193.88
391.636	1203.88
391.86	1234.88
392.085	1231.88
392.31	1202.88
392.534	1190.88
392.759	1165.88
392.984	1168.88
393.208	1183.88
393.433	1146.88
393.658	1147.88
393.882	1156.88
394.107	1159.88
394.331	1151.88
394.556	1142.88
394.78	1144.88
395.005	1152.88
395.229	1172.88
395.454	1212.88
395.678	1174.88
395.903	1176.88
396.127	1217.88
396.352	1165.88
396.576	1187.88
396.801	1152.88
397.025	1210.88
397.249	1240.88
397.474	1183.88
397.698	1207.88
397.922	1221.88
398.147	1201.88
398.371	1221.88
398.595	1241.88
398.82	1285.88
399.044	1337.88
399.268	1399.88
399.492	1483.88
399.717	1533.88
399.941	1513.88
400.165	1458.88
400.389	1376.88
400.613	1346.88
400.837	1322.88
401.062	1321.88
401.286	1271.88
401.51	1249.88
401.734	1246.88
401.958	1234.88
402.182	1253.88
402.406	1284.88
402.63	1281.88
402.854	1307.88
403.078	1299.88
403.302	1279.88
403.526	1323.88
403.75	1309.88
403.974	1322.88
404.198	1318.88
404.422	1319.88
404.645	1300.88
404.869	1313.88
405.093	1298.88
405.317	1321.88
405.541	1339.88
405.765	1339.88
405.988	1319.88
406.212	1317.88
406.436	1316.88
406.66	1361.88
406.883	1384.88
407.107	1368.88
407.331	1415.88
407.555	1411.88
407.778	1457.88
408.002	1410.88
408.226	1440.88
408.449	1368.88
408.673	1365.88
408.896	1352.88
409.12	1334.88
409.344	1330.88
409.567	1297.88
409.791	1311.88
410.014	1306.88
410.238	1263.88
410.461	1307.88
410.685	1309.88
410.908	1312.88
411.132	1266.88
411.355	1303.88
411.578	1251.88
411.802	1230.88
412.025	1239.88
412.249	1291.88
412.472	1283.88
412.695	1264.88
412.919	1269.88
413.142	1267.88
413.365	1252.88
413.589	1222.88
413.812	1232.88
414.035	1233.88
414.258	1248.88
414.482	1260.88
414.705	1250.88
414.928	1238.88
415.151	1259.88
415.374	1212.88
415.597	1214.88
415.821	1217.88
416.044	1186.88
416.267	1172.88
416.49	1200.88
416.713	1183.88
416.936	1217.88
417.159	1180.88
417.382	1211.88
417.605	1169.88
417.828	1182.88
418.051	1232.88
418.274	1193.88
418.497	1220.88
418.72	1237.88
418.943	1213.88
419.166	1288.88
419.389	1310.88
419.611	1299.88
419.834	1263.88
420.057	1288.88
420.28	1207.88
420.503	1210.88
420.726	1197.88
420.948	1183.88
421.171	1195.88
421.394	1197.88
421.617	1212.88
421.839	1253.88
422.062	1235.88
422.285	1191.88
422.507	1193.88
422.73	1244.88
422.953	1240.88
423.175	1257.88
423.398	1242.88
423.621	1216.88
423.843	1200.88
424.066	1232.88
424.288	1210.88
424.511	1207.88
424.733	1234.88
424.956	1188.88
425.178	1197.88
425.401	1242.88
425.623	1199.88
425.846	1186.88
426.068	1205.88
426.291	1160.88
426.513	1164.88
426.735	1144.88
426.958	1157.88
427.18	1117.88
427.402	1132.88
427.625	1138.88
427.847	1098.88
428.069	1101.88
428.292	1135.88
428.514	1092.88
428.736	1102.88
428.958	1103.88
429.181	1117.88
429.403	1128.88
429.625	1114.88
429.847	1090.88
430.069	1137.88
430.292	1159.88
430.514	1175.88
430.736	1150.88
430.958	1122.88
431.18	1081.88
431.402	1131.88
431.624	1094.88
431.846	1084.88
432.068	1079.88
432.29	1090.88
432.512	1091.88
432.734	1121.88
432.956	1134.88
433.178	1141.88
433.4	1121.88
433.622	1119.88
433.844	1142.88
434.066	1126.88
434.287	1103.88
434.509	1102.88
434.731	1136.88
434.953	1155.88
435.175	1146.88
435.397	1130.88
435.618	1129.88
435.84	1127.88
436.062	1107.88
436.284	1080.88
436.505	1097.88
436.727	1109.88
436.949	1116.88
437.17	1098.88
437.392	1114.88
437.614	1074.88
437.835	1096.88
438.057	1062.88
438.278	1048.88
438.5	1036.88
438.721	1075.88
438.943	1133.88
439.165	1131.88
439.386	1148.88
439.608	1151.88
439.829	1166.88
440.05	1169.88
440.272	1169.88
440.493	1152.88
440.715	1165.88
440.936	1129.88
441.158	1141.88
441.379	1159.88
441.6	1198.88
441.822	1224.88
442.043	1265.88
442.264	1279.88
442.486	1221.88
442.707	1206.88
442.928	1201.88
443.149	1192.88
443.371	1171.88
443.592	1212.88
443.813	1186.88
444.034	1203.88
444.255	1225.88
444.476	1282.88
444.698	1267.88
444.919	1271.88
445.14	1326.88
445.361	1249.88
445.582	1235.88
445.803	1193.88
446.024	1186.88
446.245	1164.88
446.466	1192.88
446.687	1151.88
446.908	1153.88
447.129	1113.88
447.35	1149.88
447.571	1143.88
447.792	1100.88
448.013	1081.88
448.234	1071.88
448.455	1109.88
448.675	1092.88
448.896	1123.88
449.117	1144.88
449.338	1187.88
449.559	1256.88
449.779	1153.88
450	1095.88
450.221	1089.88
450.442	1072.88
450.662	1044.88
450.883	1081.88
451.104	1060.88
451.324	1067.88
451.545	1051.88
451.766	1067.88
451.986	1087.88
452.207	1071.88
452.428	1299.88
452.648	1701.88
452.869	1513.88
453.089	1199.88
453.31	1155.88
453.53	1144.88
453.751	1163.88
453.971	1189.88
454.192	1211.88
454.412	1111.88
454.633	1049.88
454.853	1059.88
455.073	1032.88
455.294	1004.88
455.514	1025.88
455.734	1018.88
455.955	1009.88
456.175	977.88
456.395	999.88
456.616	1020.88
456.836	1007.88
457.056	1031.88
457.276	1035.88
457.497	1068.88
457.717	1077.88
457.937	1060.88
458.157	1062.88
458.377	1035.88
458.598	1049.88
458.818	1085.88
459.038	1088.88
459.258	1091.88
459.478	1103.88
459.698	1113.88
459.918	1146.88
460.138	1153.88
460.358	1178.88
460.578	1169.88
460.798	1192.88
461.018	1223.88
461.238	1216.88
461.458	1179.88
461.678	1205.88
461.898	1234.88
462.118	1207.88
462.338	1280.88
462.558	1259.88
462.777	1290.88
462.997	1348.88
463.217	1388.88
463.437	1440.88
463.657	1407.88
463.876	1411.88
464.096	1313.88
464.316	1293.88
464.536	1293.88
464.755	1276.88
464.975	1257.88
465.195	1223.88
465.414	1186.88
465.634	1142.88
465.854	1117.88
466.073	1096.88
466.293	1097.88
466.512	1134.88
466.732	1092.88
466.951	1177.88
467.171	1241.88
467.391	1200.88
467.61	1149.88
467.829	1129.88
468.049	1109.88
468.268	1066.88
468.488	1084.88
468.707	1089.88
468.927	1078.88
469.146	1100.88
469.365	1086.88
469.585	1101.88
469.804	1130.88
470.023	1167.88
470.243	1151.88
470.462	1165.88
470.681	1245.88
470.901	1339.88
471.12	1460.88
471.339	1483.88
471.558	1265.88
471.777	1164.88
471.997	1159.88
472.216	1119.88
472.435	1111.88
472.654	1100.88
472.873	1075.88
473.092	1093.88
473.311	1073.88
473.53	1078.88
473.749	1127.88
473.968	1131.88
474.187	1090.88
474.406	1077.88
474.625	1113.88
474.844	1091.88
475.063	1119.88
475.282	1127.88
475.501	1089.88
475.72	1139.88
475.939	1121.88
476.158	1142.88
476.377	1151.88
476.596	1151.88
476.814	1166.88
477.033	1127.88
477.252	1144.88
477.471	1176.88
477.69	1214.88
477.908	1241.88
478.127	1256.88
478.346	1265.88
478.564	1281.88
478.783	1247.88
479.002	1253.88
479.22	1311.88
479.439	1292.88
479.658	1249.88
479.876	1305.88
480.095	1303.88
480.313	1301.88
480.532	1347.88
480.751	1330.88
480.969	1313.88
481.188	1293.88
481.406	1271.88
481.624	1265.88
481.843	1275.88
482.061	1301.88
482.28	1302.88
482.498	1295.88
482.717	1277.88
482.935	1313.88
483.153	1293.88
483.372	1307.88
483.59	1355.88
483.808	1396.88
484.027	1355.88
484.245	1449.88
484.463	1614.88
484.681	1732.88
484.9	1593.88
485.118	1539.88
485.336	1516.88
485.554	1505.88
485.772	1589.88
485.99	1727.88
486.209	1881.88
486.427	1611.88
486.645	1484.88
486.863	1432.88
487.081	1403.88
487.299	1398.88
487.517	1391.88
487.735	1414.88
487.953	1419.88
488.171	1409.88
488.389	1397.88
488.607	1362.88
488.825	1342.88
489.043	1338.88
489.261	1334.88
489.479	1341.88
489.696	1361.88
489.914	1361.88
490.132	1380.88
490.35	1341.88
490.568	1376.88
490.786	1451.88
491.003	1401.88
491.221	1433.88
491.439	1425.88
491.657	1408.88
