Data from SnStandardFlinnAPT0064_QswitchEnergy10_LIBS07252019.E.O._I.C._HRD10591_15-28-53-973.txt Node
Date: Thu Jul 25 15:28:53 EDT 2019
User: cochatt
Spectrometer: HR+D1059
Trigger mode: 1
Integration Time (sec): 1.000000E-1
Scans to average: 1
Electric dark correction enabled: true
Nonlinearity correction enabled: false
Boxcar width: 0
XAxis mode: Wavelengths
Number of Pixels in Spectrum: 2048
>>>>>Begin Spectral Data<<<<<
223.165	-19.69
223.4	-19.69
223.635	-19.69
223.869	-18.69
224.104	-21.69
224.338	-19.69
224.573	-18.69
224.808	-7.69
225.042	-10.69
225.277	-12.69
225.511	16.31
225.746	3.31
225.98	1.31
226.215	3.31
226.449	19.31
226.683	34.31
226.918	24.31
227.152	27.31
227.387	39.31
227.621	40.31
227.856	42.31
228.09	32.31
228.324	45.31
228.559	60.31
228.793	61.31
229.027	75.31
229.262	69.31
229.496	66.31
229.73	87.31
229.964	77.31
230.199	76.31
230.433	89.31
230.667	79.31
230.901	89.31
231.136	83.31
231.37	78.31
231.604	90.31
231.838	106.31
232.072	123.31
232.306	143.31
232.541	102.31
232.775	97.31
233.009	98.31
233.243	96.31
233.477	79.31
233.711	103.31
233.945	113.31
234.179	112.31
234.413	92.31
234.647	86.31
234.881	88.31
235.115	95.31
235.349	102.31
235.583	120.31
235.817	127.31
236.051	132.31
236.285	90.31
236.519	97.31
236.753	87.31
236.987	94.31
237.221	92.31
237.455	88.31
237.689	77.31
237.922	85.31
238.156	80.31
238.39	90.31
238.624	90.31
238.858	91.31
239.091	85.31
239.325	89.31
239.559	72.31
239.793	86.31
240.027	93.31
240.26	84.31
240.494	91.31
240.728	95.31
240.961	86.31
241.195	97.31
241.429	99.31
241.662	104.31
241.896	79.31
242.13	122.31
242.363	146.31
242.597	166.31
242.83	160.31
243.064	159.31
243.298	187.31
243.531	178.31
243.765	117.31
243.998	87.31
244.232	96.31
244.465	83.31
244.699	82.31
244.932	66.31
245.166	91.31
245.399	89.31
245.633	93.31
245.866	94.31
246.099	84.31
246.333	86.31
246.566	77.31
246.8	89.31
247.033	73.31
247.266	89.31
247.5	88.31
247.733	83.31
247.966	95.31
248.2	89.31
248.433	120.31
248.666	134.31
248.899	126.31
249.133	96.31
249.366	103.31
249.599	109.31
249.832	134.31
250.066	155.31
250.299	96.31
250.532	97.31
250.765	90.31
250.998	93.31
251.231	76.31
251.465	78.31
251.698	89.31
251.931	76.31
252.164	74.31
252.397	98.31
252.63	102.31
252.863	114.31
253.096	88.31
253.329	105.31
253.562	98.31
253.795	104.31
254.028	85.31
254.261	109.31
254.494	89.31
254.727	101.31
254.96	149.31
255.193	160.31
255.426	122.31
255.659	91.31
255.892	95.31
256.124	89.31
256.357	93.31
256.59	93.31
256.823	93.31
257.056	128.31
257.289	173.31
257.521	201.31
257.754	138.31
257.987	91.31
258.22	97.31
258.452	97.31
258.685	87.31
258.918	85.31
259.151	87.31
259.383	123.31
259.616	142.31
259.849	165.31
260.081	116.31
260.314	83.31
260.547	100.31
260.779	88.31
261.012	69.31
261.244	91.31
261.477	101.31
261.71	89.31
261.942	79.31
262.175	82.31
262.407	80.31
262.64	83.31
262.872	81.31
263.105	91.31
263.337	86.31
263.57	95.31
263.802	92.31
264.035	98.31
264.267	89.31
264.499	74.31
264.732	98.31
264.964	80.31
265.197	94.31
265.429	97.31
265.661	104.31
265.894	104.31
266.126	136.31
266.358	171.31
266.591	156.31
266.823	103.31
267.055	99.31
267.287	93.31
267.52	78.31
267.752	97.31
267.984	94.31
268.216	87.31
268.448	90.31
268.681	93.31
268.913	106.31
269.145	93.31
269.377	96.31
269.609	103.31
269.841	89.31
270.073	101.31
270.306	152.31
270.538	219.31
270.77	384.31
271.002	415.31
271.234	231.31
271.466	111.31
271.698	95.31
271.93	97.31
272.162	98.31
272.394	85.31
272.626	87.31
272.858	92.31
273.09	92.31
273.322	89.31
273.553	92.31
273.785	100.31
274.017	95.31
274.249	92.31
274.481	96.31
274.713	94.31
274.945	79.31
275.176	109.31
275.408	100.31
275.64	99.31
275.872	85.31
276.104	106.31
276.335	106.31
276.567	111.31
276.799	95.31
277.031	96.31
277.262	106.31
277.494	116.31
277.726	134.31
277.957	204.31
278.189	281.31
278.421	269.31
278.652	234.31
278.884	221.31
279.115	157.31
279.347	111.31
279.579	99.31
279.81	98.31
280.042	102.31
280.273	114.31
280.505	125.31
280.736	117.31
280.968	147.31
281.199	192.31
281.431	275.31
281.662	295.31
281.894	171.31
282.125	124.31
282.356	122.31
282.588	121.31
282.819	131.31
283.051	141.31
283.282	133.31
283.513	203.31
283.745	348.31
283.976	631.31
284.207	914.31
284.439	697.31
284.67	317.31
284.901	289.31
285.132	403.31
285.364	437.31
285.595	234.31
285.826	198.31
286.057	289.31
286.288	473.31
286.52	702.31
286.751	571.31
286.982	212.31
287.213	143.31
287.444	105.31
287.675	99.31
287.906	111.31
288.138	92.31
288.369	98.31
288.6	99.31
288.831	95.31
289.062	109.31
289.293	93.31
289.524	95.31
289.755	100.31
289.986	92.31
290.217	107.31
290.448	107.31
290.679	113.31
290.91	143.31
291.141	202.31
291.371	285.31
291.602	339.31
291.833	237.31
292.064	142.31
292.295	117.31
292.526	101.31
292.757	114.31
292.987	98.31
293.218	101.31
293.449	107.31
293.68	109.31
293.91	107.31
294.141	101.31
294.372	89.31
294.603	96.31
294.833	93.31
295.064	100.31
295.295	99.31
295.525	87.31
295.756	99.31
295.987	110.31
296.217	108.31
296.448	92.31
296.679	108.31
296.909	106.31
297.14	107.31
297.37	91.31
297.601	102.31
297.831	94.31
298.062	106.31
298.292	95.31
298.523	114.31
298.753	113.31
298.984	132.31
299.214	125.31
299.445	123.31
299.675	135.31
299.905	133.31
300.136	134.31
300.366	182.31
300.597	307.31
300.827	535.31
301.057	811.31
301.288	747.31
301.518	294.31
301.748	173.31
301.979	136.31
302.209	143.31
302.439	166.31
302.669	188.31
302.9	326.31
303.13	602.31
303.36	1074.31
303.59	1428.31
303.82	974.31
304.051	356.31
304.281	185.31
304.511	126.31
304.741	125.31
304.971	120.31
305.201	125.31
305.431	129.31
305.661	117.31
305.891	110.31
306.121	120.31
306.352	125.31
306.582	117.31
306.812	122.31
307.042	122.31
307.272	110.31
307.502	128.31
307.731	103.31
307.961	122.31
308.191	97.31
308.421	97.31
308.651	106.31
308.881	123.31
309.111	111.31
309.341	105.31
309.571	115.31
309.8	122.31
310.03	119.31
310.26	112.31
310.49	126.31
310.72	113.31
310.949	118.31
311.179	104.31
311.409	113.31
311.639	121.31
311.868	113.31
312.098	117.31
312.328	109.31
312.557	121.31
312.787	119.31
313.017	124.31
313.246	113.31
313.476	121.31
313.706	137.31
313.935	185.31
314.165	230.31
314.394	269.31
314.624	210.31
314.853	161.31
315.083	144.31
315.312	153.31
315.542	130.31
315.771	135.31
316.001	156.31
316.23	151.31
316.46	163.31
316.689	202.31
316.919	304.31
317.148	566.31
317.377	1093.31
317.607	1734.31
317.836	1625.31
318.065	610.31
318.295	244.31
318.524	182.31
318.753	162.31
318.983	123.31
319.212	126.31
319.441	132.31
319.67	126.31
319.9	124.31
320.129	131.31
320.358	139.31
320.587	137.31
320.816	109.31
321.046	135.31
321.275	138.31
321.504	141.31
321.733	159.31
321.962	189.31
322.191	187.31
322.42	145.31
322.649	139.31
322.878	134.31
323.108	123.31
323.337	135.31
323.566	140.31
323.795	145.31
324.024	160.31
324.253	148.31
324.482	189.31
324.71	254.31
324.939	315.31
325.168	261.31
325.397	197.31
325.626	287.31
325.855	572.31
326.084	1103.31
326.313	1907.31
326.542	1859.31
326.77	710.31
326.999	299.31
327.228	222.31
327.457	251.31
327.686	261.31
327.914	180.31
328.143	140.31
328.372	155.31
328.6	153.31
328.829	147.31
329.058	134.31
329.287	141.31
329.515	137.31
329.744	137.31
329.972	124.31
330.201	110.31
330.43	122.31
330.658	124.31
330.887	133.31
331.115	124.31
331.344	134.31
331.572	133.31
331.801	131.31
332.03	140.31
332.258	148.31
332.486	201.31
332.715	333.31
332.943	603.31
333.172	889.31
333.4	779.31
333.629	288.31
333.857	165.31
334.085	132.31
334.314	147.31
334.542	138.31
334.771	127.31
334.999	116.31
335.227	141.31
335.455	141.31
335.684	130.31
335.912	129.31
336.14	120.31
336.369	115.31
336.597	115.31
336.825	114.31
337.053	106.31
337.281	131.31
337.51	134.31
337.738	118.31
337.966	122.31
338.194	117.31
338.422	128.31
338.65	122.31
338.878	125.31
339.106	133.31
339.334	128.31
339.562	139.31
339.79	117.31
340.018	115.31
340.246	124.31
340.474	123.31
340.702	129.31
340.93	117.31
341.158	128.31
341.386	126.31
341.614	129.31
341.842	123.31
342.07	128.31
342.298	127.31
342.526	95.31
342.754	109.31
342.981	118.31
343.209	125.31
343.437	119.31
343.665	127.31
343.893	124.31
344.12	118.31
344.348	132.31
344.576	129.31
344.804	128.31
345.031	126.31
345.259	109.31
345.487	108.31
345.714	129.31
345.942	117.31
346.17	111.31
346.397	119.31
346.625	113.31
346.853	121.31
347.08	119.31
347.308	108.31
347.535	123.31
347.763	119.31
347.99	116.31
348.218	116.31
348.445	114.31
348.673	120.31
348.9	125.31
349.128	121.31
349.355	141.31
349.583	129.31
349.81	133.31
350.037	138.31
350.265	124.31
350.492	122.31
350.72	121.31
350.947	113.31
351.174	117.31
351.402	122.31
351.629	113.31
351.856	127.31
352.083	109.31
352.311	109.31
352.538	110.31
352.765	116.31
352.992	113.31
353.22	105.31
353.447	114.31
353.674	108.31
353.901	103.31
354.128	111.31
354.355	105.31
354.583	102.31
354.81	121.31
355.037	123.31
355.264	120.31
355.491	115.31
355.718	110.31
355.945	126.31
356.172	113.31
356.399	118.31
356.626	115.31
356.853	106.31
357.08	117.31
357.307	124.31
357.534	114.31
357.761	133.31
357.988	133.31
358.215	116.31
358.441	125.31
358.668	120.31
358.895	128.31
359.122	127.31
359.349	142.31
359.576	130.31
359.802	129.31
360.029	130.31
360.256	106.31
360.483	127.31
360.709	124.31
360.936	114.31
361.163	126.31
361.39	121.31
361.616	122.31
361.843	129.31
362.07	123.31
362.296	123.31
362.523	117.31
362.749	111.31
362.976	129.31
363.203	127.31
363.429	116.31
363.656	124.31
363.882	132.31
364.109	134.31
364.335	135.31
364.562	115.31
364.788	104.31
365.015	115.31
365.241	151.31
365.468	213.31
365.694	298.31
365.92	235.31
366.147	137.31
366.373	125.31
366.599	105.31
366.826	115.31
367.052	114.31
367.278	103.31
367.505	99.31
367.731	99.31
367.957	115.31
368.184	115.31
368.41	139.31
368.636	139.31
368.862	117.31
369.089	123.31
369.315	124.31
369.541	117.31
369.767	104.31
369.993	110.31
370.219	105.31
370.445	126.31
370.672	117.31
370.898	109.31
371.124	126.31
371.35	113.31
371.576	109.31
371.802	115.31
372.028	120.31
372.254	133.31
372.48	129.31
372.706	100.31
372.932	118.31
373.158	135.31
373.384	133.31
373.61	121.31
373.835	140.31
374.061	123.31
374.287	113.31
374.513	125.31
374.739	114.31
374.965	124.31
375.191	119.31
375.416	118.31
375.642	120.31
375.868	125.31
376.094	122.31
376.319	102.31
376.545	116.31
376.771	114.31
376.997	126.31
377.222	96.31
377.448	121.31
377.674	131.31
377.899	125.31
378.125	110.31
378.35	109.31
378.576	129.31
378.802	132.31
379.027	137.31
379.253	160.31
379.478	208.31
379.704	379.31
379.929	911.31
380.155	1849.31
380.38	1892.31
380.606	619.31
380.831	215.31
381.057	147.31
381.282	130.31
381.507	123.31
381.733	113.31
381.958	131.31
382.184	137.31
382.409	123.31
382.634	130.31
382.86	107.31
383.085	125.31
383.31	101.31
383.535	110.31
383.761	115.31
383.986	127.31
384.211	120.31
384.436	116.31
384.662	116.31
384.887	120.31
385.112	109.31
385.337	132.31
385.562	117.31
385.787	107.31
386.013	113.31
386.238	117.31
386.463	98.31
386.688	101.31
386.913	122.31
387.138	125.31
387.363	123.31
387.588	117.31
387.813	116.31
388.038	102.31
388.263	111.31
388.488	122.31
388.713	107.31
388.938	106.31
389.163	101.31
389.387	109.31
389.612	100.31
389.837	113.31
390.062	102.31
390.287	131.31
390.512	117.31
390.736	111.31
390.961	95.31
391.186	114.31
391.411	110.31
391.636	115.31
391.86	122.31
392.085	93.31
392.31	107.31
392.534	104.31
392.759	104.31
392.984	115.31
393.208	123.31
393.433	167.31
393.658	149.31
393.882	109.31
394.107	101.31
394.331	94.31
394.556	91.31
394.78	102.31
395.005	93.31
395.229	105.31
395.454	92.31
395.678	111.31
395.903	122.31
396.127	111.31
396.352	117.31
396.576	122.31
396.801	128.31
397.025	137.31
397.249	124.31
397.474	106.31
397.698	93.31
397.922	103.31
398.147	91.31
398.371	108.31
398.595	111.31
398.82	105.31
399.044	105.31
399.268	106.31
399.492	112.31
399.717	108.31
399.941	98.31
400.165	105.31
400.389	93.31
400.613	110.31
400.837	98.31
401.062	101.31
401.286	108.31
401.51	118.31
401.734	116.31
401.958	115.31
402.182	116.31
402.406	103.31
402.63	98.31
402.854	93.31
403.078	99.31
403.302	107.31
403.526	123.31
403.75	110.31
403.974	94.31
404.198	109.31
404.422	101.31
404.645	103.31
404.869	114.31
405.093	121.31
405.317	105.31
405.541	115.31
405.765	131.31
405.988	181.31
406.212	127.31
406.436	117.31
406.66	91.31
406.883	101.31
407.107	99.31
407.331	113.31
407.555	100.31
407.778	103.31
408.002	115.31
408.226	110.31
408.449	105.31
408.673	106.31
408.896	94.31
409.12	104.31
409.344	112.31
409.567	121.31
409.791	106.31
410.014	95.31
410.238	124.31
410.461	117.31
410.685	115.31
410.908	112.31
411.132	95.31
411.355	92.31
411.578	108.31
411.802	105.31
412.025	106.31
412.249	124.31
412.472	102.31
412.695	105.31
412.919	111.31
413.142	101.31
413.365	107.31
413.589	103.31
413.812	110.31
414.035	123.31
414.258	97.31
414.482	98.31
414.705	118.31
414.928	126.31
415.151	108.31
415.374	122.31
415.597	97.31
415.821	101.31
416.044	101.31
416.267	105.31
416.49	101.31
416.713	103.31
416.936	80.31
417.159	83.31
417.382	110.31
417.605	118.31
417.828	107.31
418.051	103.31
418.274	94.31
418.497	109.31
418.72	118.31
418.943	117.31
419.166	105.31
419.389	113.31
419.611	106.31
419.834	121.31
420.057	93.31
420.28	100.31
420.503	107.31
420.726	100.31
420.948	102.31
421.171	95.31
421.394	111.31
421.617	124.31
421.839	117.31
422.062	121.31
422.285	99.31
422.507	110.31
422.73	135.31
422.953	149.31
423.175	120.31
423.398	99.31
423.621	116.31
423.843	108.31
424.066	99.31
424.288	89.31
424.511	100.31
424.733	110.31
424.956	91.31
425.178	106.31
425.401	119.31
425.623	97.31
425.846	95.31
426.068	105.31
426.291	106.31
426.513	104.31
426.735	98.31
426.958	105.31
427.18	99.31
427.402	88.31
427.625	96.31
427.847	110.31
428.069	106.31
428.292	105.31
428.514	101.31
428.736	100.31
428.958	98.31
429.181	93.31
429.403	104.31
429.625	97.31
429.847	96.31
430.069	126.31
430.292	121.31
430.514	124.31
430.736	117.31
430.958	104.31
431.18	111.31
431.402	85.31
431.624	104.31
431.846	92.31
432.068	103.31
432.29	97.31
432.512	118.31
432.734	98.31
432.956	91.31
433.178	106.31
433.4	105.31
433.622	89.31
433.844	102.31
434.066	85.31
434.287	100.31
434.509	102.31
434.731	117.31
434.953	90.31
435.175	86.31
435.397	114.31
435.618	103.31
435.84	94.31
436.062	115.31
436.284	80.31
436.505	97.31
436.727	108.31
436.949	102.31
437.17	106.31
437.392	91.31
437.614	83.31
437.835	103.31
438.057	92.31
438.278	100.31
438.5	113.31
438.721	92.31
438.943	117.31
439.165	125.31
439.386	108.31
439.608	107.31
439.829	110.31
440.05	129.31
440.272	113.31
440.493	116.31
440.715	117.31
440.936	109.31
441.158	99.31
441.379	99.31
441.6	102.31
441.822	121.31
442.043	120.31
442.264	141.31
442.486	131.31
442.707	105.31
442.928	107.31
443.149	117.31
443.371	103.31
443.592	99.31
443.813	103.31
444.034	108.31
444.255	109.31
444.476	115.31
444.698	94.31
444.919	94.31
445.14	192.31
445.361	141.31
445.582	113.31
445.803	101.31
446.024	100.31
446.245	101.31
446.466	123.31
446.687	123.31
446.908	93.31
447.129	121.31
447.35	106.31
447.571	103.31
447.792	113.31
448.013	107.31
448.234	99.31
448.455	109.31
448.675	104.31
448.896	104.31
449.117	130.31
449.338	153.31
449.559	151.31
449.779	136.31
450	122.31
450.221	110.31
450.442	132.31
450.662	133.31
450.883	121.31
451.104	122.31
451.324	121.31
451.545	135.31
451.766	134.31
451.986	148.31
452.207	238.31
452.428	661.31
452.648	1613.31
452.869	893.31
453.089	225.31
453.31	147.31
453.53	135.31
453.751	173.31
453.971	176.31
454.192	171.31
454.412	118.31
454.633	110.31
454.853	99.31
455.073	90.31
455.294	103.31
455.514	100.31
455.734	109.31
455.955	101.31
456.175	97.31
456.395	95.31
456.616	117.31
456.836	113.31
457.056	108.31
457.276	103.31
457.497	127.31
457.717	132.31
457.937	118.31
458.157	107.31
458.377	111.31
458.598	113.31
458.818	106.31
459.038	93.31
459.258	90.31
459.478	114.31
459.698	101.31
459.918	107.31
460.138	103.31
460.358	89.31
460.578	104.31
460.798	97.31
461.018	102.31
461.238	88.31
461.458	107.31
461.678	77.31
461.898	97.31
462.118	101.31
462.338	107.31
462.558	107.31
462.777	115.31
462.997	107.31
463.217	108.31
463.437	140.31
463.657	191.31
463.876	210.31
464.096	135.31
464.316	105.31
464.536	90.31
464.755	120.31
464.975	106.31
465.195	102.31
465.414	107.31
465.634	92.31
465.854	91.31
466.073	95.31
466.293	110.31
466.512	94.31
466.732	99.31
466.951	119.31
467.171	161.31
467.391	158.31
467.61	107.31
467.829	106.31
468.049	96.31
468.268	101.31
468.488	84.31
468.707	100.31
468.927	106.31
469.146	102.31
469.365	113.31
469.585	101.31
469.804	99.31
470.023	86.31
470.243	100.31
470.462	102.31
470.681	122.31
470.901	154.31
471.12	196.31
471.339	230.31
471.558	144.31
471.777	122.31
471.997	113.31
472.216	101.31
472.435	101.31
472.654	99.31
472.873	102.31
473.092	113.31
473.311	110.31
473.53	98.31
473.749	101.31
473.968	115.31
474.187	94.31
474.406	110.31
474.625	96.31
474.844	91.31
475.063	99.31
475.282	117.31
475.501	91.31
475.72	109.31
475.939	107.31
476.158	116.31
476.377	119.31
476.596	114.31
476.814	101.31
477.033	97.31
477.252	107.31
477.471	103.31
477.69	101.31
477.908	99.31
478.127	112.31
478.346	108.31
478.564	103.31
478.783	103.31
479.002	111.31
479.22	104.31
479.439	113.31
479.658	91.31
479.876	94.31
480.095	103.31
480.313	92.31
480.532	101.31
480.751	114.31
480.969	101.31
481.188	120.31
481.406	115.31
481.624	111.31
481.843	114.31
482.061	135.31
482.28	96.31
482.498	107.31
482.717	105.31
482.935	91.31
483.153	116.31
483.372	108.31
483.59	103.31
483.808	104.31
484.027	124.31
484.245	119.31
484.463	204.31
484.681	251.31
484.9	172.31
485.118	129.31
485.336	117.31
485.554	121.31
485.772	148.31
485.99	220.31
486.209	294.31
486.427	190.31
486.645	128.31
486.863	133.31
487.081	118.31
487.299	100.31
487.517	85.31
487.735	107.31
487.953	108.31
488.171	116.31
488.389	106.31
488.607	105.31
488.825	110.31
489.043	91.31
489.261	97.31
489.479	107.31
489.696	106.31
489.914	111.31
490.132	105.31
490.35	126.31
490.568	113.31
490.786	108.31
491.003	110.31
491.221	108.31
491.439	117.31
491.657	121.31
491.874	102.31
492.092	121.31
492.31	125.31
492.527	112.31
492.745	112.31
492.963	108.31
493.18	105.31
493.398	115.31
493.615	109.31
493.833	113.31
494.05	102.31
494.268	119.31
494.485	109.31
494.703	96.31
494.92	103.31
495.138	103.31
495.355	124.31
495.573	127.31
495.79	113.31
496.008	100.31
496.225	93.31
496.442	103.31
496.66	117.31
496.877	182.31
497.094	187.31
497.312	115.31
497.529	110.31
497.746	111.31
497.963	122.31
498.181	116.31
498.398	114.31
498.615	100.31
498.832	108.31
499.049	109.31
499.267	152.31
499.484	179.31
499.701	121.31
499.918	124.31
500.135	110.31
500.352	108.31
500.569	102.31
500.786	118.31
501.003	119.31
501.22	97.31
501.437	99.31
501.654	121.31
501.871	106.31
502.088	109.31
502.305	115.31
502.522	117.31
502.739	97.31
502.956	108.31
503.172	105.31
503.389	97.31
503.606	115.31
503.823	105.31
504.04	100.31
504.256	98.31
504.473	110.31
504.69	107.31
504.907	121.31
505.123	119.31
505.34	99.31
505.557	97.31
