Data from SnStandardFlinnAPT0064_LampEnergy5.5_LIBS07252019.E.O._I.C._HRD10591_15-15-18-491.txt Node
Date: Thu Jul 25 15:15:18 EDT 2019
User: cochatt
Spectrometer: HR+D1059
Trigger mode: 1
Integration Time (sec): 1.000000E-1
Scans to average: 1
Electric dark correction enabled: true
Nonlinearity correction enabled: false
Boxcar width: 0
XAxis mode: Wavelengths
Number of Pixels in Spectrum: 2048
>>>>>Begin Spectral Data<<<<<
223.165	-4.69
223.4	-4.69
223.635	-4.69
223.869	-28.69
224.104	-11.69
224.338	-31.69
224.573	-27.69
224.808	-22.69
225.042	-1.69
225.277	-3.69
225.511	7.31
225.746	8.31
225.98	7.31
226.215	23.31
226.449	17.31
226.683	23.31
226.918	21.31
227.152	24.31
227.387	25.31
227.621	35.31
227.856	30.31
228.09	47.31
228.324	47.31
228.559	39.31
228.793	80.31
229.027	151.31
229.262	167.31
229.496	146.31
229.73	145.31
229.964	158.31
230.199	144.31
230.433	153.31
230.667	164.31
230.901	151.31
231.136	165.31
231.37	175.31
231.604	175.31
231.838	189.31
232.072	210.31
232.306	222.31
232.541	195.31
232.775	199.31
233.009	200.31
233.243	181.31
233.477	201.31
233.711	216.31
233.945	227.31
234.179	226.31
234.413	210.31
234.647	201.31
234.881	210.31
235.115	216.31
235.349	247.31
235.583	294.31
235.817	348.31
236.051	369.31
236.285	278.31
236.519	241.31
236.753	214.31
236.987	219.31
237.221	230.31
237.455	212.31
237.689	212.31
237.922	204.31
238.156	196.31
238.39	211.31
238.624	223.31
238.858	216.31
239.091	210.31
239.325	225.31
239.559	222.31
239.793	236.31
240.027	225.31
240.26	213.31
240.494	240.31
240.728	256.31
240.961	244.31
241.195	273.31
241.429	277.31
241.662	291.31
241.896	316.31
242.13	363.31
242.363	425.31
242.597	539.31
242.83	541.31
243.064	516.31
243.298	656.31
243.531	511.31
243.765	363.31
243.998	319.31
244.232	288.31
244.465	264.31
244.699	269.31
244.932	284.31
245.166	276.31
245.399	299.31
245.633	286.31
245.866	296.31
246.099	293.31
246.333	267.31
246.566	279.31
246.8	271.31
247.033	279.31
247.266	263.31
247.5	286.31
247.733	276.31
247.966	297.31
248.2	321.31
248.433	331.31
248.666	352.31
248.899	329.31
249.133	328.31
249.366	337.31
249.599	359.31
249.832	408.31
250.066	413.31
250.299	342.31
250.532	339.31
250.765	312.31
250.998	306.31
251.231	304.31
251.465	310.31
251.698	304.31
251.931	322.31
252.164	312.31
252.397	323.31
252.63	325.31
252.863	329.31
253.096	328.31
253.329	333.31
253.562	317.31
253.795	333.31
254.028	344.31
254.261	331.31
254.494	354.31
254.727	400.31
254.96	458.31
255.193	447.31
255.426	382.31
255.659	343.31
255.892	348.31
256.124	351.31
256.357	357.31
256.59	371.31
256.823	387.31
257.056	444.31
257.289	487.31
257.521	519.31
257.754	439.31
257.987	387.31
258.22	376.31
258.452	364.31
258.685	385.31
258.918	388.31
259.151	400.31
259.383	436.31
259.616	453.31
259.849	469.31
260.081	438.31
260.314	413.31
260.547	407.31
260.779	399.31
261.012	411.31
261.244	416.31
261.477	430.31
261.71	417.31
261.942	423.31
262.175	420.31
262.407	432.31
262.64	443.31
262.872	463.31
263.105	481.31
263.337	504.31
263.57	512.31
263.802	541.31
264.035	549.31
264.267	559.31
264.499	580.31
264.732	595.31
264.964	585.31
265.197	589.31
265.429	609.31
265.661	624.31
265.894	645.31
266.126	703.31
266.358	780.31
266.591	742.31
266.823	643.31
267.055	606.31
267.287	593.31
267.52	552.31
267.752	550.31
267.984	532.31
268.216	526.31
268.448	539.31
268.681	504.31
268.913	512.31
269.145	528.31
269.377	516.31
269.609	531.31
269.841	533.31
270.073	532.31
270.306	604.31
270.538	813.31
270.77	1064.31
271.002	1290.31
271.234	968.31
271.466	694.31
271.698	593.31
271.93	559.31
272.162	546.31
272.394	541.31
272.626	521.31
272.858	519.31
273.09	500.31
273.322	502.31
273.553	500.31
273.785	509.31
274.017	495.31
274.249	505.31
274.481	533.31
274.713	485.31
274.945	527.31
275.176	518.31
275.408	513.31
275.64	521.31
275.872	521.31
276.104	508.31
276.335	509.31
276.567	500.31
276.799	515.31
277.031	522.31
277.262	511.31
277.494	532.31
277.726	595.31
277.957	683.31
278.189	733.31
278.421	687.31
278.652	630.31
278.884	623.31
279.115	592.31
279.347	553.31
279.579	571.31
279.81	552.31
280.042	569.31
280.273	577.31
280.505	574.31
280.736	576.31
280.968	619.31
281.199	673.31
281.431	719.31
281.662	744.31
281.894	643.31
282.125	613.31
282.356	635.31
282.588	649.31
282.819	656.31
283.051	692.31
283.282	717.31
283.513	889.31
283.745	1242.31
283.976	1877.31
284.207	2647.31
284.439	2360.31
284.67	1509.31
284.901	1223.31
285.132	1207.31
285.364	1140.31
285.595	932.31
285.826	888.31
286.057	1027.31
286.288	1313.31
286.52	1688.31
286.751	1594.31
286.982	1079.31
287.213	847.31
287.444	754.31
287.675	712.31
287.906	673.31
288.138	706.31
288.369	685.31
288.6	663.31
288.831	697.31
289.062	667.31
289.293	657.31
289.524	683.31
289.755	681.31
289.986	693.31
290.217	691.31
290.448	653.31
290.679	678.31
290.91	693.31
291.141	693.31
291.371	717.31
291.602	752.31
291.833	712.31
292.064	681.31
292.295	660.31
292.526	628.31
292.757	643.31
292.987	655.31
293.218	646.31
293.449	649.31
293.68	621.31
293.91	635.31
294.141	639.31
294.372	639.31
294.603	655.31
294.833	627.31
295.064	617.31
295.295	635.31
295.525	641.31
295.756	656.31
295.987	627.31
296.217	638.31
296.448	627.31
296.679	632.31
296.909	619.31
297.14	641.31
297.37	645.31
297.601	662.31
297.831	647.31
298.062	649.31
298.292	663.31
298.523	681.31
298.753	692.31
298.984	652.31
299.214	672.31
299.445	675.31
299.675	726.31
299.905	719.31
300.136	747.31
300.366	781.31
300.597	976.31
300.827	1293.31
301.057	1669.31
301.288	1707.31
301.518	1137.31
301.748	923.31
301.979	889.31
302.209	849.31
302.439	864.31
302.669	885.31
302.9	1060.31
303.13	1364.31
303.36	1943.31
303.59	2482.31
303.82	2213.31
304.051	1407.31
304.281	1054.31
304.511	924.31
304.741	867.31
304.971	829.31
305.201	779.31
305.431	785.31
305.661	778.31
305.891	755.31
306.121	733.31
306.352	765.31
306.582	758.31
306.812	736.31
307.042	749.31
307.272	732.31
307.502	751.31
307.731	724.31
307.961	723.31
308.191	731.31
308.421	712.31
308.651	724.31
308.881	722.31
309.111	719.31
309.341	739.31
309.571	727.31
309.8	740.31
310.03	744.31
310.26	708.31
310.49	748.31
310.72	756.31
310.949	769.31
311.179	742.31
311.409	781.31
311.639	790.31
311.868	799.31
312.098	773.31
312.328	769.31
312.557	774.31
312.787	783.31
313.017	789.31
313.246	790.31
313.476	785.31
313.706	830.31
313.935	836.31
314.165	848.31
314.394	894.31
314.624	883.31
314.853	845.31
315.083	855.31
315.312	831.31
315.542	854.31
315.771	858.31
316.001	877.31
316.23	897.31
316.46	878.31
316.689	981.31
316.919	1138.31
317.148	1554.31
317.377	2324.31
317.607	3338.31
317.836	3410.31
318.065	2116.31
318.295	1435.31
318.524	1190.31
318.753	1086.31
318.983	1003.31
319.212	982.31
319.441	961.31
319.67	947.31
319.9	935.31
320.129	909.31
320.358	928.31
320.587	924.31
320.816	913.31
321.046	918.31
321.275	947.31
321.504	929.31
321.733	927.31
321.962	940.31
322.191	984.31
322.42	975.31
322.649	968.31
322.878	983.31
323.108	960.31
323.337	978.31
323.566	1027.31
323.795	1031.31
324.024	1053.31
324.253	1051.31
324.482	1084.31
324.71	1143.31
324.939	1190.31
325.168	1208.31
325.397	1239.31
325.626	1399.31
325.855	1890.31
326.084	2841.31
326.313	4099.31
326.542	4271.31
326.77	2891.31
326.999	1987.31
327.228	1741.31
327.457	1647.31
327.686	1675.31
327.914	1795.31
328.143	2016.31
328.372	2275.31
328.6	2465.31
328.829	2321.31
329.058	2075.31
329.287	1820.31
329.515	1703.31
329.744	1569.31
329.972	1513.31
330.201	1467.31
330.43	1411.31
330.658	1403.31
330.887	1355.31
331.115	1331.31
331.344	1308.31
331.572	1340.31
331.801	1335.31
332.03	1325.31
332.258	1358.31
332.486	1434.31
332.715	1565.31
332.943	1846.31
333.172	2093.31
333.4	2162.31
333.629	1811.31
333.857	1636.31
334.085	1683.31
334.314	1702.31
334.542	1855.31
334.771	2131.31
334.999	2475.31
335.227	2948.31
335.455	3253.31
335.684	3063.31
335.912	2733.31
336.14	2351.31
336.369	2104.31
336.597	1979.31
336.825	1807.31
337.053	1729.31
337.281	1587.31
337.51	1543.31
337.738	1509.31
337.966	1414.31
338.194	1395.31
338.422	1341.31
338.65	1316.31
338.878	1292.31
339.106	1259.31
339.334	1259.31
339.562	1232.31
339.79	1236.31
340.018	1214.31
340.246	1207.31
340.474	1187.31
340.702	1167.31
340.93	1182.31
341.158	1197.31
341.386	1199.31
341.614	1158.31
341.842	1126.31
342.07	1149.31
342.298	1116.31
342.526	1106.31
342.754	1112.31
342.981	1101.31
343.209	1116.31
343.437	1100.31
343.665	1148.31
343.893	1116.31
344.12	1106.31
344.348	1141.31
344.576	1093.31
344.804	1075.31
345.031	1038.31
345.259	1037.31
345.487	1044.31
345.714	1053.31
345.942	1005.31
346.17	1037.31
346.397	1005.31
346.625	1016.31
346.853	1011.31
347.08	1021.31
347.308	1012.31
347.535	1004.31
347.763	983.31
347.99	985.31
348.218	975.31
348.445	979.31
348.673	1000.31
348.9	933.31
349.128	973.31
349.355	954.31
349.583	992.31
349.81	988.31
350.037	1001.31
350.265	967.31
350.492	966.31
350.72	988.31
350.947	976.31
351.174	995.31
351.402	979.31
351.629	980.31
351.856	969.31
352.083	965.31
352.311	957.31
352.538	962.31
352.765	982.31
352.992	959.31
353.22	975.31
353.447	964.31
353.674	933.31
353.901	979.31
354.128	968.31
354.355	958.31
354.583	956.31
354.81	940.31
355.037	964.31
355.264	958.31
355.491	992.31
355.718	943.31
355.945	984.31
356.172	1010.31
356.399	999.31
356.626	973.31
356.853	999.31
357.08	984.31
357.307	992.31
357.534	1007.31
357.761	1043.31
357.988	1031.31
358.215	1042.31
358.441	1031.31
358.668	1009.31
358.895	1025.31
359.122	1022.31
359.349	1011.31
359.576	1007.31
359.802	1024.31
360.029	1011.31
360.256	1009.31
360.483	1005.31
360.709	1030.31
360.936	1052.31
361.163	1061.31
361.39	1006.31
361.616	1011.31
361.843	1030.31
362.07	1045.31
362.296	1059.31
362.523	1009.31
362.749	1070.31
362.976	1041.31
363.203	1007.31
363.429	1015.31
363.656	1024.31
363.882	1030.31
364.109	1040.31
364.335	1035.31
364.562	1011.31
364.788	1030.31
365.015	1058.31
365.241	1088.31
365.468	1069.31
365.694	1107.31
365.92	1100.31
366.147	1040.31
366.373	1062.31
366.599	1064.31
366.826	1052.31
367.052	1060.31
367.278	1054.31
367.505	1093.31
367.731	1038.31
367.957	1062.31
368.184	1089.31
368.41	1077.31
368.636	1069.31
368.862	1069.31
369.089	1075.31
369.315	1051.31
369.541	1073.31
369.767	1075.31
369.993	1082.31
370.219	1058.31
370.445	1072.31
370.672	1075.31
370.898	1076.31
371.124	1088.31
371.35	1072.31
371.576	1092.31
371.802	1110.31
372.028	1125.31
372.254	1092.31
372.48	1110.31
372.706	1127.31
372.932	1113.31
373.158	1134.31
373.384	1133.31
373.61	1141.31
373.835	1148.31
374.061	1144.31
374.287	1145.31
374.513	1145.31
374.739	1177.31
374.965	1129.31
375.191	1163.31
375.416	1170.31
375.642	1190.31
375.868	1140.31
376.094	1140.31
376.319	1109.31
376.545	1128.31
376.771	1134.31
376.997	1116.31
377.222	1160.31
377.448	1120.31
377.674	1119.31
377.899	1087.31
378.125	1125.31
378.35	1085.31
378.576	1095.31
378.802	1110.31
379.027	1115.31
379.253	1124.31
379.478	1157.31
379.704	1339.31
379.929	1756.31
380.155	2461.31
380.38	2675.31
380.606	1741.31
380.831	1362.31
381.057	1248.31
381.282	1178.31
381.507	1127.31
381.733	1106.31
381.958	1103.31
382.184	1119.31
382.409	1105.31
382.634	1101.31
382.86	1085.31
383.085	1099.31
383.31	1113.31
383.535	1103.31
383.761	1119.31
383.986	1068.31
384.211	1132.31
384.436	1119.31
384.662	1131.31
384.887	1147.31
385.112	1134.31
385.337	1139.31
385.562	1151.31
385.787	1166.31
386.013	1145.31
386.238	1176.31
386.463	1170.31
386.688	1147.31
386.913	1154.31
387.138	1144.31
387.363	1138.31
387.588	1138.31
387.813	1132.31
388.038	1151.31
388.263	1118.31
388.488	1150.31
388.713	1133.31
388.938	1157.31
389.163	1149.31
389.387	1142.31
389.612	1102.31
389.837	1119.31
390.062	1131.31
390.287	1150.31
390.512	1147.31
390.736	1152.31
390.961	1171.31
391.186	1190.31
391.411	1177.31
391.636	1221.31
391.86	1201.31
392.085	1165.31
392.31	1192.31
392.534	1169.31
392.759	1180.31
392.984	1162.31
393.208	1153.31
393.433	1182.31
393.658	1148.31
393.882	1154.31
394.107	1144.31
394.331	1143.31
394.556	1168.31
394.78	1153.31
395.005	1179.31
395.229	1160.31
395.454	1179.31
395.678	1182.31
395.903	1189.31
396.127	1201.31
396.352	1170.31
396.576	1156.31
396.801	1192.31
397.025	1211.31
397.249	1195.31
397.474	1188.31
397.698	1208.31
397.922	1220.31
398.147	1205.31
398.371	1246.31
398.595	1238.31
398.82	1282.31
399.044	1315.31
399.268	1397.31
399.492	1464.31
399.717	1534.31
399.941	1499.31
400.165	1461.31
400.389	1393.31
400.613	1353.31
400.837	1304.31
401.062	1286.31
401.286	1271.31
401.51	1284.31
401.734	1277.31
401.958	1290.31
402.182	1289.31
402.406	1304.31
402.63	1271.31
402.854	1283.31
403.078	1304.31
403.302	1285.31
403.526	1307.31
403.75	1285.31
403.974	1344.31
404.198	1306.31
404.422	1316.31
404.645	1333.31
404.869	1315.31
405.093	1308.31
405.317	1318.31
405.541	1319.31
405.765	1355.31
405.988	1387.31
406.212	1333.31
406.436	1343.31
406.66	1351.31
406.883	1361.31
407.107	1379.31
407.331	1413.31
407.555	1453.31
407.778	1407.31
408.002	1412.31
408.226	1381.31
408.449	1367.31
408.673	1382.31
408.896	1331.31
409.12	1329.31
409.344	1360.31
409.567	1289.31
409.791	1313.31
410.014	1327.31
410.238	1270.31
410.461	1305.31
410.685	1303.31
410.908	1315.31
411.132	1331.31
411.355	1284.31
411.578	1260.31
411.802	1224.31
412.025	1241.31
412.249	1307.31
412.472	1231.31
412.695	1253.31
412.919	1244.31
413.142	1238.31
413.365	1236.31
413.589	1238.31
413.812	1248.31
414.035	1255.31
414.258	1216.31
414.482	1243.31
414.705	1228.31
414.928	1248.31
415.151	1250.31
415.374	1228.31
415.597	1225.31
415.821	1202.31
416.044	1221.31
416.267	1201.31
416.49	1227.31
416.713	1198.31
416.936	1215.31
417.159	1188.31
417.382	1187.31
417.605	1190.31
417.828	1219.31
418.051	1224.31
418.274	1198.31
418.497	1196.31
418.72	1214.31
418.943	1211.31
419.166	1259.31
419.389	1337.31
419.611	1323.31
419.834	1279.31
420.057	1236.31
420.28	1237.31
420.503	1215.31
420.726	1207.31
420.948	1207.31
421.171	1194.31
421.394	1187.31
421.617	1199.31
421.839	1252.31
422.062	1242.31
422.285	1180.31
422.507	1223.31
422.73	1223.31
422.953	1243.31
423.175	1203.31
423.398	1225.31
423.621	1216.31
423.843	1219.31
424.066	1241.31
424.288	1208.31
424.511	1214.31
424.733	1229.31
424.956	1188.31
425.178	1217.31
425.401	1201.31
425.623	1190.31
425.846	1142.31
426.068	1186.31
426.291	1156.31
426.513	1157.31
426.735	1140.31
426.958	1126.31
427.18	1119.31
427.402	1153.31
427.625	1182.31
427.847	1121.31
428.069	1139.31
428.292	1163.31
428.514	1127.31
428.736	1116.31
428.958	1103.31
429.181	1119.31
429.403	1090.31
429.625	1101.31
429.847	1111.31
430.069	1120.31
430.292	1163.31
430.514	1158.31
430.736	1195.31
430.958	1123.31
431.18	1092.31
431.402	1098.31
431.624	1096.31
431.846	1086.31
432.068	1103.31
432.29	1080.31
432.512	1099.31
432.734	1119.31
432.956	1112.31
433.178	1148.31
433.4	1128.31
433.622	1138.31
433.844	1141.31
434.066	1123.31
434.287	1119.31
434.509	1102.31
434.731	1120.31
434.953	1143.31
435.175	1163.31
435.397	1179.31
435.618	1132.31
435.84	1117.31
436.062	1114.31
436.284	1084.31
436.505	1104.31
436.727	1125.31
436.949	1124.31
437.17	1120.31
437.392	1121.31
437.614	1067.31
437.835	1059.31
438.057	1065.31
438.278	1061.31
438.5	1065.31
438.721	1105.31
438.943	1125.31
439.165	1119.31
439.386	1114.31
439.608	1169.31
439.829	1142.31
440.05	1159.31
440.272	1172.31
440.493	1122.31
440.715	1112.31
440.936	1151.31
441.158	1174.31
441.379	1174.31
441.6	1174.31
441.822	1239.31
442.043	1248.31
442.264	1323.31
442.486	1175.31
442.707	1199.31
442.928	1218.31
443.149	1189.31
443.371	1174.31
443.592	1189.31
443.813	1226.31
444.034	1199.31
444.255	1218.31
444.476	1234.31
444.698	1276.31
444.919	1297.31
445.14	1355.31
445.361	1279.31
445.582	1234.31
445.803	1207.31
446.024	1195.31
446.245	1196.31
446.466	1180.31
446.687	1179.31
446.908	1187.31
447.129	1146.31
447.35	1143.31
447.571	1125.31
447.792	1086.31
448.013	1098.31
448.234	1092.31
448.455	1090.31
448.675	1080.31
448.896	1126.31
449.117	1141.31
449.338	1241.31
449.559	1263.31
449.779	1124.31
450	1067.31
450.221	1058.31
450.442	1064.31
450.662	1039.31
450.883	1061.31
451.104	1094.31
451.324	1077.31
451.545	1052.31
451.766	1025.31
451.986	1059.31
452.207	1126.31
452.428	1300.31
452.648	1658.31
452.869	1499.31
453.089	1182.31
453.31	1135.31
453.53	1115.31
453.751	1149.31
453.971	1212.31
454.192	1198.31
454.412	1086.31
454.633	1056.31
454.853	1056.31
455.073	1021.31
455.294	997.31
455.514	999.31
455.734	1007.31
455.955	991.31
456.175	1016.31
456.395	990.31
456.616	991.31
456.836	1004.31
457.056	1012.31
457.276	1048.31
457.497	1083.31
457.717	1059.31
457.937	1073.31
458.157	1071.31
458.377	1063.31
458.598	1038.31
458.818	1090.31
459.038	1082.31
459.258	1091.31
459.478	1088.31
459.698	1095.31
459.918	1118.31
460.138	1149.31
460.358	1178.31
460.578	1174.31
460.798	1181.31
461.018	1205.31
461.238	1212.31
461.458	1212.31
461.678	1187.31
461.898	1246.31
462.118	1225.31
462.338	1230.31
462.558	1256.31
462.777	1319.31
462.997	1321.31
463.217	1401.31
463.437	1393.31
463.657	1408.31
463.876	1380.31
464.096	1310.31
464.316	1320.31
464.536	1330.31
464.755	1302.31
464.975	1248.31
465.195	1216.31
465.414	1170.31
465.634	1145.31
465.854	1122.31
466.073	1106.31
466.293	1131.31
466.512	1115.31
466.732	1099.31
466.951	1134.31
467.171	1190.31
467.391	1215.31
467.61	1133.31
467.829	1136.31
468.049	1068.31
468.268	1055.31
468.488	1068.31
468.707	1084.31
468.927	1087.31
469.146	1077.31
469.365	1100.31
469.585	1113.31
469.804	1126.31
470.023	1149.31
470.243	1157.31
470.462	1155.31
470.681	1230.31
470.901	1339.31
471.12	1475.31
471.339	1475.31
471.558	1253.31
471.777	1145.31
471.997	1158.31
472.216	1095.31
472.435	1079.31
472.654	1094.31
472.873	1047.31
473.092	1091.31
473.311	1096.31
473.53	1119.31
473.749	1120.31
473.968	1121.31
474.187	1109.31
474.406	1095.31
474.625	1081.31
474.844	1108.31
475.063	1096.31
475.282	1089.31
475.501	1109.31
475.72	1087.31
475.939	1135.31
476.158	1115.31
476.377	1144.31
476.596	1143.31
476.814	1151.31
477.033	1091.31
477.252	1138.31
477.471	1162.31
477.69	1209.31
477.908	1225.31
478.127	1241.31
478.346	1262.31
478.564	1248.31
478.783	1275.31
479.002	1278.31
479.22	1311.31
479.439	1298.31
479.658	1276.31
479.876	1285.31
480.095	1296.31
480.313	1329.31
480.532	1337.31
480.751	1338.31
480.969	1309.31
481.188	1261.31
481.406	1263.31
481.624	1262.31
481.843	1296.31
482.061	1305.31
482.28	1277.31
482.498	1256.31
482.717	1312.31
482.935	1324.31
483.153	1339.31
483.372	1360.31
483.59	1376.31
483.808	1350.31
484.027	1398.31
484.245	1427.31
484.463	1556.31
484.681	1714.31
484.9	1542.31
485.118	1513.31
485.336	1488.31
485.554	1510.31
485.772	1567.31
485.99	1727.31
486.209	1828.31
486.427	1556.31
486.645	1457.31
486.863	1447.31
487.081	1420.31
487.299	1401.31
487.517	1402.31
487.735	1408.31
487.953	1418.31
488.171	1424.31
488.389	1380.31
488.607	1371.31
488.825	1391.31
489.043	1315.31
489.261	1329.31
489.479	1343.31
489.696	1350.31
489.914	1328.31
490.132	1362.31
490.35	1379.31
490.568	1401.31
490.786	1391.31
491.003	1404.31
491.221	1420.31
491.439	1449.31
491.657	1435.31
