Data from SnStandardFlinnAPT0064_LampEnergy5.5_LIBS07252019.E.O._I.C._HRD10591_15-14-55-491.txt Node
Date: Thu Jul 25 15:14:55 EDT 2019
User: cochatt
Spectrometer: HR+D1059
Trigger mode: 1
Integration Time (sec): 1.000000E-1
Scans to average: 1
Electric dark correction enabled: true
Nonlinearity correction enabled: false
Boxcar width: 0
XAxis mode: Wavelengths
Number of Pixels in Spectrum: 2048
>>>>>Begin Spectral Data<<<<<
223.165	-15.56
223.4	-15.56
223.635	-15.56
223.869	-14.56
224.104	-19.56
224.338	-21.56
224.573	-14.56
224.808	-12.56
225.042	-3.56
225.277	-20.56
225.511	-11.56
225.746	8.44
225.98	4.44
226.215	25.44
226.449	18.44
226.683	18.44
226.918	30.44
227.152	28.44
227.387	34.44
227.621	52.44
227.856	52.44
228.09	48.44
228.324	36.44
228.559	51.44
228.793	58.44
229.027	142.44
229.262	150.44
229.496	141.44
229.73	145.44
229.964	166.44
230.199	128.44
230.433	149.44
230.667	151.44
230.901	158.44
231.136	173.44
231.37	171.44
231.604	182.44
231.838	180.44
232.072	217.44
232.306	217.44
232.541	199.44
232.775	203.44
233.009	166.44
233.243	198.44
233.477	182.44
233.711	204.44
233.945	243.44
234.179	202.44
234.413	194.44
234.647	200.44
234.881	219.44
235.115	223.44
235.349	248.44
235.583	310.44
235.817	380.44
236.051	358.44
236.285	256.44
236.519	232.44
236.753	224.44
236.987	217.44
237.221	222.44
237.455	217.44
237.689	220.44
237.922	193.44
238.156	197.44
238.39	212.44
238.624	225.44
238.858	229.44
239.091	228.44
239.325	227.44
239.559	210.44
239.793	213.44
240.027	257.44
240.26	231.44
240.494	227.44
240.728	227.44
240.961	242.44
241.195	258.44
241.429	277.44
241.662	265.44
241.896	308.44
242.13	375.44
242.363	437.44
242.597	558.44
242.83	536.44
243.064	530.44
243.298	609.44
243.531	508.44
243.765	344.44
243.998	317.44
244.232	280.44
244.465	263.44
244.699	262.44
244.932	287.44
245.166	275.44
245.399	261.44
245.633	293.44
245.866	298.44
246.099	280.44
246.333	275.44
246.566	270.44
246.8	258.44
247.033	274.44
247.266	268.44
247.5	272.44
247.733	296.44
247.966	291.44
248.2	297.44
248.433	330.44
248.666	368.44
248.899	357.44
249.133	349.44
249.366	346.44
249.599	363.44
249.832	386.44
250.066	400.44
250.299	346.44
250.532	323.44
250.765	316.44
250.998	302.44
251.231	308.44
251.465	322.44
251.698	300.44
251.931	315.44
252.164	322.44
252.397	323.44
252.63	318.44
252.863	315.44
253.096	327.44
253.329	341.44
253.562	330.44
253.795	329.44
254.028	340.44
254.261	349.44
254.494	379.44
254.727	410.44
254.96	454.44
255.193	449.44
255.426	382.44
255.659	358.44
255.892	369.44
256.124	356.44
256.357	356.44
256.59	374.44
256.823	393.44
257.056	426.44
257.289	478.44
257.521	492.44
257.754	440.44
257.987	385.44
258.22	396.44
258.452	363.44
258.685	377.44
258.918	380.44
259.151	379.44
259.383	421.44
259.616	435.44
259.849	460.44
260.081	416.44
260.314	406.44
260.547	403.44
260.779	404.44
261.012	382.44
261.244	397.44
261.477	402.44
261.71	424.44
261.942	411.44
262.175	435.44
262.407	466.44
262.64	442.44
262.872	455.44
263.105	477.44
263.337	510.44
263.57	527.44
263.802	530.44
264.035	532.44
264.267	561.44
264.499	557.44
264.732	580.44
264.964	605.44
265.197	591.44
265.429	580.44
265.661	599.44
265.894	604.44
266.126	677.44
266.358	720.44
266.591	729.44
266.823	620.44
267.055	618.44
267.287	586.44
267.52	540.44
267.752	563.44
267.984	551.44
268.216	521.44
268.448	528.44
268.681	537.44
268.913	502.44
269.145	506.44
269.377	512.44
269.609	514.44
269.841	513.44
270.073	554.44
270.306	592.44
270.538	780.44
270.77	1062.44
271.002	1266.44
271.234	935.44
271.466	677.44
271.698	587.44
271.93	556.44
272.162	516.44
272.394	521.44
272.626	520.44
272.858	518.44
273.09	491.44
273.322	498.44
273.553	491.44
273.785	476.44
274.017	489.44
274.249	494.44
274.481	480.44
274.713	498.44
274.945	509.44
275.176	476.44
275.408	512.44
275.64	495.44
275.872	496.44
276.104	507.44
276.335	506.44
276.567	488.44
276.799	495.44
277.031	531.44
277.262	526.44
277.494	547.44
277.726	571.44
277.957	638.44
278.189	720.44
278.421	681.44
278.652	621.44
278.884	617.44
279.115	555.44
279.347	560.44
279.579	552.44
279.81	557.44
280.042	561.44
280.273	552.44
280.505	564.44
280.736	570.44
280.968	587.44
281.199	666.44
281.431	667.44
281.662	719.44
281.894	634.44
282.125	610.44
282.356	625.44
282.588	608.44
282.819	626.44
283.051	658.44
283.282	725.44
283.513	855.44
283.745	1189.44
283.976	1856.44
284.207	2548.44
284.439	2321.44
284.67	1458.44
284.901	1222.44
285.132	1161.44
285.364	1102.44
285.595	913.44
285.826	828.44
286.057	983.44
286.288	1259.44
286.52	1657.44
286.751	1548.44
286.982	1033.44
287.213	800.44
287.444	729.44
287.675	702.44
287.906	683.44
288.138	673.44
288.369	650.44
288.6	684.44
288.831	644.44
289.062	648.44
289.293	646.44
289.524	683.44
289.755	664.44
289.986	673.44
290.217	691.44
290.448	664.44
290.679	669.44
290.91	665.44
291.141	694.44
291.371	726.44
291.602	739.44
291.833	684.44
292.064	678.44
292.295	650.44
292.526	638.44
292.757	612.44
292.987	635.44
293.218	631.44
293.449	644.44
293.68	606.44
293.91	608.44
294.141	616.44
294.372	628.44
294.603	630.44
294.833	607.44
295.064	617.44
295.295	608.44
295.525	590.44
295.756	636.44
295.987	622.44
296.217	625.44
296.448	637.44
296.679	625.44
296.909	616.44
297.14	627.44
297.37	628.44
297.601	638.44
297.831	645.44
298.062	638.44
298.292	639.44
298.523	662.44
298.753	658.44
298.984	654.44
299.214	682.44
299.445	680.44
299.675	672.44
299.905	694.44
300.136	724.44
300.366	773.44
300.597	960.44
300.827	1257.44
301.057	1653.44
301.288	1628.44
301.518	1100.44
301.748	922.44
301.979	838.44
302.209	811.44
302.439	826.44
302.669	875.44
302.9	976.44
303.13	1347.44
303.36	1857.44
303.59	2422.44
303.82	2159.44
304.051	1395.44
304.281	1047.44
304.511	891.44
304.741	834.44
304.971	801.44
305.201	789.44
305.431	739.44
305.661	727.44
305.891	714.44
306.121	733.44
306.352	725.44
306.582	748.44
306.812	710.44
307.042	741.44
307.272	712.44
307.502	709.44
307.731	729.44
307.961	698.44
308.191	723.44
308.421	698.44
308.651	729.44
308.881	691.44
309.111	726.44
309.341	704.44
309.571	710.44
309.8	711.44
310.03	728.44
310.26	739.44
310.49	723.44
310.72	754.44
310.949	730.44
311.179	746.44
311.409	768.44
311.639	743.44
311.868	739.44
312.098	742.44
312.328	738.44
312.557	765.44
312.787	751.44
313.017	756.44
313.246	788.44
313.476	787.44
313.706	797.44
313.935	816.44
314.165	840.44
314.394	882.44
314.624	851.44
314.853	840.44
315.083	820.44
315.312	810.44
315.542	829.44
315.771	822.44
316.001	834.44
316.23	880.44
316.46	910.44
316.689	944.44
316.919	1110.44
317.148	1546.44
317.377	2245.44
317.607	3210.44
317.836	3282.44
318.065	2039.44
318.295	1416.44
318.524	1184.44
318.753	1034.44
318.983	972.44
319.212	930.44
319.441	940.44
319.67	899.44
319.9	908.44
320.129	908.44
320.358	906.44
320.587	897.44
320.816	869.44
321.046	918.44
321.275	885.44
321.504	915.44
321.733	912.44
321.962	910.44
322.191	955.44
322.42	954.44
322.649	938.44
322.878	945.44
323.108	956.44
323.337	960.44
323.566	956.44
323.795	1001.44
324.024	1036.44
324.253	1007.44
324.482	1036.44
324.71	1068.44
324.939	1115.44
325.168	1167.44
325.397	1185.44
325.626	1391.44
325.855	1806.44
326.084	2733.44
326.313	3979.44
326.542	4233.44
326.77	2778.44
326.999	1948.44
327.228	1672.44
327.457	1606.44
327.686	1606.44
327.914	1703.44
328.143	1978.44
328.372	2209.44
328.6	2411.44
328.829	2301.44
329.058	2024.44
329.287	1842.44
329.515	1689.44
329.744	1585.44
329.972	1480.44
330.201	1423.44
330.43	1379.44
330.658	1293.44
330.887	1309.44
331.115	1301.44
331.344	1302.44
331.572	1262.44
331.801	1304.44
332.03	1293.44
332.258	1303.44
332.486	1399.44
332.715	1506.44
332.943	1738.44
333.172	2073.44
333.4	2061.44
333.629	1713.44
333.857	1601.44
334.085	1640.44
334.314	1692.44
334.542	1802.44
334.771	2031.44
334.999	2424.44
335.227	2906.44
335.455	3212.44
335.684	3019.44
335.912	2629.44
336.14	2308.44
336.369	2066.44
336.597	1924.44
336.825	1808.44
337.053	1685.44
337.281	1537.44
337.51	1508.44
337.738	1459.44
337.966	1426.44
338.194	1363.44
338.422	1284.44
338.65	1298.44
338.878	1284.44
339.106	1227.44
339.334	1220.44
339.562	1218.44
339.79	1195.44
340.018	1177.44
340.246	1172.44
340.474	1159.44
340.702	1186.44
340.93	1176.44
341.158	1178.44
341.386	1145.44
341.614	1161.44
341.842	1114.44
342.07	1128.44
342.298	1067.44
342.526	1072.44
342.754	1054.44
342.981	1046.44
343.209	1048.44
343.437	1073.44
343.665	1090.44
343.893	1086.44
344.12	1102.44
344.348	1078.44
344.576	1065.44
344.804	1074.44
345.031	1020.44
345.259	1017.44
345.487	1017.44
345.714	1037.44
345.942	989.44
346.17	997.44
346.397	990.44
346.625	979.44
346.853	978.44
347.08	995.44
347.308	982.44
347.535	963.44
347.763	1008.44
347.99	946.44
348.218	993.44
348.445	944.44
348.673	964.44
348.9	949.44
349.128	933.44
349.355	939.44
349.583	955.44
349.81	953.44
350.037	950.44
350.265	936.44
350.492	944.44
350.72	930.44
350.947	915.44
351.174	947.44
351.402	947.44
351.629	937.44
351.856	922.44
352.083	928.44
352.311	917.44
352.538	969.44
352.765	919.44
352.992	922.44
353.22	930.44
353.447	908.44
353.674	946.44
353.901	931.44
354.128	928.44
354.355	925.44
354.583	956.44
354.81	954.44
355.037	966.44
355.264	972.44
355.491	955.44
355.718	949.44
355.945	937.44
356.172	957.44
356.399	961.44
356.626	981.44
356.853	988.44
357.08	966.44
357.307	979.44
357.534	1001.44
357.761	1008.44
357.988	1003.44
358.215	966.44
358.441	1020.44
358.668	1010.44
358.895	982.44
359.122	997.44
359.349	1013.44
359.576	1003.44
359.802	989.44
360.029	989.44
360.256	964.44
360.483	1016.44
360.709	971.44
360.936	1004.44
361.163	1006.44
361.39	1003.44
361.616	973.44
361.843	987.44
362.07	996.44
362.296	1012.44
362.523	1006.44
362.749	1036.44
362.976	986.44
363.203	987.44
363.429	986.44
363.656	994.44
363.882	998.44
364.109	996.44
364.335	988.44
364.562	982.44
364.788	988.44
365.015	986.44
365.241	1022.44
365.468	1076.44
365.694	1080.44
365.92	1028.44
366.147	1037.44
366.373	1035.44
366.599	1001.44
366.826	1041.44
367.052	1028.44
367.278	1034.44
367.505	1041.44
367.731	1025.44
367.957	1032.44
368.184	1027.44
368.41	1052.44
368.636	1042.44
368.862	1044.44
369.089	1064.44
369.315	1039.44
369.541	1008.44
369.767	1030.44
369.993	1028.44
370.219	1026.44
370.445	1044.44
370.672	1043.44
370.898	1059.44
371.124	1048.44
371.35	1041.44
371.576	1083.44
371.802	1078.44
372.028	1064.44
372.254	1062.44
372.48	1074.44
372.706	1086.44
372.932	1127.44
373.158	1081.44
373.384	1108.44
373.61	1086.44
373.835	1086.44
374.061	1095.44
374.287	1146.44
374.513	1136.44
374.739	1105.44
374.965	1110.44
375.191	1140.44
375.416	1123.44
375.642	1111.44
375.868	1134.44
376.094	1140.44
376.319	1073.44
376.545	1092.44
376.771	1080.44
376.997	1068.44
377.222	1029.44
377.448	1053.44
377.674	1071.44
377.899	1090.44
378.125	1082.44
378.35	1061.44
378.576	1069.44
378.802	1078.44
379.027	1101.44
379.253	1133.44
379.478	1154.44
379.704	1278.44
379.929	1706.44
380.155	2390.44
380.38	2573.44
380.606	1728.44
380.831	1321.44
381.057	1183.44
381.282	1141.44
381.507	1116.44
381.733	1101.44
381.958	1079.44
382.184	1075.44
382.409	1056.44
382.634	1060.44
382.86	1076.44
383.085	1045.44
383.31	1087.44
383.535	1076.44
383.761	1074.44
383.986	1066.44
384.211	1097.44
384.436	1075.44
384.662	1077.44
384.887	1087.44
385.112	1098.44
385.337	1102.44
385.562	1092.44
385.787	1120.44
386.013	1127.44
386.238	1087.44
386.463	1117.44
386.688	1104.44
386.913	1099.44
387.138	1112.44
387.363	1115.44
387.588	1115.44
387.813	1101.44
388.038	1086.44
388.263	1077.44
388.488	1102.44
388.713	1113.44
388.938	1106.44
389.163	1067.44
389.387	1105.44
389.612	1093.44
389.837	1106.44
390.062	1106.44
390.287	1089.44
390.512	1121.44
390.736	1150.44
390.961	1141.44
391.186	1125.44
391.411	1161.44
391.636	1160.44
391.86	1166.44
392.085	1178.44
392.31	1143.44
392.534	1118.44
392.759	1122.44
392.984	1130.44
393.208	1127.44
393.433	1102.44
393.658	1097.44
393.882	1111.44
394.107	1127.44
394.331	1129.44
394.556	1123.44
394.78	1148.44
395.005	1147.44
395.229	1100.44
395.454	1144.44
395.678	1156.44
395.903	1152.44
396.127	1180.44
396.352	1132.44
396.576	1148.44
396.801	1141.44
397.025	1115.44
397.249	1170.44
397.474	1177.44
397.698	1177.44
397.922	1179.44
398.147	1203.44
398.371	1186.44
398.595	1194.44
398.82	1225.44
399.044	1291.44
399.268	1358.44
399.492	1414.44
399.717	1492.44
399.941	1453.44
400.165	1431.44
400.389	1350.44
400.613	1296.44
400.837	1271.44
401.062	1245.44
401.286	1218.44
401.51	1226.44
401.734	1183.44
401.958	1205.44
402.182	1226.44
402.406	1207.44
402.63	1236.44
402.854	1251.44
403.078	1198.44
403.302	1277.44
403.526	1293.44
403.75	1266.44
403.974	1289.44
404.198	1284.44
404.422	1282.44
404.645	1285.44
404.869	1266.44
405.093	1301.44
405.317	1273.44
405.541	1262.44
405.765	1276.44
405.988	1294.44
406.212	1310.44
406.436	1257.44
406.66	1282.44
406.883	1304.44
407.107	1349.44
407.331	1346.44
407.555	1381.44
407.778	1375.44
408.002	1341.44
408.226	1336.44
408.449	1320.44
408.673	1292.44
408.896	1292.44
409.12	1286.44
409.344	1300.44
409.567	1253.44
409.791	1274.44
410.014	1242.44
410.238	1265.44
410.461	1232.44
410.685	1255.44
410.908	1250.44
411.132	1255.44
411.355	1205.44
411.578	1206.44
411.802	1214.44
412.025	1211.44
412.249	1240.44
412.472	1224.44
412.695	1202.44
412.919	1204.44
413.142	1227.44
413.365	1177.44
413.589	1212.44
413.812	1198.44
414.035	1188.44
414.258	1179.44
414.482	1204.44
414.705	1226.44
414.928	1183.44
415.151	1186.44
415.374	1179.44
415.597	1196.44
415.821	1189.44
416.044	1145.44
416.267	1168.44
416.49	1136.44
416.713	1151.44
416.936	1154.44
417.159	1161.44
417.382	1162.44
417.605	1153.44
417.828	1157.44
418.051	1144.44
418.274	1190.44
418.497	1163.44
418.72	1179.44
418.943	1172.44
419.166	1220.44
419.389	1269.44
419.611	1284.44
419.834	1228.44
420.057	1190.44
420.28	1191.44
420.503	1136.44
420.726	1167.44
420.948	1138.44
421.171	1156.44
421.394	1173.44
421.617	1152.44
421.839	1176.44
422.062	1193.44
422.285	1162.44
422.507	1191.44
422.73	1180.44
422.953	1146.44
423.175	1208.44
423.398	1175.44
423.621	1204.44
423.843	1175.44
424.066	1174.44
424.288	1157.44
424.511	1133.44
424.733	1152.44
424.956	1136.44
425.178	1154.44
425.401	1181.44
425.623	1166.44
425.846	1127.44
426.068	1126.44
426.291	1123.44
426.513	1102.44
426.735	1095.44
426.958	1096.44
427.18	1088.44
427.402	1105.44
427.625	1102.44
427.847	1073.44
428.069	1093.44
428.292	1081.44
428.514	1084.44
428.736	1081.44
428.958	1072.44
429.181	1059.44
429.403	1081.44
429.625	1055.44
429.847	1071.44
430.069	1101.44
430.292	1119.44
430.514	1118.44
430.736	1143.44
430.958	1090.44
431.18	1074.44
431.402	1060.44
431.624	1044.44
431.846	1029.44
432.068	1023.44
432.29	1066.44
432.512	1029.44
432.734	1077.44
432.956	1063.44
433.178	1094.44
433.4	1093.44
433.622	1085.44
433.844	1097.44
434.066	1084.44
434.287	1065.44
434.509	1052.44
434.731	1082.44
434.953	1082.44
435.175	1140.44
435.397	1124.44
435.618	1096.44
435.84	1047.44
436.062	1065.44
436.284	1092.44
436.505	1053.44
436.727	1072.44
436.949	1053.44
437.17	1090.44
437.392	1045.44
437.614	1032.44
437.835	1064.44
438.057	1033.44
438.278	1035.44
438.5	1022.44
438.721	1062.44
438.943	1072.44
439.165	1076.44
439.386	1114.44
439.608	1082.44
439.829	1119.44
440.05	1133.44
440.272	1101.44
440.493	1118.44
440.715	1085.44
440.936	1097.44
441.158	1126.44
441.379	1166.44
441.6	1126.44
441.822	1186.44
442.043	1204.44
442.264	1238.44
442.486	1169.44
442.707	1153.44
442.928	1157.44
443.149	1146.44
443.371	1150.44
443.592	1157.44
443.813	1129.44
444.034	1172.44
444.255	1163.44
444.476	1212.44
444.698	1228.44
444.919	1239.44
445.14	1309.44
445.361	1219.44
445.582	1184.44
445.803	1158.44
446.024	1172.44
446.245	1141.44
446.466	1120.44
446.687	1127.44
446.908	1151.44
447.129	1110.44
447.35	1123.44
447.571	1112.44
447.792	1056.44
448.013	1094.44
448.234	1048.44
448.455	1074.44
448.675	1081.44
448.896	1094.44
449.117	1090.44
449.338	1146.44
449.559	1189.44
449.779	1101.44
450	1045.44
450.221	1002.44
450.442	1016.44
450.662	1035.44
450.883	1005.44
451.104	1012.44
451.324	1014.44
451.545	1020.44
451.766	1024.44
451.986	1031.44
452.207	1100.44
452.428	1266.44
452.648	1640.44
452.869	1453.44
453.089	1148.44
453.31	1123.44
453.53	1104.44
453.751	1118.44
453.971	1185.44
454.192	1165.44
454.412	1036.44
454.633	991.44
454.853	1019.44
455.073	993.44
455.294	966.44
455.514	980.44
455.734	968.44
455.955	960.44
456.175	980.44
456.395	968.44
456.616	984.44
456.836	990.44
457.056	960.44
457.276	983.44
457.497	1039.44
457.717	1051.44
457.937	1009.44
458.157	1024.44
458.377	1023.44
458.598	1021.44
458.818	1042.44
459.038	1043.44
459.258	1031.44
459.478	1078.44
459.698	1073.44
459.918	1112.44
460.138	1137.44
460.358	1134.44
460.578	1110.44
460.798	1145.44
461.018	1139.44
461.238	1162.44
461.458	1145.44
461.678	1164.44
461.898	1177.44
462.118	1173.44
462.338	1223.44
462.558	1211.44
462.777	1254.44
462.997	1300.44
463.217	1338.44
463.437	1367.44
463.657	1325.44
463.876	1354.44
464.096	1298.44
464.316	1238.44
464.536	1244.44
464.755	1214.44
464.975	1206.44
465.195	1165.44
465.414	1107.44
465.634	1115.44
465.854	1100.44
466.073	1093.44
466.293	1075.44
466.512	1099.44
466.732	1098.44
466.951	1128.44
467.171	1151.44
467.391	1179.44
467.61	1088.44
467.829	1072.44
468.049	1047.44
468.268	1064.44
468.488	1048.44
468.707	1023.44
468.927	1050.44
469.146	1050.44
469.365	1059.44
469.585	1076.44
469.804	1087.44
470.023	1117.44
470.243	1102.44
470.462	1131.44
470.681	1160.44
470.901	1259.44
471.12	1396.44
471.339	1406.44
471.558	1212.44
471.777	1130.44
471.997	1100.44
472.216	1060.44
472.435	1050.44
472.654	1047.44
472.873	1049.44
473.092	1036.44
473.311	1059.44
473.53	1046.44
473.749	1072.44
473.968	1116.44
474.187	1064.44
474.406	1054.44
474.625	1068.44
474.844	1074.44
475.063	1055.44
475.282	1062.44
475.501	1042.44
475.72	1087.44
475.939	1072.44
476.158	1098.44
476.377	1105.44
476.596	1114.44
476.814	1124.44
477.033	1088.44
477.252	1137.44
477.471	1164.44
477.69	1156.44
477.908	1195.44
478.127	1206.44
478.346	1183.44
478.564	1208.44
478.783	1230.44
479.002	1265.44
479.22	1256.44
479.439	1241.44
479.658	1245.44
479.876	1239.44
480.095	1274.44
480.313	1288.44
480.532	1325.44
480.751	1300.44
480.969	1283.44
481.188	1235.44
481.406	1233.44
481.624	1192.44
481.843	1232.44
482.061	1243.44
482.28	1256.44
482.498	1253.44
482.717	1234.44
482.935	1273.44
483.153	1310.44
483.372	1320.44
483.59	1321.44
483.808	1355.44
484.027	1369.44
484.245	1391.44
484.463	1502.44
484.681	1628.44
484.9	1512.44
485.118	1430.44
485.336	1419.44
485.554	1456.44
485.772	1515.44
485.99	1661.44
486.209	1804.44
486.427	1551.44
486.645	1441.44
486.863	1341.44
487.081	1352.44
487.299	1339.44
487.517	1346.44
487.735	1391.44
487.953	1385.44
488.171	1388.44
488.389	1350.44
488.607	1330.44
488.825	1307.44
489.043	1303.44
489.261	1322.44
489.479	1295.44
489.696	1310.44
489.914	1331.44
490.132	1326.44
490.35	1338.44
490.568	1333.44
490.786	1364.44
491.003	1361.44
491.221	1389.44
491.439	1383.44
491.657	1387.44
491.874	1420.44
492.092	1411.44
