Data from SnStandardFlinnAPT0064_LampEnergy10_LIBS07252019.E.O._I.C._HRD10591_15-20-40-494.txt Node
Date: Thu Jul 25 15:20:40 EDT 2019
User: cochatt
Spectrometer: HR+D1059
Trigger mode: 1
Integration Time (sec): 1.000000E-1
Scans to average: 1
Electric dark correction enabled: true
Nonlinearity correction enabled: false
Boxcar width: 0
XAxis mode: Wavelengths
Number of Pixels in Spectrum: 2048
>>>>>Begin Spectral Data<<<<<
223.165	-13.88
223.4	-13.88
223.635	-13.88
223.869	-19.88
224.104	-7.88
224.338	-18.88
224.573	2.12
224.808	1.12
225.042	-2.88
225.277	-11.88
225.511	-5.88
225.746	4.12
225.98	-7.88
226.215	8.12
226.449	14.12
226.683	6.12
226.918	22.12
227.152	31.12
227.387	24.12
227.621	34.12
227.856	34.12
228.09	42.12
228.324	41.12
228.559	45.12
228.793	115.12
229.027	294.12
229.262	340.12
229.496	283.12
229.73	283.12
229.964	287.12
230.199	287.12
230.433	314.12
230.667	303.12
230.901	328.12
231.136	332.12
231.37	356.12
231.604	383.12
231.838	430.12
232.072	510.12
232.306	532.12
232.541	478.12
232.775	404.12
233.009	384.12
233.243	420.12
233.477	429.12
233.711	509.12
233.945	592.12
234.179	481.12
234.413	441.12
234.647	439.12
234.881	453.12
235.115	522.12
235.349	623.12
235.583	760.12
235.817	994.12
236.051	950.12
236.285	645.12
236.519	525.12
236.753	493.12
236.987	487.12
237.221	540.12
237.455	493.12
237.689	459.12
237.922	470.12
238.156	478.12
238.39	454.12
238.624	458.12
238.858	470.12
239.091	486.12
239.325	466.12
239.559	484.12
239.793	500.12
240.027	517.12
240.26	528.12
240.494	546.12
240.728	596.12
240.961	589.12
241.195	645.12
241.429	674.12
241.662	704.12
241.896	793.12
242.13	926.12
242.363	1235.12
242.597	1654.12
242.83	1516.12
243.064	1563.12
243.298	1808.12
243.531	1485.12
243.765	946.12
243.998	776.12
244.232	679.12
244.465	642.12
244.699	629.12
244.932	627.12
245.166	633.12
245.399	658.12
245.633	696.12
245.866	684.12
246.099	665.12
246.333	634.12
246.566	634.12
246.8	634.12
247.033	642.12
247.266	646.12
247.5	644.12
247.733	661.12
247.966	702.12
248.2	785.12
248.433	874.12
248.666	1000.12
248.899	945.12
249.133	824.12
249.366	861.12
249.599	945.12
249.832	1048.12
250.066	1070.12
250.299	842.12
250.532	766.12
250.765	733.12
250.998	724.12
251.231	710.12
251.465	701.12
251.698	747.12
251.931	731.12
252.164	712.12
252.397	762.12
252.63	774.12
252.863	774.12
253.096	769.12
253.329	780.12
253.562	764.12
253.795	787.12
254.028	797.12
254.261	831.12
254.494	864.12
254.727	1025.12
254.96	1228.12
255.193	1218.12
255.426	956.12
255.659	873.12
255.892	828.12
256.124	821.12
256.357	864.12
256.59	899.12
256.823	955.12
257.056	1110.12
257.289	1315.12
257.521	1418.12
257.754	1180.12
257.987	953.12
258.22	880.12
258.452	890.12
258.685	925.12
258.918	937.12
259.151	985.12
259.383	1058.12
259.616	1162.12
259.849	1263.12
260.081	1092.12
260.314	976.12
260.547	932.12
260.779	939.12
261.012	950.12
261.244	961.12
261.477	968.12
261.71	972.12
261.942	959.12
262.175	987.12
262.407	1030.12
262.64	1046.12
262.872	1074.12
263.105	1145.12
263.337	1173.12
263.57	1239.12
263.802	1284.12
264.035	1305.12
264.267	1313.12
264.499	1365.12
264.732	1402.12
264.964	1422.12
265.197	1401.12
265.429	1405.12
265.661	1434.12
265.894	1516.12
266.126	1697.12
266.358	1940.12
266.591	1883.12
266.823	1621.12
267.055	1397.12
267.287	1353.12
267.52	1304.12
267.752	1294.12
267.984	1251.12
268.216	1221.12
268.448	1250.12
268.681	1208.12
268.913	1197.12
269.145	1230.12
269.377	1231.12
269.609	1228.12
269.841	1254.12
270.073	1347.12
270.306	1589.12
270.538	2110.12
270.77	3265.12
271.002	3957.12
271.234	2808.12
271.466	1861.12
271.698	1472.12
271.93	1375.12
272.162	1315.12
272.394	1278.12
272.626	1245.12
272.858	1196.12
273.09	1193.12
273.322	1199.12
273.553	1205.12
273.785	1180.12
274.017	1174.12
274.249	1201.12
274.481	1146.12
274.713	1197.12
274.945	1187.12
275.176	1200.12
275.408	1186.12
275.64	1249.12
275.872	1207.12
276.104	1230.12
276.335	1232.12
276.567	1244.12
276.799	1257.12
277.031	1249.12
277.262	1314.12
277.494	1376.12
277.726	1550.12
277.957	1808.12
278.189	2100.12
278.421	1964.12
278.652	1703.12
278.884	1642.12
279.115	1479.12
279.347	1449.12
279.579	1369.12
279.81	1354.12
280.042	1340.12
280.273	1356.12
280.505	1426.12
280.736	1471.12
280.968	1566.12
281.199	1742.12
281.431	1995.12
281.662	2066.12
281.894	1769.12
282.125	1612.12
282.356	1617.12
282.588	1619.12
282.819	1721.12
283.051	1768.12
283.282	1996.12
283.513	2446.12
283.745	3566.12
283.976	5688.12
284.207	8068.12
284.439	7342.12
284.67	4511.12
284.901	3698.12
285.132	3729.12
285.364	3545.12
285.595	2719.12
285.826	2388.12
286.057	2844.12
286.288	3929.12
286.52	5252.12
286.751	4858.12
286.982	3062.12
287.213	2272.12
287.444	1968.12
287.675	1836.12
287.906	1776.12
288.138	1730.12
288.369	1700.12
288.6	1661.12
288.831	1653.12
289.062	1667.12
289.293	1688.12
289.524	1650.12
289.755	1692.12
289.986	1666.12
290.217	1712.12
290.448	1675.12
290.679	1718.12
290.91	1767.12
291.141	1800.12
291.371	1978.12
291.602	2080.12
291.833	1877.12
292.064	1746.12
292.295	1671.12
292.526	1625.12
292.757	1572.12
292.987	1619.12
293.218	1538.12
293.449	1576.12
293.68	1573.12
293.91	1565.12
294.141	1559.12
294.372	1578.12
294.603	1556.12
294.833	1532.12
295.064	1529.12
295.295	1504.12
295.525	1497.12
295.756	1538.12
295.987	1542.12
296.217	1548.12
296.448	1522.12
296.679	1560.12
296.909	1551.12
297.14	1570.12
297.37	1591.12
297.601	1607.12
297.831	1596.12
298.062	1631.12
298.292	1636.12
298.523	1678.12
298.753	1692.12
298.984	1680.12
299.214	1712.12
299.445	1693.12
299.675	1768.12
299.905	1852.12
300.136	1878.12
300.366	2162.12
300.597	2735.12
300.827	3814.12
301.057	5220.12
301.288	5172.12
301.518	3437.12
301.748	2589.12
301.979	2299.12
302.209	2284.12
302.439	2251.12
302.669	2441.12
302.9	2948.12
303.13	4084.12
303.36	6163.12
303.59	8191.12
303.82	7150.12
304.051	4203.12
304.281	3008.12
304.511	2508.12
304.741	2331.12
304.971	2175.12
305.201	2042.12
305.431	1999.12
305.661	1945.12
305.891	1914.12
306.121	1870.12
306.352	1850.12
306.582	1828.12
306.812	1790.12
307.042	1868.12
307.272	1808.12
307.502	1796.12
307.731	1799.12
307.961	1786.12
308.191	1807.12
308.421	1779.12
308.651	1795.12
308.881	1743.12
309.111	1774.12
309.341	1791.12
309.571	1816.12
309.8	1835.12
310.03	1814.12
310.26	1810.12
310.49	1819.12
310.72	1822.12
310.949	1832.12
311.179	1854.12
311.409	1882.12
311.639	1921.12
311.868	1900.12
312.098	1938.12
312.328	1959.12
312.557	1936.12
312.787	1964.12
313.017	1960.12
313.246	1919.12
313.476	1987.12
313.706	2052.12
313.935	2191.12
314.165	2377.12
314.394	2444.12
314.624	2334.12
314.853	2190.12
315.083	2158.12
315.312	2142.12
315.542	2141.12
315.771	2183.12
316.001	2190.12
316.23	2309.12
316.46	2412.12
316.689	2651.12
316.919	3180.12
317.148	4580.12
317.377	7050.12
317.607	10424.12
317.836	10831.12
318.065	6578.12
318.295	4273.12
318.524	3371.12
318.753	2979.12
318.983	2720.12
319.212	2528.12
319.441	2493.12
319.67	2404.12
319.9	2353.12
320.129	2328.12
320.358	2344.12
320.587	2285.12
320.816	2308.12
321.046	2317.12
321.275	2288.12
321.504	2334.12
321.733	2392.12
321.962	2462.12
322.191	2504.12
322.42	2475.12
322.649	2436.12
322.878	2466.12
323.108	2435.12
323.337	2499.12
323.566	2564.12
323.795	2613.12
324.024	2606.12
324.253	2677.12
324.482	2818.12
324.71	3004.12
324.939	3215.12
325.168	3250.12
325.397	3381.12
325.626	3976.12
325.855	5588.12
326.084	8778.12
326.313	12697.12
326.542	13411.12
326.77	9004.12
326.999	5889.12
327.228	4899.12
327.457	4736.12
327.686	4748.12
327.914	5061.12
328.143	5964.12
328.372	7141.12
328.6	7740.12
328.829	6972.12
329.058	5805.12
329.287	5025.12
329.515	4641.12
329.744	4265.12
329.972	4071.12
330.201	3866.12
330.43	3717.12
330.658	3621.12
330.887	3514.12
331.115	3417.12
331.344	3434.12
331.572	3398.12
331.801	3472.12
332.03	3468.12
332.258	3548.12
332.486	3707.12
332.715	4257.12
332.943	5222.12
333.172	6534.12
333.4	6540.12
333.629	4959.12
333.857	4450.12
334.085	4476.12
334.314	4648.12
334.542	5113.12
334.771	5986.12
334.999	7415.12
335.227	9272.12
335.455	10517.12
335.684	9383.12
335.912	7743.12
336.14	6526.12
336.369	5696.12
336.597	5157.12
336.825	4830.12
337.053	4469.12
337.281	4216.12
337.51	3941.12
337.738	3836.12
337.966	3676.12
338.194	3557.12
338.422	3411.12
338.65	3290.12
338.878	3253.12
339.106	3213.12
339.334	3190.12
339.562	3125.12
339.79	3026.12
340.018	3022.12
340.246	3042.12
340.474	2987.12
340.702	2956.12
340.93	2972.12
341.158	2990.12
341.386	2944.12
341.614	2983.12
341.842	2867.12
342.07	2824.12
342.298	2744.12
342.526	2765.12
342.754	2702.12
342.981	2669.12
343.209	2690.12
343.437	2700.12
343.665	2741.12
343.893	2773.12
344.12	2775.12
344.348	2764.12
344.576	2674.12
344.804	2640.12
345.031	2640.12
345.259	2591.12
345.487	2581.12
345.714	2520.12
345.942	2511.12
346.17	2542.12
346.397	2538.12
346.625	2513.12
346.853	2478.12
347.08	2538.12
347.308	2529.12
347.535	2492.12
347.763	2474.12
347.99	2480.12
348.218	2433.12
348.445	2417.12
348.673	2409.12
348.9	2440.12
349.128	2464.12
349.355	2421.12
349.583	2405.12
349.81	2396.12
350.037	2370.12
350.265	2416.12
350.492	2325.12
350.72	2380.12
350.947	2366.12
351.174	2364.12
351.402	2360.12
351.629	2338.12
351.856	2340.12
352.083	2369.12
352.311	2346.12
352.538	2360.12
352.765	2305.12
352.992	2362.12
353.22	2356.12
353.447	2403.12
353.674	2384.12
353.901	2382.12
354.128	2390.12
354.355	2353.12
354.583	2379.12
354.81	2352.12
355.037	2407.12
355.264	2418.12
355.491	2391.12
355.718	2382.12
355.945	2393.12
356.172	2412.12
356.399	2450.12
356.626	2424.12
356.853	2504.12
357.08	2496.12
357.307	2511.12
357.534	2500.12
357.761	2562.12
357.988	2556.12
358.215	2592.12
358.441	2563.12
358.668	2498.12
358.895	2520.12
359.122	2500.12
359.349	2509.12
359.576	2481.12
359.802	2472.12
360.029	2485.12
360.256	2460.12
360.483	2520.12
360.709	2514.12
360.936	2580.12
361.163	2517.12
361.39	2494.12
361.616	2514.12
361.843	2561.12
362.07	2497.12
362.296	2586.12
362.523	2556.12
362.749	2564.12
362.976	2507.12
363.203	2518.12
363.429	2558.12
363.656	2468.12
363.882	2502.12
364.109	2541.12
364.335	2514.12
364.562	2504.12
364.788	2526.12
365.015	2576.12
365.241	2595.12
365.468	2739.12
365.694	2907.12
365.92	2764.12
366.147	2600.12
366.373	2574.12
366.599	2621.12
366.826	2549.12
367.052	2578.12
367.278	2565.12
367.505	2561.12
367.731	2607.12
367.957	2586.12
368.184	2572.12
368.41	2651.12
368.636	2646.12
368.862	2706.12
369.089	2604.12
369.315	2598.12
369.541	2576.12
369.767	2635.12
369.993	2570.12
370.219	2587.12
370.445	2566.12
370.672	2625.12
370.898	2635.12
371.124	2635.12
371.35	2643.12
371.576	2679.12
371.802	2698.12
372.028	2712.12
372.254	2641.12
372.48	2722.12
372.706	2704.12
372.932	2808.12
373.158	2749.12
373.384	2781.12
373.61	2732.12
373.835	2784.12
374.061	2761.12
374.287	2788.12
374.513	2766.12
374.739	2866.12
374.965	2848.12
375.191	2883.12
375.416	2911.12
375.642	2770.12
375.868	2765.12
376.094	2769.12
376.319	2745.12
376.545	2776.12
376.771	2728.12
376.997	2653.12
377.222	2676.12
377.448	2698.12
377.674	2676.12
377.899	2630.12
378.125	2673.12
378.35	2676.12
378.576	2685.12
378.802	2736.12
379.027	2803.12
379.253	2887.12
379.478	3021.12
379.704	3536.12
379.929	5069.12
380.155	7811.12
380.38	8524.12
380.606	5209.12
380.831	3633.12
381.057	3163.12
381.282	2959.12
381.507	2856.12
381.733	2778.12
381.958	2740.12
382.184	2662.12
382.409	2675.12
382.634	2672.12
382.86	2610.12
383.085	2686.12
383.31	2598.12
383.535	2651.12
383.761	2604.12
383.986	2716.12
384.211	2728.12
384.436	2753.12
384.662	2761.12
384.887	2785.12
385.112	2729.12
385.337	2758.12
385.562	2781.12
385.787	2721.12
386.013	2761.12
386.238	2738.12
386.463	2726.12
386.688	2760.12
386.913	2694.12
387.138	2703.12
387.363	2726.12
387.588	2743.12
387.813	2772.12
388.038	2724.12
388.263	2736.12
388.488	2724.12
388.713	2710.12
388.938	2753.12
389.163	2730.12
389.387	2690.12
389.612	2714.12
389.837	2738.12
390.062	2773.12
390.287	2769.12
390.512	2764.12
390.736	2775.12
390.961	2862.12
391.186	2835.12
391.411	2849.12
391.636	2856.12
391.86	2938.12
392.085	2860.12
392.31	2853.12
392.534	2844.12
392.759	2840.12
392.984	2821.12
393.208	2778.12
393.433	2844.12
393.658	2810.12
393.882	2750.12
394.107	2755.12
394.331	2844.12
394.556	2746.12
394.78	2802.12
395.005	2766.12
395.229	2818.12
395.454	2867.12
395.678	2871.12
395.903	2813.12
396.127	2869.12
396.352	2832.12
396.576	2838.12
396.801	2822.12
397.025	2834.12
397.249	2881.12
397.474	2921.12
397.698	2892.12
397.922	2888.12
398.147	2899.12
398.371	2952.12
398.595	2958.12
398.82	3090.12
399.044	3195.12
399.268	3352.12
399.492	3555.12
399.717	3636.12
399.941	3626.12
400.165	3429.12
400.389	3366.12
400.613	3191.12
400.837	3087.12
401.062	3113.12
401.286	3068.12
401.51	3031.12
401.734	3008.12
401.958	3084.12
402.182	3011.12
402.406	3032.12
402.63	3050.12
402.854	3090.12
403.078	3077.12
403.302	3119.12
403.526	3130.12
403.75	3161.12
403.974	3173.12
404.198	3140.12
404.422	3139.12
404.645	3179.12
404.869	3153.12
405.093	3118.12
405.317	3145.12
405.541	3153.12
405.765	3256.12
405.988	3237.12
406.212	3245.12
406.436	3244.12
406.66	3228.12
406.883	3228.12
407.107	3408.12
407.331	3404.12
407.555	3393.12
407.778	3461.12
408.002	3317.12
408.226	3336.12
408.449	3402.12
408.673	3258.12
408.896	3181.12
409.12	3220.12
409.344	3309.12
409.567	3139.12
409.791	3140.12
410.014	3126.12
410.238	3107.12
410.461	3096.12
410.685	3103.12
410.908	3115.12
411.132	3132.12
411.355	3004.12
411.578	3079.12
411.802	3004.12
412.025	3011.12
412.249	3007.12
412.472	3025.12
412.695	2973.12
412.919	2973.12
413.142	2951.12
413.365	2938.12
413.589	3001.12
413.812	2936.12
414.035	2974.12
414.258	2954.12
414.482	2940.12
414.705	3000.12
414.928	2963.12
415.151	2937.12
415.374	2931.12
415.597	2949.12
415.821	2864.12
416.044	2814.12
416.267	2840.12
416.49	2883.12
416.713	2799.12
416.936	2844.12
417.159	2788.12
417.382	2714.12
417.605	2800.12
417.828	2794.12
418.051	2843.12
418.274	2875.12
418.497	2869.12
418.72	2964.12
418.943	2896.12
419.166	3040.12
419.389	3152.12
419.611	3108.12
419.834	3069.12
420.057	2989.12
420.28	2931.12
420.503	2818.12
420.726	2839.12
420.948	2803.12
421.171	2821.12
421.394	2845.12
421.617	2836.12
421.839	2862.12
422.062	2900.12
422.285	2822.12
422.507	2882.12
422.73	2915.12
422.953	2925.12
423.175	2922.12
423.398	2935.12
423.621	2884.12
423.843	2883.12
424.066	2862.12
424.288	2822.12
424.511	2876.12
424.733	2828.12
424.956	2819.12
425.178	2819.12
425.401	2815.12
425.623	2811.12
425.846	2739.12
426.068	2736.12
426.291	2772.12
426.513	2688.12
426.735	2743.12
426.958	2715.12
427.18	2675.12
427.402	2732.12
427.625	2702.12
427.847	2680.12
428.069	2615.12
428.292	2651.12
428.514	2642.12
428.736	2581.12
428.958	2665.12
429.181	2564.12
429.403	2613.12
429.625	2578.12
429.847	2625.12
430.069	2659.12
430.292	2777.12
430.514	2843.12
430.736	2826.12
430.958	2682.12
431.18	2589.12
431.402	2621.12
431.624	2545.12
431.846	2596.12
432.068	2584.12
432.29	2604.12
432.512	2559.12
432.734	2629.12
432.956	2608.12
433.178	2618.12
433.4	2614.12
433.622	2664.12
433.844	2682.12
434.066	2608.12
434.287	2625.12
434.509	2666.12
434.731	2672.12
434.953	2697.12
435.175	2737.12
435.397	2715.12
435.618	2665.12
435.84	2600.12
436.062	2596.12
436.284	2622.12
436.505	2603.12
436.727	2626.12
436.949	2570.12
437.17	2604.12
437.392	2593.12
437.614	2560.12
437.835	2479.12
438.057	2588.12
438.278	2499.12
438.5	2515.12
438.721	2547.12
438.943	2673.12
439.165	2669.12
439.386	2692.12
439.608	2702.12
439.829	2665.12
440.05	2764.12
440.272	2838.12
440.493	2731.12
440.715	2698.12
440.936	2680.12
441.158	2783.12
441.379	2732.12
441.6	2828.12
441.822	2902.12
442.043	3049.12
442.264	3198.12
442.486	2916.12
442.707	2830.12
442.928	2820.12
443.149	2778.12
443.371	2768.12
443.592	2773.12
443.813	2801.12
444.034	2793.12
444.255	2832.12
444.476	2912.12
444.698	2984.12
444.919	3015.12
445.14	3058.12
445.361	2926.12
445.582	2862.12
445.803	2753.12
446.024	2749.12
446.245	2767.12
446.466	2739.12
446.687	2709.12
446.908	2740.12
447.129	2634.12
447.35	2607.12
447.571	2568.12
447.792	2555.12
448.013	2582.12
448.234	2586.12
448.455	2610.12
448.675	2590.12
448.896	2669.12
449.117	2742.12
449.338	2995.12
449.559	3086.12
449.779	2761.12
450	2558.12
450.221	2511.12
450.442	2547.12
450.662	2497.12
450.883	2520.12
451.104	2513.12
451.324	2514.12
451.545	2525.12
451.766	2508.12
451.986	2574.12
452.207	2844.12
452.428	3546.12
452.648	5243.12
452.869	4427.12
453.089	3151.12
453.31	2944.12
453.53	2938.12
453.751	3005.12
453.971	3199.12
454.192	3066.12
454.412	2625.12
454.633	2554.12
454.853	2469.12
455.073	2427.12
455.294	2442.12
455.514	2416.12
455.734	2403.12
455.955	2373.12
456.175	2374.12
456.395	2390.12
456.616	2448.12
456.836	2441.12
457.056	2483.12
457.276	2413.12
457.497	2612.12
457.717	2626.12
457.937	2601.12
458.157	2530.12
458.377	2552.12
458.598	2586.12
458.818	2597.12
459.038	2533.12
459.258	2550.12
459.478	2616.12
459.698	2625.12
459.918	2713.12
460.138	2740.12
460.358	2747.12
460.578	2812.12
460.798	2814.12
461.018	2858.12
461.238	2829.12
461.458	2858.12
461.678	2924.12
461.898	2944.12
462.118	3007.12
462.338	3067.12
462.558	3036.12
462.777	3115.12
462.997	3271.12
463.217	3382.12
463.437	3504.12
463.657	3545.12
463.876	3516.12
464.096	3380.12
464.316	3144.12
464.536	3171.12
464.755	3084.12
464.975	2988.12
465.195	2882.12
465.414	2834.12
465.634	2716.12
465.854	2677.12
466.073	2683.12
466.293	2681.12
466.512	2644.12
466.732	2707.12
466.951	2780.12
467.171	3004.12
467.391	2890.12
467.61	2661.12
467.829	2645.12
468.049	2603.12
468.268	2601.12
468.488	2576.12
468.707	2525.12
468.927	2512.12
469.146	2580.12
469.365	2580.12
469.585	2618.12
469.804	2675.12
470.023	2676.12
470.243	2724.12
470.462	2812.12
470.681	2946.12
470.901	3279.12
471.12	3776.12
471.339	3782.12
471.558	3104.12
471.777	2866.12
471.997	2706.12
472.216	2649.12
472.435	2633.12
472.654	2571.12
472.873	2573.12
473.092	2581.12
473.311	2577.12
473.53	2601.12
473.749	2659.12
473.968	2758.12
474.187	2664.12
474.406	2637.12
474.625	2613.12
474.844	2596.12
475.063	2563.12
475.282	2584.12
475.501	2628.12
475.72	2627.12
475.939	2634.12
476.158	2675.12
476.377	2700.12
476.596	2723.12
476.814	2757.12
477.033	2783.12
477.252	2726.12
477.471	2767.12
477.69	2856.12
477.908	2880.12
478.127	2931.12
478.346	2948.12
478.564	3010.12
478.783	3010.12
479.002	3036.12
479.22	3058.12
479.439	3074.12
479.658	3036.12
479.876	3116.12
480.095	3135.12
480.313	3194.12
480.532	3139.12
480.751	3207.12
480.969	3124.12
481.188	3104.12
481.406	3085.12
481.624	3128.12
481.843	3167.12
482.061	3194.12
482.28	3143.12
482.498	3160.12
482.717	3141.12
482.935	3199.12
483.153	3190.12
483.372	3216.12
483.59	3310.12
483.808	3304.12
484.027	3343.12
484.245	3602.12
484.463	4038.12
484.681	4488.12
484.9	4091.12
485.118	3800.12
485.336	3698.12
485.554	3772.12
485.772	3961.12
485.99	4587.12
486.209	4902.12
486.427	4122.12
486.645	3604.12
486.863	3483.12
487.081	3376.12
487.299	3326.12
487.517	3322.12
487.735	3312.12
487.953	3427.12
