Data from SnStandardFlinnAPT0064_QswitchEnergy10_LIBS07252019.E.O._I.C._HRD10591_15-27-04-973.txt Node
Date: Thu Jul 25 15:27:04 EDT 2019
User: cochatt
Spectrometer: HR+D1059
Trigger mode: 1
Integration Time (sec): 1.000000E-1
Scans to average: 1
Electric dark correction enabled: true
Nonlinearity correction enabled: false
Boxcar width: 0
XAxis mode: Wavelengths
Number of Pixels in Spectrum: 2048
>>>>>Begin Spectral Data<<<<<
223.165	-18.25
223.4	-18.25
223.635	-18.25
223.869	-24.25
224.104	-18.25
224.338	-6.25
224.573	-10.25
224.808	-6.25
225.042	-1.25
225.277	-14.25
225.511	-2.25
225.746	2.75
225.98	10.75
226.215	12.75
226.449	11.75
226.683	18.75
226.918	18.75
227.152	25.75
227.387	57.75
227.621	34.75
227.856	34.75
228.09	36.75
228.324	49.75
228.559	42.75
228.793	61.75
229.027	73.75
229.262	65.75
229.496	72.75
229.73	76.75
229.964	59.75
230.199	61.75
230.433	80.75
230.667	75.75
230.901	81.75
231.136	77.75
231.37	88.75
231.604	93.75
231.838	97.75
232.072	114.75
232.306	132.75
232.541	96.75
232.775	86.75
233.009	75.75
233.243	79.75
233.477	81.75
233.711	95.75
233.945	98.75
234.179	99.75
234.413	78.75
234.647	88.75
234.881	74.75
235.115	78.75
235.349	104.75
235.583	109.75
235.817	122.75
236.051	129.75
236.285	87.75
236.519	58.75
236.753	72.75
236.987	70.75
237.221	79.75
237.455	75.75
237.689	74.75
237.922	85.75
238.156	81.75
238.39	76.75
238.624	79.75
238.858	74.75
239.091	91.75
239.325	66.75
239.559	86.75
239.793	87.75
240.027	82.75
240.26	75.75
240.494	84.75
240.728	66.75
240.961	73.75
241.195	89.75
241.429	90.75
241.662	74.75
241.896	95.75
242.13	100.75
242.363	124.75
242.597	172.75
242.83	139.75
243.064	136.75
243.298	181.75
243.531	143.75
243.765	104.75
243.998	95.75
244.232	89.75
244.465	90.75
244.699	86.75
244.932	70.75
245.166	66.75
245.399	81.75
245.633	88.75
245.866	80.75
246.099	88.75
246.333	81.75
246.566	80.75
246.8	80.75
247.033	70.75
247.266	82.75
247.5	80.75
247.733	79.75
247.966	94.75
248.2	94.75
248.433	116.75
248.666	123.75
248.899	122.75
249.133	87.75
249.366	107.75
249.599	101.75
249.832	129.75
250.066	136.75
250.299	103.75
250.532	90.75
250.765	87.75
250.998	90.75
251.231	75.75
251.465	80.75
251.698	83.75
251.931	74.75
252.164	76.75
252.397	85.75
252.63	93.75
252.863	93.75
253.096	89.75
253.329	96.75
253.562	87.75
253.795	90.75
254.028	78.75
254.261	95.75
254.494	104.75
254.727	122.75
254.96	144.75
255.193	125.75
255.426	78.75
255.659	85.75
255.892	93.75
256.124	79.75
256.357	82.75
256.59	85.75
256.823	96.75
257.056	89.75
257.289	141.75
257.521	171.75
257.754	118.75
257.987	86.75
258.22	81.75
258.452	87.75
258.685	94.75
258.918	84.75
259.151	105.75
259.383	117.75
259.616	126.75
259.849	151.75
260.081	105.75
260.314	95.75
260.547	104.75
260.779	82.75
261.012	81.75
261.244	72.75
261.477	99.75
261.71	93.75
261.942	87.75
262.175	83.75
262.407	91.75
262.64	83.75
262.872	78.75
263.105	66.75
263.337	94.75
263.57	81.75
263.802	92.75
264.035	97.75
264.267	86.75
264.499	77.75
264.732	85.75
264.964	80.75
265.197	88.75
265.429	80.75
265.661	94.75
265.894	83.75
266.126	120.75
266.358	161.75
266.591	156.75
266.823	94.75
267.055	85.75
267.287	89.75
267.52	93.75
267.752	87.75
267.984	74.75
268.216	73.75
268.448	85.75
268.681	107.75
268.913	79.75
269.145	91.75
269.377	96.75
269.609	90.75
269.841	86.75
270.073	106.75
270.306	115.75
270.538	195.75
270.77	334.75
271.002	386.75
271.234	196.75
271.466	116.75
271.698	89.75
271.93	93.75
272.162	82.75
272.394	81.75
272.626	78.75
272.858	87.75
273.09	93.75
273.322	88.75
273.553	76.75
273.785	97.75
274.017	81.75
274.249	87.75
274.481	95.75
274.713	85.75
274.945	86.75
275.176	76.75
275.408	104.75
275.64	91.75
275.872	79.75
276.104	110.75
276.335	95.75
276.567	107.75
276.799	97.75
277.031	89.75
277.262	85.75
277.494	109.75
277.726	133.75
277.957	191.75
278.189	255.75
278.421	226.75
278.652	191.75
278.884	185.75
279.115	130.75
279.347	116.75
279.579	96.75
279.81	99.75
280.042	86.75
280.273	87.75
280.505	105.75
280.736	98.75
280.968	127.75
281.199	160.75
281.431	247.75
281.662	260.75
281.894	147.75
282.125	106.75
282.356	109.75
282.588	107.75
282.819	98.75
283.051	111.75
283.282	138.75
283.513	180.75
283.745	314.75
283.976	543.75
284.207	785.75
284.439	627.75
284.67	284.75
284.901	253.75
285.132	357.75
285.364	379.75
285.595	218.75
285.826	174.75
286.057	252.75
286.288	429.75
286.52	621.75
286.751	513.75
286.982	195.75
287.213	113.75
287.444	106.75
287.675	95.75
287.906	85.75
288.138	98.75
288.369	101.75
288.6	89.75
288.831	85.75
289.062	78.75
289.293	96.75
289.524	83.75
289.755	110.75
289.986	97.75
290.217	95.75
290.448	95.75
290.679	94.75
290.91	125.75
291.141	146.75
291.371	226.75
291.602	288.75
291.833	189.75
292.064	106.75
292.295	109.75
292.526	94.75
292.757	98.75
292.987	82.75
293.218	88.75
293.449	74.75
293.68	95.75
293.91	74.75
294.141	97.75
294.372	81.75
294.603	90.75
294.833	101.75
295.064	91.75
295.295	97.75
295.525	83.75
295.756	85.75
295.987	97.75
296.217	90.75
296.448	102.75
296.679	87.75
296.909	104.75
297.14	93.75
297.37	90.75
297.601	97.75
297.831	89.75
298.062	89.75
298.292	84.75
298.523	96.75
298.753	101.75
298.984	97.75
299.214	97.75
299.445	99.75
299.675	104.75
299.905	109.75
300.136	121.75
300.366	163.75
300.597	261.75
300.827	451.75
301.057	685.75
301.288	638.75
301.518	252.75
301.748	154.75
301.979	131.75
302.209	123.75
302.439	137.75
302.669	158.75
302.9	266.75
303.13	472.75
303.36	906.75
303.59	1240.75
303.82	865.75
304.051	309.75
304.281	151.75
304.511	135.75
304.741	121.75
304.971	119.75
305.201	100.75
305.431	96.75
305.661	106.75
305.891	108.75
306.121	103.75
306.352	106.75
306.582	92.75
306.812	109.75
307.042	112.75
307.272	103.75
307.502	107.75
307.731	104.75
307.961	86.75
308.191	90.75
308.421	100.75
308.651	96.75
308.881	101.75
309.111	84.75
309.341	95.75
309.571	113.75
309.8	96.75
310.03	90.75
310.26	125.75
310.49	99.75
310.72	108.75
310.949	103.75
311.179	99.75
311.409	98.75
311.639	113.75
311.868	90.75
312.098	101.75
312.328	119.75
312.557	110.75
312.787	99.75
313.017	117.75
313.246	105.75
313.476	111.75
313.706	116.75
313.935	147.75
314.165	181.75
314.394	222.75
314.624	175.75
314.853	139.75
315.083	119.75
315.312	127.75
315.542	120.75
315.771	127.75
316.001	119.75
316.23	138.75
316.46	128.75
316.689	158.75
316.919	271.75
317.148	512.75
317.377	897.75
317.607	1515.75
317.836	1379.75
318.065	511.75
318.295	222.75
318.524	149.75
318.753	129.75
318.983	130.75
319.212	125.75
319.441	106.75
319.67	103.75
319.9	102.75
320.129	116.75
320.358	106.75
320.587	122.75
320.816	113.75
321.046	111.75
321.275	123.75
321.504	136.75
321.733	145.75
321.962	153.75
322.191	152.75
322.42	133.75
322.649	125.75
322.878	143.75
323.108	119.75
323.337	129.75
323.566	121.75
323.795	123.75
324.024	138.75
324.253	133.75
324.482	165.75
324.71	221.75
324.939	282.75
325.168	240.75
325.397	177.75
325.626	247.75
325.855	479.75
326.084	933.75
326.313	1571.75
326.542	1615.75
326.77	634.75
326.999	267.75
327.228	198.75
327.457	223.75
327.686	215.75
327.914	181.75
328.143	146.75
328.372	136.75
328.6	122.75
328.829	128.75
329.058	120.75
329.287	115.75
329.515	103.75
329.744	109.75
329.972	111.75
330.201	121.75
330.43	113.75
330.658	114.75
330.887	122.75
331.115	120.75
331.344	116.75
331.572	109.75
331.801	118.75
332.03	127.75
332.258	121.75
332.486	162.75
332.715	291.75
332.943	486.75
333.172	773.75
333.4	689.75
333.629	244.75
333.857	145.75
334.085	119.75
334.314	114.75
334.542	131.75
334.771	125.75
334.999	119.75
335.227	119.75
335.455	126.75
335.684	110.75
335.912	111.75
336.14	111.75
336.369	113.75
336.597	116.75
336.825	117.75
337.053	108.75
337.281	124.75
337.51	105.75
337.738	99.75
337.966	102.75
338.194	117.75
338.422	98.75
338.65	101.75
338.878	111.75
339.106	118.75
339.334	123.75
339.562	121.75
339.79	110.75
340.018	113.75
340.246	107.75
340.474	116.75
340.702	111.75
340.93	113.75
341.158	94.75
341.386	111.75
341.614	106.75
341.842	117.75
342.07	117.75
342.298	122.75
342.526	109.75
342.754	104.75
342.981	115.75
343.209	96.75
343.437	98.75
343.665	96.75
343.893	101.75
344.12	116.75
344.348	116.75
344.576	94.75
344.804	98.75
345.031	115.75
345.259	113.75
345.487	114.75
345.714	105.75
345.942	99.75
346.17	103.75
346.397	103.75
346.625	102.75
346.853	104.75
347.08	106.75
347.308	106.75
347.535	102.75
347.763	82.75
347.99	104.75
348.218	112.75
348.445	109.75
348.673	110.75
348.9	112.75
349.128	119.75
349.355	101.75
349.583	115.75
349.81	99.75
350.037	115.75
350.265	111.75
350.492	94.75
350.72	103.75
350.947	96.75
351.174	102.75
351.402	114.75
351.629	100.75
351.856	111.75
352.083	109.75
352.311	101.75
352.538	113.75
352.765	107.75
352.992	114.75
353.22	106.75
353.447	99.75
353.674	86.75
353.901	109.75
354.128	96.75
354.355	91.75
354.583	89.75
354.81	91.75
355.037	106.75
355.264	107.75
355.491	103.75
355.718	109.75
355.945	96.75
356.172	109.75
356.399	106.75
356.626	92.75
356.853	111.75
357.08	111.75
357.307	82.75
357.534	106.75
357.761	93.75
357.988	98.75
358.215	99.75
358.441	111.75
358.668	120.75
358.895	116.75
359.122	116.75
359.349	105.75
359.576	111.75
359.802	104.75
360.029	105.75
360.256	114.75
360.483	102.75
360.709	105.75
360.936	121.75
361.163	120.75
361.39	98.75
361.616	104.75
361.843	110.75
362.07	121.75
362.296	105.75
362.523	107.75
362.749	104.75
362.976	115.75
363.203	88.75
363.429	100.75
363.656	112.75
363.882	120.75
364.109	117.75
364.335	108.75
364.562	101.75
364.788	115.75
365.015	108.75
365.241	117.75
365.468	170.75
365.694	244.75
365.92	209.75
366.147	121.75
366.373	101.75
366.599	102.75
366.826	75.75
367.052	91.75
367.278	79.75
367.505	83.75
367.731	99.75
367.957	105.75
368.184	119.75
368.41	118.75
368.636	117.75
368.862	113.75
369.089	106.75
369.315	112.75
369.541	103.75
369.767	97.75
369.993	103.75
370.219	99.75
370.445	99.75
370.672	105.75
370.898	102.75
371.124	115.75
371.35	102.75
371.576	95.75
371.802	103.75
372.028	111.75
372.254	132.75
372.48	112.75
372.706	110.75
372.932	103.75
373.158	112.75
373.384	100.75
373.61	111.75
373.835	129.75
374.061	100.75
374.287	107.75
374.513	117.75
374.739	120.75
374.965	103.75
375.191	106.75
375.416	96.75
375.642	114.75
375.868	116.75
376.094	114.75
376.319	107.75
376.545	100.75
376.771	103.75
376.997	102.75
377.222	110.75
377.448	98.75
377.674	113.75
377.899	110.75
378.125	109.75
378.35	107.75
378.576	101.75
378.802	110.75
379.027	117.75
379.253	139.75
379.478	175.75
379.704	293.75
379.929	755.75
380.155	1579.75
380.38	1627.75
380.606	513.75
380.831	197.75
381.057	130.75
381.282	121.75
381.507	94.75
381.733	109.75
381.958	104.75
382.184	99.75
382.409	104.75
382.634	95.75
382.86	99.75
383.085	105.75
383.31	109.75
383.535	105.75
383.761	109.75
383.986	93.75
384.211	110.75
384.436	89.75
384.662	115.75
384.887	95.75
385.112	96.75
385.337	93.75
385.562	111.75
385.787	102.75
386.013	113.75
386.238	117.75
386.463	102.75
386.688	121.75
386.913	107.75
387.138	103.75
387.363	110.75
387.588	100.75
387.813	89.75
388.038	96.75
388.263	116.75
388.488	87.75
388.713	105.75
388.938	98.75
389.163	102.75
389.387	101.75
389.612	94.75
389.837	90.75
390.062	102.75
390.287	112.75
390.512	89.75
390.736	101.75
390.961	96.75
391.186	102.75
391.411	102.75
391.636	98.75
391.86	88.75
392.085	109.75
392.31	97.75
392.534	90.75
392.759	109.75
392.984	99.75
393.208	117.75
393.433	141.75
393.658	120.75
393.882	100.75
394.107	101.75
394.331	105.75
394.556	79.75
394.78	93.75
395.005	94.75
395.229	90.75
395.454	92.75
395.678	100.75
395.903	98.75
396.127	115.75
396.352	104.75
396.576	114.75
396.801	112.75
397.025	115.75
397.249	100.75
397.474	81.75
397.698	94.75
397.922	95.75
398.147	87.75
398.371	94.75
398.595	96.75
398.82	101.75
399.044	101.75
399.268	111.75
399.492	103.75
399.717	101.75
399.941	104.75
400.165	98.75
400.389	89.75
400.613	108.75
400.837	109.75
401.062	104.75
401.286	74.75
401.51	85.75
401.734	106.75
401.958	109.75
402.182	87.75
402.406	89.75
402.63	93.75
402.854	93.75
403.078	91.75
403.302	85.75
403.526	92.75
403.75	102.75
403.974	104.75
404.198	95.75
404.422	90.75
404.645	107.75
404.869	86.75
405.093	94.75
405.317	101.75
405.541	93.75
405.765	115.75
405.988	129.75
406.212	113.75
406.436	103.75
406.66	96.75
406.883	91.75
407.107	83.75
407.331	106.75
407.555	81.75
407.778	100.75
408.002	97.75
408.226	105.75
408.449	107.75
408.673	98.75
408.896	89.75
409.12	93.75
409.344	82.75
409.567	102.75
409.791	112.75
410.014	109.75
410.238	110.75
410.461	103.75
410.685	87.75
410.908	99.75
411.132	96.75
411.355	87.75
411.578	101.75
411.802	95.75
412.025	94.75
412.249	75.75
412.472	109.75
412.695	84.75
412.919	92.75
413.142	111.75
413.365	94.75
413.589	94.75
413.812	117.75
414.035	104.75
414.258	110.75
414.482	115.75
414.705	106.75
414.928	114.75
415.151	112.75
415.374	94.75
415.597	89.75
415.821	102.75
416.044	95.75
416.267	98.75
416.49	94.75
416.713	87.75
416.936	95.75
417.159	90.75
417.382	80.75
417.605	89.75
417.828	79.75
418.051	99.75
418.274	93.75
418.497	104.75
418.72	103.75
418.943	102.75
419.166	100.75
419.389	108.75
419.611	113.75
419.834	103.75
420.057	102.75
420.28	93.75
420.503	99.75
420.726	90.75
420.948	110.75
421.171	99.75
421.394	87.75
421.617	84.75
421.839	90.75
422.062	93.75
422.285	84.75
422.507	96.75
422.73	119.75
422.953	122.75
423.175	100.75
423.398	115.75
423.621	89.75
423.843	85.75
424.066	98.75
424.288	102.75
424.511	101.75
424.733	89.75
424.956	108.75
425.178	87.75
425.401	93.75
425.623	97.75
425.846	106.75
426.068	86.75
426.291	88.75
426.513	87.75
426.735	86.75
426.958	96.75
427.18	104.75
427.402	98.75
427.625	101.75
427.847	104.75
428.069	106.75
428.292	96.75
428.514	102.75
428.736	100.75
428.958	100.75
429.181	98.75
429.403	91.75
429.625	105.75
429.847	94.75
430.069	108.75
430.292	99.75
430.514	111.75
430.736	99.75
430.958	91.75
431.18	108.75
431.402	93.75
431.624	85.75
431.846	99.75
432.068	101.75
432.29	96.75
432.512	102.75
432.734	91.75
432.956	101.75
433.178	91.75
433.4	88.75
433.622	93.75
433.844	100.75
434.066	100.75
434.287	99.75
434.509	98.75
434.731	99.75
434.953	93.75
435.175	93.75
435.397	97.75
435.618	91.75
435.84	84.75
436.062	95.75
436.284	78.75
436.505	85.75
436.727	93.75
436.949	97.75
437.17	94.75
437.392	93.75
437.614	98.75
437.835	104.75
438.057	90.75
438.278	87.75
438.5	94.75
438.721	96.75
438.943	94.75
439.165	114.75
439.386	115.75
439.608	107.75
439.829	104.75
440.05	114.75
440.272	119.75
440.493	95.75
440.715	101.75
440.936	95.75
441.158	85.75
441.379	98.75
441.6	95.75
441.822	98.75
442.043	115.75
442.264	129.75
442.486	107.75
442.707	85.75
442.928	80.75
443.149	101.75
443.371	98.75
443.592	95.75
443.813	89.75
444.034	90.75
444.255	89.75
444.476	102.75
444.698	99.75
444.919	91.75
445.14	225.75
445.361	148.75
445.582	86.75
445.803	84.75
446.024	105.75
446.245	95.75
446.466	101.75
446.687	107.75
446.908	97.75
447.129	92.75
447.35	91.75
447.571	99.75
447.792	104.75
448.013	96.75
448.234	102.75
448.455	94.75
448.675	96.75
448.896	94.75
449.117	101.75
449.338	138.75
449.559	145.75
449.779	129.75
450	106.75
450.221	115.75
450.442	104.75
450.662	103.75
450.883	95.75
451.104	117.75
451.324	105.75
451.545	123.75
451.766	122.75
451.986	143.75
452.207	185.75
452.428	536.75
452.648	1312.75
452.869	738.75
453.089	206.75
453.31	125.75
453.53	127.75
453.751	134.75
453.971	154.75
454.192	168.75
454.412	98.75
454.633	100.75
454.853	96.75
455.073	101.75
455.294	84.75
455.514	105.75
455.734	95.75
455.955	96.75
456.175	90.75
456.395	97.75
456.616	91.75
456.836	98.75
457.056	98.75
457.276	114.75
457.497	111.75
457.717	126.75
457.937	73.75
458.157	90.75
458.377	100.75
458.598	81.75
458.818	90.75
459.038	89.75
459.258	94.75
459.478	96.75
459.698	94.75
459.918	83.75
460.138	101.75
460.358	84.75
460.578	96.75
460.798	96.75
461.018	86.75
461.238	85.75
461.458	91.75
461.678	106.75
461.898	79.75
462.118	101.75
462.338	82.75
462.558	96.75
462.777	98.75
462.997	101.75
463.217	97.75
463.437	137.75
463.657	197.75
463.876	175.75
464.096	126.75
464.316	93.75
464.536	96.75
464.755	74.75
464.975	97.75
465.195	102.75
465.414	87.75
465.634	93.75
465.854	97.75
466.073	100.75
466.293	101.75
466.512	102.75
466.732	93.75
466.951	114.75
467.171	137.75
467.391	143.75
467.61	107.75
467.829	103.75
468.049	113.75
468.268	108.75
468.488	95.75
468.707	86.75
468.927	105.75
469.146	98.75
469.365	91.75
469.585	96.75
469.804	91.75
470.023	92.75
470.243	113.75
470.462	106.75
470.681	115.75
470.901	132.75
471.12	197.75
471.339	213.75
471.558	139.75
471.777	118.75
471.997	112.75
472.216	99.75
472.435	90.75
472.654	99.75
472.873	90.75
473.092	92.75
473.311	104.75
473.53	95.75
473.749	98.75
473.968	86.75
474.187	99.75
474.406	83.75
474.625	105.75
474.844	102.75
475.063	86.75
475.282	85.75
475.501	89.75
475.72	104.75
475.939	103.75
476.158	98.75
476.377	107.75
476.596	109.75
476.814	100.75
477.033	75.75
477.252	99.75
477.471	86.75
477.69	81.75
477.908	98.75
478.127	101.75
478.346	96.75
478.564	92.75
478.783	96.75
479.002	82.75
479.22	89.75
479.439	96.75
479.658	85.75
479.876	95.75
480.095	101.75
480.313	98.75
480.532	95.75
480.751	95.75
480.969	94.75
481.188	87.75
481.406	95.75
481.624	84.75
481.843	105.75
482.061	100.75
482.28	98.75
482.498	91.75
482.717	87.75
482.935	100.75
483.153	86.75
483.372	92.75
483.59	102.75
483.808	89.75
484.027	117.75
484.245	121.75
484.463	188.75
484.681	245.75
484.9	152.75
485.118	109.75
485.336	117.75
485.554	104.75
485.772	135.75
485.99	179.75
486.209	250.75
486.427	153.75
486.645	114.75
486.863	99.75
487.081	106.75
487.299	98.75
487.517	94.75
487.735	100.75
487.953	113.75
488.171	101.75
488.389	107.75
488.607	101.75
488.825	95.75
489.043	113.75
489.261	95.75
489.479	96.75
489.696	90.75
489.914	84.75
490.132	99.75
490.35	99.75
490.568	97.75
490.786	104.75
491.003	98.75
491.221	106.75
491.439	112.75
491.657	105.75
491.874	103.75
492.092	103.75
492.31	102.75
492.527	103.75
492.745	101.75
492.963	122.75
493.18	99.75
493.398	83.75
493.615	94.75
493.833	97.75
494.05	112.75
494.268	121.75
494.485	113.75
494.703	98.75
494.92	100.75
495.138	102.75
495.355	103.75
495.573	102.75
495.79	85.75
496.008	97.75
496.225	93.75
496.442	106.75
496.66	115.75
496.877	154.75
497.094	161.75
497.312	110.75
497.529	87.75
497.746	98.75
497.963	115.75
498.181	106.75
498.398	95.75
498.615	91.75
498.832	99.75
499.049	109.75
499.267	137.75
499.484	167.75
499.701	123.75
499.918	107.75
500.135	91.75
500.352	99.75
500.569	108.75
500.786	93.75
501.003	99.75
501.22	95.75
501.437	89.75
501.654	99.75
501.871	94.75
502.088	95.75
502.305	82.75
502.522	85.75
502.739	101.75
502.956	98.75
503.172	94.75
503.389	95.75
503.606	105.75
503.823	108.75
504.04	101.75
504.256	95.75
504.473	93.75
504.69	91.75
504.907	107.75
505.123	117.75
505.34	101.75
505.557	103.75
505.773	98.75
505.99	95.75
506.207	104.75
506.423	98.75
506.64	98.75
506.856	105.75
507.073	91.75
507.289	111.75
507.506	105.75
507.722	91.75
507.939	100.75
508.155	101.75
508.372	93.75
508.588	98.75
508.805	97.75
509.021	99.75
509.238	107.75
509.454	146.75
