Data from SnStandardFlinnAPT0064_LampEnergy10_LIBS07252019.E.O._I.C._HRD10591_15-20-42-493.txt Node
Date: Thu Jul 25 15:20:42 EDT 2019
User: cochatt
Spectrometer: HR+D1059
Trigger mode: 1
Integration Time (sec): 1.000000E-1
Scans to average: 1
Electric dark correction enabled: true
Nonlinearity correction enabled: false
Boxcar width: 0
XAxis mode: Wavelengths
Number of Pixels in Spectrum: 2048
>>>>>Begin Spectral Data<<<<<
223.165	-11.69
223.4	-11.69
223.635	-11.69
223.869	-11.69
224.104	-19.69
224.338	-14.69
224.573	-17.69
224.808	-14.69
225.042	-3.69
225.277	0.31
225.511	-13.69
225.746	-7.69
225.98	19.31
226.215	15.31
226.449	13.31
226.683	14.31
226.918	26.31
227.152	26.31
227.387	21.31
227.621	27.31
227.856	38.31
228.09	41.31
228.324	52.31
228.559	52.31
228.793	132.31
229.027	327.31
229.262	353.31
229.496	297.31
229.73	311.31
229.964	306.31
230.199	313.31
230.433	318.31
230.667	308.31
230.901	328.31
231.136	341.31
231.37	348.31
231.604	386.31
231.838	438.31
232.072	537.31
232.306	558.31
232.541	458.31
232.775	427.31
233.009	412.31
233.243	433.31
233.477	450.31
233.711	520.31
233.945	575.31
234.179	527.31
234.413	456.31
234.647	434.31
234.881	446.31
235.115	515.31
235.349	599.31
235.583	772.31
235.817	1015.31
236.051	994.31
236.285	669.31
236.519	542.31
236.753	517.31
236.987	502.31
237.221	526.31
237.455	527.31
237.689	489.31
237.922	472.31
238.156	490.31
238.39	489.31
238.624	492.31
238.858	492.31
239.091	481.31
239.325	494.31
239.559	500.31
239.793	509.31
240.027	520.31
240.26	546.31
240.494	564.31
240.728	572.31
240.961	590.31
241.195	668.31
241.429	668.31
241.662	710.31
241.896	766.31
242.13	968.31
242.363	1284.31
242.597	1608.31
242.83	1548.31
243.064	1561.31
243.298	1838.31
243.531	1522.31
243.765	976.31
243.998	806.31
244.232	702.31
244.465	660.31
244.699	644.31
244.932	656.31
245.166	673.31
245.399	669.31
245.633	698.31
245.866	725.31
246.099	686.31
246.333	654.31
246.566	638.31
246.8	636.31
247.033	641.31
247.266	642.31
247.5	651.31
247.733	694.31
247.966	703.31
248.2	782.31
248.433	888.31
248.666	977.31
248.899	945.31
249.133	848.31
249.366	891.31
249.599	990.31
249.832	1108.31
250.066	1058.31
250.299	861.31
250.532	796.31
250.765	768.31
250.998	741.31
251.231	737.31
251.465	727.31
251.698	744.31
251.931	733.31
252.164	709.31
252.397	720.31
252.63	784.31
252.863	791.31
253.096	781.31
253.329	808.31
253.562	755.31
253.795	778.31
254.028	806.31
254.261	801.31
254.494	892.31
254.727	1014.31
254.96	1236.31
255.193	1224.31
255.426	990.31
255.659	869.31
255.892	875.31
256.124	850.31
256.357	888.31
256.59	916.31
256.823	1000.31
257.056	1104.31
257.289	1337.31
257.521	1488.31
257.754	1198.31
257.987	965.31
258.22	918.31
258.452	920.31
258.685	918.31
258.918	962.31
259.151	995.31
259.383	1093.31
259.616	1206.31
259.849	1297.31
260.081	1102.31
260.314	954.31
260.547	925.31
260.779	941.31
261.012	933.31
261.244	982.31
261.477	992.31
261.71	1001.31
261.942	990.31
262.175	1057.31
262.407	1056.31
262.64	1056.31
262.872	1129.31
263.105	1143.31
263.337	1192.31
263.57	1257.31
263.802	1284.31
264.035	1306.31
264.267	1294.31
264.499	1355.31
264.732	1418.31
264.964	1436.31
265.197	1451.31
265.429	1422.31
265.661	1464.31
265.894	1588.31
266.126	1759.31
266.358	1966.31
266.591	1876.31
266.823	1590.31
267.055	1443.31
267.287	1395.31
267.52	1325.31
267.752	1326.31
267.984	1286.31
268.216	1258.31
268.448	1248.31
268.681	1226.31
268.913	1251.31
269.145	1234.31
269.377	1266.31
269.609	1243.31
269.841	1275.31
270.073	1357.31
270.306	1566.31
270.538	2153.31
270.77	3236.31
271.002	3927.31
271.234	2830.31
271.466	1856.31
271.698	1516.31
271.93	1418.31
272.162	1328.31
272.394	1298.31
272.626	1265.31
272.858	1225.31
273.09	1234.31
273.322	1216.31
273.553	1211.31
273.785	1219.31
274.017	1204.31
274.249	1231.31
274.481	1188.31
274.713	1204.31
274.945	1197.31
275.176	1212.31
275.408	1218.31
275.64	1236.31
275.872	1245.31
276.104	1245.31
276.335	1243.31
276.567	1266.31
276.799	1274.31
277.031	1326.31
277.262	1344.31
277.494	1409.31
277.726	1566.31
277.957	1882.31
278.189	2070.31
278.421	1957.31
278.652	1743.31
278.884	1655.31
279.115	1473.31
279.347	1420.31
279.579	1386.31
279.81	1402.31
280.042	1384.31
280.273	1428.31
280.505	1448.31
280.736	1497.31
280.968	1581.31
281.199	1773.31
281.431	2033.31
281.662	2089.31
281.894	1800.31
282.125	1629.31
282.356	1660.31
282.588	1667.31
282.819	1738.31
283.051	1812.31
283.282	1980.31
283.513	2496.31
283.745	3518.31
283.976	5667.31
284.207	8046.31
284.439	7366.31
284.67	4588.31
284.901	3740.31
285.132	3676.31
285.364	3561.31
285.595	2718.31
285.826	2438.31
286.057	2815.31
286.288	3856.31
286.52	5185.31
286.751	4805.31
286.982	3052.31
287.213	2238.31
287.444	2032.31
287.675	1873.31
287.906	1780.31
288.138	1757.31
288.369	1693.31
288.6	1675.31
288.831	1676.31
289.062	1661.31
289.293	1681.31
289.524	1677.31
289.755	1685.31
289.986	1694.31
290.217	1727.31
290.448	1731.31
290.679	1704.31
290.91	1769.31
291.141	1865.31
291.371	1996.31
291.602	2102.31
291.833	1905.31
292.064	1749.31
292.295	1685.31
292.526	1681.31
292.757	1643.31
292.987	1605.31
293.218	1552.31
293.449	1594.31
293.68	1608.31
293.91	1578.31
294.141	1580.31
294.372	1555.31
294.603	1580.31
294.833	1528.31
295.064	1544.31
295.295	1542.31
295.525	1520.31
295.756	1534.31
295.987	1543.31
296.217	1590.31
296.448	1572.31
296.679	1594.31
296.909	1575.31
297.14	1545.31
297.37	1625.31
297.601	1613.31
297.831	1633.31
298.062	1648.31
298.292	1672.31
298.523	1681.31
298.753	1703.31
298.984	1706.31
299.214	1705.31
299.445	1758.31
299.675	1747.31
299.905	1829.31
300.136	1898.31
300.366	2151.31
300.597	2763.31
300.827	3813.31
301.057	5216.31
301.288	5201.31
301.518	3352.31
301.748	2559.31
301.979	2323.31
302.209	2286.31
302.439	2306.31
302.669	2482.31
302.9	2935.31
303.13	4095.31
303.36	6156.31
303.59	8112.31
303.82	7176.31
304.051	4243.31
304.281	3030.31
304.511	2541.31
304.741	2323.31
304.971	2224.31
305.201	2106.31
305.431	2014.31
305.661	1969.31
305.891	1899.31
306.121	1896.31
306.352	1856.31
306.582	1837.31
306.812	1851.31
307.042	1872.31
307.272	1840.31
307.502	1786.31
307.731	1798.31
307.961	1771.31
308.191	1815.31
308.421	1830.31
308.651	1821.31
308.881	1804.31
309.111	1800.31
309.341	1779.31
309.571	1843.31
309.8	1869.31
310.03	1862.31
310.26	1843.31
310.49	1833.31
310.72	1873.31
310.949	1824.31
311.179	1880.31
311.409	1883.31
311.639	1911.31
311.868	1886.31
312.098	1905.31
312.328	1928.31
312.557	1970.31
312.787	1956.31
313.017	1952.31
313.246	1987.31
313.476	2009.31
313.706	2064.31
313.935	2174.31
314.165	2347.31
314.394	2456.31
314.624	2359.31
314.853	2157.31
315.083	2106.31
315.312	2162.31
315.542	2119.31
315.771	2172.31
316.001	2224.31
316.23	2292.31
316.46	2405.31
316.689	2614.31
316.919	3202.31
317.148	4566.31
317.377	7078.31
317.607	10425.31
317.836	10870.31
318.065	6586.31
318.295	4296.31
318.524	3383.31
318.753	2982.31
318.983	2714.31
319.212	2538.31
319.441	2475.31
319.67	2460.31
319.9	2404.31
320.129	2389.31
320.358	2359.31
320.587	2328.31
320.816	2326.31
321.046	2308.31
321.275	2333.31
321.504	2374.31
321.733	2422.31
321.962	2444.31
322.191	2532.31
322.42	2486.31
322.649	2462.31
322.878	2494.31
323.108	2487.31
323.337	2532.31
323.566	2583.31
323.795	2628.31
324.024	2605.31
324.253	2708.31
324.482	2792.31
324.71	2965.31
324.939	3241.31
325.168	3282.31
325.397	3395.31
325.626	4009.31
325.855	5566.31
326.084	8667.31
326.313	12671.31
326.542	13492.31
326.77	9213.31
326.999	5904.31
327.228	4948.31
327.457	4754.31
327.686	4878.31
327.914	5238.31
328.143	6196.31
328.372	7344.31
328.6	8033.31
328.829	7132.31
329.058	5980.31
329.287	5210.31
329.515	4691.31
329.744	4321.31
329.972	4086.31
330.201	3928.31
330.43	3742.31
330.658	3618.31
330.887	3551.31
331.115	3479.31
331.344	3545.31
331.572	3515.31
331.801	3488.31
332.03	3508.31
332.258	3572.31
332.486	3757.31
332.715	4277.31
332.943	5282.31
333.172	6546.31
333.4	6565.31
333.629	4968.31
333.857	4476.31
334.085	4480.31
334.314	4718.31
334.542	5216.31
334.771	6080.31
334.999	7648.31
335.227	9728.31
335.455	10898.31
335.684	9765.31
335.912	7856.31
336.14	6586.31
336.369	5843.31
336.597	5292.31
336.825	4833.31
337.053	4508.31
337.281	4268.31
337.51	4026.31
337.738	3872.31
337.966	3742.31
338.194	3665.31
338.422	3493.31
338.65	3371.31
338.878	3362.31
339.106	3267.31
339.334	3238.31
339.562	3131.31
339.79	3025.31
340.018	3045.31
340.246	2989.31
340.474	3021.31
340.702	3046.31
340.93	3030.31
341.158	3007.31
341.386	2994.31
341.614	2987.31
341.842	2941.31
342.07	2845.31
342.298	2792.31
342.526	2764.31
342.754	2729.31
342.981	2722.31
343.209	2709.31
343.437	2759.31
343.665	2749.31
343.893	2788.31
344.12	2852.31
344.348	2762.31
344.576	2744.31
344.804	2682.31
345.031	2627.31
345.259	2588.31
345.487	2562.31
345.714	2588.31
345.942	2497.31
346.17	2545.31
346.397	2557.31
346.625	2530.31
346.853	2498.31
347.08	2525.31
347.308	2540.31
347.535	2501.31
347.763	2480.31
347.99	2491.31
348.218	2482.31
348.445	2438.31
348.673	2467.31
348.9	2464.31
349.128	2466.31
349.355	2395.31
349.583	2423.31
349.81	2388.31
350.037	2385.31
350.265	2400.31
350.492	2417.31
350.72	2389.31
350.947	2382.31
351.174	2412.31
351.402	2399.31
351.629	2405.31
351.856	2345.31
352.083	2416.31
352.311	2339.31
352.538	2403.31
352.765	2357.31
352.992	2397.31
353.22	2390.31
353.447	2375.31
353.674	2359.31
353.901	2370.31
354.128	2416.31
354.355	2430.31
354.583	2426.31
354.81	2437.31
355.037	2399.31
355.264	2444.31
355.491	2425.31
355.718	2436.31
355.945	2446.31
356.172	2458.31
356.399	2469.31
356.626	2508.31
356.853	2489.31
357.08	2478.31
357.307	2518.31
357.534	2607.31
357.761	2574.31
357.988	2574.31
358.215	2575.31
358.441	2572.31
358.668	2535.31
358.895	2562.31
359.122	2525.31
359.349	2568.31
359.576	2528.31
359.802	2497.31
360.029	2534.31
360.256	2547.31
360.483	2493.31
360.709	2510.31
360.936	2565.31
361.163	2530.31
361.39	2510.31
361.616	2574.31
361.843	2561.31
362.07	2567.31
362.296	2610.31
362.523	2552.31
362.749	2548.31
362.976	2518.31
363.203	2563.31
363.429	2486.31
363.656	2500.31
363.882	2529.31
364.109	2512.31
364.335	2488.31
364.562	2481.31
364.788	2477.31
365.015	2601.31
365.241	2641.31
365.468	2746.31
365.694	2908.31
365.92	2811.31
366.147	2604.31
366.373	2621.31
366.599	2597.31
366.826	2584.31
367.052	2549.31
367.278	2604.31
367.505	2616.31
367.731	2638.31
367.957	2597.31
368.184	2595.31
368.41	2654.31
368.636	2667.31
368.862	2599.31
369.089	2677.31
369.315	2644.31
369.541	2622.31
369.767	2618.31
369.993	2635.31
370.219	2661.31
370.445	2652.31
370.672	2670.31
370.898	2675.31
371.124	2675.31
371.35	2700.31
371.576	2694.31
371.802	2720.31
372.028	2744.31
372.254	2687.31
372.48	2764.31
372.706	2810.31
372.932	2788.31
373.158	2785.31
373.384	2840.31
373.61	2740.31
373.835	2777.31
374.061	2805.31
374.287	2800.31
374.513	2841.31
374.739	2865.31
374.965	2886.31
375.191	2871.31
375.416	2867.31
375.642	2815.31
375.868	2860.31
376.094	2818.31
376.319	2796.31
376.545	2751.31
376.771	2770.31
376.997	2688.31
377.222	2701.31
377.448	2765.31
377.674	2688.31
377.899	2712.31
378.125	2696.31
378.35	2724.31
378.576	2726.31
378.802	2752.31
379.027	2805.31
379.253	2862.31
379.478	2985.31
379.704	3568.31
379.929	5085.31
380.155	7812.31
380.38	8525.31
380.606	5203.31
380.831	3662.31
381.057	3180.31
381.282	3013.31
381.507	2840.31
381.733	2805.31
381.958	2757.31
382.184	2750.31
382.409	2717.31
382.634	2687.31
382.86	2660.31
383.085	2616.31
383.31	2658.31
383.535	2706.31
383.761	2707.31
383.986	2652.31
384.211	2733.31
384.436	2716.31
384.662	2773.31
384.887	2806.31
385.112	2792.31
385.337	2782.31
385.562	2732.31
385.787	2764.31
386.013	2792.31
386.238	2779.31
386.463	2746.31
386.688	2759.31
386.913	2730.31
387.138	2722.31
387.363	2720.31
387.588	2737.31
387.813	2732.31
388.038	2731.31
388.263	2745.31
388.488	2770.31
388.713	2734.31
388.938	2780.31
389.163	2758.31
389.387	2757.31
389.612	2718.31
389.837	2738.31
390.062	2761.31
390.287	2783.31
390.512	2769.31
390.736	2849.31
390.961	2846.31
391.186	2865.31
391.411	2882.31
391.636	2912.31
391.86	2902.31
392.085	2899.31
392.31	2911.31
392.534	2857.31
392.759	2872.31
392.984	2816.31
393.208	2811.31
393.433	2808.31
393.658	2834.31
393.882	2795.31
394.107	2792.31
394.331	2837.31
394.556	2766.31
394.78	2782.31
395.005	2837.31
395.229	2860.31
395.454	2858.31
395.678	2884.31
395.903	2872.31
396.127	2842.31
396.352	2876.31
396.576	2831.31
396.801	2860.31
397.025	2876.31
397.249	2900.31
397.474	2890.31
397.698	2873.31
397.922	2976.31
398.147	2861.31
398.371	2954.31
398.595	3021.31
398.82	3084.31
399.044	3148.31
399.268	3314.31
399.492	3484.31
399.717	3632.31
399.941	3640.31
400.165	3467.31
400.389	3362.31
400.613	3232.31
400.837	3132.31
401.062	3088.31
401.286	3069.31
401.51	3042.31
401.734	3006.31
401.958	3049.31
402.182	3032.31
402.406	2994.31
402.63	3078.31
402.854	3111.31
403.078	3086.31
403.302	3102.31
403.526	3159.31
403.75	3129.31
403.974	3160.31
404.198	3120.31
404.422	3211.31
404.645	3178.31
404.869	3159.31
405.093	3141.31
405.317	3101.31
405.541	3230.31
405.765	3236.31
405.988	3273.31
406.212	3231.31
406.436	3195.31
406.66	3284.31
406.883	3289.31
407.107	3288.31
407.331	3446.31
407.555	3432.31
407.778	3410.31
408.002	3415.31
408.226	3373.31
408.449	3410.31
408.673	3268.31
408.896	3220.31
409.12	3135.31
409.344	3210.31
409.567	3171.31
409.791	3162.31
410.014	3201.31
410.238	3136.31
410.461	3138.31
410.685	3107.31
410.908	3112.31
411.132	3071.31
411.355	3019.31
411.578	3028.31
411.802	3008.31
412.025	3028.31
412.249	3050.31
412.472	3068.31
412.695	3010.31
412.919	2914.31
413.142	2970.31
413.365	2980.31
413.589	2981.31
413.812	3010.31
414.035	2989.31
414.258	2993.31
414.482	2964.31
414.705	3017.31
414.928	3006.31
415.151	2948.31
415.374	2944.31
415.597	2925.31
415.821	2892.31
416.044	2891.31
416.267	2854.31
416.49	2866.31
416.713	2816.31
416.936	2834.31
417.159	2858.31
417.382	2832.31
417.605	2777.31
417.828	2844.31
418.051	2845.31
418.274	2903.31
418.497	2861.31
418.72	2960.31
418.943	2882.31
419.166	3046.31
419.389	3197.31
419.611	3159.31
419.834	3062.31
420.057	2971.31
420.28	2890.31
420.503	2839.31
420.726	2862.31
420.948	2868.31
421.171	2821.31
421.394	2869.31
421.617	2858.31
421.839	2881.31
422.062	2899.31
422.285	2812.31
422.507	2896.31
422.73	2952.31
422.953	2960.31
423.175	2932.31
423.398	2925.31
423.621	2884.31
423.843	2914.31
424.066	2904.31
424.288	2788.31
424.511	2826.31
424.733	2859.31
424.956	2840.31
425.178	2779.31
425.401	2820.31
425.623	2814.31
425.846	2800.31
426.068	2782.31
426.291	2760.31
426.513	2750.31
426.735	2715.31
426.958	2714.31
427.18	2699.31
427.402	2716.31
427.625	2719.31
427.847	2596.31
428.069	2651.31
428.292	2675.31
428.514	2679.31
428.736	2627.31
428.958	2728.31
429.181	2634.31
429.403	2597.31
429.625	2643.31
429.847	2657.31
430.069	2719.31
430.292	2811.31
430.514	2828.31
430.736	2852.31
430.958	2728.31
431.18	2653.31
431.402	2631.31
431.624	2606.31
431.846	2570.31
432.068	2615.31
432.29	2662.31
432.512	2576.31
432.734	2649.31
432.956	2664.31
433.178	2613.31
433.4	2624.31
433.622	2626.31
433.844	2625.31
434.066	2603.31
434.287	2616.31
434.509	2672.31
434.731	2732.31
434.953	2725.31
435.175	2810.31
435.397	2733.31
435.618	2720.31
435.84	2669.31
436.062	2620.31
436.284	2600.31
436.505	2584.31
436.727	2597.31
436.949	2657.31
437.17	2544.31
437.392	2588.31
437.614	2516.31
437.835	2512.31
438.057	2529.31
438.278	2512.31
438.5	2523.31
438.721	2603.31
438.943	2701.31
439.165	2716.31
439.386	2696.31
439.608	2732.31
439.829	2733.31
440.05	2845.31
440.272	2870.31
440.493	2732.31
440.715	2694.31
440.936	2702.31
441.158	2698.31
441.379	2816.31
441.6	2854.31
441.822	2941.31
442.043	3124.31
442.264	3201.31
442.486	2992.31
442.707	2883.31
442.928	2804.31
443.149	2826.31
443.371	2756.31
443.592	2845.31
443.813	2756.31
444.034	2874.31
444.255	2883.31
444.476	2932.31
444.698	2973.31
444.919	3053.31
445.14	3096.31
445.361	2925.31
445.582	2902.31
445.803	2803.31
446.024	2772.31
446.245	2749.31
446.466	2784.31
446.687	2770.31
446.908	2743.31
447.129	2682.31
447.35	2655.31
447.571	2632.31
447.792	2592.31
448.013	2640.31
448.234	2600.31
448.455	2568.31
448.675	2640.31
448.896	2698.31
449.117	2772.31
449.338	3012.31
449.559	3128.31
449.779	2790.31
450	2608.31
450.221	2504.31
450.442	2580.31
450.662	2562.31
450.883	2505.31
451.104	2508.31
451.324	2560.31
451.545	2536.31
451.766	2534.31
451.986	2643.31
452.207	2797.31
452.428	3597.31
452.648	5375.31
452.869	4488.31
453.089	3110.31
453.31	2962.31
453.53	2989.31
453.751	2986.31
453.971	3244.31
454.192	3098.31
454.412	2723.31
454.633	2517.31
454.853	2475.31
455.073	2459.31
455.294	2467.31
455.514	2408.31
455.734	2413.31
455.955	2348.31
456.175	2424.31
456.395	2420.31
456.616	2434.31
456.836	2445.31
457.056	2466.31
457.276	2441.31
457.497	2637.31
457.717	2608.31
457.937	2520.31
458.157	2520.31
458.377	2551.31
458.598	2571.31
458.818	2582.31
459.038	2595.31
459.258	2598.31
459.478	2612.31
459.698	2643.31
459.918	2717.31
460.138	2720.31
460.358	2785.31
460.578	2806.31
460.798	2815.31
461.018	2905.31
461.238	2846.31
461.458	2910.31
461.678	2894.31
461.898	2994.31
462.118	2989.31
462.338	3078.31
462.558	3041.31
462.777	3165.31
462.997	3249.31
463.217	3358.31
463.437	3456.31
463.657	3554.31
463.876	3591.31
464.096	3364.31
464.316	3186.31
464.536	3126.31
464.755	3082.31
464.975	3003.31
465.195	2875.31
465.414	2817.31
465.634	2748.31
465.854	2730.31
466.073	2662.31
466.293	2646.31
466.512	2628.31
466.732	2676.31
466.951	2790.31
467.171	2998.31
467.391	2933.31
467.61	2692.31
467.829	2634.31
468.049	2645.31
468.268	2521.31
468.488	2565.31
468.707	2577.31
468.927	2595.31
469.146	2619.31
469.365	2608.31
469.585	2635.31
469.804	2688.31
470.023	2666.31
470.243	2753.31
470.462	2882.31
470.681	3010.31
470.901	3329.31
471.12	3782.31
471.339	3786.31
471.558	3165.31
471.777	2862.31
471.997	2764.31
472.216	2688.31
472.435	2641.31
472.654	2521.31
472.873	2570.31
473.092	2597.31
473.311	2634.31
473.53	2602.31
473.749	2723.31
473.968	2826.31
474.187	2653.31
474.406	2608.31
474.625	2597.31
474.844	2620.31
475.063	2608.31
475.282	2606.31
475.501	2596.31
475.72	2579.31
475.939	2681.31
476.158	2722.31
476.377	2788.31
476.596	2764.31
476.814	2738.31
477.033	2750.31
477.252	2715.31
477.471	2826.31
477.69	2868.31
477.908	2889.31
478.127	2952.31
478.346	2936.31
478.564	3004.31
478.783	3012.31
479.002	3050.31
479.22	3106.31
479.439	3091.31
479.658	3109.31
479.876	3160.31
480.095	3165.31
480.313	3164.31
480.532	3212.31
480.751	3245.31
480.969	3213.31
481.188	3142.31
481.406	3129.31
481.624	3113.31
481.843	3212.31
482.061	3194.31
482.28	3178.31
482.498	3124.31
482.717	3149.31
482.935	3166.31
483.153	3191.31
483.372	3255.31
483.59	3310.31
483.808	3327.31
484.027	3426.31
484.245	3600.31
484.463	4057.31
484.681	4552.31
484.9	4128.31
485.118	3830.31
485.336	3709.31
485.554	3846.31
485.772	4028.31
485.99	4532.31
486.209	4874.31
486.427	4138.31
486.645	3726.31
486.863	3540.31
487.081	3452.31
487.299	3389.31
487.517	3394.31
487.735	3387.31
