Data from SnStandardFlinnAPT0064_LampEnergy5.5_LIBS07252019.E.O._I.C._HRD10591_15-15-15-491.txt Node
Date: Thu Jul 25 15:15:15 EDT 2019
User: cochatt
Spectrometer: HR+D1059
Trigger mode: 1
Integration Time (sec): 1.000000E-1
Scans to average: 1
Electric dark correction enabled: true
Nonlinearity correction enabled: false
Boxcar width: 0
XAxis mode: Wavelengths
Number of Pixels in Spectrum: 2048
>>>>>Begin Spectral Data<<<<<
223.165	-20.62
223.4	-20.62
223.635	-20.62
223.869	-20.62
224.104	-21.62
224.338	-20.62
224.573	-27.62
224.808	-11.62
225.042	-10.62
225.277	6.38
225.511	3.38
225.746	11.38
225.98	11.38
226.215	17.38
226.449	4.38
226.683	21.38
226.918	37.38
227.152	20.38
227.387	45.38
227.621	44.38
227.856	43.38
228.09	45.38
228.324	42.38
228.559	57.38
228.793	69.38
229.027	140.38
229.262	147.38
229.496	149.38
229.73	142.38
229.964	154.38
230.199	144.38
230.433	166.38
230.667	147.38
230.901	173.38
231.136	167.38
231.37	177.38
231.604	181.38
231.838	206.38
232.072	214.38
232.306	215.38
232.541	220.38
232.775	198.38
233.009	187.38
233.243	194.38
233.477	219.38
233.711	220.38
233.945	273.38
234.179	225.38
234.413	228.38
234.647	224.38
234.881	214.38
235.115	234.38
235.349	244.38
235.583	313.38
235.817	379.38
236.051	386.38
236.285	279.38
236.519	244.38
236.753	219.38
236.987	238.38
237.221	228.38
237.455	248.38
237.689	221.38
237.922	236.38
238.156	235.38
238.39	204.38
238.624	233.38
238.858	223.38
239.091	211.38
239.325	217.38
239.559	233.38
239.793	234.38
240.027	241.38
240.26	251.38
240.494	262.38
240.728	250.38
240.961	272.38
241.195	267.38
241.429	277.38
241.662	281.38
241.896	314.38
242.13	358.38
242.363	440.38
242.597	551.38
242.83	555.38
243.064	565.38
243.298	649.38
243.531	532.38
243.765	360.38
243.998	313.38
244.232	295.38
244.465	298.38
244.699	296.38
244.932	280.38
245.166	299.38
245.399	301.38
245.633	284.38
245.866	292.38
246.099	308.38
246.333	300.38
246.566	281.38
246.8	278.38
247.033	290.38
247.266	284.38
247.5	283.38
247.733	298.38
247.966	307.38
248.2	330.38
248.433	343.38
248.666	397.38
248.899	357.38
249.133	337.38
249.366	336.38
249.599	390.38
249.832	408.38
250.066	419.38
250.299	356.38
250.532	334.38
250.765	334.38
250.998	340.38
251.231	321.38
251.465	323.38
251.698	321.38
251.931	326.38
252.164	307.38
252.397	321.38
252.63	335.38
252.863	323.38
253.096	326.38
253.329	350.38
253.562	322.38
253.795	341.38
254.028	370.38
254.261	350.38
254.494	357.38
254.727	417.38
254.96	463.38
255.193	461.38
255.426	391.38
255.659	375.38
255.892	366.38
256.124	358.38
256.357	372.38
256.59	397.38
256.823	402.38
257.056	446.38
257.289	503.38
257.521	536.38
257.754	457.38
257.987	415.38
258.22	395.38
258.452	392.38
258.685	400.38
258.918	374.38
259.151	409.38
259.383	423.38
259.616	484.38
259.849	503.38
260.081	431.38
260.314	420.38
260.547	409.38
260.779	417.38
261.012	433.38
261.244	414.38
261.477	411.38
261.71	414.38
261.942	440.38
262.175	452.38
262.407	468.38
262.64	459.38
262.872	479.38
263.105	486.38
263.337	526.38
263.57	550.38
263.802	552.38
264.035	557.38
264.267	575.38
264.499	603.38
264.732	630.38
264.964	626.38
265.197	602.38
265.429	632.38
265.661	652.38
265.894	659.38
266.126	704.38
266.358	745.38
266.591	745.38
266.823	670.38
267.055	612.38
267.287	599.38
267.52	586.38
267.752	552.38
267.984	554.38
268.216	552.38
268.448	537.38
268.681	537.38
268.913	526.38
269.145	516.38
269.377	521.38
269.609	533.38
269.841	536.38
270.073	558.38
270.306	660.38
270.538	808.38
270.77	1124.38
271.002	1314.38
271.234	972.38
271.466	705.38
271.698	612.38
271.93	577.38
272.162	554.38
272.394	536.38
272.626	530.38
272.858	526.38
273.09	533.38
273.322	500.38
273.553	522.38
273.785	523.38
274.017	501.38
274.249	537.38
274.481	505.38
274.713	520.38
274.945	518.38
275.176	533.38
275.408	519.38
275.64	521.38
275.872	536.38
276.104	524.38
276.335	539.38
276.567	529.38
276.799	518.38
277.031	528.38
277.262	541.38
277.494	582.38
277.726	605.38
277.957	663.38
278.189	717.38
278.421	709.38
278.652	638.38
278.884	633.38
279.115	591.38
279.347	574.38
279.579	562.38
279.81	578.38
280.042	566.38
280.273	609.38
280.505	592.38
280.736	605.38
280.968	617.38
281.199	667.38
281.431	718.38
281.662	741.38
281.894	669.38
282.125	646.38
282.356	642.38
282.588	637.38
282.819	663.38
283.051	695.38
283.282	764.38
283.513	873.38
283.745	1244.38
283.976	1961.38
284.207	2664.38
284.439	2481.38
284.67	1529.38
284.901	1242.38
285.132	1214.38
285.364	1187.38
285.595	967.38
285.826	884.38
286.057	1031.38
286.288	1308.38
286.52	1711.38
286.751	1628.38
286.982	1091.38
287.213	865.38
287.444	758.38
287.675	755.38
287.906	735.38
288.138	714.38
288.369	689.38
288.6	677.38
288.831	683.38
289.062	712.38
289.293	685.38
289.524	682.38
289.755	685.38
289.986	698.38
290.217	689.38
290.448	689.38
290.679	698.38
290.91	676.38
291.141	701.38
291.371	742.38
291.602	779.38
291.833	718.38
292.064	695.38
292.295	680.38
292.526	656.38
292.757	649.38
292.987	663.38
293.218	644.38
293.449	649.38
293.68	636.38
293.91	644.38
294.141	643.38
294.372	635.38
294.603	659.38
294.833	644.38
295.064	630.38
295.295	614.38
295.525	634.38
295.756	636.38
295.987	638.38
296.217	637.38
296.448	667.38
296.679	649.38
296.909	673.38
297.14	670.38
297.37	670.38
297.601	658.38
297.831	683.38
298.062	669.38
298.292	656.38
298.523	686.38
298.753	715.38
298.984	689.38
299.214	725.38
299.445	707.38
299.675	713.38
299.905	721.38
300.136	739.38
300.366	826.38
300.597	1006.38
300.827	1286.38
301.057	1736.38
301.288	1715.38
301.518	1179.38
301.748	964.38
301.979	886.38
302.209	859.38
302.439	864.38
302.669	891.38
302.9	1064.38
303.13	1370.38
303.36	1963.38
303.59	2569.38
303.82	2262.38
304.051	1443.38
304.281	1084.38
304.511	935.38
304.741	862.38
304.971	802.38
305.201	813.38
305.431	812.38
305.661	781.38
305.891	778.38
306.121	784.38
306.352	777.38
306.582	744.38
306.812	753.38
307.042	776.38
307.272	745.38
307.502	738.38
307.731	744.38
307.961	766.38
308.191	739.38
308.421	749.38
308.651	765.38
308.881	736.38
309.111	739.38
309.341	709.38
309.571	767.38
309.8	754.38
310.03	763.38
310.26	795.38
310.49	750.38
310.72	774.38
310.949	759.38
311.179	761.38
311.409	785.38
311.639	803.38
311.868	772.38
312.098	773.38
312.328	792.38
312.557	811.38
312.787	818.38
313.017	785.38
313.246	837.38
313.476	801.38
313.706	818.38
313.935	852.38
314.165	894.38
314.394	896.38
314.624	899.38
314.853	894.38
315.083	851.38
315.312	885.38
315.542	875.38
315.771	867.38
316.001	896.38
316.23	913.38
316.46	969.38
316.689	1041.38
316.919	1153.38
317.148	1598.38
317.377	2345.38
317.607	3389.38
317.836	3449.38
318.065	2190.38
318.295	1506.38
318.524	1215.38
318.753	1087.38
318.983	1041.38
319.212	987.38
319.441	993.38
319.67	941.38
319.9	950.38
320.129	952.38
320.358	937.38
320.587	934.38
320.816	939.38
321.046	954.38
321.275	925.38
321.504	959.38
321.733	939.38
321.962	975.38
322.191	974.38
322.42	990.38
322.649	983.38
322.878	999.38
323.108	999.38
323.337	1000.38
323.566	1000.38
323.795	1034.38
324.024	1075.38
324.253	1043.38
324.482	1123.38
324.71	1149.38
324.939	1183.38
325.168	1206.38
325.397	1213.38
325.626	1416.38
325.855	1905.38
326.084	2885.38
326.313	4191.38
326.542	4387.38
326.77	2973.38
326.999	2010.38
327.228	1754.38
327.457	1677.38
327.686	1737.38
327.914	1814.38
328.143	2063.38
328.372	2340.38
328.6	2489.38
328.829	2316.38
329.058	2075.38
329.287	1876.38
329.515	1761.38
329.744	1645.38
329.972	1563.38
330.201	1477.38
330.43	1443.38
330.658	1399.38
330.887	1390.38
331.115	1394.38
331.344	1373.38
331.572	1345.38
331.801	1371.38
332.03	1349.38
332.258	1390.38
332.486	1446.38
332.715	1566.38
332.943	1819.38
333.172	2211.38
333.4	2114.38
333.629	1814.38
333.857	1710.38
334.085	1677.38
334.314	1740.38
334.542	1870.38
334.771	2180.38
334.999	2514.38
335.227	3057.38
335.455	3294.38
335.684	3119.38
335.912	2725.38
336.14	2425.38
336.369	2148.38
336.597	1996.38
336.825	1845.38
337.053	1729.38
337.281	1675.38
337.51	1516.38
337.738	1527.38
337.966	1467.38
338.194	1430.38
338.422	1353.38
338.65	1340.38
338.878	1316.38
339.106	1300.38
339.334	1253.38
339.562	1252.38
339.79	1212.38
340.018	1227.38
340.246	1216.38
340.474	1223.38
340.702	1214.38
340.93	1173.38
341.158	1238.38
341.386	1201.38
341.614	1185.38
341.842	1176.38
342.07	1149.38
342.298	1145.38
342.526	1121.38
342.754	1110.38
342.981	1127.38
343.209	1090.38
343.437	1104.38
343.665	1110.38
343.893	1142.38
344.12	1154.38
344.348	1097.38
344.576	1111.38
344.804	1105.38
345.031	1094.38
345.259	1059.38
345.487	1032.38
345.714	1058.38
345.942	1009.38
346.17	1034.38
346.397	1036.38
346.625	1024.38
346.853	1034.38
347.08	1031.38
347.308	1018.38
347.535	1054.38
347.763	1012.38
347.99	1002.38
348.218	1000.38
348.445	989.38
348.673	987.38
348.9	1045.38
349.128	1000.38
349.355	1010.38
349.583	1002.38
349.81	971.38
350.037	983.38
350.265	981.38
350.492	981.38
350.72	994.38
350.947	1026.38
351.174	1000.38
351.402	990.38
351.629	995.38
351.856	997.38
352.083	970.38
352.311	955.38
352.538	967.38
352.765	969.38
352.992	987.38
353.22	987.38
353.447	969.38
353.674	992.38
353.901	964.38
354.128	966.38
354.355	986.38
354.583	991.38
354.81	998.38
355.037	980.38
355.264	1014.38
355.491	987.38
355.718	998.38
355.945	1003.38
356.172	977.38
356.399	1005.38
356.626	1002.38
356.853	1009.38
357.08	1025.38
357.307	1066.38
357.534	1025.38
357.761	1036.38
357.988	1031.38
358.215	1009.38
358.441	1018.38
358.668	1033.38
358.895	1010.38
359.122	1044.38
359.349	1032.38
359.576	1002.38
359.802	1041.38
360.029	993.38
360.256	1063.38
360.483	1027.38
360.709	1038.38
360.936	1050.38
361.163	1050.38
361.39	1047.38
361.616	1033.38
361.843	1041.38
362.07	1065.38
362.296	1064.38
362.523	1058.38
362.749	1070.38
362.976	1042.38
363.203	1036.38
363.429	1038.38
363.656	1052.38
363.882	1036.38
364.109	1058.38
364.335	1035.38
364.562	1039.38
364.788	1050.38
365.015	1061.38
365.241	1085.38
365.468	1091.38
365.694	1123.38
365.92	1129.38
366.147	1061.38
366.373	1029.38
366.599	1077.38
366.826	1070.38
367.052	1050.38
367.278	1062.38
367.505	1059.38
367.731	1079.38
367.957	1091.38
368.184	1079.38
368.41	1100.38
368.636	1095.38
368.862	1113.38
369.089	1085.38
369.315	1099.38
369.541	1079.38
369.767	1095.38
369.993	1075.38
370.219	1101.38
370.445	1080.38
370.672	1097.38
370.898	1058.38
371.124	1085.38
371.35	1111.38
371.576	1122.38
371.802	1146.38
372.028	1116.38
372.254	1119.38
372.48	1143.38
372.706	1145.38
372.932	1177.38
373.158	1162.38
373.384	1183.38
373.61	1157.38
373.835	1140.38
374.061	1119.38
374.287	1161.38
374.513	1192.38
374.739	1157.38
374.965	1181.38
375.191	1197.38
375.416	1178.38
375.642	1193.38
375.868	1155.38
376.094	1147.38
376.319	1128.38
376.545	1163.38
376.771	1155.38
376.997	1132.38
377.222	1159.38
377.448	1158.38
377.674	1124.38
377.899	1110.38
378.125	1111.38
378.35	1146.38
378.576	1111.38
378.802	1144.38
379.027	1148.38
379.253	1167.38
379.478	1182.38
379.704	1362.38
379.929	1807.38
380.155	2473.38
380.38	2691.38
380.606	1820.38
380.831	1414.38
381.057	1274.38
381.282	1166.38
381.507	1096.38
381.733	1109.38
381.958	1154.38
382.184	1117.38
382.409	1082.38
382.634	1120.38
382.86	1125.38
383.085	1113.38
383.31	1119.38
383.535	1142.38
383.761	1109.38
383.986	1131.38
384.211	1115.38
384.436	1143.38
384.662	1151.38
384.887	1144.38
385.112	1163.38
385.337	1179.38
385.562	1119.38
385.787	1123.38
386.013	1185.38
386.238	1150.38
386.463	1171.38
386.688	1166.38
386.913	1173.38
387.138	1173.38
387.363	1160.38
387.588	1139.38
387.813	1133.38
388.038	1141.38
388.263	1141.38
388.488	1134.38
388.713	1157.38
388.938	1133.38
389.163	1139.38
389.387	1163.38
389.612	1145.38
389.837	1167.38
390.062	1145.38
390.287	1180.38
390.512	1177.38
390.736	1158.38
390.961	1183.38
391.186	1208.38
391.411	1201.38
391.636	1227.38
391.86	1218.38
392.085	1196.38
392.31	1207.38
392.534	1174.38
392.759	1210.38
392.984	1161.38
393.208	1162.38
393.433	1164.38
393.658	1155.38
393.882	1166.38
394.107	1177.38
394.331	1203.38
394.556	1144.38
394.78	1151.38
395.005	1183.38
395.229	1160.38
395.454	1193.38
395.678	1207.38
395.903	1227.38
396.127	1181.38
396.352	1197.38
396.576	1181.38
396.801	1195.38
397.025	1189.38
397.249	1185.38
397.474	1220.38
397.698	1196.38
397.922	1195.38
398.147	1252.38
398.371	1260.38
398.595	1274.38
398.82	1277.38
399.044	1336.38
399.268	1385.38
399.492	1483.38
399.717	1526.38
399.941	1539.38
400.165	1449.38
400.389	1405.38
400.613	1382.38
400.837	1322.38
401.062	1350.38
401.286	1311.38
401.51	1286.38
401.734	1258.38
401.958	1294.38
402.182	1277.38
402.406	1299.38
402.63	1312.38
402.854	1313.38
403.078	1294.38
403.302	1290.38
403.526	1326.38
403.75	1339.38
403.974	1331.38
404.198	1320.38
404.422	1339.38
404.645	1346.38
404.869	1331.38
405.093	1345.38
405.317	1296.38
405.541	1354.38
405.765	1342.38
405.988	1322.38
406.212	1363.38
406.436	1344.38
406.66	1358.38
406.883	1368.38
407.107	1416.38
407.331	1457.38
407.555	1475.38
407.778	1423.38
408.002	1374.38
408.226	1405.38
408.449	1420.38
408.673	1345.38
408.896	1370.38
409.12	1358.38
409.344	1347.38
409.567	1346.38
409.791	1305.38
410.014	1310.38
410.238	1305.38
410.461	1303.38
410.685	1289.38
410.908	1305.38
411.132	1300.38
411.355	1251.38
411.578	1286.38
411.802	1274.38
412.025	1243.38
412.249	1310.38
412.472	1280.38
412.695	1253.38
412.919	1245.38
413.142	1281.38
413.365	1271.38
413.589	1228.38
413.812	1250.38
414.035	1231.38
414.258	1298.38
414.482	1237.38
414.705	1273.38
414.928	1262.38
415.151	1221.38
415.374	1264.38
415.597	1225.38
415.821	1242.38
416.044	1217.38
416.267	1185.38
416.49	1215.38
416.713	1191.38
416.936	1231.38
417.159	1229.38
417.382	1176.38
417.605	1186.38
417.828	1208.38
418.051	1221.38
418.274	1229.38
418.497	1227.38
418.72	1221.38
418.943	1231.38
419.166	1292.38
419.389	1346.38
419.611	1316.38
419.834	1288.38
420.057	1246.38
420.28	1213.38
420.503	1225.38
420.726	1206.38
420.948	1191.38
421.171	1196.38
421.394	1206.38
421.617	1230.38
421.839	1244.38
422.062	1236.38
422.285	1207.38
422.507	1222.38
422.73	1237.38
422.953	1266.38
423.175	1261.38
423.398	1246.38
423.621	1240.38
423.843	1251.38
424.066	1219.38
424.288	1229.38
424.511	1235.38
424.733	1224.38
424.956	1237.38
425.178	1182.38
425.401	1212.38
425.623	1243.38
425.846	1185.38
426.068	1190.38
426.291	1214.38
426.513	1205.38
426.735	1181.38
426.958	1181.38
427.18	1149.38
427.402	1147.38
427.625	1149.38
427.847	1153.38
428.069	1146.38
428.292	1155.38
428.514	1114.38
428.736	1114.38
428.958	1118.38
429.181	1100.38
429.403	1127.38
429.625	1122.38
429.847	1145.38
430.069	1171.38
430.292	1146.38
430.514	1166.38
430.736	1215.38
430.958	1155.38
431.18	1121.38
431.402	1121.38
431.624	1105.38
431.846	1125.38
432.068	1122.38
432.29	1124.38
432.512	1110.38
432.734	1153.38
432.956	1107.38
433.178	1118.38
433.4	1152.38
433.622	1095.38
433.844	1167.38
434.066	1107.38
434.287	1129.38
434.509	1123.38
434.731	1150.38
434.953	1130.38
435.175	1174.38
435.397	1179.38
435.618	1155.38
435.84	1137.38
436.062	1102.38
436.284	1124.38
436.505	1138.38
436.727	1133.38
436.949	1116.38
437.17	1103.38
437.392	1092.38
437.614	1091.38
437.835	1064.38
438.057	1070.38
438.278	1066.38
438.5	1076.38
438.721	1089.38
438.943	1133.38
439.165	1136.38
439.386	1170.38
439.608	1122.38
439.829	1156.38
440.05	1182.38
440.272	1197.38
440.493	1147.38
440.715	1131.38
440.936	1154.38
441.158	1158.38
441.379	1190.38
441.6	1238.38
441.822	1240.38
442.043	1270.38
442.264	1292.38
442.486	1228.38
442.707	1202.38
442.928	1193.38
443.149	1194.38
443.371	1184.38
443.592	1214.38
443.813	1212.38
444.034	1218.38
444.255	1202.38
444.476	1261.38
444.698	1275.38
444.919	1290.38
445.14	1329.38
445.361	1293.38
445.582	1209.38
445.803	1217.38
446.024	1183.38
446.245	1190.38
446.466	1163.38
446.687	1166.38
446.908	1158.38
447.129	1163.38
447.35	1152.38
447.571	1127.38
447.792	1113.38
448.013	1125.38
448.234	1122.38
448.455	1098.38
448.675	1109.38
448.896	1156.38
449.117	1141.38
449.338	1229.38
449.559	1298.38
449.779	1132.38
450	1116.38
450.221	1111.38
450.442	1077.38
450.662	1077.38
450.883	1096.38
451.104	1066.38
451.324	1077.38
451.545	1066.38
451.766	1067.38
451.986	1106.38
452.207	1159.38
452.428	1333.38
452.648	1723.38
452.869	1509.38
453.089	1203.38
453.31	1195.38
453.53	1159.38
453.751	1179.38
453.971	1213.38
454.192	1222.38
454.412	1073.38
454.633	1080.38
454.853	1033.38
455.073	1041.38
455.294	1013.38
455.514	1035.38
455.734	1055.38
455.955	1036.38
456.175	999.38
456.395	1008.38
456.616	1028.38
456.836	1044.38
457.056	1046.38
457.276	1007.38
457.497	1074.38
457.717	1084.38
457.937	1062.38
458.157	1065.38
458.377	1089.38
458.598	1074.38
458.818	1096.38
459.038	1086.38
459.258	1108.38
459.478	1124.38
459.698	1115.38
459.918	1121.38
460.138	1167.38
460.358	1193.38
460.578	1204.38
460.798	1203.38
461.018	1191.38
461.238	1217.38
461.458	1228.38
461.678	1199.38
461.898	1231.38
462.118	1231.38
462.338	1300.38
462.558	1265.38
462.777	1286.38
462.997	1339.38
463.217	1429.38
463.437	1426.38
463.657	1431.38
463.876	1415.38
464.096	1326.38
464.316	1299.38
464.536	1329.38
464.755	1310.38
464.975	1260.38
465.195	1210.38
465.414	1197.38
465.634	1163.38
465.854	1150.38
466.073	1130.38
466.293	1163.38
466.512	1161.38
466.732	1129.38
466.951	1173.38
467.171	1259.38
467.391	1200.38
467.61	1107.38
467.829	1120.38
468.049	1117.38
468.268	1088.38
468.488	1093.38
468.707	1103.38
468.927	1111.38
469.146	1106.38
469.365	1117.38
469.585	1102.38
469.804	1149.38
470.023	1165.38
470.243	1182.38
470.462	1181.38
470.681	1256.38
470.901	1308.38
471.12	1465.38
471.339	1452.38
471.558	1290.38
471.777	1205.38
471.997	1153.38
472.216	1114.38
472.435	1117.38
472.654	1084.38
472.873	1068.38
473.092	1116.38
473.311	1111.38
473.53	1089.38
473.749	1121.38
473.968	1206.38
474.187	1118.38
474.406	1118.38
474.625	1120.38
474.844	1100.38
475.063	1123.38
475.282	1102.38
475.501	1094.38
475.72	1107.38
475.939	1149.38
476.158	1178.38
476.377	1157.38
476.596	1159.38
476.814	1147.38
477.033	1143.38
477.252	1210.38
477.471	1196.38
477.69	1228.38
477.908	1231.38
478.127	1257.38
478.346	1255.38
478.564	1246.38
478.783	1261.38
479.002	1319.38
479.22	1290.38
479.439	1316.38
479.658	1313.38
479.876	1289.38
480.095	1288.38
480.313	1327.38
480.532	1351.38
480.751	1338.38
480.969	1313.38
481.188	1281.38
481.406	1292.38
481.624	1305.38
481.843	1294.38
482.061	1300.38
482.28	1306.38
482.498	1310.38
482.717	1297.38
482.935	1317.38
483.153	1385.38
483.372	1349.38
483.59	1381.38
483.808	1394.38
484.027	1396.38
484.245	1431.38
484.463	1577.38
484.681	1728.38
484.9	1604.38
485.118	1558.38
485.336	1516.38
485.554	1511.38
485.772	1579.38
485.99	1755.38
486.209	1862.38
486.427	1607.38
486.645	1498.38
486.863	1431.38
487.081	1448.38
487.299	1413.38
487.517	1414.38
487.735	1427.38
487.953	1419.38
488.171	1425.38
488.389	1430.38
488.607	1323.38
488.825	1403.38
489.043	1346.38
489.261	1333.38
489.479	1363.38
489.696	1360.38
489.914	1343.38
490.132	1364.38
490.35	1378.38
490.568	1405.38
490.786	1397.38
491.003	1437.38
491.221	1458.38
491.439	1452.38
