Data from SnStandardFlinnAPT0064_QswitchEnergy10_LIBS07252019.E.O._I.C._HRD10591_15-25-54-973.txt Node
Date: Thu Jul 25 15:25:54 EDT 2019
User: cochatt
Spectrometer: HR+D1059
Trigger mode: 1
Integration Time (sec): 1.000000E-1
Scans to average: 1
Electric dark correction enabled: true
Nonlinearity correction enabled: false
Boxcar width: 0
XAxis mode: Wavelengths
Number of Pixels in Spectrum: 2048
>>>>>Begin Spectral Data<<<<<
223.165	-12.69
223.4	-12.69
223.635	-12.69
223.869	-16.69
224.104	-9.69
224.338	-16.69
224.573	-21.69
224.808	-16.69
225.042	-6.69
225.277	-5.69
225.511	3.31
225.746	9.31
225.98	7.31
226.215	7.31
226.449	7.31
226.683	11.31
226.918	25.31
227.152	35.31
227.387	29.31
227.621	42.31
227.856	41.31
228.09	44.31
228.324	45.31
228.559	63.31
228.793	65.31
229.027	60.31
229.262	57.31
229.496	63.31
229.73	71.31
229.964	75.31
230.199	82.31
230.433	72.31
230.667	80.31
230.901	78.31
231.136	75.31
231.37	82.31
231.604	88.31
231.838	110.31
232.072	116.31
232.306	100.31
232.541	80.31
232.775	94.31
233.009	99.31
233.243	81.31
233.477	84.31
233.711	92.31
233.945	111.31
234.179	86.31
234.413	92.31
234.647	89.31
234.881	88.31
235.115	92.31
235.349	101.31
235.583	116.31
235.817	120.31
236.051	132.31
236.285	91.31
236.519	92.31
236.753	91.31
236.987	82.31
237.221	86.31
237.455	87.31
237.689	82.31
237.922	83.31
238.156	76.31
238.39	75.31
238.624	76.31
238.858	75.31
239.091	71.31
239.325	88.31
239.559	77.31
239.793	83.31
240.027	76.31
240.26	80.31
240.494	87.31
240.728	94.31
240.961	85.31
241.195	88.31
241.429	95.31
241.662	88.31
241.896	66.31
242.13	109.31
242.363	129.31
242.597	157.31
242.83	146.31
243.064	134.31
243.298	143.31
243.531	134.31
243.765	90.31
243.998	92.31
244.232	82.31
244.465	84.31
244.699	62.31
244.932	75.31
245.166	80.31
245.399	87.31
245.633	78.31
245.866	85.31
246.099	71.31
246.333	75.31
246.566	80.31
246.8	85.31
247.033	83.31
247.266	83.31
247.5	82.31
247.733	84.31
247.966	82.31
248.2	86.31
248.433	114.31
248.666	126.31
248.899	106.31
249.133	87.31
249.366	98.31
249.599	92.31
249.832	108.31
250.066	131.31
250.299	99.31
250.532	73.31
250.765	86.31
250.998	76.31
251.231	89.31
251.465	77.31
251.698	66.31
251.931	79.31
252.164	87.31
252.397	93.31
252.63	95.31
252.863	108.31
253.096	92.31
253.329	81.31
253.562	88.31
253.795	88.31
254.028	80.31
254.261	90.31
254.494	102.31
254.727	123.31
254.96	127.31
255.193	127.31
255.426	83.31
255.659	93.31
255.892	75.31
256.124	98.31
256.357	75.31
256.59	98.31
256.823	100.31
257.056	104.31
257.289	135.31
257.521	175.31
257.754	115.31
257.987	105.31
258.22	103.31
258.452	83.31
258.685	85.31
258.918	88.31
259.151	95.31
259.383	111.31
259.616	133.31
259.849	133.31
260.081	96.31
260.314	86.31
260.547	90.31
260.779	81.31
261.012	84.31
261.244	97.31
261.477	89.31
261.71	95.31
261.942	82.31
262.175	87.31
262.407	78.31
262.64	74.31
262.872	69.31
263.105	83.31
263.337	91.31
263.57	93.31
263.802	89.31
264.035	81.31
264.267	89.31
264.499	68.31
264.732	69.31
264.964	77.31
265.197	88.31
265.429	89.31
265.661	84.31
265.894	119.31
266.126	117.31
266.358	163.31
266.591	151.31
266.823	100.31
267.055	95.31
267.287	81.31
267.52	85.31
267.752	82.31
267.984	88.31
268.216	80.31
268.448	84.31
268.681	87.31
268.913	94.31
269.145	93.31
269.377	79.31
269.609	83.31
269.841	105.31
270.073	113.31
270.306	106.31
270.538	159.31
270.77	293.31
271.002	348.31
271.234	177.31
271.466	104.31
271.698	97.31
271.93	96.31
272.162	95.31
272.394	88.31
272.626	87.31
272.858	77.31
273.09	95.31
273.322	91.31
273.553	80.31
273.785	99.31
274.017	78.31
274.249	89.31
274.481	86.31
274.713	85.31
274.945	86.31
275.176	95.31
275.408	84.31
275.64	97.31
275.872	86.31
276.104	83.31
276.335	104.31
276.567	113.31
276.799	95.31
277.031	96.31
277.262	105.31
277.494	94.31
277.726	122.31
277.957	165.31
278.189	225.31
278.421	216.31
278.652	164.31
278.884	169.31
279.115	131.31
279.347	111.31
279.579	90.31
279.81	83.31
280.042	86.31
280.273	90.31
280.505	96.31
280.736	108.31
280.968	121.31
281.199	153.31
281.431	214.31
281.662	225.31
281.894	145.31
282.125	109.31
282.356	109.31
282.588	83.31
282.819	123.31
283.051	119.31
283.282	132.31
283.513	163.31
283.745	262.31
283.976	472.31
284.207	678.31
284.439	520.31
284.67	236.31
284.901	213.31
285.132	302.31
285.364	348.31
285.595	211.31
285.826	161.31
286.057	223.31
286.288	372.31
286.52	555.31
286.751	426.31
286.982	176.31
287.213	131.31
287.444	118.31
287.675	105.31
287.906	95.31
288.138	89.31
288.369	87.31
288.6	98.31
288.831	81.31
289.062	104.31
289.293	107.31
289.524	84.31
289.755	83.31
289.986	89.31
290.217	95.31
290.448	100.31
290.679	120.31
290.91	123.31
291.141	159.31
291.371	203.31
291.602	241.31
291.833	161.31
292.064	104.31
292.295	102.31
292.526	104.31
292.757	92.31
292.987	83.31
293.218	85.31
293.449	90.31
293.68	82.31
293.91	81.31
294.141	87.31
294.372	97.31
294.603	115.31
294.833	93.31
295.064	80.31
295.295	100.31
295.525	89.31
295.756	100.31
295.987	103.31
296.217	105.31
296.448	91.31
296.679	111.31
296.909	86.31
297.14	96.31
297.37	83.31
297.601	88.31
297.831	97.31
298.062	103.31
298.292	96.31
298.523	106.31
298.753	100.31
298.984	106.31
299.214	94.31
299.445	103.31
299.675	120.31
299.905	119.31
300.136	139.31
300.366	138.31
300.597	243.31
300.827	379.31
301.057	616.31
301.288	543.31
301.518	223.31
301.748	133.31
301.979	114.31
302.209	116.31
302.439	121.31
302.669	159.31
302.9	224.31
303.13	439.31
303.36	759.31
303.59	1070.31
303.82	727.31
304.051	252.31
304.281	133.31
304.511	123.31
304.741	116.31
304.971	101.31
305.201	116.31
305.431	117.31
305.661	102.31
305.891	106.31
306.121	96.31
306.352	104.31
306.582	103.31
306.812	104.31
307.042	102.31
307.272	105.31
307.502	116.31
307.731	115.31
307.961	105.31
308.191	95.31
308.421	88.31
308.651	106.31
308.881	99.31
309.111	107.31
309.341	99.31
309.571	103.31
309.8	97.31
310.03	99.31
310.26	105.31
310.49	88.31
310.72	105.31
310.949	116.31
311.179	96.31
311.409	111.31
311.639	96.31
311.868	114.31
312.098	120.31
312.328	92.31
312.557	107.31
312.787	111.31
313.017	124.31
313.246	111.31
313.476	98.31
313.706	107.31
313.935	163.31
314.165	161.31
314.394	195.31
314.624	163.31
314.853	117.31
315.083	112.31
315.312	119.31
315.542	124.31
315.771	116.31
316.001	135.31
316.23	121.31
316.46	124.31
316.689	138.31
316.919	225.31
317.148	418.31
317.377	804.31
317.607	1306.31
317.836	1209.31
318.065	433.31
318.295	192.31
318.524	133.31
318.753	135.31
318.983	122.31
319.212	119.31
319.441	108.31
319.67	110.31
319.9	104.31
320.129	113.31
320.358	133.31
320.587	128.31
320.816	107.31
321.046	105.31
321.275	120.31
321.504	109.31
321.733	139.31
321.962	153.31
322.191	141.31
322.42	127.31
322.649	129.31
322.878	119.31
323.108	119.31
323.337	121.31
323.566	122.31
323.795	125.31
324.024	124.31
324.253	128.31
324.482	175.31
324.71	201.31
324.939	235.31
325.168	211.31
325.397	176.31
325.626	216.31
325.855	417.31
326.084	825.31
326.313	1372.31
326.542	1346.31
326.77	521.31
326.999	223.31
327.228	191.31
327.457	189.31
327.686	201.31
327.914	156.31
328.143	131.31
328.372	124.31
328.6	106.31
328.829	113.31
329.058	119.31
329.287	125.31
329.515	104.31
329.744	116.31
329.972	125.31
330.201	106.31
330.43	103.31
330.658	107.31
330.887	106.31
331.115	117.31
331.344	101.31
331.572	125.31
331.801	117.31
332.03	118.31
332.258	135.31
332.486	155.31
332.715	264.31
332.943	443.31
333.172	668.31
333.4	583.31
333.629	237.31
333.857	145.31
334.085	116.31
334.314	102.31
334.542	111.31
334.771	123.31
334.999	102.31
335.227	111.31
335.455	108.31
335.684	105.31
335.912	124.31
336.14	120.31
336.369	93.31
336.597	125.31
336.825	105.31
337.053	111.31
337.281	103.31
337.51	97.31
337.738	120.31
337.966	102.31
338.194	113.31
338.422	97.31
338.65	116.31
338.878	106.31
339.106	114.31
339.334	125.31
339.562	112.31
339.79	108.31
340.018	102.31
340.246	125.31
340.474	122.31
340.702	114.31
340.93	94.31
341.158	104.31
341.386	101.31
341.614	118.31
341.842	112.31
342.07	114.31
342.298	109.31
342.526	109.31
342.754	99.31
342.981	113.31
343.209	112.31
343.437	116.31
343.665	115.31
343.893	108.31
344.12	95.31
344.348	95.31
344.576	117.31
344.804	91.31
345.031	109.31
345.259	103.31
345.487	96.31
345.714	115.31
345.942	103.31
346.17	102.31
346.397	99.31
346.625	97.31
346.853	103.31
347.08	97.31
347.308	113.31
347.535	115.31
347.763	97.31
347.99	94.31
348.218	107.31
348.445	100.31
348.673	99.31
348.9	110.31
349.128	116.31
349.355	123.31
349.583	115.31
349.81	117.31
350.037	113.31
350.265	118.31
350.492	95.31
350.72	108.31
350.947	113.31
351.174	108.31
351.402	113.31
351.629	107.31
351.856	98.31
352.083	111.31
352.311	98.31
352.538	112.31
352.765	118.31
352.992	114.31
353.22	103.31
353.447	97.31
353.674	96.31
353.901	80.31
354.128	99.31
354.355	98.31
354.583	98.31
354.81	101.31
355.037	95.31
355.264	93.31
355.491	113.31
355.718	101.31
355.945	79.31
356.172	95.31
356.399	101.31
356.626	112.31
356.853	106.31
357.08	115.31
357.307	104.31
357.534	111.31
357.761	109.31
357.988	103.31
358.215	102.31
358.441	92.31
358.668	115.31
358.895	117.31
359.122	119.31
359.349	120.31
359.576	106.31
359.802	108.31
360.029	104.31
360.256	111.31
360.483	103.31
360.709	113.31
360.936	104.31
361.163	102.31
361.39	100.31
361.616	89.31
361.843	100.31
362.07	103.31
362.296	98.31
362.523	98.31
362.749	112.31
362.976	104.31
363.203	90.31
363.429	95.31
363.656	104.31
363.882	89.31
364.109	106.31
364.335	114.31
364.562	90.31
364.788	114.31
365.015	102.31
365.241	135.31
365.468	175.31
365.694	200.31
365.92	176.31
366.147	116.31
366.373	98.31
366.599	108.31
366.826	104.31
367.052	113.31
367.278	111.31
367.505	89.31
367.731	96.31
367.957	98.31
368.184	97.31
368.41	122.31
368.636	106.31
368.862	102.31
369.089	96.31
369.315	111.31
369.541	109.31
369.767	103.31
369.993	107.31
370.219	99.31
370.445	105.31
370.672	104.31
370.898	94.31
371.124	111.31
371.35	100.31
371.576	101.31
371.802	109.31
372.028	98.31
372.254	89.31
372.48	95.31
372.706	98.31
372.932	104.31
373.158	108.31
373.384	107.31
373.61	100.31
373.835	113.31
374.061	105.31
374.287	96.31
374.513	99.31
374.739	99.31
374.965	101.31
375.191	117.31
375.416	105.31
375.642	99.31
375.868	109.31
376.094	92.31
376.319	105.31
376.545	104.31
376.771	95.31
376.997	93.31
377.222	90.31
377.448	108.31
377.674	116.31
377.899	112.31
378.125	105.31
378.35	100.31
378.576	103.31
378.802	117.31
379.027	118.31
379.253	129.31
379.478	176.31
379.704	264.31
379.929	652.31
380.155	1356.31
380.38	1406.31
380.606	453.31
380.831	180.31
381.057	136.31
381.282	119.31
381.507	112.31
381.733	116.31
381.958	106.31
382.184	96.31
382.409	100.31
382.634	98.31
382.86	105.31
383.085	100.31
383.31	100.31
383.535	103.31
383.761	112.31
383.986	108.31
384.211	79.31
384.436	90.31
384.662	90.31
384.887	106.31
385.112	96.31
385.337	104.31
385.562	108.31
385.787	114.31
386.013	97.31
386.238	111.31
386.463	111.31
386.688	90.31
386.913	99.31
387.138	112.31
387.363	102.31
387.588	104.31
387.813	112.31
388.038	101.31
388.263	89.31
388.488	98.31
388.713	100.31
388.938	107.31
389.163	97.31
389.387	99.31
389.612	95.31
389.837	114.31
390.062	100.31
390.287	90.31
390.512	95.31
390.736	91.31
390.961	106.31
391.186	105.31
391.411	96.31
391.636	98.31
391.86	108.31
392.085	101.31
392.31	97.31
392.534	101.31
392.759	92.31
392.984	98.31
393.208	106.31
393.433	107.31
393.658	125.31
393.882	94.31
394.107	103.31
394.331	95.31
394.556	101.31
394.78	86.31
395.005	103.31
395.229	97.31
395.454	89.31
395.678	86.31
395.903	97.31
396.127	92.31
396.352	95.31
396.576	98.31
396.801	114.31
397.025	122.31
397.249	111.31
397.474	106.31
397.698	106.31
397.922	89.31
398.147	85.31
398.371	102.31
398.595	106.31
398.82	121.31
399.044	97.31
399.268	97.31
399.492	97.31
399.717	85.31
399.941	110.31
400.165	95.31
400.389	107.31
400.613	94.31
400.837	108.31
401.062	92.31
401.286	112.31
401.51	87.31
401.734	86.31
401.958	105.31
402.182	101.31
402.406	109.31
402.63	78.31
402.854	81.31
403.078	89.31
403.302	89.31
403.526	105.31
403.75	92.31
403.974	94.31
404.198	72.31
404.422	93.31
404.645	115.31
404.869	87.31
405.093	97.31
405.317	100.31
405.541	103.31
405.765	124.31
405.988	126.31
406.212	96.31
406.436	83.31
406.66	99.31
406.883	97.31
407.107	99.31
407.331	102.31
407.555	101.31
407.778	87.31
408.002	99.31
408.226	92.31
408.449	92.31
408.673	99.31
408.896	94.31
409.12	81.31
409.344	101.31
409.567	97.31
409.791	92.31
410.014	95.31
410.238	99.31
410.461	116.31
410.685	87.31
410.908	96.31
411.132	107.31
411.355	96.31
411.578	91.31
411.802	91.31
412.025	107.31
412.249	86.31
412.472	103.31
412.695	95.31
412.919	87.31
413.142	87.31
413.365	100.31
413.589	92.31
413.812	92.31
414.035	111.31
414.258	111.31
414.482	101.31
414.705	116.31
414.928	91.31
415.151	88.31
415.374	88.31
415.597	84.31
415.821	92.31
416.044	94.31
416.267	88.31
416.49	93.31
416.713	107.31
416.936	99.31
417.159	98.31
417.382	106.31
417.605	79.31
417.828	80.31
418.051	93.31
418.274	99.31
418.497	104.31
418.72	85.31
418.943	91.31
419.166	98.31
419.389	117.31
419.611	104.31
419.834	104.31
420.057	97.31
420.28	121.31
420.503	98.31
420.726	106.31
420.948	96.31
421.171	94.31
421.394	81.31
421.617	89.31
421.839	101.31
422.062	86.31
422.285	84.31
422.507	95.31
422.73	105.31
422.953	130.31
423.175	125.31
423.398	98.31
423.621	95.31
423.843	85.31
424.066	85.31
424.288	99.31
424.511	75.31
424.733	105.31
424.956	83.31
425.178	92.31
425.401	90.31
425.623	109.31
425.846	82.31
426.068	105.31
426.291	88.31
426.513	91.31
426.735	106.31
426.958	99.31
427.18	104.31
427.402	97.31
427.625	92.31
427.847	96.31
428.069	97.31
428.292	115.31
428.514	111.31
428.736	100.31
428.958	118.31
429.181	104.31
429.403	109.31
429.625	99.31
429.847	97.31
430.069	108.31
430.292	113.31
430.514	115.31
430.736	115.31
430.958	93.31
431.18	88.31
431.402	89.31
431.624	96.31
431.846	86.31
432.068	88.31
432.29	99.31
432.512	98.31
432.734	80.31
432.956	96.31
433.178	96.31
433.4	94.31
433.622	92.31
433.844	95.31
434.066	89.31
434.287	107.31
434.509	94.31
434.731	96.31
434.953	97.31
435.175	92.31
435.397	110.31
435.618	91.31
435.84	91.31
436.062	93.31
436.284	101.31
436.505	98.31
436.727	90.31
436.949	80.31
437.17	96.31
437.392	82.31
437.614	87.31
437.835	80.31
438.057	84.31
438.278	97.31
438.5	87.31
438.721	96.31
438.943	101.31
439.165	112.31
439.386	107.31
439.608	98.31
439.829	97.31
440.05	108.31
440.272	115.31
440.493	113.31
440.715	99.31
440.936	97.31
441.158	94.31
441.379	88.31
441.6	99.31
441.822	101.31
442.043	115.31
442.264	130.31
442.486	104.31
442.707	85.31
442.928	88.31
443.149	99.31
443.371	88.31
443.592	88.31
443.813	89.31
444.034	91.31
444.255	100.31
444.476	103.31
444.698	100.31
444.919	97.31
445.14	195.31
445.361	142.31
445.582	85.31
445.803	83.31
446.024	104.31
446.245	98.31
446.466	101.31
446.687	95.31
446.908	108.31
447.129	105.31
447.35	100.31
447.571	94.31
447.792	92.31
448.013	109.31
448.234	92.31
448.455	86.31
448.675	92.31
448.896	108.31
449.117	119.31
449.338	116.31
449.559	142.31
449.779	117.31
450	108.31
450.221	105.31
450.442	107.31
450.662	100.31
450.883	105.31
451.104	107.31
451.324	116.31
451.545	111.31
451.766	108.31
451.986	145.31
452.207	183.31
452.428	451.31
452.648	1139.31
452.869	647.31
453.089	181.31
453.31	111.31
453.53	116.31
453.751	128.31
453.971	153.31
454.192	149.31
454.412	118.31
454.633	95.31
454.853	91.31
455.073	97.31
455.294	96.31
455.514	96.31
455.734	95.31
455.955	88.31
456.175	81.31
456.395	100.31
456.616	92.31
456.836	103.31
457.056	97.31
457.276	96.31
457.497	112.31
457.717	113.31
457.937	107.31
458.157	83.31
458.377	92.31
458.598	92.31
458.818	88.31
459.038	93.31
459.258	86.31
459.478	95.31
459.698	91.31
459.918	85.31
460.138	94.31
460.358	96.31
460.578	93.31
460.798	87.31
461.018	88.31
461.238	75.31
461.458	98.31
461.678	89.31
461.898	100.31
462.118	91.31
462.338	87.31
462.558	93.31
462.777	89.31
462.997	97.31
463.217	100.31
463.437	120.31
463.657	166.31
463.876	174.31
464.096	120.31
464.316	96.31
464.536	94.31
464.755	97.31
464.975	106.31
465.195	99.31
465.414	102.31
465.634	102.31
465.854	91.31
466.073	90.31
466.293	85.31
466.512	96.31
466.732	103.31
466.951	108.31
467.171	146.31
467.391	133.31
467.61	102.31
467.829	102.31
468.049	94.31
468.268	85.31
468.488	83.31
468.707	97.31
468.927	96.31
469.146	88.31
469.365	95.31
469.585	105.31
469.804	107.31
470.023	91.31
470.243	97.31
470.462	95.31
470.681	99.31
470.901	123.31
471.12	170.31
471.339	191.31
471.558	124.31
471.777	104.31
471.997	104.31
472.216	103.31
472.435	102.31
472.654	106.31
472.873	83.31
473.092	81.31
473.311	93.31
473.53	105.31
473.749	96.31
473.968	105.31
474.187	108.31
474.406	94.31
474.625	80.31
474.844	99.31
475.063	73.31
475.282	110.31
475.501	85.31
475.72	93.31
475.939	95.31
476.158	92.31
476.377	99.31
476.596	100.31
476.814	108.31
477.033	112.31
477.252	91.31
477.471	92.31
477.69	97.31
477.908	97.31
478.127	88.31
478.346	97.31
478.564	88.31
478.783	100.31
479.002	95.31
479.22	104.31
479.439	84.31
479.658	113.31
479.876	81.31
480.095	99.31
480.313	111.31
480.532	99.31
480.751	88.31
480.969	105.31
481.188	95.31
481.406	99.31
481.624	107.31
481.843	115.31
482.061	100.31
482.28	103.31
482.498	96.31
482.717	101.31
482.935	91.31
483.153	92.31
483.372	105.31
483.59	87.31
483.808	96.31
484.027	108.31
484.245	119.31
484.463	159.31
484.681	219.31
484.9	139.31
485.118	120.31
485.336	106.31
485.554	108.31
485.772	119.31
485.99	182.31
486.209	242.31
486.427	156.31
486.645	110.31
486.863	97.31
487.081	104.31
487.299	105.31
487.517	99.31
487.735	93.31
487.953	82.31
488.171	87.31
488.389	88.31
488.607	95.31
488.825	96.31
489.043	99.31
489.261	80.31
489.479	91.31
489.696	101.31
489.914	100.31
490.132	95.31
490.35	99.31
490.568	90.31
490.786	100.31
491.003	102.31
491.221	111.31
491.439	106.31
491.657	101.31
491.874	116.31
492.092	120.31
492.31	104.31
492.527	111.31
492.745	96.31
492.963	108.31
493.18	104.31
493.398	109.31
493.615	123.31
493.833	99.31
494.05	122.31
494.268	97.31
494.485	96.31
494.703	115.31
494.92	104.31
495.138	102.31
495.355	106.31
495.573	102.31
495.79	100.31
496.008	114.31
496.225	90.31
496.442	100.31
496.66	112.31
496.877	137.31
497.094	137.31
497.312	112.31
497.529	113.31
497.746	98.31
497.963	100.31
498.181	95.31
498.398	100.31
498.615	93.31
498.832	105.31
499.049	90.31
499.267	131.31
499.484	141.31
499.701	122.31
499.918	101.31
500.135	106.31
500.352	97.31
500.569	102.31
500.786	105.31
501.003	87.31
501.22	110.31
501.437	98.31
501.654	103.31
501.871	90.31
502.088	104.31
502.305	103.31
502.522	99.31
502.739	96.31
502.956	98.31
503.172	96.31
503.389	87.31
503.606	83.31
503.823	97.31
504.04	104.31
504.256	103.31
504.473	98.31
504.69	101.31
504.907	109.31
505.123	97.31
505.34	106.31
505.557	101.31
505.773	108.31
505.99	108.31
506.207	93.31
506.423	99.31
506.64	89.31
506.856	101.31
507.073	97.31
507.289	92.31
507.506	73.31
507.722	100.31
507.939	99.31
508.155	106.31
508.372	100.31
508.588	88.31
508.805	96.31
509.021	101.31
509.238	106.31
509.454	125.31
509.67	154.31
