Data from SnStandardFlinnAPT0064_LampEnergy10_LIBS07252019.E.O._I.C._HRD10591_15-21-09-494.txt Node
Date: Thu Jul 25 15:21:09 EDT 2019
User: cochatt
Spectrometer: HR+D1059
Trigger mode: 1
Integration Time (sec): 1.000000E-1
Scans to average: 1
Electric dark correction enabled: true
Nonlinearity correction enabled: false
Boxcar width: 0
XAxis mode: Wavelengths
Number of Pixels in Spectrum: 2048
>>>>>Begin Spectral Data<<<<<
223.165	-10.44
223.4	-10.44
223.635	-10.44
223.869	-26.44
224.104	-22.44
224.338	0.56
224.573	-17.44
224.808	-13.44
225.042	-10.44
225.277	-1.44
225.511	-17.44
225.746	3.56
225.98	5.56
226.215	6.56
226.449	10.56
226.683	28.56
226.918	29.56
227.152	34.56
227.387	37.56
227.621	35.56
227.856	37.56
228.09	55.56
228.324	47.56
228.559	49.56
228.793	117.56
229.027	310.56
229.262	328.56
229.496	301.56
229.73	307.56
229.964	300.56
230.199	292.56
230.433	313.56
230.667	320.56
230.901	341.56
231.136	311.56
231.37	347.56
231.604	376.56
231.838	411.56
232.072	513.56
232.306	577.56
232.541	485.56
232.775	410.56
233.009	439.56
233.243	428.56
233.477	456.56
233.711	516.56
233.945	578.56
234.179	517.56
234.413	444.56
234.647	455.56
234.881	462.56
235.115	539.56
235.349	621.56
235.583	790.56
235.817	982.56
236.051	970.56
236.285	675.56
236.519	515.56
236.753	495.56
236.987	526.56
237.221	551.56
237.455	531.56
237.689	469.56
237.922	457.56
238.156	475.56
238.39	486.56
238.624	474.56
238.858	484.56
239.091	475.56
239.325	502.56
239.559	492.56
239.793	525.56
240.027	541.56
240.26	532.56
240.494	574.56
240.728	599.56
240.961	624.56
241.195	635.56
241.429	666.56
241.662	688.56
241.896	787.56
242.13	995.56
242.363	1247.56
242.597	1635.56
242.83	1530.56
243.064	1519.56
243.298	1805.56
243.531	1542.56
243.765	945.56
243.998	792.56
244.232	701.56
244.465	689.56
244.699	647.56
244.932	675.56
245.166	661.56
245.399	665.56
245.633	684.56
245.866	704.56
246.099	672.56
246.333	655.56
246.566	649.56
246.8	639.56
247.033	644.56
247.266	637.56
247.5	668.56
247.733	693.56
247.966	690.56
248.2	782.56
248.433	864.56
248.666	982.56
248.899	943.56
249.133	871.56
249.366	888.56
249.599	967.56
249.832	1107.56
250.066	1085.56
250.299	873.56
250.532	809.56
250.765	781.56
250.998	737.56
251.231	736.56
251.465	742.56
251.698	767.56
251.931	761.56
252.164	775.56
252.397	772.56
252.63	787.56
252.863	821.56
253.096	785.56
253.329	799.56
253.562	788.56
253.795	777.56
254.028	800.56
254.261	830.56
254.494	883.56
254.727	1029.56
254.96	1208.56
255.193	1207.56
255.426	1007.56
255.659	889.56
255.892	867.56
256.124	859.56
256.357	888.56
256.59	919.56
256.823	987.56
257.056	1121.56
257.289	1381.56
257.521	1516.56
257.754	1187.56
257.987	1000.56
258.22	922.56
258.452	912.56
258.685	927.56
258.918	963.56
259.151	989.56
259.383	1095.56
259.616	1206.56
259.849	1267.56
260.081	1105.56
260.314	1004.56
260.547	965.56
260.779	917.56
261.012	983.56
261.244	991.56
261.477	970.56
261.71	1033.56
261.942	1027.56
262.175	1021.56
262.407	1091.56
262.64	1081.56
262.872	1122.56
263.105	1151.56
263.337	1221.56
263.57	1258.56
263.802	1301.56
264.035	1300.56
264.267	1365.56
264.499	1381.56
264.732	1468.56
264.964	1463.56
265.197	1450.56
265.429	1454.56
265.661	1479.56
265.894	1603.56
266.126	1789.56
266.358	1957.56
266.591	1946.56
266.823	1617.56
267.055	1455.56
267.287	1414.56
267.52	1364.56
267.752	1326.56
267.984	1303.56
268.216	1251.56
268.448	1258.56
268.681	1242.56
268.913	1220.56
269.145	1241.56
269.377	1236.56
269.609	1257.56
269.841	1278.56
270.073	1359.56
270.306	1607.56
270.538	2233.56
270.77	3215.56
271.002	3955.56
271.234	2823.56
271.466	1847.56
271.698	1546.56
271.93	1389.56
272.162	1315.56
272.394	1309.56
272.626	1277.56
272.858	1227.56
273.09	1225.56
273.322	1239.56
273.553	1207.56
273.785	1250.56
274.017	1209.56
274.249	1231.56
274.481	1203.56
274.713	1232.56
274.945	1205.56
275.176	1277.56
275.408	1246.56
275.64	1235.56
275.872	1215.56
276.104	1267.56
276.335	1260.56
276.567	1301.56
276.799	1273.56
277.031	1308.56
277.262	1350.56
277.494	1398.56
277.726	1557.56
277.957	1832.56
278.189	2101.56
278.421	1974.56
278.652	1751.56
278.884	1667.56
279.115	1506.56
279.347	1427.56
279.579	1407.56
279.81	1401.56
280.042	1365.56
280.273	1406.56
280.505	1441.56
280.736	1489.56
280.968	1615.56
281.199	1764.56
281.431	2024.56
281.662	2100.56
281.894	1755.56
282.125	1623.56
282.356	1660.56
282.588	1689.56
282.819	1726.56
283.051	1829.56
283.282	2017.56
283.513	2469.56
283.745	3593.56
283.976	5727.56
284.207	8113.56
284.439	7377.56
284.67	4573.56
284.901	3739.56
285.132	3749.56
285.364	3613.56
285.595	2699.56
285.826	2422.56
286.057	2788.56
286.288	3868.56
286.52	5231.56
286.751	4925.56
286.982	3017.56
287.213	2337.56
287.444	2018.56
287.675	1894.56
287.906	1777.56
288.138	1748.56
288.369	1739.56
288.6	1686.56
288.831	1688.56
289.062	1711.56
289.293	1718.56
289.524	1656.56
289.755	1732.56
289.986	1711.56
290.217	1726.56
290.448	1723.56
290.679	1715.56
290.91	1798.56
291.141	1899.56
291.371	2058.56
291.602	2135.56
291.833	1946.56
292.064	1791.56
292.295	1677.56
292.526	1653.56
292.757	1643.56
292.987	1582.56
293.218	1622.56
293.449	1622.56
293.68	1609.56
293.91	1560.56
294.141	1590.56
294.372	1552.56
294.603	1576.56
294.833	1578.56
295.064	1601.56
295.295	1591.56
295.525	1542.56
295.756	1591.56
295.987	1575.56
296.217	1592.56
296.448	1589.56
296.679	1581.56
296.909	1588.56
297.14	1574.56
297.37	1601.56
297.601	1642.56
297.831	1660.56
298.062	1663.56
298.292	1638.56
298.523	1676.56
298.753	1675.56
298.984	1705.56
299.214	1739.56
299.445	1777.56
299.675	1780.56
299.905	1824.56
300.136	1909.56
300.366	2169.56
300.597	2740.56
300.827	3838.56
301.057	5238.56
301.288	5209.56
301.518	3383.56
301.748	2614.56
301.979	2396.56
302.209	2313.56
302.439	2309.56
302.669	2423.56
302.9	2988.56
303.13	4133.56
303.36	6065.56
303.59	8233.56
303.82	7126.56
304.051	4201.56
304.281	3027.56
304.511	2556.56
304.741	2275.56
304.971	2188.56
305.201	2105.56
305.431	2035.56
305.661	1997.56
305.891	1915.56
306.121	1904.56
306.352	1858.56
306.582	1881.56
306.812	1836.56
307.042	1869.56
307.272	1834.56
307.502	1815.56
307.731	1843.56
307.961	1826.56
308.191	1867.56
308.421	1846.56
308.651	1846.56
308.881	1816.56
309.111	1819.56
309.341	1855.56
309.571	1873.56
309.8	1908.56
310.03	1883.56
310.26	1935.56
310.49	1888.56
310.72	1913.56
310.949	1876.56
311.179	1917.56
311.409	1910.56
311.639	1947.56
311.868	1944.56
312.098	1925.56
312.328	1955.56
312.557	1970.56
312.787	1958.56
313.017	1988.56
313.246	1984.56
313.476	2029.56
313.706	2061.56
313.935	2208.56
314.165	2357.56
314.394	2484.56
314.624	2384.56
314.853	2209.56
315.083	2179.56
315.312	2176.56
315.542	2236.56
315.771	2214.56
316.001	2244.56
316.23	2331.56
316.46	2455.56
316.689	2674.56
316.919	3243.56
317.148	4614.56
317.377	7136.56
317.607	10435.56
317.836	10851.56
318.065	6593.56
318.295	4285.56
318.524	3427.56
318.753	3030.56
318.983	2737.56
319.212	2616.56
319.441	2583.56
319.67	2485.56
319.9	2417.56
320.129	2424.56
320.358	2347.56
320.587	2353.56
320.816	2369.56
321.046	2390.56
321.275	2372.56
321.504	2396.56
321.733	2426.56
321.962	2519.56
322.191	2545.56
322.42	2552.56
322.649	2521.56
322.878	2506.56
323.108	2514.56
323.337	2552.56
323.566	2587.56
323.795	2632.56
324.024	2692.56
324.253	2778.56
324.482	2860.56
324.71	2967.56
324.939	3223.56
325.168	3312.56
325.397	3377.56
325.626	4043.56
325.855	5618.56
326.084	8672.56
326.313	12693.56
326.542	13387.56
326.77	9111.56
326.999	5967.56
327.228	5049.56
327.457	4763.56
327.686	4839.56
327.914	5216.56
328.143	6105.56
328.372	7217.56
328.6	7893.56
328.829	7099.56
329.058	5911.56
329.287	5169.56
329.515	4658.56
329.744	4341.56
329.972	4133.56
330.201	3921.56
330.43	3783.56
330.658	3656.56
330.887	3609.56
331.115	3492.56
331.344	3514.56
331.572	3431.56
331.801	3610.56
332.03	3583.56
332.258	3589.56
332.486	3761.56
332.715	4337.56
332.943	5303.56
333.172	6513.56
333.4	6543.56
333.629	5026.56
333.857	4565.56
334.085	4559.56
334.314	4805.56
334.542	5208.56
334.771	6118.56
334.999	7635.56
335.227	9407.56
335.455	10591.56
335.684	9557.56
335.912	7820.56
336.14	6535.56
336.369	5721.56
336.597	5371.56
336.825	4801.56
337.053	4555.56
337.281	4266.56
337.51	4051.56
337.738	3861.56
337.966	3775.56
338.194	3627.56
338.422	3535.56
338.65	3377.56
338.878	3360.56
339.106	3242.56
339.334	3257.56
339.562	3169.56
339.79	3090.56
340.018	3138.56
340.246	3088.56
340.474	3047.56
340.702	3035.56
340.93	3042.56
341.158	3035.56
341.386	2983.56
341.614	2984.56
341.842	2950.56
342.07	2876.56
342.298	2843.56
342.526	2751.56
342.754	2764.56
342.981	2753.56
343.209	2703.56
343.437	2752.56
343.665	2865.56
343.893	2853.56
344.12	2854.56
344.348	2795.56
344.576	2756.56
344.804	2747.56
345.031	2664.56
345.259	2695.56
345.487	2596.56
345.714	2609.56
345.942	2519.56
346.17	2547.56
346.397	2564.56
346.625	2572.56
346.853	2489.56
347.08	2517.56
347.308	2553.56
347.535	2567.56
347.763	2517.56
347.99	2487.56
348.218	2562.56
348.445	2500.56
348.673	2488.56
348.9	2499.56
349.128	2494.56
349.355	2502.56
349.583	2465.56
349.81	2476.56
350.037	2409.56
350.265	2382.56
350.492	2456.56
350.72	2397.56
350.947	2409.56
351.174	2431.56
351.402	2417.56
351.629	2439.56
351.856	2426.56
352.083	2449.56
352.311	2370.56
352.538	2381.56
352.765	2442.56
352.992	2391.56
353.22	2378.56
353.447	2385.56
353.674	2418.56
353.901	2404.56
354.128	2396.56
354.355	2403.56
354.583	2420.56
354.81	2426.56
355.037	2428.56
355.264	2479.56
355.491	2439.56
355.718	2440.56
355.945	2543.56
356.172	2479.56
356.399	2520.56
356.626	2509.56
356.853	2525.56
357.08	2529.56
357.307	2574.56
357.534	2577.56
357.761	2610.56
357.988	2623.56
358.215	2594.56
358.441	2577.56
358.668	2529.56
358.895	2584.56
359.122	2515.56
359.349	2507.56
359.576	2535.56
359.802	2552.56
360.029	2551.56
360.256	2545.56
360.483	2568.56
360.709	2562.56
360.936	2585.56
361.163	2583.56
361.39	2548.56
361.616	2585.56
361.843	2588.56
362.07	2572.56
362.296	2634.56
362.523	2559.56
362.749	2593.56
362.976	2585.56
363.203	2615.56
363.429	2522.56
363.656	2570.56
363.882	2521.56
364.109	2553.56
364.335	2540.56
364.562	2581.56
364.788	2570.56
365.015	2592.56
365.241	2660.56
365.468	2831.56
365.694	2945.56
365.92	2831.56
366.147	2707.56
366.373	2664.56
366.599	2594.56
366.826	2658.56
367.052	2608.56
367.278	2629.56
367.505	2647.56
367.731	2661.56
367.957	2630.56
368.184	2650.56
368.41	2659.56
368.636	2688.56
368.862	2740.56
369.089	2719.56
369.315	2713.56
369.541	2651.56
369.767	2659.56
369.993	2663.56
370.219	2710.56
370.445	2650.56
370.672	2719.56
370.898	2721.56
371.124	2683.56
371.35	2774.56
371.576	2714.56
371.802	2767.56
372.028	2780.56
372.254	2768.56
372.48	2782.56
372.706	2828.56
372.932	2780.56
373.158	2791.56
373.384	2769.56
373.61	2751.56
373.835	2853.56
374.061	2864.56
374.287	2926.56
374.513	2858.56
374.739	2899.56
374.965	2931.56
375.191	2945.56
375.416	2909.56
375.642	2923.56
375.868	2821.56
376.094	2839.56
376.319	2810.56
376.545	2787.56
376.771	2824.56
376.997	2760.56
377.222	2761.56
377.448	2754.56
377.674	2721.56
377.899	2751.56
378.125	2756.56
378.35	2784.56
378.576	2764.56
378.802	2819.56
379.027	2863.56
379.253	2922.56
379.478	2996.56
379.704	3605.56
379.929	5183.56
380.155	7845.56
380.38	8543.56
380.606	5299.56
380.831	3716.56
381.057	3274.56
381.282	3058.56
381.507	2887.56
381.733	2768.56
381.958	2763.56
382.184	2749.56
382.409	2731.56
382.634	2702.56
382.86	2696.56
383.085	2692.56
383.31	2732.56
383.535	2717.56
383.761	2717.56
383.986	2759.56
384.211	2758.56
384.436	2837.56
384.662	2769.56
384.887	2812.56
385.112	2789.56
385.337	2784.56
385.562	2827.56
385.787	2803.56
386.013	2798.56
386.238	2805.56
386.463	2824.56
386.688	2816.56
386.913	2746.56
387.138	2770.56
387.363	2788.56
387.588	2771.56
387.813	2772.56
388.038	2748.56
388.263	2750.56
388.488	2800.56
388.713	2768.56
388.938	2818.56
389.163	2760.56
389.387	2824.56
389.612	2752.56
389.837	2772.56
390.062	2766.56
390.287	2845.56
390.512	2750.56
390.736	2852.56
390.961	2907.56
391.186	2874.56
391.411	2929.56
391.636	2909.56
391.86	2948.56
392.085	2951.56
392.31	2941.56
392.534	2908.56
392.759	2882.56
392.984	2843.56
393.208	2821.56
393.433	2823.56
393.658	2823.56
393.882	2822.56
394.107	2827.56
394.331	2858.56
394.556	2808.56
394.78	2834.56
395.005	2860.56
395.229	2931.56
395.454	2885.56
395.678	2904.56
395.903	2938.56
396.127	2907.56
396.352	2898.56
396.576	2845.56
396.801	2844.56
397.025	2911.56
397.249	2908.56
397.474	2887.56
397.698	2917.56
397.922	3013.56
398.147	2946.56
398.371	2988.56
398.595	3035.56
398.82	3082.56
399.044	3215.56
399.268	3362.56
399.492	3552.56
399.717	3698.56
399.941	3721.56
400.165	3518.56
400.389	3423.56
400.613	3294.56
400.837	3139.56
401.062	3145.56
401.286	3125.56
401.51	3085.56
401.734	3037.56
401.958	3121.56
402.182	3091.56
402.406	3078.56
402.63	3132.56
402.854	3117.56
403.078	3188.56
403.302	3124.56
403.526	3186.56
403.75	3218.56
403.974	3219.56
404.198	3170.56
404.422	3195.56
404.645	3197.56
404.869	3098.56
405.093	3221.56
405.317	3175.56
405.541	3258.56
405.765	3271.56
405.988	3353.56
406.212	3316.56
406.436	3283.56
406.66	3345.56
406.883	3280.56
407.107	3388.56
407.331	3391.56
407.555	3495.56
407.778	3455.56
408.002	3442.56
408.226	3447.56
408.449	3469.56
408.673	3332.56
408.896	3274.56
409.12	3206.56
409.344	3249.56
409.567	3189.56
409.791	3233.56
410.014	3142.56
410.238	3231.56
410.461	3215.56
410.685	3146.56
410.908	3145.56
411.132	3117.56
411.355	3099.56
411.578	3094.56
411.802	3093.56
412.025	3111.56
412.249	3067.56
412.472	3038.56
412.695	3051.56
412.919	3022.56
413.142	3017.56
413.365	3021.56
413.589	3019.56
413.812	3020.56
414.035	3007.56
414.258	3051.56
414.482	3067.56
414.705	3012.56
414.928	3052.56
415.151	3013.56
415.374	2975.56
415.597	2971.56
415.821	2919.56
416.044	2921.56
416.267	2911.56
416.49	2851.56
416.713	2856.56
416.936	2906.56
417.159	2900.56
417.382	2832.56
417.605	2867.56
417.828	2851.56
418.051	2915.56
418.274	2901.56
418.497	2947.56
418.72	3033.56
418.943	2937.56
419.166	3056.56
419.389	3242.56
419.611	3155.56
419.834	3077.56
420.057	2961.56
420.28	2935.56
420.503	2904.56
420.726	2880.56
420.948	2867.56
421.171	2908.56
421.394	2955.56
421.617	2897.56
421.839	2927.56
422.062	2908.56
422.285	2847.56
422.507	2941.56
422.73	2961.56
422.953	2922.56
423.175	2946.56
423.398	2967.56
423.621	2919.56
423.843	2909.56
424.066	2935.56
424.288	2889.56
424.511	2818.56
424.733	2907.56
424.956	2885.56
425.178	2889.56
425.401	2843.56
425.623	2867.56
425.846	2789.56
426.068	2795.56
426.291	2787.56
426.513	2756.56
426.735	2776.56
426.958	2730.56
427.18	2723.56
427.402	2700.56
427.625	2757.56
427.847	2707.56
428.069	2689.56
428.292	2746.56
428.514	2691.56
428.736	2688.56
428.958	2675.56
429.181	2598.56
429.403	2645.56
429.625	2675.56
429.847	2679.56
430.069	2721.56
430.292	2791.56
430.514	2842.56
430.736	2889.56
430.958	2696.56
431.18	2671.56
431.402	2670.56
431.624	2612.56
431.846	2653.56
432.068	2657.56
432.29	2659.56
432.512	2614.56
432.734	2641.56
432.956	2674.56
433.178	2661.56
433.4	2667.56
433.622	2706.56
433.844	2683.56
434.066	2663.56
434.287	2675.56
434.509	2710.56
434.731	2780.56
434.953	2742.56
435.175	2824.56
435.397	2735.56
435.618	2684.56
435.84	2687.56
436.062	2663.56
436.284	2621.56
436.505	2611.56
436.727	2682.56
436.949	2645.56
437.17	2656.56
437.392	2597.56
437.614	2607.56
437.835	2522.56
438.057	2567.56
438.278	2519.56
438.5	2604.56
438.721	2620.56
438.943	2721.56
439.165	2727.56
439.386	2741.56
439.608	2728.56
439.829	2801.56
440.05	2815.56
440.272	2890.56
440.493	2743.56
440.715	2716.56
440.936	2760.56
441.158	2770.56
441.379	2783.56
441.6	2906.56
441.822	2970.56
442.043	3135.56
442.264	3251.56
442.486	2969.56
442.707	2922.56
442.928	2831.56
443.149	2826.56
443.371	2770.56
443.592	2832.56
443.813	2870.56
444.034	2898.56
444.255	2939.56
444.476	2962.56
444.698	3017.56
444.919	3029.56
445.14	3117.56
445.361	3025.56
445.582	2903.56
445.803	2828.56
446.024	2803.56
446.245	2797.56
446.466	2813.56
446.687	2761.56
446.908	2789.56
447.129	2697.56
447.35	2659.56
447.571	2659.56
447.792	2619.56
448.013	2644.56
448.234	2584.56
448.455	2621.56
448.675	2605.56
448.896	2707.56
449.117	2809.56
449.338	3055.56
449.559	3175.56
449.779	2796.56
450	2599.56
450.221	2619.56
450.442	2541.56
450.662	2561.56
450.883	2515.56
451.104	2528.56
451.324	2557.56
451.545	2567.56
451.766	2565.56
451.986	2605.56
452.207	2794.56
452.428	3578.56
452.648	5429.56
452.869	4549.56
453.089	3178.56
453.31	3021.56
453.53	2986.56
453.751	3055.56
453.971	3158.56
454.192	3105.56
454.412	2671.56
454.633	2558.56
454.853	2519.56
455.073	2475.56
455.294	2481.56
455.514	2461.56
455.734	2445.56
455.955	2429.56
456.175	2438.56
456.395	2479.56
456.616	2451.56
456.836	2436.56
457.056	2523.56
457.276	2486.56
457.497	2617.56
457.717	2621.56
457.937	2644.56
458.157	2589.56
458.377	2571.56
458.598	2548.56
458.818	2622.56
459.038	2611.56
459.258	2661.56
459.478	2688.56
459.698	2726.56
459.918	2703.56
460.138	2769.56
460.358	2831.56
460.578	2867.56
460.798	2883.56
461.018	2918.56
461.238	2889.56
461.458	2886.56
461.678	2910.56
461.898	3000.56
462.118	3001.56
462.338	3040.56
462.558	3099.56
462.777	3114.56
462.997	3285.56
463.217	3375.56
463.437	3569.56
463.657	3623.56
463.876	3580.56
464.096	3368.56
464.316	3218.56
464.536	3172.56
464.755	3089.56
464.975	3045.56
465.195	2897.56
465.414	2871.56
465.634	2732.56
465.854	2748.56
466.073	2723.56
466.293	2663.56
466.512	2678.56
466.732	2689.56
466.951	2837.56
467.171	2971.56
467.391	2983.56
467.61	2770.56
467.829	2621.56
468.049	2624.56
468.268	2608.56
468.488	2613.56
468.707	2575.56
468.927	2623.56
469.146	2603.56
469.365	2654.56
469.585	2627.56
469.804	2700.56
470.023	2728.56
470.243	2770.56
470.462	2898.56
470.681	3011.56
470.901	3339.56
471.12	3870.56
471.339	3803.56
471.558	3196.56
471.777	2957.56
471.997	2775.56
472.216	2702.56
472.435	2689.56
472.654	2607.56
472.873	2603.56
473.092	2636.56
473.311	2608.56
473.53	2660.56
473.749	2711.56
473.968	2742.56
474.187	2681.56
474.406	2582.56
474.625	2643.56
474.844	2604.56
475.063	2616.56
475.282	2660.56
475.501	2663.56
475.72	2668.56
475.939	2678.56
476.158	2689.56
476.377	2821.56
476.596	2762.56
476.814	2789.56
477.033	2775.56
477.252	2798.56
477.471	2863.56
477.69	2932.56
477.908	2934.56
478.127	3004.56
478.346	2956.56
478.564	3048.56
478.783	3052.56
479.002	3100.56
479.22	3139.56
479.439	3146.56
479.658	3097.56
479.876	3171.56
480.095	3155.56
480.313	3264.56
480.532	3268.56
480.751	3277.56
480.969	3211.56
481.188	3165.56
481.406	3201.56
481.624	3113.56
481.843	3196.56
482.061	3197.56
482.28	3191.56
482.498	3150.56
482.717	3126.56
482.935	3207.56
483.153	3201.56
483.372	3279.56
483.59	3291.56
483.808	3392.56
484.027	3447.56
484.245	3658.56
484.463	4052.56
484.681	4527.56
484.9	4155.56
485.118	3847.56
485.336	3716.56
485.554	3843.56
485.772	4035.56
485.99	4544.56
486.209	4907.56
486.427	4149.56
486.645	3729.56
486.863	3599.56
487.081	3450.56
487.299	3427.56
487.517	3395.56
487.735	3411.56
