Data from SnStandardFlinnAPT0064_QswitchEnergy10_LIBS07252019.E.O._I.C._HRD10591_15-25-58-973.txt Node
Date: Thu Jul 25 15:25:58 EDT 2019
User: cochatt
Spectrometer: HR+D1059
Trigger mode: 1
Integration Time (sec): 1.000000E-1
Scans to average: 1
Electric dark correction enabled: true
Nonlinearity correction enabled: false
Boxcar width: 0
XAxis mode: Wavelengths
Number of Pixels in Spectrum: 2048
>>>>>Begin Spectral Data<<<<<
223.165	-11.5
223.4	-11.5
223.635	-11.5
223.869	-17.5
224.104	-4.5
224.338	-5.5
224.573	-28.5
224.808	-16.5
225.042	-6.5
225.277	-14.5
225.511	-0.5
225.746	-4.5
225.98	8.5
226.215	15.5
226.449	10.5
226.683	17.5
226.918	34.5
227.152	23.5
227.387	24.5
227.621	38.5
227.856	46.5
228.09	57.5
228.324	41.5
228.559	53.5
228.793	57.5
229.027	66.5
229.262	69.5
229.496	63.5
229.73	64.5
229.964	72.5
230.199	77.5
230.433	76.5
230.667	82.5
230.901	77.5
231.136	70.5
231.37	73.5
231.604	94.5
231.838	99.5
232.072	94.5
232.306	120.5
232.541	97.5
232.775	79.5
233.009	81.5
233.243	81.5
233.477	73.5
233.711	103.5
233.945	102.5
234.179	109.5
234.413	83.5
234.647	89.5
234.881	95.5
235.115	88.5
235.349	102.5
235.583	98.5
235.817	129.5
236.051	121.5
236.285	97.5
236.519	93.5
236.753	85.5
236.987	73.5
237.221	79.5
237.455	85.5
237.689	72.5
237.922	80.5
238.156	78.5
238.39	82.5
238.624	86.5
238.858	83.5
239.091	89.5
239.325	73.5
239.559	88.5
239.793	70.5
240.027	82.5
240.26	78.5
240.494	75.5
240.728	75.5
240.961	83.5
241.195	101.5
241.429	90.5
241.662	73.5
241.896	62.5
242.13	93.5
242.363	131.5
242.597	157.5
242.83	135.5
243.064	126.5
243.298	147.5
243.531	136.5
243.765	87.5
243.998	79.5
244.232	94.5
244.465	88.5
244.699	79.5
244.932	77.5
245.166	72.5
245.399	69.5
245.633	73.5
245.866	85.5
246.099	82.5
246.333	89.5
246.566	70.5
246.8	75.5
247.033	72.5
247.266	87.5
247.5	65.5
247.733	86.5
247.966	82.5
248.2	92.5
248.433	96.5
248.666	132.5
248.899	100.5
249.133	86.5
249.366	81.5
249.599	102.5
249.832	121.5
250.066	127.5
250.299	76.5
250.532	75.5
250.765	77.5
250.998	74.5
251.231	89.5
251.465	90.5
251.698	86.5
251.931	62.5
252.164	87.5
252.397	79.5
252.63	103.5
252.863	94.5
253.096	82.5
253.329	113.5
253.562	87.5
253.795	102.5
254.028	80.5
254.261	87.5
254.494	96.5
254.727	110.5
254.96	129.5
255.193	138.5
255.426	92.5
255.659	92.5
255.892	90.5
256.124	92.5
256.357	91.5
256.59	95.5
256.823	105.5
257.056	110.5
257.289	147.5
257.521	175.5
257.754	122.5
257.987	81.5
258.22	81.5
258.452	75.5
258.685	85.5
258.918	68.5
259.151	86.5
259.383	105.5
259.616	127.5
259.849	127.5
260.081	106.5
260.314	77.5
260.547	98.5
260.779	90.5
261.012	86.5
261.244	82.5
261.477	84.5
261.71	86.5
261.942	95.5
262.175	96.5
262.407	83.5
262.64	86.5
262.872	97.5
263.105	93.5
263.337	82.5
263.57	82.5
263.802	95.5
264.035	82.5
264.267	85.5
264.499	80.5
264.732	84.5
264.964	85.5
265.197	70.5
265.429	80.5
265.661	91.5
265.894	95.5
266.126	106.5
266.358	144.5
266.591	139.5
266.823	100.5
267.055	81.5
267.287	89.5
267.52	77.5
267.752	102.5
267.984	84.5
268.216	90.5
268.448	90.5
268.681	78.5
268.913	83.5
269.145	97.5
269.377	79.5
269.609	82.5
269.841	86.5
270.073	108.5
270.306	117.5
270.538	177.5
270.77	281.5
271.002	322.5
271.234	173.5
271.466	121.5
271.698	103.5
271.93	90.5
272.162	89.5
272.394	84.5
272.626	88.5
272.858	89.5
273.09	69.5
273.322	93.5
273.553	77.5
273.785	84.5
274.017	91.5
274.249	73.5
274.481	91.5
274.713	72.5
274.945	90.5
275.176	88.5
275.408	75.5
275.64	90.5
275.872	99.5
276.104	85.5
276.335	103.5
276.567	106.5
276.799	83.5
277.031	92.5
277.262	102.5
277.494	93.5
277.726	137.5
277.957	160.5
278.189	239.5
278.421	224.5
278.652	168.5
278.884	169.5
279.115	139.5
279.347	113.5
279.579	83.5
279.81	85.5
280.042	88.5
280.273	109.5
280.505	100.5
280.736	100.5
280.968	125.5
281.199	144.5
281.431	219.5
281.662	250.5
281.894	157.5
282.125	111.5
282.356	110.5
282.588	106.5
282.819	115.5
283.051	121.5
283.282	122.5
283.513	175.5
283.745	267.5
283.976	498.5
284.207	701.5
284.439	519.5
284.67	238.5
284.901	227.5
285.132	307.5
285.364	320.5
285.595	213.5
285.826	157.5
286.057	234.5
286.288	362.5
286.52	520.5
286.751	399.5
286.982	175.5
287.213	114.5
287.444	95.5
287.675	104.5
287.906	101.5
288.138	92.5
288.369	95.5
288.6	94.5
288.831	97.5
289.062	93.5
289.293	91.5
289.524	88.5
289.755	89.5
289.986	87.5
290.217	105.5
290.448	94.5
290.679	106.5
290.91	118.5
291.141	149.5
291.371	226.5
291.602	288.5
291.833	177.5
292.064	113.5
292.295	88.5
292.526	86.5
292.757	93.5
292.987	93.5
293.218	80.5
293.449	90.5
293.68	110.5
293.91	89.5
294.141	89.5
294.372	89.5
294.603	79.5
294.833	91.5
295.064	87.5
295.295	79.5
295.525	64.5
295.756	85.5
295.987	93.5
296.217	93.5
296.448	109.5
296.679	86.5
296.909	97.5
297.14	78.5
297.37	93.5
297.601	85.5
297.831	101.5
298.062	100.5
298.292	95.5
298.523	103.5
298.753	102.5
298.984	106.5
299.214	115.5
299.445	104.5
299.675	111.5
299.905	104.5
300.136	120.5
300.366	150.5
300.597	248.5
300.827	423.5
301.057	633.5
301.288	559.5
301.518	241.5
301.748	143.5
301.979	134.5
302.209	122.5
302.439	133.5
302.669	157.5
302.9	250.5
303.13	438.5
303.36	751.5
303.59	1046.5
303.82	737.5
304.051	243.5
304.281	147.5
304.511	125.5
304.741	118.5
304.971	116.5
305.201	106.5
305.431	105.5
305.661	92.5
305.891	92.5
306.121	100.5
306.352	104.5
306.582	109.5
306.812	101.5
307.042	109.5
307.272	105.5
307.502	111.5
307.731	99.5
307.961	94.5
308.191	110.5
308.421	100.5
308.651	98.5
308.881	103.5
309.111	94.5
309.341	89.5
309.571	87.5
309.8	111.5
310.03	105.5
310.26	102.5
310.49	91.5
310.72	96.5
310.949	103.5
311.179	103.5
311.409	106.5
311.639	101.5
311.868	82.5
312.098	102.5
312.328	109.5
312.557	121.5
312.787	121.5
313.017	122.5
313.246	119.5
313.476	108.5
313.706	123.5
313.935	128.5
314.165	173.5
314.394	214.5
314.624	159.5
314.853	113.5
315.083	135.5
315.312	137.5
315.542	127.5
315.771	133.5
316.001	138.5
316.23	127.5
316.46	144.5
316.689	186.5
316.919	229.5
317.148	417.5
317.377	775.5
317.607	1303.5
317.836	1236.5
318.065	489.5
318.295	205.5
318.524	153.5
318.753	126.5
318.983	123.5
319.212	123.5
319.441	102.5
319.67	109.5
319.9	110.5
320.129	107.5
320.358	97.5
320.587	111.5
320.816	115.5
321.046	105.5
321.275	123.5
321.504	124.5
321.733	130.5
321.962	156.5
322.191	149.5
322.42	135.5
322.649	119.5
322.878	124.5
323.108	119.5
323.337	128.5
323.566	117.5
323.795	120.5
324.024	127.5
324.253	139.5
324.482	145.5
324.71	206.5
324.939	254.5
325.168	214.5
325.397	176.5
325.626	215.5
325.855	425.5
326.084	802.5
326.313	1354.5
326.542	1390.5
326.77	559.5
326.999	233.5
327.228	192.5
327.457	225.5
327.686	196.5
327.914	145.5
328.143	126.5
328.372	123.5
328.6	117.5
328.829	112.5
329.058	120.5
329.287	118.5
329.515	117.5
329.744	125.5
329.972	114.5
330.201	123.5
330.43	124.5
330.658	119.5
330.887	113.5
331.115	118.5
331.344	124.5
331.572	129.5
331.801	111.5
332.03	114.5
332.258	127.5
332.486	157.5
332.715	253.5
332.943	452.5
333.172	689.5
333.4	602.5
333.629	227.5
333.857	143.5
334.085	117.5
334.314	123.5
334.542	109.5
334.771	127.5
334.999	117.5
335.227	107.5
335.455	129.5
335.684	114.5
335.912	113.5
336.14	104.5
336.369	106.5
336.597	116.5
336.825	120.5
337.053	113.5
337.281	129.5
337.51	113.5
337.738	127.5
337.966	118.5
338.194	106.5
338.422	111.5
338.65	89.5
338.878	113.5
339.106	109.5
339.334	132.5
339.562	112.5
339.79	125.5
340.018	110.5
340.246	110.5
340.474	110.5
340.702	104.5
340.93	102.5
341.158	122.5
341.386	111.5
341.614	122.5
341.842	124.5
342.07	111.5
342.298	114.5
342.526	111.5
342.754	109.5
342.981	99.5
343.209	105.5
343.437	122.5
343.665	98.5
343.893	100.5
344.12	102.5
344.348	105.5
344.576	119.5
344.804	111.5
345.031	110.5
345.259	102.5
345.487	98.5
345.714	119.5
345.942	113.5
346.17	109.5
346.397	105.5
346.625	98.5
346.853	90.5
347.08	112.5
347.308	99.5
347.535	104.5
347.763	96.5
347.99	101.5
348.218	104.5
348.445	95.5
348.673	104.5
348.9	109.5
349.128	123.5
349.355	121.5
349.583	122.5
349.81	120.5
350.037	99.5
350.265	109.5
350.492	103.5
350.72	109.5
350.947	109.5
351.174	103.5
351.402	118.5
351.629	97.5
351.856	95.5
352.083	119.5
352.311	99.5
352.538	99.5
352.765	104.5
352.992	109.5
353.22	92.5
353.447	105.5
353.674	100.5
353.901	112.5
354.128	99.5
354.355	112.5
354.583	106.5
354.81	98.5
355.037	101.5
355.264	111.5
355.491	94.5
355.718	119.5
355.945	92.5
356.172	109.5
356.399	106.5
356.626	104.5
356.853	96.5
357.08	96.5
357.307	105.5
357.534	91.5
357.761	107.5
357.988	106.5
358.215	97.5
358.441	101.5
358.668	96.5
358.895	109.5
359.122	114.5
359.349	115.5
359.576	96.5
359.802	111.5
360.029	116.5
360.256	107.5
360.483	90.5
360.709	118.5
360.936	121.5
361.163	114.5
361.39	90.5
361.616	107.5
361.843	121.5
362.07	113.5
362.296	90.5
362.523	114.5
362.749	101.5
362.976	85.5
363.203	86.5
363.429	119.5
363.656	104.5
363.882	119.5
364.109	114.5
364.335	107.5
364.562	104.5
364.788	114.5
365.015	111.5
365.241	138.5
365.468	180.5
365.694	245.5
365.92	188.5
366.147	121.5
366.373	102.5
366.599	84.5
366.826	102.5
367.052	100.5
367.278	110.5
367.505	103.5
367.731	97.5
367.957	112.5
368.184	98.5
368.41	114.5
368.636	114.5
368.862	94.5
369.089	101.5
369.315	104.5
369.541	113.5
369.767	91.5
369.993	107.5
370.219	101.5
370.445	114.5
370.672	108.5
370.898	123.5
371.124	106.5
371.35	104.5
371.576	102.5
371.802	100.5
372.028	93.5
372.254	109.5
372.48	110.5
372.706	111.5
372.932	111.5
373.158	112.5
373.384	115.5
373.61	111.5
373.835	90.5
374.061	106.5
374.287	107.5
374.513	96.5
374.739	112.5
374.965	113.5
375.191	111.5
375.416	106.5
375.642	109.5
375.868	101.5
376.094	110.5
376.319	98.5
376.545	106.5
376.771	98.5
376.997	89.5
377.222	109.5
377.448	110.5
377.674	104.5
377.899	105.5
378.125	117.5
378.35	104.5
378.576	105.5
378.802	121.5
379.027	120.5
379.253	134.5
379.478	162.5
379.704	291.5
379.929	680.5
380.155	1366.5
380.38	1407.5
380.606	443.5
380.831	179.5
381.057	152.5
381.282	113.5
381.507	112.5
381.733	114.5
381.958	98.5
382.184	111.5
382.409	97.5
382.634	111.5
382.86	113.5
383.085	103.5
383.31	104.5
383.535	93.5
383.761	104.5
383.986	111.5
384.211	89.5
384.436	93.5
384.662	100.5
384.887	94.5
385.112	95.5
385.337	96.5
385.562	105.5
385.787	101.5
386.013	91.5
386.238	95.5
386.463	91.5
386.688	97.5
386.913	94.5
387.138	104.5
387.363	105.5
387.588	106.5
387.813	113.5
388.038	97.5
388.263	103.5
388.488	80.5
388.713	113.5
388.938	93.5
389.163	92.5
389.387	93.5
389.612	100.5
389.837	116.5
390.062	88.5
390.287	99.5
390.512	86.5
390.736	106.5
390.961	104.5
391.186	89.5
391.411	91.5
391.636	94.5
391.86	90.5
392.085	109.5
392.31	109.5
392.534	104.5
392.759	99.5
392.984	110.5
393.208	105.5
393.433	121.5
393.658	129.5
393.882	99.5
394.107	97.5
394.331	97.5
394.556	100.5
394.78	102.5
395.005	100.5
395.229	110.5
395.454	95.5
395.678	107.5
395.903	104.5
396.127	95.5
396.352	105.5
396.576	103.5
396.801	108.5
397.025	117.5
397.249	110.5
397.474	95.5
397.698	100.5
397.922	104.5
398.147	100.5
398.371	102.5
398.595	105.5
398.82	97.5
399.044	96.5
399.268	96.5
399.492	103.5
399.717	94.5
399.941	81.5
400.165	95.5
400.389	91.5
400.613	96.5
400.837	100.5
401.062	112.5
401.286	106.5
401.51	94.5
401.734	104.5
401.958	95.5
402.182	96.5
402.406	87.5
402.63	91.5
402.854	89.5
403.078	104.5
403.302	92.5
403.526	105.5
403.75	74.5
403.974	93.5
404.198	90.5
404.422	85.5
404.645	97.5
404.869	96.5
405.093	78.5
405.317	110.5
405.541	111.5
405.765	128.5
405.988	119.5
406.212	129.5
406.436	83.5
406.66	94.5
406.883	85.5
407.107	83.5
407.331	88.5
407.555	93.5
407.778	87.5
408.002	95.5
408.226	88.5
408.449	104.5
408.673	88.5
408.896	88.5
409.12	103.5
409.344	107.5
409.567	103.5
409.791	94.5
410.014	95.5
410.238	90.5
410.461	89.5
410.685	102.5
410.908	95.5
411.132	98.5
411.355	116.5
411.578	87.5
411.802	85.5
412.025	97.5
412.249	98.5
412.472	83.5
412.695	87.5
412.919	92.5
413.142	88.5
413.365	93.5
413.589	103.5
413.812	82.5
414.035	103.5
414.258	102.5
414.482	91.5
414.705	107.5
414.928	96.5
415.151	104.5
415.374	100.5
415.597	101.5
415.821	86.5
416.044	103.5
416.267	104.5
416.49	98.5
416.713	100.5
416.936	82.5
417.159	99.5
417.382	87.5
417.605	81.5
417.828	102.5
418.051	97.5
418.274	86.5
418.497	89.5
418.72	102.5
418.943	96.5
419.166	104.5
419.389	101.5
419.611	110.5
419.834	95.5
420.057	105.5
420.28	110.5
420.503	105.5
420.726	100.5
420.948	90.5
421.171	86.5
421.394	93.5
421.617	82.5
421.839	95.5
422.062	82.5
422.285	98.5
422.507	111.5
422.73	104.5
422.953	120.5
423.175	92.5
423.398	109.5
423.621	90.5
423.843	87.5
424.066	95.5
424.288	106.5
424.511	89.5
424.733	95.5
424.956	92.5
425.178	102.5
425.401	90.5
425.623	80.5
425.846	100.5
426.068	88.5
426.291	91.5
426.513	93.5
426.735	100.5
426.958	100.5
427.18	102.5
427.402	101.5
427.625	96.5
427.847	91.5
428.069	94.5
428.292	106.5
428.514	77.5
428.736	97.5
428.958	97.5
429.181	102.5
429.403	84.5
429.625	83.5
429.847	95.5
430.069	107.5
430.292	97.5
430.514	96.5
430.736	97.5
430.958	94.5
431.18	104.5
431.402	100.5
431.624	100.5
431.846	91.5
432.068	88.5
432.29	86.5
432.512	84.5
432.734	89.5
432.956	100.5
433.178	92.5
433.4	78.5
433.622	109.5
433.844	84.5
434.066	76.5
434.287	100.5
434.509	90.5
434.731	99.5
434.953	98.5
435.175	98.5
435.397	88.5
435.618	104.5
435.84	78.5
436.062	86.5
436.284	86.5
436.505	99.5
436.727	93.5
436.949	87.5
437.17	90.5
437.392	78.5
437.614	99.5
437.835	93.5
438.057	92.5
438.278	105.5
438.5	98.5
438.721	79.5
438.943	91.5
439.165	94.5
439.386	107.5
439.608	96.5
439.829	85.5
440.05	90.5
440.272	107.5
440.493	97.5
440.715	102.5
440.936	92.5
441.158	106.5
441.379	92.5
441.6	87.5
441.822	87.5
442.043	110.5
442.264	124.5
442.486	111.5
442.707	129.5
442.928	88.5
443.149	87.5
443.371	94.5
443.592	81.5
443.813	102.5
444.034	88.5
444.255	102.5
444.476	103.5
444.698	95.5
444.919	78.5
445.14	210.5
445.361	149.5
445.582	94.5
445.803	80.5
446.024	104.5
446.245	104.5
446.466	89.5
446.687	109.5
446.908	98.5
447.129	85.5
447.35	102.5
447.571	89.5
447.792	85.5
448.013	98.5
448.234	89.5
448.455	92.5
448.675	94.5
448.896	96.5
449.117	109.5
449.338	122.5
449.559	145.5
449.779	97.5
450	91.5
450.221	103.5
450.442	103.5
450.662	114.5
450.883	106.5
451.104	109.5
451.324	107.5
451.545	102.5
451.766	109.5
451.986	126.5
452.207	157.5
452.428	512.5
452.648	1192.5
452.869	679.5
453.089	180.5
453.31	113.5
453.53	115.5
453.751	140.5
453.971	147.5
454.192	139.5
454.412	99.5
454.633	90.5
454.853	96.5
455.073	87.5
455.294	96.5
455.514	97.5
455.734	94.5
455.955	100.5
456.175	106.5
456.395	92.5
456.616	109.5
456.836	95.5
457.056	109.5
457.276	92.5
457.497	104.5
457.717	134.5
457.937	100.5
458.157	89.5
458.377	85.5
458.598	81.5
458.818	82.5
459.038	88.5
459.258	90.5
459.478	92.5
459.698	75.5
459.918	88.5
460.138	86.5
460.358	93.5
460.578	85.5
460.798	86.5
461.018	85.5
461.238	85.5
461.458	104.5
461.678	89.5
461.898	103.5
462.118	92.5
462.338	84.5
462.558	95.5
462.777	99.5
462.997	90.5
463.217	113.5
463.437	123.5
463.657	173.5
463.876	158.5
464.096	112.5
464.316	99.5
464.536	87.5
464.755	83.5
464.975	95.5
465.195	91.5
465.414	75.5
465.634	79.5
465.854	80.5
466.073	95.5
466.293	103.5
466.512	96.5
466.732	94.5
466.951	115.5
467.171	139.5
467.391	132.5
467.61	106.5
467.829	94.5
468.049	90.5
468.268	96.5
468.488	97.5
468.707	96.5
468.927	105.5
469.146	98.5
469.365	93.5
469.585	97.5
469.804	100.5
470.023	95.5
470.243	95.5
470.462	95.5
470.681	109.5
470.901	117.5
471.12	165.5
471.339	193.5
471.558	150.5
471.777	115.5
471.997	107.5
472.216	95.5
472.435	85.5
472.654	91.5
472.873	95.5
473.092	85.5
473.311	87.5
473.53	94.5
473.749	87.5
473.968	84.5
474.187	91.5
474.406	89.5
474.625	77.5
474.844	92.5
475.063	78.5
475.282	102.5
475.501	86.5
475.72	98.5
475.939	82.5
476.158	91.5
476.377	106.5
476.596	101.5
476.814	94.5
477.033	92.5
477.252	87.5
477.471	92.5
477.69	97.5
477.908	95.5
478.127	110.5
478.346	107.5
478.564	105.5
478.783	91.5
479.002	112.5
479.22	106.5
479.439	101.5
479.658	97.5
479.876	83.5
480.095	91.5
480.313	98.5
480.532	91.5
480.751	100.5
480.969	98.5
481.188	93.5
481.406	84.5
481.624	96.5
481.843	115.5
482.061	121.5
482.28	106.5
482.498	100.5
482.717	87.5
482.935	81.5
483.153	97.5
483.372	100.5
483.59	100.5
483.808	90.5
484.027	113.5
484.245	120.5
484.463	157.5
484.681	214.5
484.9	127.5
485.118	105.5
485.336	94.5
485.554	98.5
485.772	129.5
485.99	171.5
486.209	214.5
486.427	157.5
486.645	116.5
486.863	104.5
487.081	93.5
487.299	101.5
487.517	105.5
487.735	97.5
487.953	98.5
488.171	102.5
488.389	98.5
488.607	91.5
488.825	93.5
489.043	95.5
489.261	90.5
489.479	103.5
489.696	104.5
489.914	94.5
490.132	116.5
490.35	91.5
490.568	89.5
490.786	101.5
491.003	104.5
491.221	104.5
491.439	110.5
491.657	101.5
491.874	97.5
492.092	96.5
492.31	115.5
492.527	114.5
492.745	95.5
492.963	111.5
493.18	102.5
493.398	96.5
493.615	110.5
493.833	104.5
494.05	101.5
494.268	95.5
494.485	82.5
494.703	106.5
494.92	84.5
495.138	105.5
495.355	104.5
495.573	93.5
495.79	92.5
496.008	121.5
496.225	110.5
496.442	93.5
496.66	114.5
496.877	136.5
497.094	139.5
497.312	117.5
497.529	86.5
497.746	109.5
497.963	98.5
498.181	99.5
498.398	90.5
498.615	93.5
498.832	93.5
499.049	101.5
499.267	147.5
499.484	141.5
499.701	98.5
499.918	99.5
500.135	108.5
500.352	90.5
500.569	88.5
500.786	92.5
501.003	98.5
501.22	100.5
501.437	110.5
501.654	87.5
501.871	105.5
502.088	100.5
502.305	92.5
502.522	96.5
502.739	117.5
502.956	93.5
503.172	107.5
503.389	92.5
503.606	96.5
503.823	94.5
504.04	102.5
504.256	103.5
504.473	96.5
504.69	113.5
504.907	122.5
505.123	103.5
505.34	90.5
505.557	94.5
505.773	95.5
505.99	100.5
506.207	96.5
506.423	117.5
506.64	95.5
506.856	101.5
507.073	104.5
507.289	115.5
507.506	97.5
507.722	104.5
507.939	102.5
508.155	88.5
508.372	88.5
508.588	103.5
508.805	97.5
509.021	88.5
509.238	103.5
509.454	141.5
509.67	149.5
509.887	102.5
510.103	114.5
510.319	95.5
510.536	96.5
510.752	103.5
510.968	99.5
511.184	89.5
511.401	98.5
511.617	95.5
511.833	85.5
512.049	90.5
512.265	80.5
512.481	90.5
512.698	91.5
512.914	98.5
513.13	94.5
513.346	100.5
513.562	95.5
513.778	87.5
513.994	85.5
514.21	116.5
514.426	136.5
514.642	166.5
514.858	116.5
515.074	101.5
515.29	99.5
515.506	102.5
515.721	94.5
515.937	99.5
516.153	102.5
516.369	89.5
516.585	104.5
516.801	96.5
517.016	105.5
517.232	92.5
517.448	85.5
517.664	103.5
517.879	102.5
518.095	100.5
518.311	105.5
518.527	93.5
518.742	104.5
518.958	122.5
519.173	154.5
519.389	119.5
519.605	97.5
519.82	97.5
520.036	91.5
520.251	103.5
520.467	98.5
520.682	74.5
520.898	97.5
521.113	86.5
521.329	87.5
521.544	87.5
521.76	86.5
521.975	115.5
522.19	93.5
522.406	87.5
522.621	89.5
522.836	85.5
523.052	94.5
523.267	92.5
523.482	100.5
523.698	95.5
523.913	90.5
524.128	89.5
524.343	98.5
524.559	104.5
524.774	95.5
524.989	92.5
525.204	89.5
525.419	93.5
525.634	77.5
525.849	103.5
526.064	94.5
526.28	103.5
526.495	89.5
526.71	93.5
526.925	80.5
527.14	85.5
527.355	85.5
527.57	99.5
527.785	104.5
527.999	105.5
528.214	99.5
528.429	89.5
528.644	88.5
528.859	81.5
