Data from SnStandardFlinnAPT0064_LampEnergy5.5_LIBS07252019.E.O._I.C._HRD10591_15-14-57-494.txt Node
Date: Thu Jul 25 15:14:57 EDT 2019
User: cochatt
Spectrometer: HR+D1059
Trigger mode: 1
Integration Time (sec): 1.000000E-1
Scans to average: 1
Electric dark correction enabled: true
Nonlinearity correction enabled: false
Boxcar width: 0
XAxis mode: Wavelengths
Number of Pixels in Spectrum: 2048
>>>>>Begin Spectral Data<<<<<
223.165	-15.12
223.4	-15.12
223.635	-15.12
223.869	-14.12
224.104	-22.12
224.338	-22.12
224.573	-22.12
224.808	-17.12
225.042	-2.12
225.277	-15.12
225.511	12.88
225.746	-0.12
225.98	9.88
226.215	7.88
226.449	31.88
226.683	13.88
226.918	18.88
227.152	34.88
227.387	29.88
227.621	51.88
227.856	47.88
228.09	49.88
228.324	53.88
228.559	52.88
228.793	74.88
229.027	138.88
229.262	151.88
229.496	131.88
229.73	126.88
229.964	147.88
230.199	147.88
230.433	140.88
230.667	156.88
230.901	147.88
231.136	153.88
231.37	162.88
231.604	180.88
231.838	211.88
232.072	204.88
232.306	235.88
232.541	196.88
232.775	187.88
233.009	197.88
233.243	177.88
233.477	204.88
233.711	220.88
233.945	257.88
234.179	226.88
234.413	204.88
234.647	192.88
234.881	207.88
235.115	221.88
235.349	241.88
235.583	317.88
235.817	371.88
236.051	347.88
236.285	275.88
236.519	230.88
236.753	225.88
236.987	224.88
237.221	215.88
237.455	211.88
237.689	213.88
237.922	205.88
238.156	221.88
238.39	215.88
238.624	203.88
238.858	205.88
239.091	225.88
239.325	210.88
239.559	229.88
239.793	221.88
240.027	228.88
240.26	245.88
240.494	242.88
240.728	222.88
240.961	260.88
241.195	280.88
241.429	261.88
241.662	277.88
241.896	322.88
242.13	347.88
242.363	432.88
242.597	539.88
242.83	504.88
243.064	533.88
243.298	609.88
243.531	526.88
243.765	368.88
243.998	292.88
244.232	277.88
244.465	296.88
244.699	279.88
244.932	298.88
245.166	275.88
245.399	268.88
245.633	299.88
245.866	281.88
246.099	305.88
246.333	289.88
246.566	271.88
246.8	280.88
247.033	251.88
247.266	276.88
247.5	285.88
247.733	279.88
247.966	302.88
248.2	323.88
248.433	332.88
248.666	370.88
248.899	355.88
249.133	345.88
249.366	338.88
249.599	370.88
249.832	403.88
250.066	378.88
250.299	366.88
250.532	324.88
250.765	308.88
250.998	322.88
251.231	310.88
251.465	328.88
251.698	306.88
251.931	326.88
252.164	319.88
252.397	314.88
252.63	319.88
252.863	316.88
253.096	328.88
253.329	349.88
253.562	326.88
253.795	340.88
254.028	325.88
254.261	328.88
254.494	362.88
254.727	385.88
254.96	442.88
255.193	432.88
255.426	389.88
255.659	362.88
255.892	352.88
256.124	343.88
256.357	357.88
256.59	348.88
256.823	376.88
257.056	407.88
257.289	466.88
257.521	475.88
257.754	416.88
257.987	381.88
258.22	372.88
258.452	382.88
258.685	385.88
258.918	391.88
259.151	393.88
259.383	411.88
259.616	443.88
259.849	470.88
260.081	448.88
260.314	396.88
260.547	393.88
260.779	401.88
261.012	404.88
261.244	388.88
261.477	414.88
261.71	405.88
261.942	405.88
262.175	422.88
262.407	440.88
262.64	444.88
262.872	466.88
263.105	479.88
263.337	508.88
263.57	519.88
263.802	543.88
264.035	542.88
264.267	575.88
264.499	588.88
264.732	601.88
264.964	588.88
265.197	595.88
265.429	600.88
265.661	579.88
265.894	642.88
266.126	693.88
266.358	760.88
266.591	723.88
266.823	663.88
267.055	629.88
267.287	598.88
267.52	536.88
267.752	534.88
267.984	536.88
268.216	502.88
268.448	507.88
268.681	518.88
268.913	516.88
269.145	533.88
269.377	506.88
269.609	520.88
269.841	525.88
270.073	526.88
270.306	593.88
270.538	778.88
270.77	1055.88
271.002	1243.88
271.234	960.88
271.466	691.88
271.698	570.88
271.93	551.88
272.162	539.88
272.394	535.88
272.626	487.88
272.858	496.88
273.09	513.88
273.322	485.88
273.553	489.88
273.785	494.88
274.017	517.88
274.249	486.88
274.481	488.88
274.713	493.88
274.945	489.88
275.176	485.88
275.408	492.88
275.64	499.88
275.872	512.88
276.104	490.88
276.335	496.88
276.567	527.88
276.799	521.88
277.031	523.88
277.262	501.88
277.494	559.88
277.726	573.88
277.957	641.88
278.189	683.88
278.421	674.88
278.652	616.88
278.884	619.88
279.115	555.88
279.347	560.88
279.579	532.88
279.81	537.88
280.042	553.88
280.273	569.88
280.505	556.88
280.736	589.88
280.968	607.88
281.199	627.88
281.431	716.88
281.662	704.88
281.894	657.88
282.125	619.88
282.356	622.88
282.588	630.88
282.819	645.88
283.051	671.88
283.282	729.88
283.513	899.88
283.745	1201.88
283.976	1835.88
284.207	2540.88
284.439	2313.88
284.67	1435.88
284.901	1199.88
285.132	1164.88
285.364	1115.88
285.595	921.88
285.826	836.88
286.057	966.88
286.288	1233.88
286.52	1620.88
286.751	1550.88
286.982	1033.88
287.213	835.88
287.444	740.88
287.675	715.88
287.906	667.88
288.138	653.88
288.369	683.88
288.6	677.88
288.831	655.88
289.062	671.88
289.293	671.88
289.524	650.88
289.755	663.88
289.986	689.88
290.217	679.88
290.448	707.88
290.679	671.88
290.91	654.88
291.141	703.88
291.371	718.88
291.602	726.88
291.833	673.88
292.064	650.88
292.295	617.88
292.526	669.88
292.757	639.88
292.987	611.88
293.218	627.88
293.449	645.88
293.68	645.88
293.91	625.88
294.141	617.88
294.372	628.88
294.603	647.88
294.833	617.88
295.064	615.88
295.295	625.88
295.525	623.88
295.756	636.88
295.987	625.88
296.217	628.88
296.448	649.88
296.679	654.88
296.909	631.88
297.14	636.88
297.37	643.88
297.601	652.88
297.831	626.88
298.062	634.88
298.292	647.88
298.523	645.88
298.753	678.88
298.984	665.88
299.214	687.88
299.445	683.88
299.675	698.88
299.905	691.88
300.136	708.88
300.366	781.88
300.597	954.88
300.827	1268.88
301.057	1614.88
301.288	1638.88
301.518	1115.88
301.748	915.88
301.979	838.88
302.209	836.88
302.439	850.88
302.669	866.88
302.9	1008.88
303.13	1353.88
303.36	1828.88
303.59	2377.88
303.82	2130.88
304.051	1347.88
304.281	1053.88
304.511	912.88
304.741	840.88
304.971	781.88
305.201	789.88
305.431	768.88
305.661	759.88
305.891	751.88
306.121	757.88
306.352	727.88
306.582	716.88
306.812	722.88
307.042	713.88
307.272	719.88
307.502	733.88
307.731	697.88
307.961	706.88
308.191	711.88
308.421	701.88
308.651	691.88
308.881	706.88
309.111	711.88
309.341	737.88
309.571	741.88
309.8	747.88
310.03	737.88
310.26	738.88
310.49	737.88
310.72	722.88
310.949	740.88
311.179	741.88
311.409	738.88
311.639	773.88
311.868	776.88
312.098	783.88
312.328	775.88
312.557	767.88
312.787	774.88
313.017	766.88
313.246	805.88
313.476	775.88
313.706	791.88
313.935	852.88
314.165	843.88
314.394	868.88
314.624	848.88
314.853	837.88
315.083	831.88
315.312	835.88
315.542	855.88
315.771	833.88
316.001	846.88
316.23	881.88
316.46	908.88
316.689	963.88
316.919	1150.88
317.148	1530.88
317.377	2251.88
317.607	3156.88
317.836	3301.88
318.065	2090.88
318.295	1381.88
318.524	1176.88
318.753	1031.88
318.983	1012.88
319.212	977.88
319.441	912.88
319.67	917.88
319.9	912.88
320.129	916.88
320.358	901.88
320.587	915.88
320.816	889.88
321.046	916.88
321.275	938.88
321.504	916.88
321.733	941.88
321.962	967.88
322.191	953.88
322.42	978.88
322.649	968.88
322.878	944.88
323.108	956.88
323.337	980.88
323.566	966.88
323.795	993.88
324.024	1008.88
324.253	1030.88
324.482	1044.88
324.71	1099.88
324.939	1140.88
325.168	1187.88
325.397	1215.88
325.626	1379.88
325.855	1815.88
326.084	2705.88
326.313	3921.88
326.542	4128.88
326.77	2815.88
326.999	1969.88
327.228	1724.88
327.457	1635.88
327.686	1663.88
327.914	1771.88
328.143	1991.88
328.372	2272.88
328.6	2466.88
328.829	2313.88
329.058	2014.88
329.287	1832.88
329.515	1713.88
329.744	1588.88
329.972	1476.88
330.201	1433.88
330.43	1377.88
330.658	1343.88
330.887	1367.88
331.115	1337.88
331.344	1359.88
331.572	1316.88
331.801	1298.88
332.03	1314.88
332.258	1338.88
332.486	1400.88
332.715	1500.88
332.943	1785.88
333.172	2077.88
333.4	2075.88
333.629	1747.88
333.857	1631.88
334.085	1640.88
334.314	1715.88
334.542	1843.88
334.771	2140.88
334.999	2506.88
335.227	3034.88
335.455	3303.88
335.684	3084.88
335.912	2677.88
336.14	2387.88
336.369	2111.88
336.597	1925.88
336.825	1804.88
337.053	1659.88
337.281	1599.88
337.51	1549.88
337.738	1485.88
337.966	1390.88
338.194	1374.88
338.422	1333.88
338.65	1286.88
338.878	1251.88
339.106	1295.88
339.334	1257.88
339.562	1223.88
339.79	1188.88
340.018	1161.88
340.246	1171.88
340.474	1178.88
340.702	1179.88
340.93	1180.88
341.158	1153.88
341.386	1144.88
341.614	1177.88
341.842	1135.88
342.07	1093.88
342.298	1096.88
342.526	1072.88
342.754	1083.88
342.981	1035.88
343.209	1098.88
343.437	1075.88
343.665	1080.88
343.893	1099.88
344.12	1090.88
344.348	1111.88
344.576	1080.88
344.804	1061.88
345.031	1046.88
345.259	1007.88
345.487	1012.88
345.714	1056.88
345.942	1009.88
346.17	1019.88
346.397	995.88
346.625	999.88
346.853	980.88
347.08	970.88
347.308	1000.88
347.535	982.88
347.763	1031.88
347.99	976.88
348.218	955.88
348.445	957.88
348.673	954.88
348.9	986.88
349.128	956.88
349.355	975.88
349.583	970.88
349.81	928.88
350.037	952.88
350.265	945.88
350.492	959.88
350.72	947.88
350.947	935.88
351.174	981.88
351.402	964.88
351.629	958.88
351.856	948.88
352.083	970.88
352.311	960.88
352.538	925.88
352.765	949.88
352.992	961.88
353.22	933.88
353.447	937.88
353.674	959.88
353.901	935.88
354.128	954.88
354.355	955.88
354.583	945.88
354.81	960.88
355.037	947.88
355.264	971.88
355.491	972.88
355.718	987.88
355.945	967.88
356.172	993.88
356.399	960.88
356.626	991.88
356.853	994.88
357.08	981.88
357.307	980.88
357.534	1021.88
357.761	1001.88
357.988	1047.88
358.215	1029.88
358.441	984.88
358.668	1023.88
358.895	1022.88
359.122	991.88
359.349	984.88
359.576	981.88
359.802	983.88
360.029	997.88
360.256	1020.88
360.483	1002.88
360.709	1001.88
360.936	1021.88
361.163	989.88
361.39	993.88
361.616	1018.88
361.843	1019.88
362.07	1014.88
362.296	1017.88
362.523	1016.88
362.749	1008.88
362.976	1014.88
363.203	1043.88
363.429	997.88
363.656	1037.88
363.882	993.88
364.109	1029.88
364.335	983.88
364.562	1009.88
364.788	983.88
365.015	1013.88
365.241	1034.88
365.468	1065.88
365.694	1113.88
365.92	1111.88
366.147	1026.88
366.373	1033.88
366.599	1022.88
366.826	1027.88
367.052	1041.88
367.278	1053.88
367.505	1038.88
367.731	1037.88
367.957	1031.88
368.184	1067.88
368.41	1077.88
368.636	1043.88
368.862	1029.88
369.089	1047.88
369.315	1026.88
369.541	1064.88
369.767	1035.88
369.993	1041.88
370.219	1064.88
370.445	1066.88
370.672	1064.88
370.898	1061.88
371.124	1088.88
371.35	1097.88
371.576	1068.88
371.802	1079.88
372.028	1097.88
372.254	1099.88
372.48	1092.88
372.706	1136.88
372.932	1122.88
373.158	1113.88
373.384	1098.88
373.61	1097.88
373.835	1128.88
374.061	1127.88
374.287	1115.88
374.513	1121.88
374.739	1140.88
374.965	1161.88
375.191	1139.88
375.416	1153.88
375.642	1089.88
375.868	1169.88
376.094	1093.88
376.319	1108.88
376.545	1112.88
376.771	1067.88
376.997	1091.88
377.222	1109.88
377.448	1077.88
377.674	1094.88
377.899	1093.88
378.125	1083.88
378.35	1072.88
378.576	1045.88
378.802	1104.88
379.027	1095.88
379.253	1124.88
379.478	1137.88
379.704	1327.88
379.929	1686.88
380.155	2392.88
380.38	2544.88
380.606	1712.88
380.831	1311.88
381.057	1245.88
381.282	1164.88
381.507	1116.88
381.733	1137.88
381.958	1071.88
382.184	1096.88
382.409	1071.88
382.634	1073.88
382.86	1091.88
383.085	1057.88
383.31	1058.88
383.535	1056.88
383.761	1092.88
383.986	1093.88
384.211	1104.88
384.436	1099.88
384.662	1102.88
384.887	1117.88
385.112	1131.88
385.337	1097.88
385.562	1121.88
385.787	1129.88
386.013	1096.88
386.238	1112.88
386.463	1094.88
386.688	1094.88
386.913	1119.88
387.138	1120.88
387.363	1100.88
387.588	1110.88
387.813	1121.88
388.038	1131.88
388.263	1165.88
388.488	1112.88
388.713	1153.88
388.938	1120.88
389.163	1103.88
389.387	1127.88
389.612	1099.88
389.837	1131.88
390.062	1130.88
390.287	1109.88
390.512	1128.88
390.736	1143.88
390.961	1140.88
391.186	1140.88
391.411	1153.88
391.636	1201.88
391.86	1179.88
392.085	1215.88
392.31	1174.88
392.534	1166.88
392.759	1157.88
392.984	1143.88
393.208	1143.88
393.433	1120.88
393.658	1122.88
393.882	1150.88
394.107	1140.88
394.331	1147.88
394.556	1137.88
394.78	1140.88
395.005	1145.88
395.229	1153.88
395.454	1146.88
395.678	1151.88
395.903	1163.88
396.127	1210.88
396.352	1148.88
396.576	1144.88
396.801	1151.88
397.025	1149.88
397.249	1157.88
397.474	1184.88
397.698	1153.88
397.922	1180.88
398.147	1189.88
398.371	1185.88
398.595	1233.88
398.82	1268.88
399.044	1269.88
399.268	1357.88
399.492	1427.88
399.717	1510.88
399.941	1489.88
400.165	1420.88
400.389	1384.88
400.613	1305.88
400.837	1269.88
401.062	1276.88
401.286	1280.88
401.51	1217.88
401.734	1208.88
401.958	1235.88
402.182	1227.88
402.406	1241.88
402.63	1263.88
402.854	1247.88
403.078	1222.88
403.302	1253.88
403.526	1275.88
403.75	1248.88
403.974	1315.88
404.198	1275.88
404.422	1298.88
404.645	1301.88
404.869	1260.88
405.093	1279.88
405.317	1277.88
405.541	1285.88
405.765	1292.88
405.988	1353.88
406.212	1328.88
406.436	1290.88
406.66	1322.88
406.883	1324.88
407.107	1351.88
407.331	1372.88
407.555	1402.88
407.778	1377.88
408.002	1361.88
408.226	1348.88
408.449	1339.88
408.673	1361.88
408.896	1306.88
409.12	1305.88
409.344	1299.88
409.567	1253.88
409.791	1267.88
410.014	1268.88
410.238	1273.88
410.461	1261.88
410.685	1244.88
410.908	1271.88
411.132	1231.88
411.355	1244.88
411.578	1222.88
411.802	1245.88
412.025	1221.88
412.249	1256.88
412.472	1211.88
412.695	1183.88
412.919	1192.88
413.142	1227.88
413.365	1204.88
413.589	1216.88
413.812	1199.88
414.035	1244.88
414.258	1224.88
414.482	1256.88
414.705	1239.88
414.928	1218.88
415.151	1216.88
415.374	1197.88
415.597	1193.88
415.821	1152.88
416.044	1197.88
416.267	1184.88
416.49	1179.88
416.713	1146.88
416.936	1175.88
417.159	1168.88
417.382	1146.88
417.605	1129.88
417.828	1142.88
418.051	1143.88
418.274	1190.88
418.497	1162.88
418.72	1206.88
418.943	1148.88
419.166	1227.88
419.389	1269.88
419.611	1279.88
419.834	1236.88
420.057	1218.88
420.28	1185.88
420.503	1171.88
420.726	1166.88
420.948	1172.88
421.171	1157.88
421.394	1176.88
421.617	1187.88
421.839	1184.88
422.062	1172.88
422.285	1189.88
422.507	1203.88
422.73	1197.88
422.953	1220.88
423.175	1197.88
423.398	1183.88
423.621	1180.88
423.843	1187.88
424.066	1179.88
424.288	1177.88
424.511	1163.88
424.733	1188.88
424.956	1186.88
425.178	1174.88
425.401	1141.88
425.623	1158.88
425.846	1156.88
426.068	1163.88
426.291	1142.88
426.513	1129.88
426.735	1144.88
426.958	1101.88
427.18	1125.88
427.402	1120.88
427.625	1128.88
427.847	1074.88
428.069	1080.88
428.292	1107.88
428.514	1067.88
428.736	1080.88
428.958	1090.88
429.181	1061.88
429.403	1030.88
429.625	1079.88
429.847	1075.88
430.069	1089.88
430.292	1121.88
430.514	1172.88
430.736	1156.88
430.958	1128.88
431.18	1096.88
431.402	1073.88
431.624	1052.88
431.846	1064.88
432.068	1040.88
432.29	1072.88
432.512	1048.88
432.734	1081.88
432.956	1106.88
433.178	1105.88
433.4	1089.88
433.622	1097.88
433.844	1105.88
434.066	1104.88
434.287	1064.88
434.509	1085.88
434.731	1110.88
434.953	1115.88
435.175	1143.88
435.397	1157.88
435.618	1109.88
435.84	1075.88
436.062	1082.88
436.284	1051.88
436.505	1063.88
436.727	1089.88
436.949	1085.88
437.17	1113.88
437.392	1060.88
437.614	1046.88
437.835	1013.88
438.057	1022.88
438.278	1034.88
438.5	1052.88
438.721	1071.88
438.943	1100.88
439.165	1120.88
439.386	1089.88
439.608	1140.88
439.829	1099.88
440.05	1132.88
440.272	1152.88
440.493	1126.88
440.715	1100.88
440.936	1100.88
441.158	1126.88
441.379	1143.88
441.6	1166.88
441.822	1160.88
442.043	1222.88
442.264	1207.88
442.486	1172.88
442.707	1166.88
442.928	1172.88
443.149	1138.88
443.371	1128.88
443.592	1151.88
443.813	1152.88
444.034	1186.88
444.255	1210.88
444.476	1199.88
444.698	1258.88
444.919	1279.88
445.14	1341.88
445.361	1225.88
445.582	1194.88
445.803	1179.88
446.024	1130.88
446.245	1153.88
446.466	1138.88
446.687	1158.88
446.908	1121.88
447.129	1103.88
447.35	1121.88
447.571	1095.88
447.792	1094.88
448.013	1039.88
448.234	1058.88
448.455	1051.88
448.675	1062.88
448.896	1068.88
449.117	1106.88
449.338	1175.88
449.559	1217.88
449.779	1138.88
450	1066.88
450.221	1041.88
450.442	1037.88
450.662	1031.88
450.883	1025.88
451.104	1027.88
451.324	1022.88
451.545	1018.88
451.766	1045.88
451.986	1028.88
452.207	1048.88
452.428	1253.88
452.648	1644.88
452.869	1439.88
453.089	1149.88
453.31	1113.88
453.53	1111.88
453.751	1116.88
453.971	1174.88
454.192	1153.88
454.412	1035.88
454.633	1028.88
454.853	1008.88
455.073	1010.88
455.294	993.88
455.514	962.88
455.734	986.88
455.955	982.88
456.175	969.88
456.395	951.88
456.616	1009.88
456.836	1002.88
457.056	977.88
457.276	984.88
457.497	1027.88
457.717	1041.88
457.937	1010.88
458.157	1021.88
458.377	1039.88
458.598	1054.88
458.818	1028.88
459.038	1070.88
459.258	1063.88
459.478	1059.88
459.698	1055.88
459.918	1096.88
460.138	1137.88
460.358	1124.88
460.578	1116.88
460.798	1167.88
461.018	1157.88
461.238	1159.88
461.458	1181.88
461.678	1150.88
461.898	1195.88
462.118	1204.88
462.338	1226.88
462.558	1241.88
462.777	1271.88
462.997	1288.88
463.217	1357.88
463.437	1387.88
463.657	1381.88
463.876	1347.88
464.096	1299.88
464.316	1285.88
464.536	1261.88
464.755	1237.88
464.975	1223.88
465.195	1185.88
465.414	1150.88
465.634	1145.88
465.854	1130.88
466.073	1079.88
466.293	1095.88
466.512	1056.88
466.732	1057.88
466.951	1158.88
467.171	1149.88
467.391	1163.88
467.61	1112.88
467.829	1095.88
468.049	1076.88
468.268	1063.88
468.488	1057.88
468.707	1077.88
468.927	1053.88
469.146	1095.88
469.365	1091.88
469.585	1073.88
469.804	1107.88
470.023	1091.88
470.243	1142.88
470.462	1135.88
470.681	1174.88
470.901	1287.88
471.12	1413.88
471.339	1409.88
471.558	1252.88
471.777	1167.88
471.997	1096.88
472.216	1083.88
472.435	1074.88
472.654	1040.88
472.873	1079.88
473.092	1059.88
473.311	1034.88
473.53	1062.88
473.749	1102.88
473.968	1126.88
474.187	1104.88
474.406	1040.88
474.625	1075.88
474.844	1051.88
475.063	1083.88
475.282	1090.88
475.501	1099.88
475.72	1064.88
475.939	1031.88
476.158	1098.88
476.377	1125.88
476.596	1110.88
476.814	1113.88
477.033	1107.88
477.252	1141.88
477.471	1153.88
477.69	1189.88
477.908	1196.88
478.127	1235.88
478.346	1223.88
478.564	1271.88
478.783	1226.88
479.002	1250.88
479.22	1239.88
479.439	1248.88
479.658	1245.88
479.876	1244.88
480.095	1256.88
480.313	1306.88
480.532	1291.88
480.751	1304.88
480.969	1247.88
481.188	1238.88
481.406	1230.88
481.624	1228.88
481.843	1254.88
482.061	1246.88
482.28	1268.88
482.498	1266.88
482.717	1241.88
482.935	1282.88
483.153	1287.88
483.372	1320.88
483.59	1336.88
483.808	1309.88
484.027	1334.88
484.245	1406.88
484.463	1503.88
484.681	1663.88
484.9	1541.88
485.118	1459.88
485.336	1419.88
485.554	1474.88
485.772	1547.88
485.99	1656.88
486.209	1753.88
486.427	1540.88
486.645	1422.88
486.863	1399.88
487.081	1368.88
487.299	1363.88
487.517	1349.88
487.735	1391.88
487.953	1370.88
488.171	1394.88
488.389	1345.88
488.607	1347.88
488.825	1349.88
489.043	1293.88
489.261	1285.88
489.479	1311.88
489.696	1330.88
489.914	1304.88
490.132	1347.88
490.35	1378.88
490.568	1347.88
490.786	1385.88
491.003	1375.88
491.221	1388.88
491.439	1415.88
491.657	1391.88
491.874	1381.88
