Data from SnStandardFlinnAPT0064_LampEnergy10_LIBS07252019.E.O._I.C._HRD10591_15-22-29-494.txt Node
Date: Thu Jul 25 15:22:29 EDT 2019
User: cochatt
Spectrometer: HR+D1059
Trigger mode: 1
Integration Time (sec): 1.000000E-1
Scans to average: 1
Electric dark correction enabled: true
Nonlinearity correction enabled: false
Boxcar width: 0
XAxis mode: Wavelengths
Number of Pixels in Spectrum: 2048
>>>>>Begin Spectral Data<<<<<
223.165	-18.31
223.4	-18.31
223.635	-18.31
223.869	-8.31
224.104	-20.31
224.338	-18.31
224.573	-28.31
224.808	-14.31
225.042	-7.31
225.277	16.69
225.511	-4.31
225.746	-10.31
225.98	0.69
226.215	11.69
226.449	10.69
226.683	20.69
226.918	35.69
227.152	33.69
227.387	44.69
227.621	39.69
227.856	41.69
228.09	46.69
228.324	47.69
228.559	35.69
228.793	125.69
229.027	280.69
229.262	324.69
229.496	287.69
229.73	282.69
229.964	273.69
230.199	273.69
230.433	290.69
230.667	290.69
230.901	326.69
231.136	339.69
231.37	319.69
231.604	386.69
231.838	430.69
232.072	515.69
232.306	556.69
232.541	456.69
232.775	395.69
233.009	402.69
233.243	417.69
233.477	442.69
233.711	498.69
233.945	579.69
234.179	469.69
234.413	453.69
234.647	424.69
234.881	458.69
235.115	524.69
235.349	588.69
235.583	766.69
235.817	963.69
236.051	958.69
236.285	641.69
236.519	513.69
236.753	470.69
236.987	496.69
237.221	546.69
237.455	521.69
237.689	466.69
237.922	458.69
238.156	485.69
238.39	478.69
238.624	495.69
238.858	490.69
239.091	455.69
239.325	483.69
239.559	499.69
239.793	501.69
240.027	494.69
240.26	536.69
240.494	543.69
240.728	557.69
240.961	587.69
241.195	643.69
241.429	672.69
241.662	695.69
241.896	730.69
242.13	917.69
242.363	1189.69
242.597	1587.69
242.83	1506.69
243.064	1494.69
243.298	1749.69
243.531	1444.69
243.765	923.69
243.998	769.69
244.232	677.69
244.465	663.69
244.699	620.69
244.932	667.69
245.166	641.69
245.399	701.69
245.633	664.69
245.866	674.69
246.099	669.69
246.333	617.69
246.566	647.69
246.8	646.69
247.033	623.69
247.266	638.69
247.5	640.69
247.733	646.69
247.966	684.69
248.2	755.69
248.433	854.69
248.666	936.69
248.899	917.69
249.133	830.69
249.366	853.69
249.599	954.69
249.832	1073.69
250.066	1030.69
250.299	848.69
250.532	761.69
250.765	755.69
250.998	725.69
251.231	739.69
251.465	707.69
251.698	723.69
251.931	725.69
252.164	716.69
252.397	746.69
252.63	762.69
252.863	788.69
253.096	777.69
253.329	792.69
253.562	779.69
253.795	795.69
254.028	795.69
254.261	798.69
254.494	875.69
254.727	1007.69
254.96	1225.69
255.193	1185.69
255.426	967.69
255.659	879.69
255.892	833.69
256.124	869.69
256.357	866.69
256.59	901.69
256.823	961.69
257.056	1097.69
257.289	1318.69
257.521	1432.69
257.754	1161.69
257.987	955.69
258.22	902.69
258.452	901.69
258.685	899.69
258.918	927.69
259.151	994.69
259.383	1080.69
259.616	1201.69
259.849	1216.69
260.081	1066.69
260.314	961.69
260.547	969.69
260.779	945.69
261.012	931.69
261.244	949.69
261.477	938.69
261.71	964.69
261.942	1007.69
262.175	1015.69
262.407	1020.69
262.64	1036.69
262.872	1087.69
263.105	1143.69
263.337	1197.69
263.57	1271.69
263.802	1297.69
264.035	1301.69
264.267	1338.69
264.499	1350.69
264.732	1396.69
264.964	1427.69
265.197	1411.69
265.429	1463.69
265.661	1475.69
265.894	1554.69
266.126	1733.69
266.358	1927.69
266.591	1881.69
266.823	1593.69
267.055	1419.69
267.287	1378.69
267.52	1329.69
267.752	1261.69
267.984	1284.69
268.216	1263.69
268.448	1255.69
268.681	1228.69
268.913	1228.69
269.145	1235.69
269.377	1184.69
269.609	1225.69
269.841	1273.69
270.073	1323.69
270.306	1574.69
270.538	2111.69
270.77	3171.69
271.002	3806.69
271.234	2719.69
271.466	1818.69
271.698	1489.69
271.93	1378.69
272.162	1312.69
272.394	1277.69
272.626	1197.69
272.858	1193.69
273.09	1190.69
273.322	1207.69
273.553	1170.69
273.785	1199.69
274.017	1177.69
274.249	1205.69
274.481	1203.69
274.713	1193.69
274.945	1205.69
275.176	1182.69
275.408	1201.69
275.64	1200.69
275.872	1224.69
276.104	1240.69
276.335	1228.69
276.567	1265.69
276.799	1264.69
277.031	1290.69
277.262	1298.69
277.494	1360.69
277.726	1523.69
277.957	1802.69
278.189	2101.69
278.421	1912.69
278.652	1717.69
278.884	1656.69
279.115	1460.69
279.347	1379.69
279.579	1392.69
279.81	1347.69
280.042	1370.69
280.273	1403.69
280.505	1409.69
280.736	1483.69
280.968	1584.69
281.199	1714.69
281.431	1992.69
281.662	2042.69
281.894	1750.69
282.125	1597.69
282.356	1594.69
282.588	1631.69
282.819	1669.69
283.051	1758.69
283.282	1958.69
283.513	2390.69
283.745	3503.69
283.976	5553.69
284.207	7937.69
284.439	7077.69
284.67	4382.69
284.901	3603.69
285.132	3673.69
285.364	3457.69
285.595	2669.69
285.826	2385.69
286.057	2761.69
286.288	3842.69
286.52	5079.69
286.751	4773.69
286.982	2938.69
287.213	2250.69
287.444	1940.69
287.675	1815.69
287.906	1773.69
288.138	1723.69
288.369	1665.69
288.6	1651.69
288.831	1653.69
289.062	1637.69
289.293	1673.69
289.524	1690.69
289.755	1661.69
289.986	1665.69
290.217	1688.69
290.448	1693.69
290.679	1730.69
290.91	1751.69
291.141	1845.69
291.371	2002.69
291.602	2080.69
291.833	1890.69
292.064	1717.69
292.295	1662.69
292.526	1636.69
292.757	1570.69
292.987	1589.69
293.218	1546.69
293.449	1571.69
293.68	1585.69
293.91	1566.69
294.141	1554.69
294.372	1525.69
294.603	1531.69
294.833	1535.69
295.064	1524.69
295.295	1533.69
295.525	1555.69
295.756	1512.69
295.987	1513.69
296.217	1565.69
296.448	1523.69
296.679	1533.69
296.909	1540.69
297.14	1535.69
297.37	1591.69
297.601	1589.69
297.831	1594.69
298.062	1653.69
298.292	1609.69
298.523	1657.69
298.753	1673.69
298.984	1669.69
299.214	1705.69
299.445	1745.69
299.675	1730.69
299.905	1822.69
300.136	1891.69
300.366	2102.69
300.597	2726.69
300.827	3836.69
301.057	5143.69
301.288	5185.69
301.518	3295.69
301.748	2566.69
301.979	2319.69
302.209	2246.69
302.439	2272.69
302.669	2371.69
302.9	2895.69
303.13	4161.69
303.36	6114.69
303.59	8093.69
303.82	6870.69
304.051	4107.69
304.281	2946.69
304.511	2477.69
304.741	2266.69
304.971	2132.69
305.201	2073.69
305.431	1976.69
305.661	1935.69
305.891	1887.69
306.121	1863.69
306.352	1850.69
306.582	1797.69
306.812	1776.69
307.042	1822.69
307.272	1823.69
307.502	1789.69
307.731	1797.69
307.961	1829.69
308.191	1789.69
308.421	1786.69
308.651	1839.69
308.881	1776.69
309.111	1862.69
309.341	1801.69
309.571	1826.69
309.8	1843.69
310.03	1844.69
310.26	1878.69
310.49	1823.69
310.72	1869.69
310.949	1853.69
311.179	1902.69
311.409	1917.69
311.639	1902.69
311.868	1909.69
312.098	1904.69
312.328	1937.69
312.557	1958.69
312.787	1931.69
313.017	1930.69
313.246	2010.69
313.476	1976.69
313.706	2075.69
313.935	2129.69
314.165	2327.69
314.394	2445.69
314.624	2318.69
314.853	2191.69
315.083	2137.69
315.312	2173.69
315.542	2173.69
315.771	2180.69
316.001	2187.69
316.23	2280.69
316.46	2374.69
316.689	2652.69
316.919	3196.69
317.148	4601.69
317.377	6978.69
317.607	10242.69
317.836	10641.69
318.065	6431.69
318.295	4155.69
318.524	3348.69
318.753	2885.69
318.983	2658.69
319.212	2557.69
319.441	2407.69
319.67	2383.69
319.9	2342.69
320.129	2327.69
320.358	2309.69
320.587	2304.69
320.816	2353.69
321.046	2321.69
321.275	2339.69
321.504	2365.69
321.733	2401.69
321.962	2470.69
322.191	2513.69
322.42	2455.69
322.649	2444.69
322.878	2434.69
323.108	2495.69
323.337	2542.69
323.566	2546.69
323.795	2581.69
324.024	2627.69
324.253	2672.69
324.482	2821.69
324.71	2958.69
324.939	3136.69
325.168	3213.69
325.397	3331.69
325.626	3963.69
325.855	5517.69
326.084	8632.69
326.313	12518.69
326.542	13159.69
326.77	8853.69
326.999	5745.69
327.228	4779.69
327.457	4650.69
327.686	4655.69
327.914	4970.69
328.143	5701.69
328.372	6818.69
328.6	7331.69
328.829	6616.69
329.058	5640.69
329.287	4853.69
329.515	4520.69
329.744	4175.69
329.972	4003.69
330.201	3814.69
330.43	3679.69
330.658	3561.69
330.887	3504.69
331.115	3392.69
331.344	3433.69
331.572	3445.69
331.801	3455.69
332.03	3498.69
332.258	3489.69
332.486	3641.69
332.715	4237.69
332.943	5227.69
333.172	6461.69
333.4	6371.69
333.629	4873.69
333.857	4394.69
334.085	4364.69
334.314	4552.69
334.542	4960.69
334.771	5797.69
334.999	7065.69
335.227	8789.69
335.455	9917.69
335.684	8859.69
335.912	7425.69
336.14	6245.69
336.369	5423.69
336.597	5019.69
336.825	4717.69
337.053	4444.69
337.281	4155.69
337.51	3990.69
337.738	3822.69
337.966	3630.69
338.194	3579.69
338.422	3474.69
338.65	3352.69
338.878	3352.69
339.106	3222.69
339.334	3145.69
339.562	3098.69
339.79	3058.69
340.018	3103.69
340.246	3019.69
340.474	2967.69
340.702	3002.69
340.93	2921.69
341.158	3033.69
341.386	2969.69
341.614	2926.69
341.842	2911.69
342.07	2878.69
342.298	2751.69
342.526	2758.69
342.754	2709.69
342.981	2698.69
343.209	2731.69
343.437	2706.69
343.665	2788.69
343.893	2838.69
344.12	2797.69
344.348	2787.69
344.576	2748.69
344.804	2681.69
345.031	2609.69
345.259	2597.69
345.487	2579.69
345.714	2579.69
345.942	2541.69
346.17	2564.69
346.397	2475.69
346.625	2504.69
346.853	2505.69
347.08	2517.69
347.308	2467.69
347.535	2489.69
347.763	2455.69
347.99	2487.69
348.218	2478.69
348.445	2447.69
348.673	2464.69
348.9	2447.69
349.128	2407.69
349.355	2397.69
349.583	2481.69
349.81	2403.69
350.037	2417.69
350.265	2385.69
350.492	2450.69
350.72	2391.69
350.947	2355.69
351.174	2418.69
351.402	2417.69
351.629	2409.69
351.856	2351.69
352.083	2366.69
352.311	2335.69
352.538	2392.69
352.765	2388.69
352.992	2389.69
353.22	2341.69
353.447	2364.69
353.674	2362.69
353.901	2416.69
354.128	2380.69
354.355	2363.69
354.583	2401.69
354.81	2433.69
355.037	2423.69
355.264	2354.69
355.491	2420.69
355.718	2424.69
355.945	2430.69
356.172	2463.69
356.399	2414.69
356.626	2451.69
356.853	2542.69
357.08	2496.69
357.307	2561.69
357.534	2560.69
357.761	2593.69
357.988	2552.69
358.215	2566.69
358.441	2560.69
358.668	2512.69
358.895	2535.69
359.122	2533.69
359.349	2500.69
359.576	2510.69
359.802	2531.69
360.029	2501.69
360.256	2545.69
360.483	2482.69
360.709	2547.69
360.936	2532.69
361.163	2527.69
361.39	2519.69
361.616	2534.69
361.843	2556.69
362.07	2554.69
362.296	2566.69
362.523	2573.69
362.749	2571.69
362.976	2570.69
363.203	2515.69
363.429	2485.69
363.656	2512.69
363.882	2480.69
364.109	2552.69
364.335	2490.69
364.562	2527.69
364.788	2523.69
365.015	2530.69
365.241	2641.69
365.468	2792.69
365.694	2887.69
365.92	2751.69
366.147	2583.69
366.373	2579.69
366.599	2624.69
366.826	2572.69
367.052	2601.69
367.278	2624.69
367.505	2574.69
367.731	2532.69
367.957	2605.69
368.184	2620.69
368.41	2642.69
368.636	2650.69
368.862	2642.69
369.089	2613.69
369.315	2637.69
369.541	2625.69
369.767	2647.69
369.993	2586.69
370.219	2607.69
370.445	2623.69
370.672	2674.69
370.898	2655.69
371.124	2653.69
371.35	2730.69
371.576	2737.69
371.802	2712.69
372.028	2705.69
372.254	2712.69
372.48	2768.69
372.706	2736.69
372.932	2814.69
373.158	2793.69
373.384	2772.69
373.61	2737.69
373.835	2838.69
374.061	2763.69
374.287	2815.69
374.513	2815.69
374.739	2871.69
374.965	2880.69
375.191	2895.69
375.416	2918.69
375.642	2779.69
375.868	2822.69
376.094	2782.69
376.319	2775.69
376.545	2816.69
376.771	2757.69
376.997	2729.69
377.222	2737.69
377.448	2707.69
377.674	2710.69
377.899	2709.69
378.125	2745.69
378.35	2747.69
378.576	2764.69
378.802	2734.69
379.027	2839.69
379.253	2868.69
379.478	3027.69
379.704	3539.69
379.929	5146.69
380.155	7838.69
380.38	8480.69
380.606	5151.69
380.831	3595.69
381.057	3181.69
381.282	2962.69
381.507	2818.69
381.733	2763.69
381.958	2707.69
382.184	2726.69
382.409	2739.69
382.634	2697.69
382.86	2618.69
383.085	2661.69
383.31	2695.69
383.535	2699.69
383.761	2694.69
383.986	2709.69
384.211	2721.69
384.436	2733.69
384.662	2722.69
384.887	2786.69
385.112	2748.69
385.337	2736.69
385.562	2772.69
385.787	2727.69
386.013	2775.69
386.238	2767.69
386.463	2779.69
386.688	2774.69
386.913	2736.69
387.138	2737.69
387.363	2728.69
387.588	2743.69
387.813	2763.69
388.038	2736.69
388.263	2735.69
388.488	2791.69
388.713	2792.69
388.938	2777.69
389.163	2728.69
389.387	2815.69
389.612	2771.69
389.837	2780.69
390.062	2742.69
390.287	2815.69
390.512	2813.69
390.736	2835.69
390.961	2870.69
391.186	2858.69
391.411	2881.69
391.636	2932.69
391.86	2885.69
392.085	2956.69
392.31	2846.69
392.534	2878.69
392.759	2851.69
392.984	2841.69
393.208	2839.69
393.433	2857.69
393.658	2882.69
393.882	2805.69
394.107	2780.69
394.331	2869.69
394.556	2824.69
394.78	2840.69
395.005	2850.69
395.229	2802.69
395.454	2877.69
395.678	2885.69
395.903	2866.69
396.127	2825.69
396.352	2896.69
396.576	2890.69
396.801	2847.69
397.025	2916.69
397.249	2914.69
397.474	2936.69
397.698	2910.69
397.922	2916.69
398.147	2926.69
398.371	2961.69
398.595	3014.69
398.82	3087.69
399.044	3166.69
399.268	3347.69
399.492	3491.69
399.717	3641.69
399.941	3654.69
400.165	3486.69
400.389	3414.69
400.613	3216.69
400.837	3165.69
401.062	3117.69
401.286	3118.69
401.51	3058.69
401.734	3073.69
401.958	3087.69
402.182	3033.69
402.406	3079.69
402.63	3077.69
402.854	3125.69
403.078	3068.69
403.302	3118.69
403.526	3178.69
403.75	3146.69
403.974	3191.69
404.198	3111.69
404.422	3182.69
404.645	3171.69
404.869	3170.69
405.093	3150.69
405.317	3096.69
405.541	3208.69
405.765	3251.69
405.988	3301.69
406.212	3249.69
406.436	3255.69
406.66	3277.69
406.883	3238.69
407.107	3398.69
407.331	3406.69
407.555	3451.69
407.778	3426.69
408.002	3388.69
408.226	3369.69
408.449	3318.69
408.673	3355.69
408.896	3239.69
409.12	3202.69
409.344	3268.69
409.567	3166.69
409.791	3263.69
410.014	3181.69
410.238	3123.69
410.461	3169.69
410.685	3106.69
410.908	3103.69
411.132	3115.69
411.355	3033.69
411.578	3000.69
411.802	3037.69
412.025	3064.69
412.249	3037.69
412.472	3031.69
412.695	3039.69
412.919	2992.69
413.142	2986.69
413.365	2998.69
413.589	3021.69
413.812	2986.69
414.035	2938.69
414.258	3011.69
414.482	2977.69
414.705	2962.69
414.928	2975.69
415.151	3013.69
415.374	2943.69
415.597	2949.69
415.821	2894.69
416.044	2934.69
416.267	2901.69
416.49	2849.69
416.713	2850.69
416.936	2846.69
417.159	2814.69
417.382	2807.69
417.605	2791.69
417.828	2920.69
418.051	2880.69
418.274	2910.69
418.497	2886.69
418.72	2970.69
418.943	2844.69
419.166	3037.69
419.389	3198.69
419.611	3121.69
419.834	3030.69
420.057	3022.69
420.28	2942.69
420.503	2890.69
420.726	2906.69
420.948	2811.69
421.171	2868.69
421.394	2918.69
421.617	2851.69
421.839	2840.69
422.062	2903.69
422.285	2843.69
422.507	2996.69
422.73	2938.69
422.953	2898.69
423.175	2960.69
423.398	2934.69
423.621	2903.69
423.843	2911.69
424.066	2917.69
424.288	2865.69
424.511	2887.69
424.733	2847.69
424.956	2804.69
425.178	2853.69
425.401	2819.69
425.623	2821.69
425.846	2765.69
426.068	2771.69
426.291	2738.69
426.513	2781.69
426.735	2729.69
426.958	2710.69
427.18	2678.69
427.402	2699.69
427.625	2768.69
427.847	2655.69
428.069	2657.69
428.292	2708.69
428.514	2675.69
428.736	2604.69
428.958	2650.69
429.181	2607.69
429.403	2634.69
429.625	2616.69
429.847	2677.69
430.069	2666.69
430.292	2805.69
430.514	2859.69
430.736	2819.69
430.958	2694.69
431.18	2660.69
431.402	2666.69
431.624	2560.69
431.846	2581.69
432.068	2586.69
432.29	2686.69
432.512	2598.69
432.734	2615.69
432.956	2602.69
433.178	2623.69
433.4	2621.69
433.622	2664.69
433.844	2644.69
434.066	2624.69
434.287	2639.69
434.509	2674.69
434.731	2701.69
434.953	2691.69
435.175	2704.69
435.397	2774.69
435.618	2673.69
435.84	2656.69
436.062	2597.69
436.284	2619.69
436.505	2648.69
436.727	2636.69
436.949	2620.69
437.17	2598.69
437.392	2567.69
437.614	2568.69
437.835	2479.69
438.057	2562.69
438.278	2541.69
438.5	2545.69
438.721	2608.69
438.943	2719.69
439.165	2692.69
439.386	2701.69
439.608	2697.69
439.829	2696.69
440.05	2782.69
440.272	2847.69
440.493	2728.69
440.715	2689.69
440.936	2726.69
441.158	2731.69
441.379	2738.69
441.6	2851.69
441.822	2936.69
442.043	3082.69
442.264	3165.69
442.486	2955.69
442.707	2837.69
442.928	2835.69
443.149	2847.69
443.371	2783.69
443.592	2840.69
443.813	2832.69
444.034	2836.69
444.255	2895.69
444.476	2947.69
444.698	2966.69
444.919	2978.69
445.14	3083.69
445.361	2974.69
445.582	2846.69
445.803	2848.69
446.024	2775.69
446.245	2749.69
446.466	2759.69
446.687	2708.69
446.908	2731.69
447.129	2691.69
447.35	2653.69
447.571	2643.69
447.792	2563.69
448.013	2623.69
448.234	2624.69
448.455	2578.69
448.675	2618.69
448.896	2663.69
449.117	2785.69
449.338	2962.69
449.559	3053.69
449.779	2749.69
450	2619.69
450.221	2521.69
450.442	2599.69
450.662	2476.69
450.883	2530.69
451.104	2527.69
451.324	2508.69
451.545	2553.69
451.766	2525.69
451.986	2571.69
452.207	2804.69
452.428	3601.69
452.648	5373.69
452.869	4487.69
453.089	3106.69
453.31	2879.69
453.53	2933.69
453.751	2974.69
453.971	3108.69
454.192	3059.69
454.412	2713.69
454.633	2533.69
454.853	2442.69
455.073	2465.69
455.294	2417.69
455.514	2397.69
455.734	2377.69
455.955	2365.69
456.175	2404.69
456.395	2394.69
456.616	2456.69
456.836	2445.69
457.056	2464.69
457.276	2495.69
457.497	2584.69
457.717	2696.69
457.937	2544.69
458.157	2501.69
458.377	2544.69
458.598	2589.69
458.818	2584.69
459.038	2581.69
459.258	2628.69
459.478	2642.69
459.698	2678.69
459.918	2683.69
460.138	2708.69
460.358	2759.69
460.578	2859.69
460.798	2889.69
461.018	2869.69
461.238	2807.69
461.458	2909.69
461.678	2897.69
461.898	2979.69
462.118	2956.69
462.338	3050.69
462.558	3042.69
462.777	3120.69
462.997	3221.69
463.217	3379.69
463.437	3455.69
463.657	3609.69
463.876	3529.69
464.096	3281.69
464.316	3180.69
464.536	3165.69
464.755	3104.69
464.975	2990.69
465.195	2921.69
465.414	2806.69
465.634	2737.69
465.854	2750.69
466.073	2712.69
466.293	2677.69
466.512	2645.69
466.732	2685.69
466.951	2817.69
467.171	2967.69
467.391	2953.69
467.61	2699.69
467.829	2629.69
468.049	2583.69
468.268	2523.69
468.488	2515.69
468.707	2537.69
468.927	2589.69
469.146	2521.69
469.365	2618.69
469.585	2645.69
469.804	2646.69
470.023	2679.69
470.243	2766.69
470.462	2859.69
470.681	2977.69
470.901	3258.69
471.12	3697.69
471.339	3711.69
471.558	3138.69
471.777	2896.69
471.997	2664.69
472.216	2619.69
472.435	2629.69
472.654	2600.69
472.873	2530.69
473.092	2550.69
473.311	2615.69
473.53	2624.69
473.749	2687.69
473.968	2753.69
474.187	2669.69
474.406	2584.69
474.625	2601.69
474.844	2558.69
475.063	2584.69
475.282	2582.69
475.501	2597.69
475.72	2657.69
475.939	2661.69
476.158	2735.69
476.377	2790.69
476.596	2750.69
476.814	2781.69
477.033	2715.69
477.252	2701.69
477.471	2854.69
477.69	2877.69
477.908	2905.69
478.127	2926.69
478.346	2931.69
478.564	2989.69
478.783	2963.69
479.002	3104.69
479.22	3087.69
479.439	3089.69
479.658	3106.69
479.876	3142.69
480.095	3149.69
480.313	3190.69
480.532	3240.69
480.751	3187.69
480.969	3117.69
481.188	3097.69
481.406	3142.69
481.624	3131.69
481.843	3151.69
482.061	3168.69
482.28	3187.69
482.498	3092.69
482.717	3091.69
482.935	3217.69
483.153	3198.69
483.372	3224.69
483.59	3319.69
483.808	3334.69
484.027	3424.69
484.245	3603.69
484.463	3956.69
484.681	4471.69
484.9	4115.69
485.118	3795.69
485.336	3668.69
485.554	3739.69
485.772	3955.69
485.99	4525.69
486.209	4821.69
486.427	4067.69
486.645	3649.69
486.863	3512.69
487.081	3433.69
487.299	3340.69
487.517	3329.69
487.735	3345.69
