Data from SnStandardFlinnAPT0064_QswitchEnergy10_LIBS07252019.E.O._I.C._HRD10591_15-28-30-973.txt Node
Date: Thu Jul 25 15:28:30 EDT 2019
User: cochatt
Spectrometer: HR+D1059
Trigger mode: 1
Integration Time (sec): 1.000000E-1
Scans to average: 1
Electric dark correction enabled: true
Nonlinearity correction enabled: false
Boxcar width: 0
XAxis mode: Wavelengths
Number of Pixels in Spectrum: 2048
>>>>>Begin Spectral Data<<<<<
223.165	-14.44
223.4	-14.44
223.635	-14.44
223.869	-14.44
224.104	-28.44
224.338	-14.44
224.573	-32.44
224.808	-5.44
225.042	-13.44
225.277	5.56
225.511	4.56
225.746	-2.44
225.98	0.56
226.215	8.56
226.449	16.56
226.683	11.56
226.918	31.56
227.152	46.56
227.387	37.56
227.621	31.56
227.856	28.56
228.09	27.56
228.324	42.56
228.559	58.56
228.793	69.56
229.027	74.56
229.262	69.56
229.496	78.56
229.73	64.56
229.964	68.56
230.199	67.56
230.433	76.56
230.667	81.56
230.901	71.56
231.136	77.56
231.37	84.56
231.604	73.56
231.838	94.56
232.072	108.56
232.306	116.56
232.541	97.56
232.775	89.56
233.009	82.56
233.243	83.56
233.477	92.56
233.711	92.56
233.945	100.56
234.179	92.56
234.413	87.56
234.647	89.56
234.881	88.56
235.115	94.56
235.349	87.56
235.583	98.56
235.817	122.56
236.051	139.56
236.285	98.56
236.519	83.56
236.753	84.56
236.987	92.56
237.221	86.56
237.455	81.56
237.689	79.56
237.922	80.56
238.156	78.56
238.39	82.56
238.624	72.56
238.858	83.56
239.091	74.56
239.325	75.56
239.559	80.56
239.793	86.56
240.027	85.56
240.26	77.56
240.494	82.56
240.728	61.56
240.961	87.56
241.195	92.56
241.429	92.56
241.662	98.56
241.896	91.56
242.13	106.56
242.363	120.56
242.597	168.56
242.83	145.56
243.064	136.56
243.298	178.56
243.531	148.56
243.765	105.56
243.998	92.56
244.232	68.56
244.465	74.56
244.699	81.56
244.932	72.56
245.166	80.56
245.399	66.56
245.633	85.56
245.866	91.56
246.099	89.56
246.333	77.56
246.566	67.56
246.8	78.56
247.033	85.56
247.266	85.56
247.5	73.56
247.733	76.56
247.966	84.56
248.2	100.56
248.433	112.56
248.666	131.56
248.899	125.56
249.133	92.56
249.366	100.56
249.599	101.56
249.832	124.56
250.066	130.56
250.299	94.56
250.532	93.56
250.765	83.56
250.998	76.56
251.231	81.56
251.465	87.56
251.698	84.56
251.931	80.56
252.164	85.56
252.397	96.56
252.63	107.56
252.863	97.56
253.096	84.56
253.329	85.56
253.562	91.56
253.795	87.56
254.028	87.56
254.261	100.56
254.494	86.56
254.727	125.56
254.96	156.56
255.193	126.56
255.426	96.56
255.659	82.56
255.892	88.56
256.124	94.56
256.357	87.56
256.59	91.56
256.823	93.56
257.056	97.56
257.289	148.56
257.521	184.56
257.754	126.56
257.987	87.56
258.22	103.56
258.452	81.56
258.685	101.56
258.918	78.56
259.151	95.56
259.383	116.56
259.616	141.56
259.849	147.56
260.081	90.56
260.314	86.56
260.547	92.56
260.779	88.56
261.012	77.56
261.244	75.56
261.477	88.56
261.71	85.56
261.942	86.56
262.175	86.56
262.407	87.56
262.64	83.56
262.872	93.56
263.105	84.56
263.337	92.56
263.57	86.56
263.802	94.56
264.035	82.56
264.267	85.56
264.499	89.56
264.732	84.56
264.964	83.56
265.197	88.56
265.429	90.56
265.661	94.56
265.894	89.56
266.126	129.56
266.358	158.56
266.591	139.56
266.823	88.56
267.055	80.56
267.287	79.56
267.52	92.56
267.752	82.56
267.984	85.56
268.216	86.56
268.448	93.56
268.681	103.56
268.913	82.56
269.145	84.56
269.377	78.56
269.609	82.56
269.841	96.56
270.073	98.56
270.306	131.56
270.538	192.56
270.77	334.56
271.002	384.56
271.234	193.56
271.466	102.56
271.698	89.56
271.93	101.56
272.162	93.56
272.394	88.56
272.626	77.56
272.858	97.56
273.09	85.56
273.322	75.56
273.553	73.56
273.785	77.56
274.017	85.56
274.249	85.56
274.481	85.56
274.713	74.56
274.945	85.56
275.176	87.56
275.408	99.56
275.64	88.56
275.872	91.56
276.104	69.56
276.335	104.56
276.567	98.56
276.799	104.56
277.031	88.56
277.262	101.56
277.494	94.56
277.726	115.56
277.957	166.56
278.189	243.56
278.421	241.56
278.652	208.56
278.884	191.56
279.115	157.56
279.347	100.56
279.579	108.56
279.81	102.56
280.042	92.56
280.273	85.56
280.505	118.56
280.736	111.56
280.968	137.56
281.199	172.56
281.431	259.56
281.662	261.56
281.894	164.56
282.125	113.56
282.356	105.56
282.588	110.56
282.819	106.56
283.051	108.56
283.282	153.56
283.513	188.56
283.745	312.56
283.976	566.56
284.207	830.56
284.439	618.56
284.67	289.56
284.901	267.56
285.132	375.56
285.364	415.56
285.595	239.56
285.826	184.56
286.057	257.56
286.288	414.56
286.52	640.56
286.751	510.56
286.982	202.56
287.213	128.56
287.444	101.56
287.675	101.56
287.906	107.56
288.138	101.56
288.369	97.56
288.6	101.56
288.831	89.56
289.062	88.56
289.293	98.56
289.524	95.56
289.755	97.56
289.986	90.56
290.217	99.56
290.448	99.56
290.679	104.56
290.91	136.56
291.141	190.56
291.371	261.56
291.602	296.56
291.833	201.56
292.064	110.56
292.295	108.56
292.526	109.56
292.757	109.56
292.987	105.56
293.218	97.56
293.449	91.56
293.68	106.56
293.91	87.56
294.141	87.56
294.372	91.56
294.603	83.56
294.833	92.56
295.064	82.56
295.295	94.56
295.525	95.56
295.756	90.56
295.987	78.56
296.217	105.56
296.448	97.56
296.679	98.56
296.909	94.56
297.14	88.56
297.37	102.56
297.601	106.56
297.831	96.56
298.062	111.56
298.292	101.56
298.523	122.56
298.753	105.56
298.984	96.56
299.214	106.56
299.445	122.56
299.675	110.56
299.905	126.56
300.136	141.56
300.366	170.56
300.597	294.56
300.827	480.56
301.057	721.56
301.288	658.56
301.518	266.56
301.748	158.56
301.979	135.56
302.209	124.56
302.439	146.56
302.669	177.56
302.9	266.56
303.13	544.56
303.36	937.56
303.59	1282.56
303.82	892.56
304.051	296.56
304.281	174.56
304.511	116.56
304.741	121.56
304.971	119.56
305.201	106.56
305.431	114.56
305.661	121.56
305.891	98.56
306.121	104.56
306.352	113.56
306.582	109.56
306.812	114.56
307.042	109.56
307.272	114.56
307.502	119.56
307.731	111.56
307.961	90.56
308.191	115.56
308.421	106.56
308.651	110.56
308.881	102.56
309.111	102.56
309.341	108.56
309.571	102.56
309.8	119.56
310.03	119.56
310.26	119.56
310.49	119.56
310.72	96.56
310.949	95.56
311.179	108.56
311.409	119.56
311.639	105.56
311.868	111.56
312.098	100.56
312.328	108.56
312.557	103.56
312.787	113.56
313.017	112.56
313.246	126.56
313.476	120.56
313.706	129.56
313.935	162.56
314.165	202.56
314.394	264.56
314.624	194.56
314.853	138.56
315.083	128.56
315.312	144.56
315.542	130.56
315.771	137.56
316.001	128.56
316.23	138.56
316.46	159.56
316.689	159.56
316.919	276.56
317.148	545.56
317.377	942.56
317.607	1570.56
317.836	1460.56
318.065	566.56
318.295	241.56
318.524	165.56
318.753	122.56
318.983	126.56
319.212	124.56
319.441	128.56
319.67	124.56
319.9	122.56
320.129	113.56
320.358	120.56
320.587	119.56
320.816	97.56
321.046	126.56
321.275	134.56
321.504	127.56
321.733	165.56
321.962	183.56
322.191	176.56
322.42	144.56
322.649	130.56
322.878	141.56
323.108	124.56
323.337	133.56
323.566	129.56
323.795	133.56
324.024	149.56
324.253	155.56
324.482	193.56
324.71	222.56
324.939	295.56
325.168	234.56
325.397	215.56
325.626	284.56
325.855	499.56
326.084	988.56
326.313	1721.56
326.542	1634.56
326.77	640.56
326.999	275.56
327.228	224.56
327.457	262.56
327.686	246.56
327.914	169.56
328.143	142.56
328.372	130.56
328.6	148.56
328.829	120.56
329.058	126.56
329.287	122.56
329.515	119.56
329.744	120.56
329.972	132.56
330.201	120.56
330.43	124.56
330.658	124.56
330.887	119.56
331.115	112.56
331.344	110.56
331.572	121.56
331.801	114.56
332.03	148.56
332.258	134.56
332.486	188.56
332.715	293.56
332.943	539.56
333.172	845.56
333.4	715.56
333.629	276.56
333.857	153.56
334.085	141.56
334.314	121.56
334.542	103.56
334.771	128.56
334.999	124.56
335.227	135.56
335.455	135.56
335.684	128.56
335.912	102.56
336.14	130.56
336.369	124.56
336.597	125.56
336.825	112.56
337.053	118.56
337.281	104.56
337.51	122.56
337.738	105.56
337.966	119.56
338.194	131.56
338.422	112.56
338.65	110.56
338.878	116.56
339.106	108.56
339.334	124.56
339.562	131.56
339.79	120.56
340.018	124.56
340.246	125.56
340.474	121.56
340.702	104.56
340.93	118.56
341.158	111.56
341.386	110.56
341.614	143.56
341.842	124.56
342.07	123.56
342.298	117.56
342.526	118.56
342.754	105.56
342.981	99.56
343.209	124.56
343.437	120.56
343.665	116.56
343.893	108.56
344.12	109.56
344.348	119.56
344.576	123.56
344.804	110.56
345.031	112.56
345.259	115.56
345.487	125.56
345.714	105.56
345.942	113.56
346.17	124.56
346.397	117.56
346.625	115.56
346.853	108.56
347.08	113.56
347.308	106.56
347.535	101.56
347.763	103.56
347.99	100.56
348.218	115.56
348.445	115.56
348.673	135.56
348.9	128.56
349.128	122.56
349.355	124.56
349.583	126.56
349.81	138.56
350.037	125.56
350.265	128.56
350.492	120.56
350.72	128.56
350.947	115.56
351.174	123.56
351.402	116.56
351.629	128.56
351.856	131.56
352.083	111.56
352.311	108.56
352.538	114.56
352.765	109.56
352.992	107.56
353.22	112.56
353.447	116.56
353.674	109.56
353.901	117.56
354.128	93.56
354.355	91.56
354.583	101.56
354.81	104.56
355.037	92.56
355.264	98.56
355.491	112.56
355.718	103.56
355.945	108.56
356.172	108.56
356.399	120.56
356.626	91.56
356.853	110.56
357.08	108.56
357.307	117.56
357.534	101.56
357.761	101.56
357.988	112.56
358.215	124.56
358.441	111.56
358.668	124.56
358.895	120.56
359.122	131.56
359.349	134.56
359.576	128.56
359.802	105.56
360.029	117.56
360.256	117.56
360.483	113.56
360.709	105.56
360.936	124.56
361.163	117.56
361.39	110.56
361.616	115.56
361.843	111.56
362.07	114.56
362.296	121.56
362.523	109.56
362.749	95.56
362.976	105.56
363.203	120.56
363.429	108.56
363.656	101.56
363.882	114.56
364.109	117.56
364.335	137.56
364.562	101.56
364.788	105.56
365.015	122.56
365.241	126.56
365.468	226.56
365.694	291.56
365.92	229.56
366.147	120.56
366.373	116.56
366.599	105.56
366.826	110.56
367.052	116.56
367.278	102.56
367.505	110.56
367.731	106.56
367.957	101.56
368.184	122.56
368.41	122.56
368.636	119.56
368.862	113.56
369.089	99.56
369.315	106.56
369.541	112.56
369.767	112.56
369.993	111.56
370.219	112.56
370.445	97.56
370.672	102.56
370.898	115.56
371.124	116.56
371.35	118.56
371.576	110.56
371.802	110.56
372.028	116.56
372.254	127.56
372.48	122.56
372.706	114.56
372.932	104.56
373.158	120.56
373.384	114.56
373.61	111.56
373.835	130.56
374.061	123.56
374.287	108.56
374.513	114.56
374.739	120.56
374.965	122.56
375.191	120.56
375.416	122.56
375.642	108.56
375.868	123.56
376.094	106.56
376.319	114.56
376.545	108.56
376.771	77.56
376.997	98.56
377.222	100.56
377.448	110.56
377.674	108.56
377.899	109.56
378.125	112.56
378.35	120.56
378.576	125.56
378.802	115.56
379.027	121.56
379.253	144.56
379.478	188.56
379.704	348.56
379.929	841.56
380.155	1676.56
380.38	1738.56
380.606	555.56
380.831	210.56
381.057	140.56
381.282	124.56
381.507	125.56
381.733	115.56
381.958	114.56
382.184	104.56
382.409	109.56
382.634	124.56
382.86	117.56
383.085	103.56
383.31	99.56
383.535	115.56
383.761	107.56
383.986	103.56
384.211	107.56
384.436	112.56
384.662	119.56
384.887	106.56
385.112	101.56
385.337	98.56
385.562	105.56
385.787	96.56
386.013	118.56
386.238	106.56
386.463	107.56
386.688	105.56
386.913	104.56
387.138	109.56
387.363	104.56
387.588	108.56
387.813	107.56
388.038	100.56
388.263	116.56
388.488	118.56
388.713	104.56
388.938	97.56
389.163	100.56
389.387	104.56
389.612	112.56
389.837	95.56
390.062	118.56
390.287	118.56
390.512	105.56
390.736	116.56
390.961	115.56
391.186	97.56
391.411	106.56
391.636	97.56
391.86	94.56
392.085	88.56
392.31	94.56
392.534	100.56
392.759	88.56
392.984	113.56
393.208	120.56
393.433	144.56
393.658	138.56
393.882	117.56
394.107	103.56
394.331	102.56
394.556	101.56
394.78	101.56
395.005	96.56
395.229	86.56
395.454	105.56
395.678	92.56
395.903	119.56
396.127	107.56
396.352	108.56
396.576	113.56
396.801	116.56
397.025	139.56
397.249	99.56
397.474	107.56
397.698	95.56
397.922	109.56
398.147	92.56
398.371	108.56
398.595	116.56
398.82	81.56
399.044	114.56
399.268	98.56
399.492	93.56
399.717	100.56
399.941	109.56
400.165	109.56
400.389	102.56
400.613	93.56
400.837	90.56
401.062	100.56
401.286	101.56
401.51	92.56
401.734	97.56
401.958	116.56
402.182	105.56
402.406	101.56
402.63	94.56
402.854	104.56
403.078	91.56
403.302	86.56
403.526	90.56
403.75	88.56
403.974	84.56
404.198	93.56
404.422	100.56
404.645	110.56
404.869	106.56
405.093	111.56
405.317	87.56
405.541	108.56
405.765	132.56
405.988	150.56
406.212	132.56
406.436	102.56
406.66	108.56
406.883	86.56
407.107	107.56
407.331	124.56
407.555	102.56
407.778	98.56
408.002	91.56
408.226	99.56
408.449	113.56
408.673	109.56
408.896	103.56
409.12	109.56
409.344	98.56
409.567	100.56
409.791	110.56
410.014	104.56
410.238	95.56
410.461	113.56
410.685	85.56
410.908	98.56
411.132	96.56
411.355	101.56
411.578	100.56
411.802	100.56
412.025	82.56
412.249	102.56
412.472	100.56
412.695	98.56
412.919	99.56
413.142	100.56
413.365	97.56
413.589	106.56
413.812	92.56
414.035	111.56
414.258	110.56
414.482	119.56
414.705	103.56
414.928	100.56
415.151	101.56
415.374	101.56
415.597	89.56
415.821	90.56
416.044	99.56
416.267	101.56
416.49	97.56
416.713	100.56
416.936	85.56
417.159	86.56
417.382	86.56
417.605	99.56
417.828	97.56
418.051	96.56
418.274	105.56
418.497	89.56
418.72	116.56
418.943	101.56
419.166	103.56
419.389	120.56
419.611	105.56
419.834	98.56
420.057	105.56
420.28	95.56
420.503	104.56
420.726	92.56
420.948	104.56
421.171	92.56
421.394	103.56
421.617	86.56
421.839	93.56
422.062	108.56
422.285	99.56
422.507	97.56
422.73	132.56
422.953	142.56
423.175	125.56
423.398	103.56
423.621	98.56
423.843	84.56
424.066	83.56
424.288	84.56
424.511	94.56
424.733	92.56
424.956	106.56
425.178	93.56
425.401	89.56
425.623	83.56
425.846	103.56
426.068	107.56
426.291	93.56
426.513	94.56
426.735	99.56
426.958	99.56
427.18	101.56
427.402	108.56
427.625	96.56
427.847	111.56
428.069	97.56
428.292	101.56
428.514	126.56
428.736	98.56
428.958	99.56
429.181	94.56
429.403	98.56
429.625	88.56
429.847	86.56
430.069	102.56
430.292	109.56
430.514	101.56
430.736	115.56
430.958	105.56
431.18	100.56
431.402	93.56
431.624	94.56
431.846	102.56
432.068	101.56
432.29	95.56
432.512	83.56
432.734	112.56
432.956	101.56
433.178	89.56
433.4	88.56
433.622	92.56
433.844	88.56
434.066	112.56
434.287	91.56
434.509	109.56
434.731	109.56
434.953	101.56
435.175	89.56
435.397	103.56
435.618	93.56
435.84	103.56
436.062	98.56
436.284	96.56
436.505	91.56
436.727	93.56
436.949	113.56
437.17	90.56
437.392	97.56
437.614	80.56
437.835	100.56
438.057	89.56
438.278	87.56
438.5	100.56
438.721	101.56
438.943	108.56
439.165	109.56
439.386	113.56
439.608	91.56
439.829	96.56
440.05	117.56
440.272	108.56
440.493	108.56
440.715	98.56
440.936	104.56
441.158	92.56
441.379	112.56
441.6	107.56
441.822	101.56
442.043	116.56
442.264	129.56
442.486	119.56
442.707	101.56
442.928	92.56
443.149	94.56
443.371	90.56
443.592	95.56
443.813	96.56
444.034	76.56
444.255	92.56
444.476	86.56
444.698	95.56
444.919	97.56
445.14	157.56
445.361	146.56
445.582	97.56
445.803	90.56
446.024	99.56
446.245	97.56
446.466	115.56
446.687	118.56
446.908	105.56
447.129	108.56
447.35	104.56
447.571	95.56
447.792	104.56
448.013	109.56
448.234	94.56
448.455	88.56
448.675	102.56
448.896	105.56
449.117	116.56
449.338	122.56
449.559	152.56
449.779	117.56
450	110.56
450.221	109.56
450.442	117.56
450.662	110.56
450.883	83.56
451.104	116.56
451.324	121.56
451.545	113.56
451.766	115.56
451.986	145.56
452.207	227.56
452.428	601.56
452.648	1499.56
452.869	831.56
453.089	212.56
453.31	132.56
453.53	144.56
453.751	155.56
453.971	160.56
454.192	158.56
454.412	115.56
454.633	96.56
454.853	90.56
455.073	86.56
455.294	92.56
455.514	100.56
455.734	87.56
455.955	92.56
456.175	92.56
456.395	105.56
456.616	102.56
456.836	98.56
457.056	92.56
457.276	113.56
457.497	120.56
457.717	130.56
457.937	108.56
458.157	100.56
458.377	99.56
458.598	88.56
458.818	85.56
459.038	92.56
459.258	88.56
459.478	99.56
459.698	95.56
459.918	98.56
460.138	89.56
460.358	89.56
460.578	109.56
460.798	101.56
461.018	78.56
461.238	95.56
461.458	85.56
461.678	87.56
461.898	94.56
462.118	97.56
462.338	87.56
462.558	96.56
462.777	100.56
462.997	109.56
463.217	108.56
463.437	144.56
463.657	188.56
463.876	186.56
464.096	128.56
464.316	96.56
464.536	95.56
464.755	104.56
464.975	88.56
465.195	80.56
465.414	92.56
465.634	94.56
465.854	80.56
466.073	101.56
466.293	100.56
466.512	90.56
466.732	114.56
466.951	116.56
467.171	153.56
467.391	144.56
467.61	112.56
467.829	100.56
468.049	96.56
468.268	88.56
468.488	86.56
468.707	94.56
468.927	100.56
469.146	94.56
469.365	86.56
469.585	101.56
469.804	104.56
470.023	93.56
470.243	102.56
470.462	105.56
470.681	113.56
470.901	142.56
471.12	192.56
471.339	212.56
471.558	139.56
471.777	111.56
471.997	110.56
472.216	99.56
472.435	90.56
472.654	89.56
472.873	98.56
473.092	86.56
473.311	94.56
473.53	91.56
473.749	100.56
473.968	117.56
474.187	100.56
474.406	88.56
474.625	103.56
474.844	91.56
475.063	100.56
475.282	92.56
475.501	102.56
475.72	98.56
475.939	110.56
476.158	109.56
476.377	115.56
476.596	103.56
476.814	108.56
477.033	101.56
477.252	93.56
477.471	107.56
477.69	96.56
477.908	109.56
478.127	119.56
478.346	92.56
478.564	96.56
478.783	113.56
479.002	111.56
479.22	103.56
479.439	105.56
479.658	103.56
479.876	97.56
480.095	108.56
480.313	82.56
480.532	84.56
480.751	90.56
480.969	103.56
481.188	88.56
481.406	104.56
481.624	86.56
481.843	116.56
482.061	124.56
482.28	111.56
482.498	97.56
482.717	110.56
482.935	94.56
483.153	110.56
483.372	101.56
483.59	111.56
483.808	109.56
484.027	108.56
484.245	126.56
484.463	183.56
484.681	250.56
484.9	143.56
485.118	122.56
485.336	110.56
485.554	121.56
485.772	115.56
485.99	192.56
486.209	251.56
486.427	180.56
486.645	117.56
486.863	108.56
487.081	88.56
487.299	101.56
487.517	103.56
487.735	97.56
487.953	103.56
488.171	94.56
488.389	88.56
488.607	107.56
488.825	95.56
489.043	96.56
489.261	109.56
489.479	104.56
489.696	100.56
489.914	102.56
490.132	98.56
490.35	105.56
490.568	101.56
490.786	121.56
491.003	100.56
491.221	113.56
491.439	103.56
491.657	102.56
491.874	113.56
492.092	102.56
492.31	106.56
492.527	109.56
492.745	120.56
492.963	105.56
493.18	100.56
493.398	118.56
493.615	113.56
493.833	117.56
494.05	105.56
494.268	98.56
494.485	111.56
494.703	102.56
494.92	100.56
495.138	98.56
495.355	93.56
495.573	116.56
495.79	103.56
496.008	95.56
496.225	99.56
496.442	102.56
496.66	129.56
496.877	156.56
497.094	147.56
497.312	111.56
497.529	116.56
497.746	115.56
497.963	114.56
498.181	97.56
498.398	102.56
498.615	104.56
498.832	112.56
499.049	109.56
499.267	141.56
499.484	177.56
499.701	131.56
499.918	111.56
500.135	103.56
500.352	99.56
500.569	100.56
500.786	111.56
501.003	107.56
501.22	98.56
501.437	108.56
501.654	95.56
501.871	107.56
502.088	88.56
502.305	108.56
502.522	104.56
502.739	101.56
502.956	91.56
503.172	94.56
503.389	102.56
503.606	102.56
503.823	97.56
504.04	112.56
504.256	100.56
504.473	96.56
504.69	86.56
504.907	115.56
505.123	112.56
505.34	108.56
505.557	109.56
505.773	109.56
505.99	131.56
506.207	109.56
506.423	104.56
506.64	115.56
506.856	95.56
507.073	90.56
507.289	104.56
507.506	109.56
