Data from SnStandardFlinnAPT0064_LampEnergy10_LIBS07252019.E.O._I.C._HRD10591_15-19-45-493.txt Node
Date: Thu Jul 25 15:19:45 EDT 2019
User: cochatt
Spectrometer: HR+D1059
Trigger mode: 1
Integration Time (sec): 1.000000E-1
Scans to average: 1
Electric dark correction enabled: true
Nonlinearity correction enabled: false
Boxcar width: 0
XAxis mode: Wavelengths
Number of Pixels in Spectrum: 2048
>>>>>Begin Spectral Data<<<<<
223.165	-25.25
223.4	-25.25
223.635	-25.25
223.869	-21.25
224.104	-11.25
224.338	-6.25
224.573	-2.25
224.808	-15.25
225.042	-8.25
225.277	-4.25
225.511	9.75
225.746	5.75
225.98	7.75
226.215	0.75
226.449	0.75
226.683	19.75
226.918	25.75
227.152	23.75
227.387	27.75
227.621	38.75
227.856	41.75
228.09	50.75
228.324	58.75
228.559	51.75
228.793	130.75
229.027	353.75
229.262	354.75
229.496	306.75
229.73	306.75
229.964	296.75
230.199	309.75
230.433	306.75
230.667	320.75
230.901	315.75
231.136	327.75
231.37	354.75
231.604	376.75
231.838	442.75
232.072	546.75
232.306	586.75
232.541	472.75
232.775	420.75
233.009	436.75
233.243	423.75
233.477	463.75
233.711	539.75
233.945	608.75
234.179	530.75
234.413	456.75
234.647	472.75
234.881	505.75
235.115	524.75
235.349	634.75
235.583	798.75
235.817	1076.75
236.051	1041.75
236.285	678.75
236.519	566.75
236.753	533.75
236.987	526.75
237.221	547.75
237.455	514.75
237.689	470.75
237.922	471.75
238.156	487.75
238.39	501.75
238.624	535.75
238.858	516.75
239.091	510.75
239.325	519.75
239.559	522.75
239.793	520.75
240.027	537.75
240.26	586.75
240.494	583.75
240.728	580.75
240.961	649.75
241.195	690.75
241.429	712.75
241.662	743.75
241.896	804.75
242.13	988.75
242.363	1300.75
242.597	1710.75
242.83	1655.75
243.064	1640.75
243.298	1934.75
243.531	1595.75
243.765	1000.75
243.998	808.75
244.232	706.75
244.465	698.75
244.699	688.75
244.932	665.75
245.166	676.75
245.399	704.75
245.633	702.75
245.866	714.75
246.099	686.75
246.333	671.75
246.566	670.75
246.8	649.75
247.033	665.75
247.266	654.75
247.5	670.75
247.733	689.75
247.966	730.75
248.2	778.75
248.433	920.75
248.666	1040.75
248.899	1017.75
249.133	881.75
249.366	877.75
249.599	991.75
249.832	1130.75
250.066	1119.75
250.299	881.75
250.532	800.75
250.765	757.75
250.998	741.75
251.231	756.75
251.465	737.75
251.698	736.75
251.931	758.75
252.164	762.75
252.397	762.75
252.63	811.75
252.863	809.75
253.096	815.75
253.329	800.75
253.562	793.75
253.795	796.75
254.028	793.75
254.261	830.75
254.494	908.75
254.727	1052.75
254.96	1275.75
255.193	1270.75
255.426	1012.75
255.659	924.75
255.892	919.75
256.124	878.75
256.357	908.75
256.59	950.75
256.823	1032.75
257.056	1160.75
257.289	1371.75
257.521	1553.75
257.754	1223.75
257.987	986.75
258.22	959.75
258.452	923.75
258.685	955.75
258.918	1003.75
259.151	1035.75
259.383	1112.75
259.616	1295.75
259.849	1313.75
260.081	1147.75
260.314	1020.75
260.547	958.75
260.779	972.75
261.012	1002.75
261.244	995.75
261.477	994.75
261.71	959.75
261.942	999.75
262.175	1022.75
262.407	1030.75
262.64	1037.75
262.872	1102.75
263.105	1159.75
263.337	1239.75
263.57	1227.75
263.802	1304.75
264.035	1314.75
264.267	1341.75
264.499	1357.75
264.732	1414.75
264.964	1410.75
265.197	1423.75
265.429	1429.75
265.661	1443.75
265.894	1540.75
266.126	1758.75
266.358	1982.75
266.591	1946.75
266.823	1612.75
267.055	1486.75
267.287	1402.75
267.52	1351.75
267.752	1306.75
267.984	1261.75
268.216	1252.75
268.448	1255.75
268.681	1243.75
268.913	1226.75
269.145	1248.75
269.377	1246.75
269.609	1239.75
269.841	1330.75
270.073	1402.75
270.306	1635.75
270.538	2224.75
270.77	3342.75
271.002	4231.75
271.234	2970.75
271.466	1976.75
271.698	1618.75
271.93	1434.75
272.162	1380.75
272.394	1332.75
272.626	1300.75
272.858	1250.75
273.09	1208.75
273.322	1210.75
273.553	1225.75
273.785	1206.75
274.017	1202.75
274.249	1195.75
274.481	1217.75
274.713	1223.75
274.945	1231.75
275.176	1234.75
275.408	1232.75
275.64	1220.75
275.872	1250.75
276.104	1254.75
276.335	1257.75
276.567	1318.75
276.799	1304.75
277.031	1308.75
277.262	1339.75
277.494	1413.75
277.726	1603.75
277.957	1918.75
278.189	2194.75
278.421	2037.75
278.652	1820.75
278.884	1724.75
279.115	1520.75
279.347	1443.75
279.579	1425.75
279.81	1424.75
280.042	1421.75
280.273	1458.75
280.505	1482.75
280.736	1507.75
280.968	1617.75
281.199	1846.75
281.431	2132.75
281.662	2140.75
281.894	1819.75
282.125	1658.75
282.356	1645.75
282.588	1694.75
282.819	1716.75
283.051	1871.75
283.282	2091.75
283.513	2596.75
283.745	3718.75
283.976	5944.75
284.207	8438.75
284.439	7830.75
284.67	4870.75
284.901	3980.75
285.132	4053.75
285.364	3794.75
285.595	2902.75
285.826	2557.75
286.057	2950.75
286.288	4075.75
286.52	5562.75
286.751	5189.75
286.982	3240.75
287.213	2412.75
287.444	2075.75
287.675	1885.75
287.906	1810.75
288.138	1782.75
288.369	1723.75
288.6	1721.75
288.831	1741.75
289.062	1723.75
289.293	1736.75
289.524	1680.75
289.755	1704.75
289.986	1719.75
290.217	1754.75
290.448	1732.75
290.679	1781.75
290.91	1769.75
291.141	1938.75
291.371	2081.75
291.602	2177.75
291.833	1984.75
292.064	1763.75
292.295	1691.75
292.526	1699.75
292.757	1671.75
292.987	1623.75
293.218	1631.75
293.449	1570.75
293.68	1583.75
293.91	1600.75
294.141	1620.75
294.372	1576.75
294.603	1605.75
294.833	1581.75
295.064	1590.75
295.295	1585.75
295.525	1572.75
295.756	1583.75
295.987	1552.75
296.217	1605.75
296.448	1588.75
296.679	1599.75
296.909	1578.75
297.14	1620.75
297.37	1638.75
297.601	1637.75
297.831	1664.75
298.062	1635.75
298.292	1667.75
298.523	1704.75
298.753	1727.75
298.984	1734.75
299.214	1783.75
299.445	1745.75
299.675	1858.75
299.905	1859.75
300.136	1959.75
300.366	2223.75
300.597	2864.75
300.827	4000.75
301.057	5570.75
301.288	5614.75
301.518	3546.75
301.748	2666.75
301.979	2451.75
302.209	2390.75
302.439	2379.75
302.669	2521.75
302.9	3122.75
303.13	4406.75
303.36	6512.75
303.59	8654.75
303.82	7624.75
304.051	4550.75
304.281	3201.75
304.511	2604.75
304.741	2424.75
304.971	2272.75
305.201	2121.75
305.431	2034.75
305.661	1993.75
305.891	1926.75
306.121	1911.75
306.352	1902.75
306.582	1869.75
306.812	1861.75
307.042	1885.75
307.272	1839.75
307.502	1802.75
307.731	1815.75
307.961	1824.75
308.191	1829.75
308.421	1835.75
308.651	1795.75
308.881	1819.75
309.111	1852.75
309.341	1838.75
309.571	1855.75
309.8	1879.75
310.03	1853.75
310.26	1884.75
310.49	1854.75
310.72	1879.75
310.949	1854.75
311.179	1923.75
311.409	1914.75
311.639	1929.75
311.868	1932.75
312.098	1987.75
312.328	1987.75
312.557	1944.75
312.787	1981.75
313.017	1971.75
313.246	2017.75
313.476	2067.75
313.706	2140.75
313.935	2219.75
314.165	2410.75
314.394	2517.75
314.624	2451.75
314.853	2208.75
315.083	2196.75
315.312	2183.75
315.542	2243.75
315.771	2212.75
316.001	2250.75
316.23	2372.75
316.46	2511.75
316.689	2720.75
316.919	3307.75
317.148	4786.75
317.377	7444.75
317.607	10978.75
317.836	11446.75
318.065	7071.75
318.295	4554.75
318.524	3590.75
318.753	3077.75
318.983	2856.75
319.212	2637.75
319.441	2581.75
319.67	2523.75
319.9	2460.75
320.129	2434.75
320.358	2413.75
320.587	2381.75
320.816	2427.75
321.046	2383.75
321.275	2407.75
321.504	2437.75
321.733	2434.75
321.962	2559.75
322.191	2567.75
322.42	2524.75
322.649	2519.75
322.878	2496.75
323.108	2508.75
323.337	2548.75
323.566	2576.75
323.795	2649.75
324.024	2711.75
324.253	2809.75
324.482	2930.75
324.71	3097.75
324.939	3283.75
325.168	3406.75
325.397	3502.75
325.626	4187.75
325.855	5813.75
326.084	9156.75
326.313	13258.75
326.542	13989.75
326.77	9784.75
326.999	6330.75
327.228	5271.75
327.457	4990.75
327.686	5016.75
327.914	5336.75
328.143	6262.75
328.372	7450.75
328.6	8166.75
328.829	7271.75
329.058	6064.75
329.287	5231.75
329.515	4804.75
329.744	4384.75
329.972	4185.75
330.201	3914.75
330.43	3827.75
330.658	3628.75
330.887	3610.75
331.115	3540.75
331.344	3526.75
331.572	3501.75
331.801	3564.75
332.03	3536.75
332.258	3601.75
332.486	3856.75
332.715	4372.75
332.943	5440.75
333.172	6854.75
333.4	6809.75
333.629	5156.75
333.857	4626.75
334.085	4630.75
334.314	4916.75
334.542	5260.75
334.771	6231.75
334.999	7696.75
335.227	9658.75
335.455	10849.75
335.684	9812.75
335.912	8062.75
336.14	6718.75
336.369	5921.75
336.597	5387.75
336.825	4965.75
337.053	4622.75
337.281	4344.75
337.51	4061.75
337.738	3886.75
337.966	3730.75
338.194	3643.75
338.422	3506.75
338.65	3413.75
338.878	3330.75
339.106	3287.75
339.334	3266.75
339.562	3143.75
339.79	3089.75
340.018	3056.75
340.246	3052.75
340.474	3011.75
340.702	3068.75
340.93	3098.75
341.158	3012.75
341.386	2998.75
341.614	3020.75
341.842	2934.75
342.07	2872.75
342.298	2820.75
342.526	2782.75
342.754	2730.75
342.981	2732.75
343.209	2702.75
343.437	2730.75
343.665	2815.75
343.893	2810.75
344.12	2822.75
344.348	2777.75
344.576	2704.75
344.804	2687.75
345.031	2651.75
345.259	2584.75
345.487	2599.75
345.714	2572.75
345.942	2573.75
346.17	2587.75
346.397	2551.75
346.625	2536.75
346.853	2526.75
347.08	2506.75
347.308	2535.75
347.535	2548.75
347.763	2536.75
347.99	2465.75
348.218	2467.75
348.445	2518.75
348.673	2454.75
348.9	2483.75
349.128	2478.75
349.355	2461.75
349.583	2453.75
349.81	2435.75
350.037	2410.75
350.265	2440.75
350.492	2420.75
350.72	2400.75
350.947	2427.75
351.174	2430.75
351.402	2415.75
351.629	2424.75
351.856	2396.75
352.083	2390.75
352.311	2401.75
352.538	2325.75
352.765	2394.75
352.992	2393.75
353.22	2395.75
353.447	2381.75
353.674	2371.75
353.901	2395.75
354.128	2459.75
354.355	2444.75
354.583	2375.75
354.81	2416.75
355.037	2409.75
355.264	2455.75
355.491	2464.75
355.718	2449.75
355.945	2468.75
356.172	2464.75
356.399	2464.75
356.626	2488.75
356.853	2515.75
357.08	2523.75
357.307	2537.75
357.534	2566.75
357.761	2595.75
357.988	2639.75
358.215	2554.75
358.441	2613.75
358.668	2582.75
358.895	2544.75
359.122	2588.75
359.349	2488.75
359.576	2545.75
359.802	2528.75
360.029	2544.75
360.256	2559.75
360.483	2558.75
360.709	2573.75
360.936	2552.75
361.163	2584.75
361.39	2538.75
361.616	2551.75
361.843	2588.75
362.07	2582.75
362.296	2546.75
362.523	2555.75
362.749	2558.75
362.976	2519.75
363.203	2580.75
363.429	2507.75
363.656	2561.75
363.882	2519.75
364.109	2566.75
364.335	2544.75
364.562	2548.75
364.788	2568.75
365.015	2610.75
365.241	2626.75
365.468	2823.75
365.694	3002.75
365.92	2852.75
366.147	2635.75
366.373	2630.75
366.599	2622.75
366.826	2592.75
367.052	2632.75
367.278	2651.75
367.505	2630.75
367.731	2632.75
367.957	2635.75
368.184	2651.75
368.41	2702.75
368.636	2688.75
368.862	2701.75
369.089	2639.75
369.315	2663.75
369.541	2640.75
369.767	2621.75
369.993	2639.75
370.219	2584.75
370.445	2618.75
370.672	2651.75
370.898	2662.75
371.124	2660.75
371.35	2705.75
371.576	2729.75
371.802	2768.75
372.028	2786.75
372.254	2746.75
372.48	2801.75
372.706	2745.75
372.932	2722.75
373.158	2765.75
373.384	2764.75
373.61	2750.75
373.835	2832.75
374.061	2790.75
374.287	2761.75
374.513	2857.75
374.739	2873.75
374.965	2894.75
375.191	2938.75
375.416	2933.75
375.642	2820.75
375.868	2836.75
376.094	2752.75
376.319	2777.75
376.545	2765.75
376.771	2705.75
376.997	2759.75
377.222	2720.75
377.448	2688.75
377.674	2732.75
377.899	2690.75
378.125	2734.75
378.35	2716.75
378.576	2755.75
378.802	2726.75
379.027	2805.75
379.253	2859.75
379.478	3056.75
379.704	3586.75
379.929	5272.75
380.155	8250.75
380.38	8978.75
380.606	5515.75
380.831	3854.75
381.057	3316.75
381.282	3078.75
381.507	2926.75
381.733	2843.75
381.958	2771.75
382.184	2707.75
382.409	2718.75
382.634	2704.75
382.86	2696.75
383.085	2655.75
383.31	2698.75
383.535	2702.75
383.761	2682.75
383.986	2725.75
384.211	2786.75
384.436	2770.75
384.662	2738.75
384.887	2837.75
385.112	2742.75
385.337	2768.75
385.562	2744.75
385.787	2742.75
386.013	2803.75
386.238	2765.75
386.463	2794.75
386.688	2800.75
386.913	2720.75
387.138	2784.75
387.363	2754.75
387.588	2726.75
387.813	2813.75
388.038	2766.75
388.263	2722.75
388.488	2718.75
388.713	2748.75
388.938	2724.75
389.163	2740.75
389.387	2772.75
389.612	2758.75
389.837	2773.75
390.062	2724.75
390.287	2836.75
390.512	2774.75
390.736	2825.75
390.961	2858.75
391.186	2854.75
391.411	2895.75
391.636	2890.75
391.86	2938.75
392.085	2851.75
392.31	2864.75
392.534	2865.75
392.759	2831.75
392.984	2825.75
393.208	2814.75
393.433	2822.75
393.658	2839.75
393.882	2800.75
394.107	2760.75
394.331	2770.75
394.556	2830.75
394.78	2826.75
395.005	2809.75
395.229	2841.75
395.454	2860.75
395.678	2904.75
395.903	2857.75
396.127	2838.75
396.352	2870.75
396.576	2849.75
396.801	2857.75
397.025	2891.75
397.249	2883.75
397.474	2903.75
397.698	2872.75
397.922	2916.75
398.147	2967.75
398.371	2963.75
398.595	3016.75
398.82	3007.75
399.044	3170.75
399.268	3417.75
399.492	3467.75
399.717	3607.75
399.941	3614.75
400.165	3493.75
400.389	3330.75
400.613	3256.75
400.837	3122.75
401.062	3088.75
401.286	3074.75
401.51	3024.75
401.734	2990.75
401.958	3052.75
402.182	3048.75
402.406	3041.75
402.63	3057.75
402.854	3064.75
403.078	3100.75
403.302	3139.75
403.526	3102.75
403.75	3115.75
403.974	3148.75
404.198	3147.75
404.422	3137.75
404.645	3159.75
404.869	3124.75
405.093	3152.75
405.317	3118.75
405.541	3191.75
405.765	3241.75
405.988	3289.75
406.212	3268.75
406.436	3206.75
406.66	3286.75
406.883	3255.75
407.107	3414.75
407.331	3448.75
407.555	3444.75
407.778	3404.75
408.002	3366.75
408.226	3355.75
408.449	3422.75
408.673	3296.75
408.896	3203.75
409.12	3194.75
409.344	3233.75
409.567	3155.75
409.791	3159.75
410.014	3151.75
410.238	3120.75
410.461	3147.75
410.685	3174.75
410.908	3042.75
411.132	3134.75
411.355	3033.75
411.578	3062.75
411.802	3016.75
412.025	3064.75
412.249	3033.75
412.472	2960.75
412.695	2982.75
412.919	2948.75
413.142	2998.75
413.365	2962.75
413.589	2951.75
413.812	3020.75
414.035	3009.75
414.258	3017.75
414.482	2996.75
414.705	2959.75
414.928	2983.75
415.151	2988.75
415.374	2902.75
415.597	2938.75
415.821	2897.75
416.044	2891.75
416.267	2845.75
416.49	2922.75
416.713	2846.75
416.936	2916.75
417.159	2812.75
417.382	2835.75
417.605	2788.75
417.828	2864.75
418.051	2881.75
418.274	2883.75
418.497	2887.75
418.72	2959.75
418.943	2920.75
419.166	3019.75
419.389	3180.75
419.611	3158.75
419.834	3048.75
420.057	2998.75
420.28	2883.75
420.503	2873.75
420.726	2841.75
420.948	2817.75
421.171	2858.75
421.394	2869.75
421.617	2885.75
421.839	2891.75
422.062	2932.75
422.285	2850.75
422.507	2954.75
422.73	2908.75
422.953	2975.75
423.175	2980.75
423.398	2941.75
423.621	2837.75
423.843	2866.75
424.066	2894.75
424.288	2807.75
424.511	2841.75
424.733	2846.75
424.956	2886.75
425.178	2842.75
425.401	2795.75
425.623	2837.75
425.846	2771.75
426.068	2773.75
426.291	2734.75
426.513	2725.75
426.735	2750.75
426.958	2741.75
427.18	2693.75
427.402	2736.75
427.625	2715.75
427.847	2649.75
428.069	2643.75
428.292	2704.75
428.514	2635.75
428.736	2675.75
428.958	2678.75
429.181	2642.75
429.403	2644.75
429.625	2654.75
429.847	2655.75
430.069	2722.75
430.292	2752.75
430.514	2866.75
430.736	2867.75
430.958	2708.75
431.18	2640.75
431.402	2645.75
431.624	2618.75
431.846	2588.75
432.068	2628.75
432.29	2646.75
432.512	2572.75
432.734	2608.75
432.956	2619.75
433.178	2716.75
433.4	2633.75
433.622	2652.75
433.844	2647.75
434.066	2634.75
434.287	2664.75
434.509	2716.75
434.731	2701.75
434.953	2724.75
435.175	2736.75
435.397	2749.75
435.618	2694.75
435.84	2696.75
436.062	2625.75
436.284	2646.75
436.505	2600.75
436.727	2656.75
436.949	2602.75
437.17	2585.75
437.392	2566.75
437.614	2540.75
437.835	2463.75
438.057	2541.75
438.278	2522.75
438.5	2564.75
438.721	2610.75
438.943	2710.75
439.165	2759.75
439.386	2768.75
439.608	2726.75
439.829	2756.75
440.05	2852.75
440.272	2871.75
440.493	2754.75
440.715	2678.75
440.936	2686.75
441.158	2743.75
441.379	2784.75
441.6	2904.75
441.822	2917.75
442.043	3113.75
442.264	3249.75
442.486	2959.75
442.707	2856.75
442.928	2891.75
443.149	2836.75
443.371	2756.75
443.592	2822.75
443.813	2840.75
444.034	2824.75
444.255	2864.75
444.476	2940.75
444.698	2980.75
444.919	3012.75
445.14	3046.75
445.361	2971.75
445.582	2890.75
445.803	2836.75
446.024	2783.75
446.245	2790.75
446.466	2798.75
446.687	2737.75
446.908	2789.75
447.129	2670.75
447.35	2689.75
447.571	2644.75
447.792	2588.75
448.013	2632.75
448.234	2591.75
448.455	2577.75
448.675	2640.75
448.896	2704.75
449.117	2783.75
449.338	3012.75
449.559	3092.75
449.779	2831.75
450	2629.75
450.221	2586.75
450.442	2582.75
450.662	2568.75
450.883	2512.75
451.104	2559.75
451.324	2520.75
451.545	2532.75
451.766	2633.75
451.986	2657.75
452.207	2847.75
452.428	3715.75
452.648	5664.75
452.869	4771.75
453.089	3301.75
453.31	2987.75
453.53	3039.75
453.751	3055.75
453.971	3232.75
454.192	3182.75
454.412	2754.75
454.633	2645.75
454.853	2540.75
455.073	2473.75
455.294	2435.75
455.514	2442.75
455.734	2429.75
455.955	2397.75
456.175	2404.75
456.395	2443.75
456.616	2452.75
456.836	2463.75
457.056	2477.75
457.276	2519.75
457.497	2645.75
457.717	2637.75
457.937	2562.75
458.157	2527.75
458.377	2584.75
458.598	2598.75
458.818	2595.75
459.038	2595.75
459.258	2591.75
459.478	2698.75
459.698	2652.75
459.918	2708.75
460.138	2726.75
460.358	2826.75
460.578	2812.75
460.798	2884.75
461.018	2893.75
461.238	2838.75
461.458	2835.75
461.678	2886.75
461.898	2995.75
462.118	2976.75
462.338	3086.75
462.558	3070.75
462.777	3118.75
462.997	3236.75
463.217	3352.75
463.437	3442.75
463.657	3575.75
463.876	3515.75
464.096	3356.75
464.316	3202.75
464.536	3179.75
464.755	3070.75
464.975	3012.75
465.195	2939.75
465.414	2828.75
465.634	2781.75
465.854	2714.75
466.073	2692.75
466.293	2658.75
466.512	2678.75
466.732	2717.75
466.951	2839.75
467.171	3044.75
467.391	2964.75
467.61	2732.75
467.829	2657.75
468.049	2656.75
468.268	2595.75
468.488	2619.75
468.707	2590.75
468.927	2601.75
469.146	2576.75
469.365	2671.75
469.585	2592.75
469.804	2721.75
470.023	2729.75
470.243	2739.75
470.462	2901.75
470.681	3045.75
470.901	3312.75
471.12	3874.75
471.339	3847.75
471.558	3221.75
471.777	2958.75
471.997	2807.75
472.216	2736.75
472.435	2694.75
472.654	2651.75
472.873	2590.75
473.092	2586.75
473.311	2652.75
473.53	2659.75
473.749	2681.75
473.968	2838.75
474.187	2663.75
474.406	2602.75
474.625	2630.75
474.844	2640.75
475.063	2652.75
475.282	2612.75
475.501	2677.75
475.72	2682.75
475.939	2657.75
476.158	2718.75
476.377	2793.75
476.596	2746.75
476.814	2745.75
477.033	2731.75
477.252	2776.75
477.471	2794.75
477.69	2866.75
477.908	2940.75
478.127	2949.75
478.346	2999.75
478.564	3011.75
478.783	3077.75
479.002	3089.75
479.22	3123.75
479.439	3115.75
479.658	3135.75
479.876	3119.75
480.095	3120.75
480.313	3231.75
480.532	3250.75
480.751	3208.75
480.969	3239.75
481.188	3154.75
481.406	3065.75
481.624	3178.75
481.843	3183.75
482.061	3181.75
482.28	3185.75
482.498	3199.75
482.717	3125.75
482.935	3207.75
483.153	3266.75
483.372	3302.75
483.59	3337.75
483.808	3351.75
484.027	3490.75
484.245	3659.75
484.463	4148.75
484.681	4575.75
484.9	4274.75
485.118	3916.75
485.336	3826.75
485.554	3829.75
485.772	4118.75
485.99	4662.75
486.209	4964.75
486.427	4181.75
486.645	3731.75
486.863	3556.75
487.081	3514.75
487.299	3434.75
487.517	3440.75
487.735	3466.75
