Data from SnStandardFlinnAPT0064_QswitchEnergy10_LIBS07252019.E.O._I.C._HRD10591_15-27-34-974.txt Node
Date: Thu Jul 25 15:27:34 EDT 2019
User: cochatt
Spectrometer: HR+D1059
Trigger mode: 1
Integration Time (sec): 1.000000E-1
Scans to average: 1
Electric dark correction enabled: true
Nonlinearity correction enabled: false
Boxcar width: 0
XAxis mode: Wavelengths
Number of Pixels in Spectrum: 2048
>>>>>Begin Spectral Data<<<<<
223.165	-8.75
223.4	-8.75
223.635	-8.75
223.869	1.25
224.104	-16.75
224.338	-10.75
224.573	-21.75
224.808	-26.75
225.042	-2.75
225.277	-5.75
225.511	0.25
225.746	-13.75
225.98	-4.75
226.215	4.25
226.449	18.25
226.683	31.25
226.918	28.25
227.152	28.25
227.387	36.25
227.621	28.25
227.856	43.25
228.09	36.25
228.324	52.25
228.559	60.25
228.793	65.25
229.027	64.25
229.262	80.25
229.496	51.25
229.73	76.25
229.964	70.25
230.199	69.25
230.433	70.25
230.667	74.25
230.901	81.25
231.136	76.25
231.37	89.25
231.604	92.25
231.838	90.25
232.072	121.25
232.306	130.25
232.541	91.25
232.775	88.25
233.009	76.25
233.243	95.25
233.477	92.25
233.711	101.25
233.945	107.25
234.179	94.25
234.413	85.25
234.647	87.25
234.881	96.25
235.115	95.25
235.349	88.25
235.583	112.25
235.817	123.25
236.051	124.25
236.285	105.25
236.519	88.25
236.753	68.25
236.987	68.25
237.221	74.25
237.455	73.25
237.689	77.25
237.922	68.25
238.156	79.25
238.39	79.25
238.624	75.25
238.858	78.25
239.091	82.25
239.325	89.25
239.559	96.25
239.793	90.25
240.027	75.25
240.26	80.25
240.494	81.25
240.728	76.25
240.961	78.25
241.195	87.25
241.429	86.25
241.662	68.25
241.896	97.25
242.13	105.25
242.363	108.25
242.597	154.25
242.83	144.25
243.064	124.25
243.298	168.25
243.531	148.25
243.765	103.25
243.998	83.25
244.232	83.25
244.465	70.25
244.699	87.25
244.932	81.25
245.166	81.25
245.399	84.25
245.633	80.25
245.866	85.25
246.099	86.25
246.333	68.25
246.566	95.25
246.8	89.25
247.033	95.25
247.266	84.25
247.5	87.25
247.733	86.25
247.966	93.25
248.2	83.25
248.433	90.25
248.666	124.25
248.899	120.25
249.133	97.25
249.366	83.25
249.599	104.25
249.832	122.25
250.066	134.25
250.299	98.25
250.532	83.25
250.765	67.25
250.998	85.25
251.231	74.25
251.465	85.25
251.698	92.25
251.931	96.25
252.164	82.25
252.397	84.25
252.63	82.25
252.863	100.25
253.096	98.25
253.329	99.25
253.562	93.25
253.795	91.25
254.028	89.25
254.261	94.25
254.494	94.25
254.727	128.25
254.96	139.25
255.193	134.25
255.426	107.25
255.659	78.25
255.892	89.25
256.124	72.25
256.357	92.25
256.59	90.25
256.823	92.25
257.056	99.25
257.289	136.25
257.521	161.25
257.754	114.25
257.987	93.25
258.22	77.25
258.452	89.25
258.685	88.25
258.918	83.25
259.151	92.25
259.383	110.25
259.616	135.25
259.849	154.25
260.081	106.25
260.314	96.25
260.547	86.25
260.779	87.25
261.012	83.25
261.244	79.25
261.477	100.25
261.71	92.25
261.942	93.25
262.175	96.25
262.407	87.25
262.64	80.25
262.872	77.25
263.105	100.25
263.337	87.25
263.57	85.25
263.802	85.25
264.035	94.25
264.267	87.25
264.499	93.25
264.732	105.25
264.964	94.25
265.197	96.25
265.429	88.25
265.661	92.25
265.894	104.25
266.126	130.25
266.358	154.25
266.591	136.25
266.823	102.25
267.055	97.25
267.287	79.25
267.52	96.25
267.752	86.25
267.984	90.25
268.216	99.25
268.448	99.25
268.681	92.25
268.913	92.25
269.145	95.25
269.377	73.25
269.609	92.25
269.841	99.25
270.073	97.25
270.306	133.25
270.538	178.25
270.77	302.25
271.002	342.25
271.234	202.25
271.466	99.25
271.698	95.25
271.93	91.25
272.162	75.25
272.394	83.25
272.626	83.25
272.858	83.25
273.09	73.25
273.322	84.25
273.553	88.25
273.785	87.25
274.017	84.25
274.249	97.25
274.481	87.25
274.713	93.25
274.945	83.25
275.176	78.25
275.408	85.25
275.64	87.25
275.872	97.25
276.104	95.25
276.335	104.25
276.567	100.25
276.799	100.25
277.031	88.25
277.262	87.25
277.494	98.25
277.726	132.25
277.957	188.25
278.189	244.25
278.421	218.25
278.652	178.25
278.884	177.25
279.115	127.25
279.347	114.25
279.579	89.25
279.81	102.25
280.042	76.25
280.273	95.25
280.505	95.25
280.736	115.25
280.968	115.25
281.199	153.25
281.431	226.25
281.662	252.25
281.894	139.25
282.125	113.25
282.356	112.25
282.588	108.25
282.819	116.25
283.051	124.25
283.282	127.25
283.513	176.25
283.745	302.25
283.976	501.25
284.207	772.25
284.439	567.25
284.67	252.25
284.901	253.25
285.132	318.25
285.364	371.25
285.595	213.25
285.826	160.25
286.057	237.25
286.288	400.25
286.52	582.25
286.751	446.25
286.982	182.25
287.213	110.25
287.444	104.25
287.675	82.25
287.906	106.25
288.138	105.25
288.369	79.25
288.6	105.25
288.831	95.25
289.062	93.25
289.293	106.25
289.524	103.25
289.755	85.25
289.986	98.25
290.217	99.25
290.448	82.25
290.679	97.25
290.91	106.25
291.141	171.25
291.371	216.25
291.602	253.25
291.833	174.25
292.064	109.25
292.295	99.25
292.526	92.25
292.757	86.25
292.987	97.25
293.218	92.25
293.449	85.25
293.68	94.25
293.91	85.25
294.141	90.25
294.372	95.25
294.603	89.25
294.833	87.25
295.064	92.25
295.295	93.25
295.525	97.25
295.756	95.25
295.987	92.25
296.217	94.25
296.448	98.25
296.679	94.25
296.909	88.25
297.14	107.25
297.37	84.25
297.601	91.25
297.831	90.25
298.062	89.25
298.292	99.25
298.523	106.25
298.753	90.25
298.984	101.25
299.214	118.25
299.445	90.25
299.675	128.25
299.905	111.25
300.136	130.25
300.366	140.25
300.597	259.25
300.827	434.25
301.057	646.25
301.288	603.25
301.518	241.25
301.748	146.25
301.979	125.25
302.209	125.25
302.439	132.25
302.669	167.25
302.9	278.25
303.13	464.25
303.36	818.25
303.59	1116.25
303.82	779.25
304.051	278.25
304.281	140.25
304.511	125.25
304.741	113.25
304.971	122.25
305.201	118.25
305.431	101.25
305.661	97.25
305.891	98.25
306.121	95.25
306.352	98.25
306.582	117.25
306.812	113.25
307.042	111.25
307.272	109.25
307.502	103.25
307.731	111.25
307.961	102.25
308.191	108.25
308.421	117.25
308.651	112.25
308.881	104.25
309.111	112.25
309.341	103.25
309.571	110.25
309.8	106.25
310.03	96.25
310.26	113.25
310.49	100.25
310.72	124.25
310.949	103.25
311.179	107.25
311.409	116.25
311.639	107.25
311.868	95.25
312.098	104.25
312.328	108.25
312.557	106.25
312.787	101.25
313.017	121.25
313.246	124.25
313.476	120.25
313.706	124.25
313.935	147.25
314.165	174.25
314.394	210.25
314.624	167.25
314.853	138.25
315.083	128.25
315.312	136.25
315.542	108.25
315.771	126.25
316.001	126.25
316.23	138.25
316.46	143.25
316.689	155.25
316.919	235.25
317.148	484.25
317.377	838.25
317.607	1382.25
317.836	1293.25
318.065	485.25
318.295	192.25
318.524	152.25
318.753	146.25
318.983	129.25
319.212	122.25
319.441	131.25
319.67	110.25
319.9	106.25
320.129	110.25
320.358	116.25
320.587	122.25
320.816	124.25
321.046	123.25
321.275	127.25
321.504	130.25
321.733	130.25
321.962	136.25
322.191	152.25
322.42	130.25
322.649	138.25
322.878	118.25
323.108	123.25
323.337	114.25
323.566	121.25
323.795	120.25
324.024	111.25
324.253	135.25
324.482	165.25
324.71	212.25
324.939	269.25
325.168	225.25
325.397	183.25
325.626	227.25
325.855	458.25
326.084	880.25
326.313	1479.25
326.542	1457.25
326.77	562.25
326.999	241.25
327.228	206.25
327.457	207.25
327.686	202.25
327.914	149.25
328.143	132.25
328.372	124.25
328.6	126.25
328.829	123.25
329.058	112.25
329.287	103.25
329.515	118.25
329.744	104.25
329.972	116.25
330.201	117.25
330.43	113.25
330.658	116.25
330.887	107.25
331.115	121.25
331.344	107.25
331.572	114.25
331.801	133.25
332.03	119.25
332.258	138.25
332.486	155.25
332.715	284.25
332.943	480.25
333.172	708.25
333.4	601.25
333.629	227.25
333.857	144.25
334.085	124.25
334.314	112.25
334.542	93.25
334.771	112.25
334.999	122.25
335.227	115.25
335.455	118.25
335.684	116.25
335.912	115.25
336.14	105.25
336.369	113.25
336.597	106.25
336.825	96.25
337.053	106.25
337.281	122.25
337.51	105.25
337.738	111.25
337.966	118.25
338.194	98.25
338.422	107.25
338.65	114.25
338.878	132.25
339.106	112.25
339.334	121.25
339.562	106.25
339.79	111.25
340.018	105.25
340.246	112.25
340.474	108.25
340.702	106.25
340.93	118.25
341.158	111.25
341.386	121.25
341.614	126.25
341.842	133.25
342.07	97.25
342.298	114.25
342.526	126.25
342.754	102.25
342.981	102.25
343.209	119.25
343.437	119.25
343.665	102.25
343.893	104.25
344.12	106.25
344.348	108.25
344.576	119.25
344.804	94.25
345.031	115.25
345.259	107.25
345.487	100.25
345.714	89.25
345.942	122.25
346.17	117.25
346.397	109.25
346.625	106.25
346.853	97.25
347.08	95.25
347.308	96.25
347.535	115.25
347.763	101.25
347.99	116.25
348.218	113.25
348.445	117.25
348.673	107.25
348.9	113.25
349.128	123.25
349.355	119.25
349.583	115.25
349.81	113.25
350.037	112.25
350.265	122.25
350.492	116.25
350.72	99.25
350.947	101.25
351.174	102.25
351.402	106.25
351.629	119.25
351.856	100.25
352.083	108.25
352.311	127.25
352.538	126.25
352.765	104.25
352.992	113.25
353.22	92.25
353.447	92.25
353.674	103.25
353.901	106.25
354.128	102.25
354.355	105.25
354.583	108.25
354.81	98.25
355.037	105.25
355.264	113.25
355.491	91.25
355.718	110.25
355.945	106.25
356.172	109.25
356.399	104.25
356.626	112.25
356.853	95.25
357.08	102.25
357.307	99.25
357.534	98.25
357.761	115.25
357.988	115.25
358.215	108.25
358.441	105.25
358.668	110.25
358.895	100.25
359.122	122.25
359.349	107.25
359.576	117.25
359.802	117.25
360.029	104.25
360.256	93.25
360.483	107.25
360.709	115.25
360.936	113.25
361.163	97.25
361.39	94.25
361.616	110.25
361.843	106.25
362.07	114.25
362.296	117.25
362.523	103.25
362.749	103.25
362.976	100.25
363.203	107.25
363.429	100.25
363.656	105.25
363.882	95.25
364.109	108.25
364.335	113.25
364.562	96.25
364.788	113.25
365.015	112.25
365.241	121.25
365.468	165.25
365.694	229.25
365.92	200.25
366.147	107.25
366.373	89.25
366.599	94.25
366.826	104.25
367.052	91.25
367.278	103.25
367.505	105.25
367.731	97.25
367.957	87.25
368.184	119.25
368.41	126.25
368.636	123.25
368.862	110.25
369.089	100.25
369.315	95.25
369.541	99.25
369.767	120.25
369.993	110.25
370.219	96.25
370.445	93.25
370.672	99.25
370.898	107.25
371.124	100.25
371.35	105.25
371.576	114.25
371.802	107.25
372.028	114.25
372.254	120.25
372.48	114.25
372.706	120.25
372.932	105.25
373.158	110.25
373.384	110.25
373.61	124.25
373.835	117.25
374.061	116.25
374.287	105.25
374.513	98.25
374.739	96.25
374.965	99.25
375.191	108.25
375.416	106.25
375.642	97.25
375.868	112.25
376.094	110.25
376.319	108.25
376.545	107.25
376.771	93.25
376.997	107.25
377.222	106.25
377.448	107.25
377.674	93.25
377.899	100.25
378.125	115.25
378.35	113.25
378.576	119.25
378.802	107.25
379.027	133.25
379.253	131.25
379.478	142.25
379.704	286.25
379.929	742.25
380.155	1458.25
380.38	1516.25
380.606	486.25
380.831	168.25
381.057	134.25
381.282	107.25
381.507	107.25
381.733	99.25
381.958	116.25
382.184	96.25
382.409	90.25
382.634	100.25
382.86	102.25
383.085	105.25
383.31	111.25
383.535	101.25
383.761	95.25
383.986	110.25
384.211	87.25
384.436	107.25
384.662	103.25
384.887	106.25
385.112	119.25
385.337	106.25
385.562	106.25
385.787	104.25
386.013	119.25
386.238	115.25
386.463	106.25
386.688	99.25
386.913	114.25
387.138	115.25
387.363	94.25
387.588	96.25
387.813	95.25
388.038	119.25
388.263	98.25
388.488	118.25
388.713	89.25
388.938	94.25
389.163	100.25
389.387	94.25
389.612	95.25
389.837	96.25
390.062	111.25
390.287	92.25
390.512	84.25
390.736	93.25
390.961	95.25
391.186	91.25
391.411	104.25
391.636	102.25
391.86	95.25
392.085	103.25
392.31	101.25
392.534	96.25
392.759	90.25
392.984	110.25
393.208	102.25
393.433	139.25
393.658	130.25
393.882	105.25
394.107	101.25
394.331	92.25
394.556	89.25
394.78	100.25
395.005	102.25
395.229	96.25
395.454	97.25
395.678	109.25
395.903	114.25
396.127	112.25
396.352	96.25
396.576	99.25
396.801	101.25
397.025	122.25
397.249	121.25
397.474	111.25
397.698	86.25
397.922	105.25
398.147	101.25
398.371	96.25
398.595	112.25
398.82	95.25
399.044	104.25
399.268	96.25
399.492	98.25
399.717	102.25
399.941	102.25
400.165	106.25
400.389	102.25
400.613	102.25
400.837	91.25
401.062	103.25
401.286	99.25
401.51	114.25
401.734	90.25
401.958	86.25
402.182	89.25
402.406	94.25
402.63	95.25
402.854	91.25
403.078	90.25
403.302	96.25
403.526	103.25
403.75	90.25
403.974	83.25
404.198	96.25
404.422	102.25
404.645	94.25
404.869	99.25
405.093	96.25
405.317	105.25
405.541	97.25
405.765	128.25
405.988	141.25
406.212	114.25
406.436	97.25
406.66	95.25
406.883	100.25
407.107	82.25
407.331	96.25
407.555	86.25
407.778	101.25
408.002	98.25
408.226	105.25
408.449	94.25
408.673	94.25
408.896	101.25
409.12	95.25
409.344	86.25
409.567	115.25
409.791	108.25
410.014	82.25
410.238	100.25
410.461	100.25
410.685	110.25
410.908	95.25
411.132	84.25
411.355	88.25
411.578	95.25
411.802	96.25
412.025	102.25
412.249	102.25
412.472	99.25
412.695	85.25
412.919	102.25
413.142	71.25
413.365	90.25
413.589	94.25
413.812	89.25
414.035	108.25
414.258	104.25
414.482	99.25
414.705	86.25
414.928	98.25
415.151	93.25
415.374	94.25
415.597	99.25
415.821	95.25
416.044	88.25
416.267	101.25
416.49	83.25
416.713	85.25
416.936	84.25
417.159	90.25
417.382	91.25
417.605	97.25
417.828	89.25
418.051	95.25
418.274	99.25
418.497	95.25
418.72	106.25
418.943	97.25
419.166	116.25
419.389	99.25
419.611	75.25
419.834	110.25
420.057	89.25
420.28	97.25
420.503	104.25
420.726	104.25
420.948	96.25
421.171	95.25
421.394	83.25
421.617	105.25
421.839	95.25
422.062	105.25
422.285	99.25
422.507	95.25
422.73	120.25
422.953	142.25
423.175	111.25
423.398	102.25
423.621	94.25
423.843	94.25
424.066	91.25
424.288	89.25
424.511	87.25
424.733	73.25
424.956	90.25
425.178	97.25
425.401	96.25
425.623	76.25
425.846	89.25
426.068	99.25
426.291	104.25
426.513	102.25
426.735	89.25
426.958	98.25
427.18	82.25
427.402	97.25
427.625	84.25
427.847	114.25
428.069	101.25
428.292	114.25
428.514	101.25
428.736	92.25
428.958	88.25
429.181	92.25
429.403	99.25
429.625	96.25
429.847	107.25
430.069	111.25
430.292	106.25
430.514	102.25
430.736	93.25
430.958	111.25
431.18	107.25
431.402	110.25
431.624	97.25
431.846	81.25
432.068	91.25
432.29	93.25
432.512	88.25
432.734	95.25
432.956	100.25
433.178	99.25
433.4	107.25
433.622	104.25
433.844	86.25
434.066	99.25
434.287	81.25
434.509	101.25
434.731	104.25
434.953	97.25
435.175	98.25
435.397	90.25
435.618	91.25
435.84	91.25
436.062	89.25
436.284	80.25
436.505	82.25
436.727	102.25
436.949	89.25
437.17	98.25
437.392	95.25
437.614	99.25
437.835	91.25
438.057	80.25
438.278	90.25
438.5	96.25
438.721	105.25
438.943	89.25
439.165	109.25
439.386	96.25
439.608	88.25
439.829	87.25
440.05	90.25
440.272	118.25
440.493	114.25
440.715	88.25
440.936	96.25
441.158	101.25
441.379	98.25
441.6	106.25
441.822	104.25
442.043	113.25
442.264	112.25
442.486	122.25
442.707	90.25
442.928	118.25
443.149	82.25
443.371	90.25
443.592	100.25
443.813	103.25
444.034	106.25
444.255	90.25
444.476	89.25
444.698	93.25
444.919	97.25
445.14	195.25
445.361	134.25
445.582	87.25
445.803	87.25
446.024	99.25
446.245	91.25
446.466	93.25
446.687	106.25
446.908	105.25
447.129	110.25
447.35	98.25
447.571	97.25
447.792	94.25
448.013	92.25
448.234	94.25
448.455	83.25
448.675	96.25
448.896	116.25
449.117	97.25
449.338	124.25
449.559	155.25
449.779	130.25
450	102.25
450.221	98.25
450.442	112.25
450.662	111.25
450.883	118.25
451.104	110.25
451.324	121.25
451.545	112.25
451.766	114.25
451.986	128.25
452.207	217.25
452.428	503.25
452.648	1173.25
452.869	701.25
453.089	200.25
453.31	113.25
453.53	116.25
453.751	125.25
453.971	157.25
454.192	170.25
454.412	116.25
454.633	97.25
454.853	95.25
455.073	100.25
455.294	90.25
455.514	91.25
455.734	97.25
455.955	81.25
456.175	91.25
456.395	99.25
456.616	101.25
456.836	119.25
457.056	90.25
457.276	87.25
457.497	95.25
457.717	120.25
457.937	102.25
458.157	81.25
458.377	85.25
458.598	89.25
458.818	78.25
459.038	83.25
459.258	91.25
459.478	86.25
459.698	71.25
459.918	80.25
460.138	98.25
460.358	90.25
460.578	89.25
460.798	83.25
461.018	89.25
461.238	98.25
461.458	89.25
461.678	93.25
461.898	99.25
462.118	87.25
462.338	97.25
462.558	88.25
462.777	89.25
462.997	101.25
463.217	101.25
463.437	131.25
463.657	175.25
463.876	194.25
464.096	113.25
464.316	111.25
464.536	95.25
464.755	98.25
464.975	96.25
465.195	87.25
465.414	79.25
465.634	85.25
465.854	101.25
466.073	88.25
466.293	84.25
466.512	94.25
466.732	111.25
466.951	103.25
467.171	142.25
467.391	142.25
467.61	83.25
467.829	91.25
468.049	91.25
468.268	100.25
468.488	91.25
468.707	95.25
468.927	91.25
469.146	99.25
469.365	102.25
469.585	85.25
469.804	102.25
470.023	102.25
470.243	98.25
470.462	81.25
470.681	119.25
470.901	126.25
471.12	186.25
471.339	204.25
471.558	131.25
471.777	116.25
471.997	93.25
472.216	88.25
472.435	84.25
472.654	96.25
472.873	100.25
473.092	108.25
473.311	90.25
473.53	81.25
473.749	106.25
473.968	111.25
474.187	90.25
474.406	87.25
474.625	91.25
474.844	92.25
475.063	97.25
475.282	91.25
475.501	88.25
475.72	92.25
475.939	100.25
476.158	111.25
476.377	102.25
476.596	115.25
476.814	100.25
477.033	118.25
477.252	91.25
477.471	99.25
477.69	91.25
477.908	102.25
478.127	89.25
478.346	95.25
478.564	99.25
478.783	82.25
479.002	103.25
479.22	93.25
479.439	84.25
479.658	92.25
479.876	104.25
480.095	99.25
480.313	91.25
480.532	90.25
480.751	83.25
480.969	85.25
481.188	85.25
481.406	110.25
481.624	115.25
481.843	108.25
482.061	102.25
482.28	99.25
482.498	107.25
482.717	86.25
482.935	90.25
483.153	85.25
483.372	90.25
483.59	95.25
483.808	86.25
484.027	102.25
484.245	136.25
484.463	170.25
484.681	233.25
484.9	135.25
485.118	111.25
485.336	100.25
485.554	99.25
485.772	117.25
485.99	181.25
486.209	240.25
486.427	170.25
486.645	118.25
486.863	89.25
487.081	106.25
487.299	105.25
487.517	89.25
487.735	103.25
487.953	111.25
488.171	96.25
488.389	103.25
488.607	100.25
488.825	99.25
489.043	98.25
489.261	103.25
489.479	96.25
489.696	98.25
489.914	102.25
490.132	95.25
490.35	93.25
490.568	96.25
490.786	96.25
491.003	96.25
491.221	117.25
491.439	106.25
491.657	104.25
491.874	110.25
492.092	110.25
492.31	108.25
492.527	110.25
492.745	96.25
492.963	105.25
493.18	90.25
493.398	100.25
493.615	110.25
493.833	107.25
494.05	84.25
494.268	110.25
494.485	116.25
494.703	113.25
494.92	107.25
495.138	94.25
495.355	90.25
495.573	95.25
495.79	105.25
496.008	105.25
496.225	99.25
496.442	104.25
496.66	105.25
496.877	144.25
497.094	145.25
497.312	97.25
497.529	96.25
497.746	92.25
497.963	102.25
498.181	107.25
498.398	107.25
498.615	90.25
498.832	107.25
499.049	107.25
499.267	125.25
499.484	158.25
499.701	120.25
499.918	104.25
500.135	94.25
500.352	98.25
500.569	94.25
500.786	103.25
501.003	108.25
501.22	104.25
501.437	111.25
501.654	88.25
501.871	95.25
502.088	99.25
502.305	90.25
502.522	108.25
502.739	107.25
502.956	97.25
503.172	100.25
503.389	110.25
503.606	92.25
503.823	108.25
504.04	114.25
504.256	88.25
504.473	107.25
504.69	103.25
504.907	116.25
505.123	109.25
505.34	106.25
505.557	114.25
505.773	94.25
505.99	96.25
506.207	106.25
506.423	89.25
506.64	104.25
506.856	84.25
507.073	88.25
507.289	90.25
507.506	93.25
507.722	87.25
507.939	104.25
508.155	93.25
508.372	99.25
508.588	101.25
508.805	103.25
509.021	99.25
509.238	107.25
509.454	135.25
