Data from SnStandardFlinnAPT0064_QswitchEnergy10_LIBS07252019.E.O._I.C._HRD10591_15-27-52-974.txt Node
Date: Thu Jul 25 15:27:52 EDT 2019
User: cochatt
Spectrometer: HR+D1059
Trigger mode: 1
Integration Time (sec): 1.000000E-1
Scans to average: 1
Electric dark correction enabled: true
Nonlinearity correction enabled: false
Boxcar width: 0
XAxis mode: Wavelengths
Number of Pixels in Spectrum: 2048
>>>>>Begin Spectral Data<<<<<
223.165	-16.19
223.4	-16.19
223.635	-16.19
223.869	-21.19
224.104	-12.19
224.338	-20.19
224.573	-18.19
224.808	-15.19
225.042	-20.19
225.277	-7.19
225.511	4.81
225.746	3.81
225.98	-1.19
226.215	21.81
226.449	12.81
226.683	20.81
226.918	36.81
227.152	30.81
227.387	23.81
227.621	39.81
227.856	47.81
228.09	58.81
228.324	56.81
228.559	54.81
228.793	71.81
229.027	66.81
229.262	66.81
229.496	56.81
229.73	59.81
229.964	65.81
230.199	83.81
230.433	79.81
230.667	87.81
230.901	78.81
231.136	76.81
231.37	76.81
231.604	96.81
231.838	89.81
232.072	120.81
232.306	122.81
232.541	98.81
232.775	82.81
233.009	80.81
233.243	98.81
233.477	89.81
233.711	89.81
233.945	85.81
234.179	90.81
234.413	104.81
234.647	72.81
234.881	92.81
235.115	91.81
235.349	76.81
235.583	78.81
235.817	123.81
236.051	121.81
236.285	90.81
236.519	89.81
236.753	88.81
236.987	69.81
237.221	75.81
237.455	69.81
237.689	82.81
237.922	88.81
238.156	83.81
238.39	99.81
238.624	85.81
238.858	81.81
239.091	86.81
239.325	76.81
239.559	72.81
239.793	69.81
240.027	71.81
240.26	78.81
240.494	82.81
240.728	85.81
240.961	91.81
241.195	104.81
241.429	93.81
241.662	78.81
241.896	87.81
242.13	94.81
242.363	128.81
242.597	163.81
242.83	120.81
243.064	133.81
243.298	172.81
243.531	125.81
243.765	104.81
243.998	82.81
244.232	84.81
244.465	73.81
244.699	70.81
244.932	82.81
245.166	75.81
245.399	75.81
245.633	88.81
245.866	80.81
246.099	76.81
246.333	71.81
246.566	72.81
246.8	74.81
247.033	72.81
247.266	76.81
247.5	67.81
247.733	79.81
247.966	78.81
248.2	95.81
248.433	90.81
248.666	122.81
248.899	115.81
249.133	89.81
249.366	98.81
249.599	97.81
249.832	116.81
250.066	117.81
250.299	81.81
250.532	92.81
250.765	86.81
250.998	85.81
251.231	80.81
251.465	79.81
251.698	75.81
251.931	76.81
252.164	89.81
252.397	95.81
252.63	94.81
252.863	83.81
253.096	88.81
253.329	77.81
253.562	86.81
253.795	80.81
254.028	90.81
254.261	89.81
254.494	96.81
254.727	103.81
254.96	119.81
255.193	118.81
255.426	74.81
255.659	83.81
255.892	77.81
256.124	76.81
256.357	97.81
256.59	94.81
256.823	90.81
257.056	120.81
257.289	128.81
257.521	175.81
257.754	134.81
257.987	78.81
258.22	88.81
258.452	70.81
258.685	98.81
258.918	84.81
259.151	100.81
259.383	90.81
259.616	127.81
259.849	147.81
260.081	106.81
260.314	83.81
260.547	84.81
260.779	94.81
261.012	73.81
261.244	91.81
261.477	78.81
261.71	82.81
261.942	80.81
262.175	80.81
262.407	83.81
262.64	92.81
262.872	80.81
263.105	63.81
263.337	94.81
263.57	80.81
263.802	88.81
264.035	82.81
264.267	90.81
264.499	90.81
264.732	87.81
264.964	93.81
265.197	79.81
265.429	79.81
265.661	102.81
265.894	99.81
266.126	119.81
266.358	167.81
266.591	133.81
266.823	101.81
267.055	86.81
267.287	88.81
267.52	83.81
267.752	85.81
267.984	83.81
268.216	83.81
268.448	87.81
268.681	85.81
268.913	80.81
269.145	88.81
269.377	100.81
269.609	99.81
269.841	88.81
270.073	106.81
270.306	120.81
270.538	178.81
270.77	274.81
271.002	327.81
271.234	188.81
271.466	107.81
271.698	105.81
271.93	90.81
272.162	80.81
272.394	91.81
272.626	86.81
272.858	83.81
273.09	86.81
273.322	85.81
273.553	89.81
273.785	83.81
274.017	97.81
274.249	88.81
274.481	82.81
274.713	76.81
274.945	90.81
275.176	85.81
275.408	95.81
275.64	109.81
275.872	100.81
276.104	98.81
276.335	102.81
276.567	94.81
276.799	83.81
277.031	92.81
277.262	94.81
277.494	111.81
277.726	100.81
277.957	164.81
278.189	225.81
278.421	195.81
278.652	156.81
278.884	181.81
279.115	130.81
279.347	106.81
279.579	96.81
279.81	88.81
280.042	96.81
280.273	100.81
280.505	95.81
280.736	110.81
280.968	109.81
281.199	158.81
281.431	220.81
281.662	241.81
281.894	142.81
282.125	120.81
282.356	108.81
282.588	110.81
282.819	107.81
283.051	114.81
283.282	138.81
283.513	181.81
283.745	288.81
283.976	494.81
284.207	715.81
284.439	553.81
284.67	245.81
284.901	234.81
285.132	310.81
285.364	335.81
285.595	204.81
285.826	178.81
286.057	249.81
286.288	384.81
286.52	578.81
286.751	454.81
286.982	167.81
287.213	114.81
287.444	90.81
287.675	82.81
287.906	82.81
288.138	98.81
288.369	89.81
288.6	90.81
288.831	89.81
289.062	83.81
289.293	91.81
289.524	95.81
289.755	83.81
289.986	92.81
290.217	86.81
290.448	100.81
290.679	95.81
290.91	106.81
291.141	151.81
291.371	208.81
291.602	239.81
291.833	168.81
292.064	111.81
292.295	110.81
292.526	98.81
292.757	91.81
292.987	84.81
293.218	83.81
293.449	97.81
293.68	88.81
293.91	88.81
294.141	99.81
294.372	80.81
294.603	79.81
294.833	96.81
295.064	100.81
295.295	89.81
295.525	94.81
295.756	110.81
295.987	101.81
296.217	86.81
296.448	81.81
296.679	101.81
296.909	92.81
297.14	116.81
297.37	104.81
297.601	96.81
297.831	107.81
298.062	104.81
298.292	93.81
298.523	91.81
298.753	107.81
298.984	99.81
299.214	108.81
299.445	104.81
299.675	110.81
299.905	105.81
300.136	100.81
300.366	151.81
300.597	253.81
300.827	424.81
301.057	644.81
301.288	590.81
301.518	256.81
301.748	139.81
301.979	122.81
302.209	134.81
302.439	134.81
302.669	158.81
302.9	252.81
303.13	448.81
303.36	808.81
303.59	1099.81
303.82	782.81
304.051	262.81
304.281	136.81
304.511	135.81
304.741	121.81
304.971	105.81
305.201	106.81
305.431	91.81
305.661	103.81
305.891	107.81
306.121	103.81
306.352	114.81
306.582	110.81
306.812	98.81
307.042	92.81
307.272	99.81
307.502	102.81
307.731	100.81
307.961	103.81
308.191	113.81
308.421	102.81
308.651	103.81
308.881	89.81
309.111	96.81
309.341	103.81
309.571	94.81
309.8	86.81
310.03	108.81
310.26	111.81
310.49	104.81
310.72	98.81
310.949	92.81
311.179	96.81
311.409	105.81
311.639	104.81
311.868	103.81
312.098	104.81
312.328	106.81
312.557	115.81
312.787	112.81
313.017	116.81
313.246	110.81
313.476	114.81
313.706	129.81
313.935	146.81
314.165	171.81
314.394	212.81
314.624	162.81
314.853	123.81
315.083	120.81
315.312	126.81
315.542	128.81
315.771	124.81
316.001	126.81
316.23	134.81
316.46	138.81
316.689	151.81
316.919	229.81
317.148	436.81
317.377	826.81
317.607	1367.81
317.836	1259.81
318.065	460.81
318.295	223.81
318.524	160.81
318.753	134.81
318.983	122.81
319.212	130.81
319.441	122.81
319.67	110.81
319.9	117.81
320.129	110.81
320.358	108.81
320.587	111.81
320.816	126.81
321.046	124.81
321.275	129.81
321.504	115.81
321.733	133.81
321.962	157.81
322.191	145.81
322.42	119.81
322.649	120.81
322.878	121.81
323.108	124.81
323.337	117.81
323.566	123.81
323.795	129.81
324.024	134.81
324.253	135.81
324.482	150.81
324.71	212.81
324.939	248.81
325.168	231.81
325.397	174.81
325.626	233.81
325.855	466.81
326.084	865.81
326.313	1447.81
326.542	1448.81
326.77	572.81
326.999	244.81
327.228	195.81
327.457	215.81
327.686	216.81
327.914	139.81
328.143	135.81
328.372	118.81
328.6	122.81
328.829	121.81
329.058	115.81
329.287	120.81
329.515	121.81
329.744	114.81
329.972	121.81
330.201	112.81
330.43	118.81
330.658	111.81
330.887	107.81
331.115	117.81
331.344	114.81
331.572	124.81
331.801	108.81
332.03	121.81
332.258	130.81
332.486	154.81
332.715	273.81
332.943	470.81
333.172	694.81
333.4	594.81
333.629	240.81
333.857	146.81
334.085	116.81
334.314	126.81
334.542	117.81
334.771	124.81
334.999	116.81
335.227	132.81
335.455	120.81
335.684	116.81
335.912	123.81
336.14	95.81
336.369	110.81
336.597	116.81
336.825	119.81
337.053	112.81
337.281	113.81
337.51	102.81
337.738	114.81
337.966	99.81
338.194	94.81
338.422	111.81
338.65	122.81
338.878	122.81
339.106	123.81
339.334	121.81
339.562	108.81
339.79	103.81
340.018	118.81
340.246	98.81
340.474	102.81
340.702	108.81
340.93	113.81
341.158	116.81
341.386	103.81
341.614	112.81
341.842	105.81
342.07	105.81
342.298	101.81
342.526	113.81
342.754	120.81
342.981	104.81
343.209	120.81
343.437	112.81
343.665	100.81
343.893	103.81
344.12	124.81
344.348	107.81
344.576	120.81
344.804	111.81
345.031	108.81
345.259	106.81
345.487	112.81
345.714	104.81
345.942	106.81
346.17	98.81
346.397	91.81
346.625	98.81
346.853	102.81
347.08	86.81
347.308	95.81
347.535	97.81
347.763	87.81
347.99	103.81
348.218	107.81
348.445	102.81
348.673	107.81
348.9	110.81
349.128	119.81
349.355	102.81
349.583	113.81
349.81	103.81
350.037	134.81
350.265	122.81
350.492	118.81
350.72	116.81
350.947	106.81
351.174	118.81
351.402	107.81
351.629	97.81
351.856	104.81
352.083	99.81
352.311	114.81
352.538	125.81
352.765	129.81
352.992	113.81
353.22	112.81
353.447	98.81
353.674	100.81
353.901	89.81
354.128	92.81
354.355	98.81
354.583	103.81
354.81	96.81
355.037	88.81
355.264	87.81
355.491	97.81
355.718	101.81
355.945	93.81
356.172	108.81
356.399	105.81
356.626	90.81
356.853	94.81
357.08	106.81
357.307	103.81
357.534	105.81
357.761	102.81
357.988	102.81
358.215	100.81
358.441	98.81
358.668	114.81
358.895	105.81
359.122	120.81
359.349	111.81
359.576	116.81
359.802	104.81
360.029	120.81
360.256	99.81
360.483	120.81
360.709	107.81
360.936	114.81
361.163	115.81
361.39	130.81
361.616	115.81
361.843	118.81
362.07	107.81
362.296	99.81
362.523	92.81
362.749	99.81
362.976	112.81
363.203	115.81
363.429	96.81
363.656	99.81
363.882	101.81
364.109	112.81
364.335	108.81
364.562	107.81
364.788	92.81
365.015	124.81
365.241	120.81
365.468	174.81
365.694	227.81
365.92	190.81
366.147	107.81
366.373	95.81
366.599	94.81
366.826	92.81
367.052	102.81
367.278	103.81
367.505	112.81
367.731	104.81
367.957	96.81
368.184	107.81
368.41	113.81
368.636	119.81
368.862	94.81
369.089	98.81
369.315	108.81
369.541	110.81
369.767	103.81
369.993	96.81
370.219	118.81
370.445	98.81
370.672	107.81
370.898	119.81
371.124	119.81
371.35	110.81
371.576	92.81
371.802	98.81
372.028	107.81
372.254	121.81
372.48	124.81
372.706	112.81
372.932	105.81
373.158	110.81
373.384	114.81
373.61	133.81
373.835	118.81
374.061	120.81
374.287	127.81
374.513	107.81
374.739	115.81
374.965	108.81
375.191	108.81
375.416	109.81
375.642	106.81
375.868	107.81
376.094	103.81
376.319	106.81
376.545	97.81
376.771	107.81
376.997	100.81
377.222	103.81
377.448	98.81
377.674	106.81
377.899	110.81
378.125	110.81
378.35	113.81
378.576	106.81
378.802	104.81
379.027	129.81
379.253	138.81
379.478	177.81
379.704	303.81
379.929	707.81
380.155	1454.81
380.38	1472.81
380.606	479.81
380.831	176.81
381.057	121.81
381.282	109.81
381.507	97.81
381.733	110.81
381.958	120.81
382.184	122.81
382.409	97.81
382.634	102.81
382.86	98.81
383.085	103.81
383.31	104.81
383.535	103.81
383.761	99.81
383.986	95.81
384.211	101.81
384.436	96.81
384.662	100.81
384.887	106.81
385.112	96.81
385.337	94.81
385.562	123.81
385.787	102.81
386.013	112.81
386.238	90.81
386.463	116.81
386.688	112.81
386.913	104.81
387.138	102.81
387.363	115.81
387.588	104.81
387.813	105.81
388.038	98.81
388.263	102.81
388.488	118.81
388.713	100.81
388.938	105.81
389.163	102.81
389.387	109.81
389.612	105.81
389.837	95.81
390.062	104.81
390.287	110.81
390.512	87.81
390.736	83.81
390.961	79.81
391.186	111.81
391.411	103.81
391.636	96.81
391.86	108.81
392.085	88.81
392.31	81.81
392.534	95.81
392.759	96.81
392.984	100.81
393.208	122.81
393.433	129.81
393.658	130.81
393.882	99.81
394.107	102.81
394.331	93.81
394.556	85.81
394.78	116.81
395.005	104.81
395.229	104.81
395.454	98.81
395.678	110.81
395.903	95.81
396.127	88.81
396.352	101.81
396.576	98.81
396.801	120.81
397.025	124.81
397.249	106.81
397.474	100.81
397.698	93.81
397.922	111.81
398.147	94.81
398.371	116.81
398.595	97.81
398.82	100.81
399.044	95.81
399.268	91.81
399.492	101.81
399.717	112.81
399.941	90.81
400.165	98.81
400.389	92.81
400.613	100.81
400.837	94.81
401.062	104.81
401.286	101.81
401.51	107.81
401.734	96.81
401.958	96.81
402.182	90.81
402.406	98.81
402.63	97.81
402.854	91.81
403.078	98.81
403.302	99.81
403.526	96.81
403.75	107.81
403.974	86.81
404.198	91.81
404.422	99.81
404.645	90.81
404.869	93.81
405.093	102.81
405.317	104.81
405.541	114.81
405.765	113.81
405.988	134.81
406.212	116.81
406.436	90.81
406.66	105.81
406.883	102.81
407.107	96.81
407.331	88.81
407.555	111.81
407.778	92.81
408.002	101.81
408.226	97.81
408.449	97.81
408.673	91.81
408.896	97.81
409.12	100.81
409.344	93.81
409.567	90.81
409.791	103.81
410.014	93.81
410.238	97.81
410.461	89.81
410.685	88.81
410.908	103.81
411.132	108.81
411.355	108.81
411.578	115.81
411.802	100.81
412.025	92.81
412.249	95.81
412.472	92.81
412.695	97.81
412.919	93.81
413.142	103.81
413.365	77.81
413.589	92.81
413.812	95.81
414.035	103.81
414.258	93.81
414.482	100.81
414.705	102.81
414.928	110.81
415.151	106.81
415.374	106.81
415.597	95.81
415.821	97.81
416.044	102.81
416.267	105.81
416.49	89.81
416.713	89.81
416.936	86.81
417.159	102.81
417.382	82.81
417.605	107.81
417.828	91.81
418.051	99.81
418.274	97.81
418.497	89.81
418.72	101.81
418.943	91.81
419.166	92.81
419.389	106.81
419.611	115.81
419.834	119.81
420.057	98.81
420.28	97.81
420.503	110.81
420.726	90.81
420.948	107.81
421.171	101.81
421.394	95.81
421.617	94.81
421.839	89.81
422.062	84.81
422.285	103.81
422.507	101.81
422.73	118.81
422.953	126.81
423.175	100.81
423.398	96.81
423.621	95.81
423.843	86.81
424.066	94.81
424.288	100.81
424.511	86.81
424.733	103.81
424.956	89.81
425.178	100.81
425.401	97.81
425.623	108.81
425.846	77.81
426.068	74.81
426.291	97.81
426.513	83.81
426.735	94.81
426.958	100.81
427.18	84.81
427.402	100.81
427.625	89.81
427.847	82.81
428.069	84.81
428.292	94.81
428.514	85.81
428.736	92.81
428.958	94.81
429.181	78.81
429.403	98.81
429.625	91.81
429.847	99.81
430.069	106.81
430.292	92.81
430.514	111.81
430.736	90.81
430.958	90.81
431.18	88.81
431.402	101.81
431.624	87.81
431.846	95.81
432.068	78.81
432.29	90.81
432.512	91.81
432.734	96.81
432.956	105.81
433.178	97.81
433.4	95.81
433.622	103.81
433.844	97.81
434.066	89.81
434.287	92.81
434.509	89.81
434.731	89.81
434.953	86.81
435.175	108.81
435.397	95.81
435.618	88.81
435.84	95.81
436.062	95.81
436.284	96.81
436.505	89.81
436.727	89.81
436.949	88.81
437.17	101.81
437.392	88.81
437.614	91.81
437.835	83.81
438.057	97.81
438.278	95.81
438.5	100.81
438.721	105.81
438.943	121.81
439.165	105.81
439.386	112.81
439.608	112.81
439.829	110.81
440.05	116.81
440.272	133.81
440.493	93.81
440.715	87.81
440.936	98.81
441.158	104.81
441.379	95.81
441.6	87.81
441.822	107.81
442.043	110.81
442.264	118.81
442.486	111.81
442.707	106.81
442.928	101.81
443.149	89.81
443.371	91.81
443.592	100.81
443.813	95.81
444.034	95.81
444.255	112.81
444.476	98.81
444.698	103.81
444.919	94.81
445.14	190.81
445.361	136.81
445.582	100.81
445.803	116.81
446.024	110.81
446.245	92.81
446.466	102.81
446.687	89.81
446.908	106.81
447.129	104.81
447.35	104.81
447.571	98.81
447.792	90.81
448.013	80.81
448.234	98.81
448.455	97.81
448.675	103.81
448.896	92.81
449.117	114.81
449.338	118.81
449.559	141.81
449.779	123.81
450	122.81
450.221	97.81
450.442	120.81
450.662	114.81
450.883	104.81
451.104	105.81
451.324	114.81
451.545	112.81
451.766	115.81
451.986	124.81
452.207	180.81
452.428	491.81
452.648	1202.81
452.869	665.81
453.089	188.81
453.31	110.81
453.53	122.81
453.751	144.81
453.971	138.81
454.192	148.81
454.412	116.81
454.633	102.81
454.853	108.81
455.073	94.81
455.294	107.81
455.514	70.81
455.734	89.81
455.955	96.81
456.175	94.81
456.395	97.81
456.616	96.81
456.836	109.81
457.056	100.81
457.276	105.81
457.497	120.81
457.717	119.81
457.937	115.81
458.157	94.81
458.377	81.81
458.598	87.81
458.818	100.81
459.038	82.81
459.258	89.81
459.478	100.81
459.698	103.81
459.918	99.81
460.138	89.81
460.358	88.81
460.578	90.81
460.798	81.81
461.018	95.81
461.238	104.81
461.458	114.81
461.678	86.81
461.898	79.81
462.118	100.81
462.338	91.81
462.558	100.81
462.777	108.81
462.997	88.81
463.217	106.81
463.437	117.81
463.657	167.81
463.876	168.81
464.096	100.81
464.316	114.81
464.536	113.81
464.755	97.81
464.975	94.81
465.195	86.81
465.414	86.81
465.634	95.81
465.854	91.81
466.073	99.81
466.293	91.81
466.512	80.81
466.732	110.81
466.951	107.81
467.171	134.81
467.391	122.81
467.61	95.81
467.829	112.81
468.049	106.81
468.268	93.81
468.488	91.81
468.707	97.81
468.927	86.81
469.146	90.81
469.365	97.81
469.585	87.81
469.804	108.81
470.023	104.81
470.243	97.81
470.462	97.81
470.681	104.81
470.901	122.81
471.12	195.81
471.339	199.81
471.558	132.81
471.777	111.81
471.997	123.81
472.216	105.81
472.435	102.81
472.654	86.81
472.873	85.81
473.092	88.81
473.311	84.81
473.53	91.81
473.749	93.81
473.968	94.81
474.187	90.81
474.406	81.81
474.625	94.81
474.844	92.81
475.063	87.81
475.282	95.81
475.501	95.81
475.72	90.81
475.939	98.81
476.158	101.81
476.377	101.81
476.596	113.81
476.814	100.81
477.033	108.81
477.252	98.81
477.471	98.81
477.69	100.81
477.908	85.81
478.127	93.81
478.346	88.81
478.564	80.81
478.783	101.81
479.002	97.81
479.22	93.81
479.439	95.81
479.658	104.81
479.876	87.81
480.095	92.81
480.313	89.81
480.532	94.81
480.751	84.81
480.969	94.81
481.188	122.81
481.406	99.81
481.624	97.81
481.843	121.81
482.061	106.81
482.28	101.81
482.498	108.81
482.717	88.81
482.935	111.81
483.153	111.81
483.372	106.81
483.59	112.81
483.808	112.81
484.027	112.81
484.245	128.81
484.463	152.81
484.681	211.81
484.9	134.81
485.118	111.81
485.336	115.81
485.554	116.81
485.772	123.81
485.99	149.81
486.209	230.81
486.427	155.81
486.645	108.81
486.863	106.81
487.081	94.81
487.299	96.81
487.517	90.81
487.735	91.81
487.953	92.81
488.171	94.81
488.389	97.81
488.607	83.81
488.825	88.81
489.043	113.81
489.261	97.81
489.479	100.81
489.696	107.81
489.914	97.81
490.132	86.81
490.35	98.81
490.568	89.81
490.786	99.81
491.003	108.81
491.221	110.81
491.439	107.81
491.657	107.81
491.874	103.81
492.092	101.81
492.31	111.81
492.527	106.81
492.745	103.81
492.963	102.81
493.18	112.81
493.398	96.81
493.615	114.81
493.833	114.81
494.05	92.81
494.268	96.81
494.485	115.81
494.703	106.81
494.92	102.81
495.138	112.81
495.355	107.81
495.573	96.81
495.79	111.81
496.008	94.81
496.225	103.81
496.442	94.81
496.66	105.81
496.877	150.81
497.094	136.81
497.312	107.81
497.529	104.81
497.746	97.81
497.963	94.81
498.181	101.81
498.398	90.81
498.615	107.81
498.832	95.81
499.049	94.81
499.267	134.81
499.484	156.81
499.701	110.81
499.918	103.81
500.135	106.81
500.352	90.81
500.569	95.81
500.786	107.81
501.003	89.81
501.22	103.81
501.437	96.81
501.654	100.81
501.871	89.81
502.088	90.81
502.305	92.81
502.522	108.81
502.739	88.81
502.956	88.81
503.172	98.81
503.389	88.81
503.606	94.81
503.823	87.81
504.04	100.81
504.256	90.81
504.473	117.81
504.69	105.81
504.907	113.81
505.123	105.81
505.34	108.81
505.557	85.81
505.773	91.81
505.99	90.81
506.207	99.81
506.423	106.81
506.64	108.81
506.856	123.81
507.073	98.81
507.289	84.81
507.506	103.81
507.722	92.81
507.939	90.81
508.155	108.81
508.372	90.81
508.588	102.81
508.805	101.81
509.021	93.81
509.238	108.81
