Data from SnStandardFlinnAPT0064_QswitchEnergy10_LIBS07252019.E.O._I.C._HRD10591_15-25-47-973.txt Node
Date: Thu Jul 25 15:25:47 EDT 2019
User: cochatt
Spectrometer: HR+D1059
Trigger mode: 1
Integration Time (sec): 1.000000E-1
Scans to average: 1
Electric dark correction enabled: true
Nonlinearity correction enabled: false
Boxcar width: 0
XAxis mode: Wavelengths
Number of Pixels in Spectrum: 2048
>>>>>Begin Spectral Data<<<<<
223.165	-23.62
223.4	-23.62
223.635	-23.62
223.869	-13.62
224.104	-17.62
224.338	-1.62
224.573	-16.62
224.808	-24.62
225.042	-8.62
225.277	-1.62
225.511	6.38
225.746	15.38
225.98	-8.62
226.215	-5.62
226.449	15.38
226.683	29.38
226.918	22.38
227.152	33.38
227.387	51.38
227.621	34.38
227.856	38.38
228.09	36.38
228.324	55.38
228.559	50.38
228.793	69.38
229.027	61.38
229.262	67.38
229.496	73.38
229.73	59.38
229.964	65.38
230.199	75.38
230.433	67.38
230.667	80.38
230.901	79.38
231.136	55.38
231.37	85.38
231.604	87.38
231.838	101.38
232.072	117.38
232.306	97.38
232.541	107.38
232.775	92.38
233.009	80.38
233.243	78.38
233.477	84.38
233.711	89.38
233.945	107.38
234.179	101.38
234.413	76.38
234.647	94.38
234.881	71.38
235.115	86.38
235.349	87.38
235.583	99.38
235.817	106.38
236.051	114.38
236.285	75.38
236.519	67.38
236.753	87.38
236.987	95.38
237.221	70.38
237.455	80.38
237.689	78.38
237.922	79.38
238.156	74.38
238.39	78.38
238.624	66.38
238.858	75.38
239.091	77.38
239.325	74.38
239.559	87.38
239.793	92.38
240.027	87.38
240.26	81.38
240.494	74.38
240.728	72.38
240.961	87.38
241.195	89.38
241.429	84.38
241.662	82.38
241.896	78.38
242.13	83.38
242.363	104.38
242.597	125.38
242.83	112.38
243.064	118.38
243.298	145.38
243.531	133.38
243.765	91.38
243.998	74.38
244.232	74.38
244.465	86.38
244.699	82.38
244.932	80.38
245.166	75.38
245.399	68.38
245.633	78.38
245.866	87.38
246.099	85.38
246.333	89.38
246.566	76.38
246.8	75.38
247.033	82.38
247.266	82.38
247.5	64.38
247.733	76.38
247.966	81.38
248.2	91.38
248.433	87.38
248.666	108.38
248.899	111.38
249.133	90.38
249.366	95.38
249.599	103.38
249.832	116.38
250.066	119.38
250.299	85.38
250.532	95.38
250.765	89.38
250.998	81.38
251.231	86.38
251.465	71.38
251.698	87.38
251.931	83.38
252.164	91.38
252.397	88.38
252.63	90.38
252.863	88.38
253.096	98.38
253.329	83.38
253.562	83.38
253.795	93.38
254.028	83.38
254.261	81.38
254.494	101.38
254.727	102.38
254.96	120.38
255.193	112.38
255.426	93.38
255.659	81.38
255.892	106.38
256.124	83.38
256.357	87.38
256.59	83.38
256.823	80.38
257.056	107.38
257.289	132.38
257.521	138.38
257.754	109.38
257.987	81.38
258.22	81.38
258.452	82.38
258.685	94.38
258.918	85.38
259.151	84.38
259.383	98.38
259.616	125.38
259.849	131.38
260.081	104.38
260.314	69.38
260.547	73.38
260.779	90.38
261.012	80.38
261.244	72.38
261.477	96.38
261.71	82.38
261.942	80.38
262.175	82.38
262.407	92.38
262.64	83.38
262.872	74.38
263.105	83.38
263.337	85.38
263.57	84.38
263.802	84.38
264.035	90.38
264.267	73.38
264.499	92.38
264.732	85.38
264.964	79.38
265.197	85.38
265.429	73.38
265.661	84.38
265.894	94.38
266.126	107.38
266.358	136.38
266.591	126.38
266.823	90.38
267.055	83.38
267.287	92.38
267.52	85.38
267.752	87.38
267.984	98.38
268.216	74.38
268.448	73.38
268.681	82.38
268.913	81.38
269.145	84.38
269.377	86.38
269.609	92.38
269.841	92.38
270.073	101.38
270.306	121.38
270.538	157.38
270.77	265.38
271.002	289.38
271.234	169.38
271.466	100.38
271.698	102.38
271.93	98.38
272.162	86.38
272.394	97.38
272.626	98.38
272.858	85.38
273.09	79.38
273.322	91.38
273.553	87.38
273.785	85.38
274.017	92.38
274.249	89.38
274.481	82.38
274.713	83.38
274.945	94.38
275.176	73.38
275.408	81.38
275.64	96.38
275.872	87.38
276.104	94.38
276.335	104.38
276.567	117.38
276.799	89.38
277.031	89.38
277.262	83.38
277.494	97.38
277.726	108.38
277.957	143.38
278.189	200.38
278.421	190.38
278.652	161.38
278.884	147.38
279.115	119.38
279.347	99.38
279.579	98.38
279.81	90.38
280.042	104.38
280.273	80.38
280.505	99.38
280.736	110.38
280.968	101.38
281.199	136.38
281.431	180.38
281.662	204.38
281.894	131.38
282.125	100.38
282.356	100.38
282.588	102.38
282.819	111.38
283.051	112.38
283.282	109.38
283.513	147.38
283.745	252.38
283.976	404.38
284.207	592.38
284.439	428.38
284.67	217.38
284.901	211.38
285.132	267.38
285.364	282.38
285.595	176.38
285.826	146.38
286.057	188.38
286.288	302.38
286.52	456.38
286.751	372.38
286.982	165.38
287.213	118.38
287.444	95.38
287.675	93.38
287.906	82.38
288.138	98.38
288.369	79.38
288.6	93.38
288.831	96.38
289.062	83.38
289.293	95.38
289.524	103.38
289.755	83.38
289.986	88.38
290.217	85.38
290.448	86.38
290.679	105.38
290.91	111.38
291.141	128.38
291.371	183.38
291.602	204.38
291.833	158.38
292.064	114.38
292.295	86.38
292.526	82.38
292.757	91.38
292.987	98.38
293.218	90.38
293.449	95.38
293.68	93.38
293.91	98.38
294.141	94.38
294.372	87.38
294.603	97.38
294.833	94.38
295.064	89.38
295.295	95.38
295.525	80.38
295.756	84.38
295.987	103.38
296.217	83.38
296.448	93.38
296.679	72.38
296.909	86.38
297.14	85.38
297.37	73.38
297.601	75.38
297.831	96.38
298.062	103.38
298.292	91.38
298.523	101.38
298.753	94.38
298.984	108.38
299.214	98.38
299.445	92.38
299.675	96.38
299.905	108.38
300.136	117.38
300.366	140.38
300.597	212.38
300.827	357.38
301.057	536.38
301.288	476.38
301.518	216.38
301.748	133.38
301.979	125.38
302.209	112.38
302.439	113.38
302.669	145.38
302.9	203.38
303.13	384.38
303.36	617.38
303.59	863.38
303.82	618.38
304.051	220.38
304.281	142.38
304.511	110.38
304.741	115.38
304.971	102.38
305.201	94.38
305.431	110.38
305.661	98.38
305.891	82.38
306.121	95.38
306.352	93.38
306.582	116.38
306.812	99.38
307.042	120.38
307.272	100.38
307.502	90.38
307.731	101.38
307.961	97.38
308.191	95.38
308.421	99.38
308.651	85.38
308.881	106.38
309.111	94.38
309.341	94.38
309.571	104.38
309.8	97.38
310.03	82.38
310.26	122.38
310.49	107.38
310.72	105.38
310.949	108.38
311.179	105.38
311.409	104.38
311.639	86.38
311.868	112.38
312.098	98.38
312.328	104.38
312.557	116.38
312.787	113.38
313.017	97.38
313.246	102.38
313.476	96.38
313.706	111.38
313.935	133.38
314.165	168.38
314.394	181.38
314.624	153.38
314.853	118.38
315.083	114.38
315.312	115.38
315.542	126.38
315.771	128.38
316.001	128.38
316.23	127.38
316.46	118.38
316.689	158.38
316.919	182.38
317.148	376.38
317.377	678.38
317.607	1115.38
317.836	996.38
318.065	383.38
318.295	170.38
318.524	128.38
318.753	122.38
318.983	94.38
319.212	118.38
319.441	104.38
319.67	112.38
319.9	110.38
320.129	116.38
320.358	114.38
320.587	120.38
320.816	111.38
321.046	100.38
321.275	112.38
321.504	126.38
321.733	134.38
321.962	123.38
322.191	144.38
322.42	113.38
322.649	111.38
322.878	114.38
323.108	114.38
323.337	105.38
323.566	107.38
323.795	107.38
324.024	112.38
324.253	131.38
324.482	147.38
324.71	171.38
324.939	217.38
325.168	169.38
325.397	156.38
325.626	213.38
325.855	364.38
326.084	700.38
326.313	1183.38
326.542	1154.38
326.77	438.38
326.999	192.38
327.228	165.38
327.457	188.38
327.686	190.38
327.914	141.38
328.143	116.38
328.372	120.38
328.6	114.38
328.829	106.38
329.058	114.38
329.287	102.38
329.515	99.38
329.744	101.38
329.972	118.38
330.201	111.38
330.43	109.38
330.658	118.38
330.887	100.38
331.115	113.38
331.344	105.38
331.572	107.38
331.801	122.38
332.03	104.38
332.258	120.38
332.486	158.38
332.715	204.38
332.943	368.38
333.172	553.38
333.4	493.38
333.629	190.38
333.857	119.38
334.085	111.38
334.314	128.38
334.542	114.38
334.771	110.38
334.999	105.38
335.227	118.38
335.455	121.38
335.684	124.38
335.912	96.38
336.14	105.38
336.369	111.38
336.597	106.38
336.825	103.38
337.053	117.38
337.281	86.38
337.51	117.38
337.738	118.38
337.966	97.38
338.194	110.38
338.422	99.38
338.65	114.38
338.878	101.38
339.106	107.38
339.334	107.38
339.562	105.38
339.79	102.38
340.018	95.38
340.246	112.38
340.474	105.38
340.702	98.38
340.93	113.38
341.158	96.38
341.386	120.38
341.614	91.38
341.842	107.38
342.07	107.38
342.298	115.38
342.526	107.38
342.754	102.38
342.981	106.38
343.209	103.38
343.437	111.38
343.665	102.38
343.893	92.38
344.12	105.38
344.348	114.38
344.576	104.38
344.804	94.38
345.031	105.38
345.259	107.38
345.487	93.38
345.714	99.38
345.942	108.38
346.17	104.38
346.397	107.38
346.625	104.38
346.853	93.38
347.08	99.38
347.308	91.38
347.535	75.38
347.763	104.38
347.99	113.38
348.218	108.38
348.445	102.38
348.673	98.38
348.9	103.38
349.128	120.38
349.355	99.38
349.583	105.38
349.81	110.38
350.037	117.38
350.265	120.38
350.492	111.38
350.72	105.38
350.947	91.38
351.174	98.38
351.402	105.38
351.629	96.38
351.856	113.38
352.083	98.38
352.311	116.38
352.538	105.38
352.765	102.38
352.992	86.38
353.22	104.38
353.447	107.38
353.674	97.38
353.901	87.38
354.128	108.38
354.355	95.38
354.583	105.38
354.81	107.38
355.037	106.38
355.264	104.38
355.491	97.38
355.718	102.38
355.945	104.38
356.172	91.38
356.399	98.38
356.626	105.38
356.853	100.38
357.08	84.38
357.307	104.38
357.534	96.38
357.761	91.38
357.988	89.38
358.215	102.38
358.441	95.38
358.668	98.38
358.895	105.38
359.122	107.38
359.349	95.38
359.576	105.38
359.802	95.38
360.029	100.38
360.256	92.38
360.483	107.38
360.709	107.38
360.936	98.38
361.163	97.38
361.39	96.38
361.616	107.38
361.843	90.38
362.07	104.38
362.296	98.38
362.523	100.38
362.749	112.38
362.976	96.38
363.203	99.38
363.429	97.38
363.656	104.38
363.882	110.38
364.109	114.38
364.335	108.38
364.562	104.38
364.788	92.38
365.015	100.38
365.241	114.38
365.468	146.38
365.694	193.38
365.92	165.38
366.147	116.38
366.373	112.38
366.599	100.38
366.826	83.38
367.052	94.38
367.278	85.38
367.505	93.38
367.731	98.38
367.957	95.38
368.184	100.38
368.41	117.38
368.636	100.38
368.862	97.38
369.089	107.38
369.315	86.38
369.541	95.38
369.767	97.38
369.993	91.38
370.219	90.38
370.445	104.38
370.672	103.38
370.898	96.38
371.124	98.38
371.35	100.38
371.576	113.38
371.802	109.38
372.028	102.38
372.254	97.38
372.48	103.38
372.706	95.38
372.932	96.38
373.158	110.38
373.384	106.38
373.61	103.38
373.835	106.38
374.061	101.38
374.287	103.38
374.513	98.38
374.739	108.38
374.965	97.38
375.191	92.38
375.416	89.38
375.642	110.38
375.868	107.38
376.094	123.38
376.319	95.38
376.545	91.38
376.771	102.38
376.997	98.38
377.222	103.38
377.448	101.38
377.674	91.38
377.899	85.38
378.125	93.38
378.35	97.38
378.576	110.38
378.802	108.38
379.027	104.38
379.253	120.38
379.478	129.38
379.704	250.38
379.929	578.38
380.155	1166.38
380.38	1163.38
380.606	392.38
380.831	158.38
381.057	130.38
381.282	116.38
381.507	102.38
381.733	118.38
381.958	100.38
382.184	112.38
382.409	112.38
382.634	119.38
382.86	91.38
383.085	101.38
383.31	89.38
383.535	96.38
383.761	103.38
383.986	104.38
384.211	90.38
384.436	104.38
384.662	103.38
384.887	100.38
385.112	112.38
385.337	102.38
385.562	93.38
385.787	98.38
386.013	100.38
386.238	98.38
386.463	96.38
386.688	88.38
386.913	114.38
387.138	90.38
387.363	97.38
387.588	89.38
387.813	107.38
388.038	98.38
388.263	100.38
388.488	92.38
388.713	109.38
388.938	84.38
389.163	103.38
389.387	90.38
389.612	99.38
389.837	101.38
390.062	111.38
390.287	96.38
390.512	84.38
390.736	107.38
390.961	98.38
391.186	74.38
391.411	95.38
391.636	83.38
391.86	94.38
392.085	89.38
392.31	86.38
392.534	95.38
392.759	89.38
392.984	97.38
393.208	106.38
393.433	129.38
393.658	117.38
393.882	86.38
394.107	91.38
394.331	93.38
394.556	110.38
394.78	103.38
395.005	102.38
395.229	72.38
395.454	101.38
395.678	102.38
395.903	104.38
396.127	100.38
396.352	102.38
396.576	106.38
396.801	102.38
397.025	111.38
397.249	102.38
397.474	99.38
397.698	99.38
397.922	94.38
398.147	83.38
398.371	89.38
398.595	76.38
398.82	98.38
399.044	100.38
399.268	87.38
399.492	99.38
399.717	97.38
399.941	78.38
400.165	87.38
400.389	90.38
400.613	77.38
400.837	92.38
401.062	88.38
401.286	83.38
401.51	89.38
401.734	88.38
401.958	94.38
402.182	90.38
402.406	108.38
402.63	106.38
402.854	91.38
403.078	104.38
403.302	93.38
403.526	86.38
403.75	91.38
403.974	83.38
404.198	99.38
404.422	100.38
404.645	97.38
404.869	96.38
405.093	103.38
405.317	86.38
405.541	91.38
405.765	118.38
405.988	117.38
406.212	101.38
406.436	95.38
406.66	97.38
406.883	89.38
407.107	91.38
407.331	90.38
407.555	88.38
407.778	88.38
408.002	90.38
408.226	97.38
408.449	108.38
408.673	92.38
408.896	105.38
409.12	99.38
409.344	92.38
409.567	98.38
409.791	90.38
410.014	87.38
410.238	95.38
410.461	101.38
410.685	98.38
410.908	94.38
411.132	101.38
411.355	110.38
411.578	102.38
411.802	98.38
412.025	96.38
412.249	96.38
412.472	97.38
412.695	90.38
412.919	95.38
413.142	100.38
413.365	99.38
413.589	97.38
413.812	84.38
414.035	103.38
414.258	80.38
414.482	97.38
414.705	100.38
414.928	91.38
415.151	98.38
415.374	107.38
415.597	82.38
415.821	96.38
416.044	87.38
416.267	84.38
416.49	81.38
416.713	98.38
416.936	89.38
417.159	83.38
417.382	101.38
417.605	89.38
417.828	98.38
418.051	95.38
418.274	105.38
418.497	100.38
418.72	89.38
418.943	106.38
419.166	101.38
419.389	102.38
419.611	99.38
419.834	105.38
420.057	105.38
420.28	98.38
420.503	102.38
420.726	97.38
420.948	79.38
421.171	90.38
421.394	91.38
421.617	82.38
421.839	106.38
422.062	84.38
422.285	95.38
422.507	89.38
422.73	122.38
422.953	113.38
423.175	98.38
423.398	95.38
423.621	90.38
423.843	91.38
424.066	102.38
424.288	91.38
424.511	86.38
424.733	107.38
424.956	91.38
425.178	83.38
425.401	112.38
425.623	100.38
425.846	95.38
426.068	103.38
426.291	100.38
426.513	94.38
426.735	95.38
426.958	90.38
427.18	88.38
427.402	120.38
427.625	102.38
427.847	90.38
428.069	91.38
428.292	105.38
428.514	103.38
428.736	109.38
428.958	96.38
429.181	88.38
429.403	86.38
429.625	92.38
429.847	106.38
430.069	104.38
430.292	90.38
430.514	98.38
430.736	97.38
430.958	87.38
431.18	78.38
431.402	91.38
431.624	98.38
431.846	93.38
432.068	82.38
432.29	91.38
432.512	82.38
432.734	86.38
432.956	73.38
433.178	99.38
433.4	90.38
433.622	104.38
433.844	90.38
434.066	80.38
434.287	85.38
434.509	107.38
434.731	80.38
434.953	95.38
435.175	101.38
435.397	78.38
435.618	96.38
435.84	93.38
436.062	86.38
436.284	80.38
436.505	78.38
436.727	91.38
436.949	85.38
437.17	95.38
437.392	91.38
437.614	83.38
437.835	96.38
438.057	79.38
438.278	88.38
438.5	96.38
438.721	106.38
438.943	107.38
439.165	103.38
439.386	91.38
439.608	105.38
439.829	106.38
440.05	104.38
440.272	119.38
440.493	90.38
440.715	100.38
440.936	100.38
441.158	100.38
441.379	94.38
441.6	96.38
441.822	86.38
442.043	100.38
442.264	107.38
442.486	100.38
442.707	103.38
442.928	94.38
443.149	97.38
443.371	99.38
443.592	88.38
443.813	94.38
444.034	88.38
444.255	83.38
444.476	78.38
444.698	90.38
444.919	97.38
445.14	199.38
445.361	158.38
445.582	102.38
445.803	96.38
446.024	97.38
446.245	110.38
446.466	100.38
446.687	101.38
446.908	96.38
447.129	75.38
447.35	95.38
447.571	101.38
447.792	70.38
448.013	100.38
448.234	103.38
448.455	92.38
448.675	90.38
448.896	103.38
449.117	100.38
449.338	115.38
449.559	138.38
449.779	96.38
450	105.38
450.221	92.38
450.442	101.38
450.662	105.38
450.883	94.38
451.104	103.38
451.324	122.38
451.545	102.38
451.766	95.38
451.986	126.38
452.207	164.38
452.428	408.38
452.648	960.38
452.869	532.38
453.089	164.38
453.31	102.38
453.53	100.38
453.751	116.38
453.971	142.38
454.192	138.38
454.412	91.38
454.633	89.38
454.853	83.38
455.073	87.38
455.294	100.38
455.514	97.38
455.734	94.38
455.955	79.38
456.175	84.38
456.395	87.38
456.616	82.38
456.836	107.38
457.056	81.38
457.276	81.38
457.497	98.38
457.717	112.38
457.937	95.38
458.157	86.38
458.377	92.38
458.598	87.38
458.818	88.38
459.038	91.38
459.258	83.38
459.478	93.38
459.698	85.38
459.918	82.38
460.138	93.38
460.358	95.38
460.578	98.38
460.798	88.38
461.018	103.38
461.238	85.38
461.458	80.38
461.678	82.38
461.898	75.38
462.118	101.38
462.338	91.38
462.558	86.38
462.777	88.38
462.997	94.38
463.217	93.38
463.437	119.38
463.657	146.38
463.876	157.38
464.096	114.38
464.316	100.38
464.536	88.38
464.755	76.38
464.975	91.38
465.195	87.38
465.414	91.38
465.634	92.38
465.854	84.38
466.073	105.38
466.293	99.38
466.512	104.38
466.732	92.38
466.951	110.38
467.171	138.38
467.391	119.38
467.61	95.38
467.829	93.38
468.049	94.38
468.268	77.38
468.488	99.38
468.707	89.38
468.927	87.38
469.146	76.38
469.365	90.38
469.585	96.38
469.804	96.38
470.023	100.38
470.243	95.38
470.462	83.38
470.681	122.38
470.901	116.38
471.12	175.38
471.339	189.38
471.558	132.38
471.777	95.38
471.997	101.38
472.216	103.38
472.435	106.38
472.654	87.38
472.873	84.38
473.092	89.38
473.311	75.38
473.53	85.38
473.749	84.38
473.968	90.38
474.187	86.38
474.406	95.38
474.625	94.38
474.844	103.38
475.063	91.38
475.282	86.38
475.501	95.38
475.72	111.38
475.939	100.38
476.158	76.38
476.377	97.38
476.596	110.38
476.814	94.38
477.033	93.38
477.252	84.38
477.471	96.38
477.69	90.38
477.908	96.38
478.127	99.38
478.346	74.38
478.564	93.38
478.783	115.38
479.002	89.38
479.22	86.38
479.439	83.38
479.658	82.38
479.876	80.38
480.095	88.38
480.313	101.38
480.532	80.38
480.751	96.38
480.969	86.38
481.188	75.38
481.406	77.38
481.624	91.38
481.843	102.38
482.061	101.38
482.28	84.38
482.498	98.38
482.717	101.38
482.935	91.38
483.153	99.38
483.372	90.38
483.59	102.38
483.808	98.38
484.027	100.38
484.245	99.38
484.463	139.38
484.681	178.38
484.9	119.38
485.118	96.38
485.336	100.38
485.554	101.38
485.772	100.38
485.99	151.38
486.209	231.38
486.427	146.38
486.645	116.38
486.863	97.38
487.081	96.38
487.299	106.38
487.517	101.38
487.735	88.38
487.953	94.38
488.171	104.38
488.389	96.38
488.607	101.38
488.825	97.38
489.043	87.38
489.261	112.38
489.479	90.38
489.696	94.38
489.914	93.38
490.132	91.38
490.35	88.38
490.568	90.38
490.786	104.38
491.003	109.38
491.221	118.38
491.439	112.38
491.657	102.38
491.874	100.38
492.092	102.38
492.31	115.38
492.527	96.38
492.745	103.38
492.963	108.38
493.18	103.38
493.398	102.38
493.615	103.38
493.833	96.38
494.05	90.38
494.268	97.38
494.485	95.38
494.703	106.38
494.92	110.38
495.138	102.38
495.355	107.38
495.573	94.38
495.79	105.38
496.008	114.38
496.225	110.38
496.442	98.38
496.66	119.38
496.877	147.38
497.094	139.38
497.312	106.38
497.529	105.38
497.746	109.38
497.963	102.38
498.181	104.38
498.398	104.38
498.615	79.38
498.832	104.38
499.049	103.38
499.267	114.38
499.484	122.38
499.701	117.38
499.918	96.38
500.135	103.38
500.352	88.38
500.569	91.38
500.786	99.38
501.003	92.38
501.22	94.38
501.437	91.38
501.654	106.38
501.871	103.38
502.088	101.38
502.305	79.38
502.522	87.38
502.739	74.38
502.956	91.38
503.172	96.38
503.389	107.38
503.606	99.38
503.823	94.38
504.04	86.38
504.256	98.38
504.473	92.38
504.69	101.38
504.907	114.38
505.123	105.38
505.34	99.38
505.557	106.38
505.773	82.38
505.99	80.38
506.207	106.38
506.423	102.38
506.64	94.38
506.856	99.38
507.073	98.38
507.289	80.38
507.506	93.38
507.722	100.38
507.939	88.38
508.155	106.38
508.372	112.38
508.588	88.38
508.805	102.38
509.021	95.38
509.238	103.38
509.454	122.38
509.67	127.38
509.887	111.38
510.103	98.38
510.319	77.38
510.536	101.38
510.752	98.38
