Data from SnStandardFlinnAPT0064_QswitchEnergy10_LIBS07252019.E.O._I.C._HRD10591_15-28-32-973.txt Node
Date: Thu Jul 25 15:28:32 EDT 2019
User: cochatt
Spectrometer: HR+D1059
Trigger mode: 1
Integration Time (sec): 1.000000E-1
Scans to average: 1
Electric dark correction enabled: true
Nonlinearity correction enabled: false
Boxcar width: 0
XAxis mode: Wavelengths
Number of Pixels in Spectrum: 2048
>>>>>Begin Spectral Data<<<<<
223.165	-9.69
223.4	-9.69
223.635	-9.69
223.869	-14.69
224.104	-12.69
224.338	-17.69
224.573	-36.69
224.808	-30.69
225.042	6.31
225.277	-4.69
225.511	-5.69
225.746	16.31
225.98	7.31
226.215	15.31
226.449	22.31
226.683	17.31
226.918	24.31
227.152	23.31
227.387	20.31
227.621	39.31
227.856	49.31
228.09	51.31
228.324	40.31
228.559	53.31
228.793	55.31
229.027	73.31
229.262	81.31
229.496	69.31
229.73	85.31
229.964	84.31
230.199	82.31
230.433	77.31
230.667	83.31
230.901	75.31
231.136	73.31
231.37	80.31
231.604	84.31
231.838	102.31
232.072	122.31
232.306	120.31
232.541	83.31
232.775	84.31
233.009	80.31
233.243	88.31
233.477	85.31
233.711	100.31
233.945	112.31
234.179	104.31
234.413	87.31
234.647	93.31
234.881	87.31
235.115	82.31
235.349	90.31
235.583	97.31
235.817	140.31
236.051	132.31
236.285	105.31
236.519	92.31
236.753	80.31
236.987	80.31
237.221	73.31
237.455	79.31
237.689	84.31
237.922	83.31
238.156	87.31
238.39	89.31
238.624	80.31
238.858	82.31
239.091	90.31
239.325	84.31
239.559	77.31
239.793	60.31
240.027	79.31
240.26	87.31
240.494	91.31
240.728	88.31
240.961	76.31
241.195	98.31
241.429	91.31
241.662	84.31
241.896	94.31
242.13	107.31
242.363	129.31
242.597	149.31
242.83	145.31
243.064	140.31
243.298	183.31
243.531	150.31
243.765	98.31
243.998	81.31
244.232	90.31
244.465	84.31
244.699	93.31
244.932	87.31
245.166	83.31
245.399	81.31
245.633	80.31
245.866	94.31
246.099	83.31
246.333	97.31
246.566	90.31
246.8	71.31
247.033	82.31
247.266	83.31
247.5	95.31
247.733	89.31
247.966	80.31
248.2	80.31
248.433	96.31
248.666	129.31
248.899	121.31
249.133	101.31
249.366	103.31
249.599	85.31
249.832	121.31
250.066	141.31
250.299	103.31
250.532	84.31
250.765	85.31
250.998	75.31
251.231	82.31
251.465	87.31
251.698	74.31
251.931	86.31
252.164	92.31
252.397	100.31
252.63	105.31
252.863	106.31
253.096	89.31
253.329	87.31
253.562	104.31
253.795	87.31
254.028	85.31
254.261	84.31
254.494	94.31
254.727	107.31
254.96	144.31
255.193	124.31
255.426	99.31
255.659	93.31
255.892	94.31
256.124	82.31
256.357	87.31
256.59	94.31
256.823	88.31
257.056	110.31
257.289	143.31
257.521	193.31
257.754	128.31
257.987	102.31
258.22	75.31
258.452	86.31
258.685	92.31
258.918	98.31
259.151	92.31
259.383	125.31
259.616	127.31
259.849	142.31
260.081	115.31
260.314	105.31
260.547	82.31
260.779	81.31
261.012	88.31
261.244	93.31
261.477	91.31
261.71	99.31
261.942	103.31
262.175	84.31
262.407	85.31
262.64	87.31
262.872	86.31
263.105	89.31
263.337	86.31
263.57	92.31
263.802	92.31
264.035	98.31
264.267	90.31
264.499	89.31
264.732	101.31
264.964	82.31
265.197	90.31
265.429	97.31
265.661	81.31
265.894	105.31
266.126	141.31
266.358	168.31
266.591	164.31
266.823	97.31
267.055	87.31
267.287	84.31
267.52	81.31
267.752	91.31
267.984	101.31
268.216	64.31
268.448	77.31
268.681	86.31
268.913	101.31
269.145	78.31
269.377	96.31
269.609	98.31
269.841	98.31
270.073	103.31
270.306	132.31
270.538	201.31
270.77	331.31
271.002	385.31
271.234	191.31
271.466	114.31
271.698	92.31
271.93	90.31
272.162	82.31
272.394	103.31
272.626	92.31
272.858	98.31
273.09	96.31
273.322	89.31
273.553	77.31
273.785	83.31
274.017	92.31
274.249	93.31
274.481	94.31
274.713	95.31
274.945	76.31
275.176	85.31
275.408	94.31
275.64	97.31
275.872	105.31
276.104	95.31
276.335	104.31
276.567	106.31
276.799	108.31
277.031	88.31
277.262	114.31
277.494	121.31
277.726	132.31
277.957	184.31
278.189	254.31
278.421	229.31
278.652	208.31
278.884	202.31
279.115	133.31
279.347	120.31
279.579	107.31
279.81	114.31
280.042	99.31
280.273	115.31
280.505	91.31
280.736	114.31
280.968	125.31
281.199	176.31
281.431	280.31
281.662	284.31
281.894	160.31
282.125	117.31
282.356	106.31
282.588	122.31
282.819	115.31
283.051	131.31
283.282	144.31
283.513	195.31
283.745	326.31
283.976	569.31
284.207	845.31
284.439	641.31
284.67	283.31
284.901	266.31
285.132	353.31
285.364	397.31
285.595	225.31
285.826	169.31
286.057	232.31
286.288	431.31
286.52	641.31
286.751	549.31
286.982	212.31
287.213	128.31
287.444	114.31
287.675	101.31
287.906	108.31
288.138	90.31
288.369	106.31
288.6	91.31
288.831	93.31
289.062	102.31
289.293	100.31
289.524	93.31
289.755	92.31
289.986	111.31
290.217	93.31
290.448	88.31
290.679	102.31
290.91	113.31
291.141	162.31
291.371	262.31
291.602	305.31
291.833	197.31
292.064	130.31
292.295	104.31
292.526	95.31
292.757	98.31
292.987	99.31
293.218	95.31
293.449	87.31
293.68	101.31
293.91	97.31
294.141	99.31
294.372	96.31
294.603	113.31
294.833	88.31
295.064	99.31
295.295	95.31
295.525	104.31
295.756	93.31
295.987	75.31
296.217	98.31
296.448	95.31
296.679	103.31
296.909	109.31
297.14	105.31
297.37	94.31
297.601	101.31
297.831	89.31
298.062	120.31
298.292	121.31
298.523	120.31
298.753	108.31
298.984	119.31
299.214	126.31
299.445	116.31
299.675	107.31
299.905	117.31
300.136	134.31
300.366	169.31
300.597	283.31
300.827	474.31
301.057	703.31
301.288	643.31
301.518	275.31
301.748	142.31
301.979	147.31
302.209	137.31
302.439	148.31
302.669	175.31
302.9	265.31
303.13	525.31
303.36	924.31
303.59	1273.31
303.82	889.31
304.051	339.31
304.281	175.31
304.511	127.31
304.741	136.31
304.971	118.31
305.201	125.31
305.431	119.31
305.661	104.31
305.891	101.31
306.121	105.31
306.352	108.31
306.582	108.31
306.812	124.31
307.042	124.31
307.272	100.31
307.502	117.31
307.731	110.31
307.961	104.31
308.191	89.31
308.421	98.31
308.651	108.31
308.881	100.31
309.111	107.31
309.341	127.31
309.571	100.31
309.8	107.31
310.03	130.31
310.26	119.31
310.49	117.31
310.72	109.31
310.949	108.31
311.179	109.31
311.409	106.31
311.639	120.31
311.868	120.31
312.098	131.31
312.328	119.31
312.557	124.31
312.787	124.31
313.017	113.31
313.246	116.31
313.476	118.31
313.706	128.31
313.935	162.31
314.165	209.31
314.394	244.31
314.624	196.31
314.853	138.31
315.083	133.31
315.312	126.31
315.542	136.31
315.771	160.31
316.001	138.31
316.23	139.31
316.46	164.31
316.689	195.31
316.919	276.31
317.148	516.31
317.377	937.31
317.607	1587.31
317.836	1470.31
318.065	565.31
318.295	244.31
318.524	190.31
318.753	139.31
318.983	139.31
319.212	147.31
319.441	120.31
319.67	130.31
319.9	129.31
320.129	106.31
320.358	119.31
320.587	130.31
320.816	124.31
321.046	132.31
321.275	127.31
321.504	147.31
321.733	141.31
321.962	177.31
322.191	167.31
322.42	146.31
322.649	139.31
322.878	129.31
323.108	123.31
323.337	126.31
323.566	120.31
323.795	132.31
324.024	146.31
324.253	149.31
324.482	168.31
324.71	223.31
324.939	284.31
325.168	229.31
325.397	193.31
325.626	274.31
325.855	500.31
326.084	982.31
326.313	1680.31
326.542	1663.31
326.77	656.31
326.999	285.31
327.228	242.31
327.457	248.31
327.686	219.31
327.914	164.31
328.143	141.31
328.372	136.31
328.6	135.31
328.829	121.31
329.058	124.31
329.287	114.31
329.515	115.31
329.744	124.31
329.972	136.31
330.201	121.31
330.43	124.31
330.658	115.31
330.887	113.31
331.115	130.31
331.344	131.31
331.572	128.31
331.801	129.31
332.03	122.31
332.258	154.31
332.486	182.31
332.715	316.31
332.943	524.31
333.172	799.31
333.4	691.31
333.629	257.31
333.857	161.31
334.085	124.31
334.314	129.31
334.542	137.31
334.771	134.31
334.999	120.31
335.227	122.31
335.455	127.31
335.684	112.31
335.912	127.31
336.14	120.31
336.369	118.31
336.597	111.31
336.825	113.31
337.053	120.31
337.281	118.31
337.51	121.31
337.738	130.31
337.966	118.31
338.194	119.31
338.422	115.31
338.65	118.31
338.878	129.31
339.106	124.31
339.334	148.31
339.562	121.31
339.79	125.31
340.018	120.31
340.246	124.31
340.474	117.31
340.702	132.31
340.93	124.31
341.158	124.31
341.386	129.31
341.614	135.31
341.842	128.31
342.07	132.31
342.298	134.31
342.526	132.31
342.754	116.31
342.981	114.31
343.209	114.31
343.437	126.31
343.665	99.31
343.893	125.31
344.12	137.31
344.348	125.31
344.576	125.31
344.804	121.31
345.031	122.31
345.259	115.31
345.487	129.31
345.714	109.31
345.942	114.31
346.17	115.31
346.397	120.31
346.625	121.31
346.853	128.31
347.08	112.31
347.308	112.31
347.535	111.31
347.763	102.31
347.99	107.31
348.218	100.31
348.445	112.31
348.673	123.31
348.9	133.31
349.128	125.31
349.355	144.31
349.583	131.31
349.81	118.31
350.037	122.31
350.265	128.31
350.492	113.31
350.72	127.31
350.947	114.31
351.174	118.31
351.402	123.31
351.629	107.31
351.856	130.31
352.083	107.31
352.311	111.31
352.538	115.31
352.765	132.31
352.992	113.31
353.22	106.31
353.447	120.31
353.674	115.31
353.901	105.31
354.128	104.31
354.355	102.31
354.583	106.31
354.81	114.31
355.037	97.31
355.264	121.31
355.491	99.31
355.718	92.31
355.945	109.31
356.172	123.31
356.399	101.31
356.626	121.31
356.853	104.31
357.08	119.31
357.307	114.31
357.534	97.31
357.761	107.31
357.988	119.31
358.215	115.31
358.441	115.31
358.668	119.31
358.895	130.31
359.122	137.31
359.349	138.31
359.576	130.31
359.802	132.31
360.029	133.31
360.256	118.31
360.483	125.31
360.709	121.31
360.936	123.31
361.163	118.31
361.39	113.31
361.616	112.31
361.843	125.31
362.07	126.31
362.296	107.31
362.523	128.31
362.749	111.31
362.976	103.31
363.203	104.31
363.429	98.31
363.656	108.31
363.882	114.31
364.109	121.31
364.335	103.31
364.562	117.31
364.788	113.31
365.015	120.31
365.241	141.31
365.468	206.31
365.694	273.31
365.92	225.31
366.147	126.31
366.373	117.31
366.599	108.31
366.826	105.31
367.052	118.31
367.278	111.31
367.505	107.31
367.731	107.31
367.957	121.31
368.184	123.31
368.41	128.31
368.636	124.31
368.862	99.31
369.089	108.31
369.315	104.31
369.541	117.31
369.767	113.31
369.993	132.31
370.219	105.31
370.445	115.31
370.672	106.31
370.898	113.31
371.124	106.31
371.35	114.31
371.576	107.31
371.802	104.31
372.028	119.31
372.254	111.31
372.48	121.31
372.706	129.31
372.932	128.31
373.158	113.31
373.384	124.31
373.61	137.31
373.835	133.31
374.061	133.31
374.287	117.31
374.513	133.31
374.739	120.31
374.965	113.31
375.191	116.31
375.416	118.31
375.642	107.31
375.868	110.31
376.094	113.31
376.319	116.31
376.545	129.31
376.771	112.31
376.997	106.31
377.222	95.31
377.448	103.31
377.674	121.31
377.899	109.31
378.125	123.31
378.35	123.31
378.576	119.31
378.802	132.31
379.027	131.31
379.253	145.31
379.478	193.31
379.704	327.31
379.929	819.31
380.155	1685.31
380.38	1755.31
380.606	551.31
380.831	208.31
381.057	149.31
381.282	137.31
381.507	131.31
381.733	122.31
381.958	108.31
382.184	106.31
382.409	109.31
382.634	115.31
382.86	111.31
383.085	119.31
383.31	134.31
383.535	104.31
383.761	98.31
383.986	115.31
384.211	100.31
384.436	113.31
384.662	111.31
384.887	110.31
385.112	107.31
385.337	116.31
385.562	106.31
385.787	107.31
386.013	129.31
386.238	105.31
386.463	117.31
386.688	113.31
386.913	100.31
387.138	108.31
387.363	120.31
387.588	113.31
387.813	128.31
388.038	112.31
388.263	106.31
388.488	97.31
388.713	125.31
388.938	104.31
389.163	114.31
389.387	117.31
389.612	98.31
389.837	93.31
390.062	106.31
390.287	104.31
390.512	108.31
390.736	117.31
390.961	101.31
391.186	113.31
391.411	103.31
391.636	102.31
391.86	112.31
392.085	90.31
392.31	105.31
392.534	92.31
392.759	108.31
392.984	109.31
393.208	118.31
393.433	161.31
393.658	137.31
393.882	108.31
394.107	103.31
394.331	96.31
394.556	91.31
394.78	113.31
395.005	105.31
395.229	109.31
395.454	100.31
395.678	103.31
395.903	105.31
396.127	104.31
396.352	111.31
396.576	111.31
396.801	119.31
397.025	131.31
397.249	113.31
397.474	104.31
397.698	96.31
397.922	94.31
398.147	87.31
398.371	102.31
398.595	98.31
398.82	92.31
399.044	96.31
399.268	91.31
399.492	102.31
399.717	106.31
399.941	96.31
400.165	93.31
400.389	89.31
400.613	106.31
400.837	100.31
401.062	107.31
401.286	102.31
401.51	109.31
401.734	117.31
401.958	102.31
402.182	111.31
402.406	94.31
402.63	100.31
402.854	89.31
403.078	94.31
403.302	103.31
403.526	96.31
403.75	87.31
403.974	106.31
404.198	102.31
404.422	107.31
404.645	100.31
404.869	96.31
405.093	106.31
405.317	118.31
405.541	117.31
405.765	139.31
405.988	162.31
406.212	112.31
406.436	107.31
406.66	117.31
406.883	95.31
407.107	93.31
407.331	121.31
407.555	109.31
407.778	99.31
408.002	97.31
408.226	105.31
408.449	97.31
408.673	98.31
408.896	100.31
409.12	95.31
409.344	109.31
409.567	115.31
409.791	92.31
410.014	118.31
410.238	120.31
410.461	106.31
410.685	85.31
410.908	106.31
411.132	94.31
411.355	113.31
411.578	101.31
411.802	98.31
412.025	98.31
412.249	109.31
412.472	93.31
412.695	107.31
412.919	113.31
413.142	96.31
413.365	108.31
413.589	107.31
413.812	105.31
414.035	103.31
414.258	109.31
414.482	117.31
414.705	115.31
414.928	112.31
415.151	116.31
415.374	107.31
415.597	112.31
415.821	92.31
416.044	110.31
416.267	112.31
416.49	82.31
416.713	93.31
416.936	106.31
417.159	115.31
417.382	106.31
417.605	107.31
417.828	107.31
418.051	101.31
418.274	100.31
418.497	107.31
418.72	109.31
418.943	108.31
419.166	108.31
419.389	116.31
419.611	121.31
419.834	106.31
420.057	108.31
420.28	109.31
420.503	99.31
420.726	88.31
420.948	104.31
421.171	81.31
421.394	84.31
421.617	98.31
421.839	92.31
422.062	92.31
422.285	103.31
422.507	117.31
422.73	147.31
422.953	151.31
423.175	115.31
423.398	93.31
423.621	87.31
423.843	91.31
424.066	103.31
424.288	113.31
424.511	97.31
424.733	98.31
424.956	109.31
425.178	97.31
425.401	95.31
425.623	106.31
425.846	104.31
426.068	92.31
426.291	112.31
426.513	106.31
426.735	84.31
426.958	97.31
427.18	103.31
427.402	108.31
427.625	89.31
427.847	99.31
428.069	104.31
428.292	107.31
428.514	119.31
428.736	100.31
428.958	96.31
429.181	111.31
429.403	81.31
429.625	101.31
429.847	118.31
430.069	93.31
430.292	110.31
430.514	115.31
430.736	108.31
430.958	98.31
431.18	85.31
431.402	82.31
431.624	87.31
431.846	92.31
432.068	90.31
432.29	109.31
432.512	99.31
432.734	112.31
432.956	100.31
433.178	108.31
433.4	91.31
433.622	95.31
433.844	99.31
434.066	102.31
434.287	102.31
434.509	99.31
434.731	110.31
434.953	103.31
435.175	102.31
435.397	107.31
435.618	93.31
435.84	101.31
436.062	90.31
436.284	106.31
436.505	108.31
436.727	102.31
436.949	99.31
437.17	107.31
437.392	101.31
437.614	88.31
437.835	91.31
438.057	104.31
438.278	100.31
438.5	106.31
438.721	100.31
438.943	104.31
439.165	111.31
439.386	105.31
439.608	114.31
439.829	107.31
440.05	129.31
440.272	137.31
440.493	111.31
440.715	105.31
440.936	97.31
441.158	96.31
441.379	96.31
441.6	108.31
441.822	116.31
442.043	123.31
442.264	137.31
442.486	122.31
442.707	114.31
442.928	101.31
443.149	96.31
443.371	95.31
443.592	93.31
443.813	92.31
444.034	96.31
444.255	100.31
444.476	90.31
444.698	102.31
444.919	93.31
445.14	178.31
445.361	127.31
445.582	91.31
445.803	92.31
446.024	100.31
446.245	111.31
446.466	111.31
446.687	111.31
446.908	108.31
447.129	104.31
447.35	99.31
447.571	99.31
447.792	101.31
448.013	104.31
448.234	110.31
448.455	92.31
448.675	103.31
448.896	104.31
449.117	115.31
449.338	133.31
449.559	147.31
449.779	128.31
450	92.31
450.221	117.31
450.442	127.31
450.662	129.31
450.883	126.31
451.104	127.31
451.324	127.31
451.545	115.31
451.766	120.31
451.986	140.31
452.207	220.31
452.428	572.31
452.648	1465.31
452.869	816.31
453.089	225.31
453.31	132.31
453.53	125.31
453.751	145.31
453.971	168.31
454.192	152.31
454.412	134.31
454.633	100.31
454.853	104.31
455.073	98.31
455.294	101.31
455.514	96.31
455.734	103.31
455.955	90.31
456.175	105.31
456.395	91.31
456.616	107.31
456.836	112.31
457.056	99.31
457.276	98.31
457.497	126.31
457.717	135.31
457.937	112.31
458.157	98.31
458.377	99.31
458.598	95.31
458.818	95.31
459.038	99.31
459.258	94.31
459.478	95.31
459.698	104.31
459.918	96.31
460.138	89.31
460.358	96.31
460.578	91.31
460.798	101.31
461.018	98.31
461.238	92.31
461.458	91.31
461.678	109.31
461.898	100.31
462.118	100.31
462.338	102.31
462.558	95.31
462.777	94.31
462.997	115.31
463.217	119.31
463.437	135.31
463.657	191.31
463.876	181.31
464.096	131.31
464.316	100.31
464.536	97.31
464.755	95.31
464.975	91.31
465.195	99.31
465.414	94.31
465.634	103.31
465.854	82.31
466.073	110.31
466.293	90.31
466.512	100.31
466.732	106.31
466.951	119.31
467.171	155.31
467.391	154.31
467.61	118.31
467.829	94.31
468.049	109.31
468.268	117.31
468.488	95.31
468.707	106.31
468.927	101.31
469.146	103.31
469.365	108.31
469.585	81.31
469.804	98.31
470.023	123.31
470.243	116.31
470.462	116.31
470.681	105.31
470.901	119.31
471.12	209.31
471.339	220.31
471.558	142.31
471.777	117.31
471.997	113.31
472.216	105.31
472.435	95.31
472.654	86.31
472.873	101.31
473.092	109.31
473.311	98.31
473.53	91.31
473.749	102.31
473.968	99.31
474.187	114.31
474.406	90.31
474.625	104.31
474.844	104.31
475.063	111.31
475.282	92.31
475.501	88.31
475.72	100.31
475.939	106.31
476.158	109.31
476.377	112.31
476.596	127.31
476.814	113.31
477.033	108.31
477.252	91.31
477.471	96.31
477.69	101.31
477.908	87.31
478.127	96.31
478.346	114.31
478.564	92.31
478.783	93.31
479.002	99.31
479.22	99.31
479.439	91.31
479.658	91.31
479.876	114.31
480.095	91.31
480.313	100.31
480.532	109.31
480.751	104.31
480.969	95.31
481.188	92.31
481.406	92.31
481.624	102.31
481.843	115.31
482.061	121.31
482.28	102.31
482.498	106.31
482.717	97.31
482.935	97.31
483.153	111.31
483.372	96.31
483.59	113.31
483.808	101.31
484.027	122.31
484.245	129.31
484.463	178.31
484.681	237.31
484.9	158.31
485.118	130.31
485.336	105.31
485.554	127.31
485.772	123.31
485.99	203.31
486.209	263.31
486.427	155.31
486.645	117.31
486.863	125.31
487.081	108.31
487.299	106.31
487.517	91.31
487.735	111.31
487.953	95.31
488.171	103.31
488.389	103.31
488.607	107.31
488.825	103.31
489.043	116.31
489.261	115.31
489.479	115.31
489.696	107.31
489.914	88.31
490.132	113.31
490.35	121.31
490.568	107.31
490.786	115.31
491.003	114.31
491.221	108.31
491.439	127.31
491.657	112.31
491.874	104.31
492.092	104.31
492.31	115.31
492.527	114.31
492.745	98.31
492.963	112.31
493.18	102.31
493.398	127.31
493.615	121.31
493.833	112.31
494.05	95.31
494.268	117.31
494.485	93.31
494.703	120.31
494.92	101.31
495.138	115.31
495.355	111.31
495.573	106.31
495.79	100.31
496.008	97.31
496.225	120.31
496.442	108.31
496.66	123.31
496.877	160.31
497.094	163.31
497.312	106.31
497.529	107.31
497.746	111.31
497.963	97.31
498.181	111.31
498.398	104.31
498.615	102.31
498.832	100.31
499.049	97.31
499.267	127.31
499.484	172.31
499.701	122.31
499.918	118.31
500.135	106.31
500.352	97.31
500.569	108.31
500.786	108.31
501.003	101.31
501.22	107.31
501.437	105.31
501.654	111.31
501.871	100.31
502.088	101.31
502.305	103.31
502.522	102.31
502.739	100.31
502.956	89.31
503.172	104.31
503.389	89.31
503.606	93.31
503.823	107.31
504.04	115.31
504.256	105.31
504.473	96.31
504.69	108.31
504.907	127.31
505.123	103.31
505.34	99.31
505.557	111.31
505.773	120.31
505.99	97.31
506.207	115.31
506.423	127.31
506.64	115.31
