Data from SnStandardFlinnAPT0064_QswitchEnergy10_LIBS07252019.E.O._I.C._HRD10591_15-27-46-973.txt Node
Date: Thu Jul 25 15:27:46 EDT 2019
User: cochatt
Spectrometer: HR+D1059
Trigger mode: 1
Integration Time (sec): 1.000000E-1
Scans to average: 1
Electric dark correction enabled: true
Nonlinearity correction enabled: false
Boxcar width: 0
XAxis mode: Wavelengths
Number of Pixels in Spectrum: 2048
>>>>>Begin Spectral Data<<<<<
223.165	-17.12
223.4	-17.12
223.635	-17.12
223.869	-14.12
224.104	-23.12
224.338	-7.12
224.573	-29.12
224.808	-7.12
225.042	-28.12
225.277	-17.12
225.511	0.88
225.746	1.88
225.98	10.88
226.215	19.88
226.449	26.88
226.683	18.88
226.918	29.88
227.152	33.88
227.387	27.88
227.621	42.88
227.856	38.88
228.09	42.88
228.324	58.88
228.559	51.88
228.793	44.88
229.027	63.88
229.262	48.88
229.496	72.88
229.73	67.88
229.964	70.88
230.199	85.88
230.433	69.88
230.667	69.88
230.901	82.88
231.136	81.88
231.37	76.88
231.604	87.88
231.838	100.88
232.072	101.88
232.306	110.88
232.541	98.88
232.775	83.88
233.009	84.88
233.243	80.88
233.477	92.88
233.711	91.88
233.945	99.88
234.179	82.88
234.413	85.88
234.647	74.88
234.881	86.88
235.115	82.88
235.349	80.88
235.583	108.88
235.817	123.88
236.051	118.88
236.285	84.88
236.519	79.88
236.753	83.88
236.987	83.88
237.221	80.88
237.455	88.88
237.689	79.88
237.922	73.88
238.156	70.88
238.39	84.88
238.624	84.88
238.858	77.88
239.091	58.88
239.325	70.88
239.559	56.88
239.793	69.88
240.027	76.88
240.26	69.88
240.494	77.88
240.728	74.88
240.961	75.88
241.195	84.88
241.429	87.88
241.662	74.88
241.896	68.88
242.13	96.88
242.363	126.88
242.597	151.88
242.83	152.88
243.064	114.88
243.298	164.88
243.531	131.88
243.765	93.88
243.998	90.88
244.232	87.88
244.465	74.88
244.699	68.88
244.932	77.88
245.166	87.88
245.399	77.88
245.633	82.88
245.866	72.88
246.099	71.88
246.333	76.88
246.566	80.88
246.8	75.88
247.033	81.88
247.266	78.88
247.5	65.88
247.733	94.88
247.966	79.88
248.2	86.88
248.433	102.88
248.666	118.88
248.899	108.88
249.133	93.88
249.366	89.88
249.599	89.88
249.832	106.88
250.066	121.88
250.299	82.88
250.532	75.88
250.765	71.88
250.998	83.88
251.231	86.88
251.465	93.88
251.698	75.88
251.931	98.88
252.164	76.88
252.397	75.88
252.63	80.88
252.863	97.88
253.096	85.88
253.329	91.88
253.562	100.88
253.795	82.88
254.028	104.88
254.261	91.88
254.494	94.88
254.727	100.88
254.96	139.88
255.193	116.88
255.426	99.88
255.659	99.88
255.892	79.88
256.124	77.88
256.357	83.88
256.59	82.88
256.823	88.88
257.056	110.88
257.289	132.88
257.521	177.88
257.754	132.88
257.987	87.88
258.22	80.88
258.452	71.88
258.685	74.88
258.918	83.88
259.151	87.88
259.383	115.88
259.616	128.88
259.849	127.88
260.081	112.88
260.314	70.88
260.547	87.88
260.779	93.88
261.012	90.88
261.244	77.88
261.477	80.88
261.71	71.88
261.942	65.88
262.175	75.88
262.407	92.88
262.64	85.88
262.872	75.88
263.105	84.88
263.337	75.88
263.57	90.88
263.802	77.88
264.035	78.88
264.267	80.88
264.499	72.88
264.732	81.88
264.964	88.88
265.197	76.88
265.429	75.88
265.661	99.88
265.894	98.88
266.126	119.88
266.358	130.88
266.591	128.88
266.823	89.88
267.055	82.88
267.287	87.88
267.52	75.88
267.752	92.88
267.984	89.88
268.216	80.88
268.448	85.88
268.681	86.88
268.913	79.88
269.145	95.88
269.377	90.88
269.609	98.88
269.841	90.88
270.073	109.88
270.306	122.88
270.538	176.88
270.77	293.88
271.002	349.88
271.234	186.88
271.466	101.88
271.698	78.88
271.93	90.88
272.162	90.88
272.394	88.88
272.626	72.88
272.858	79.88
273.09	87.88
273.322	82.88
273.553	81.88
273.785	81.88
274.017	93.88
274.249	75.88
274.481	90.88
274.713	68.88
274.945	82.88
275.176	90.88
275.408	104.88
275.64	84.88
275.872	74.88
276.104	94.88
276.335	99.88
276.567	87.88
276.799	83.88
277.031	74.88
277.262	73.88
277.494	95.88
277.726	120.88
277.957	177.88
278.189	236.88
278.421	225.88
278.652	178.88
278.884	160.88
279.115	112.88
279.347	106.88
279.579	100.88
279.81	88.88
280.042	95.88
280.273	96.88
280.505	94.88
280.736	92.88
280.968	109.88
281.199	170.88
281.431	211.88
281.662	250.88
281.894	158.88
282.125	116.88
282.356	106.88
282.588	107.88
282.819	107.88
283.051	116.88
283.282	122.88
283.513	184.88
283.745	290.88
283.976	506.88
284.207	741.88
284.439	554.88
284.67	269.88
284.901	240.88
285.132	311.88
285.364	343.88
285.595	204.88
285.826	148.88
286.057	236.88
286.288	395.88
286.52	583.88
286.751	462.88
286.982	174.88
287.213	117.88
287.444	104.88
287.675	90.88
287.906	98.88
288.138	103.88
288.369	101.88
288.6	91.88
288.831	86.88
289.062	89.88
289.293	90.88
289.524	83.88
289.755	97.88
289.986	83.88
290.217	90.88
290.448	78.88
290.679	97.88
290.91	117.88
291.141	139.88
291.371	210.88
291.602	252.88
291.833	157.88
292.064	109.88
292.295	95.88
292.526	87.88
292.757	84.88
292.987	86.88
293.218	94.88
293.449	98.88
293.68	92.88
293.91	98.88
294.141	79.88
294.372	96.88
294.603	83.88
294.833	96.88
295.064	96.88
295.295	91.88
295.525	97.88
295.756	92.88
295.987	78.88
296.217	90.88
296.448	93.88
296.679	86.88
296.909	94.88
297.14	91.88
297.37	105.88
297.601	103.88
297.831	96.88
298.062	78.88
298.292	97.88
298.523	96.88
298.753	98.88
298.984	90.88
299.214	101.88
299.445	94.88
299.675	111.88
299.905	117.88
300.136	124.88
300.366	160.88
300.597	241.88
300.827	402.88
301.057	645.88
301.288	601.88
301.518	241.88
301.748	146.88
301.979	115.88
302.209	129.88
302.439	127.88
302.669	161.88
302.9	250.88
303.13	459.88
303.36	807.88
303.59	1113.88
303.82	772.88
304.051	280.88
304.281	151.88
304.511	128.88
304.741	104.88
304.971	118.88
305.201	124.88
305.431	104.88
305.661	93.88
305.891	96.88
306.121	87.88
306.352	99.88
306.582	95.88
306.812	107.88
307.042	119.88
307.272	114.88
307.502	94.88
307.731	98.88
307.961	96.88
308.191	92.88
308.421	102.88
308.651	107.88
308.881	100.88
309.111	95.88
309.341	101.88
309.571	106.88
309.8	95.88
310.03	122.88
310.26	103.88
310.49	98.88
310.72	103.88
310.949	99.88
311.179	112.88
311.409	101.88
311.639	100.88
311.868	122.88
312.098	104.88
312.328	112.88
312.557	98.88
312.787	112.88
313.017	95.88
313.246	100.88
313.476	107.88
313.706	122.88
313.935	156.88
314.165	178.88
314.394	218.88
314.624	167.88
314.853	122.88
315.083	118.88
315.312	113.88
315.542	116.88
315.771	125.88
316.001	133.88
316.23	131.88
316.46	152.88
316.689	184.88
316.919	247.88
317.148	472.88
317.377	830.88
317.607	1383.88
317.836	1291.88
318.065	503.88
318.295	207.88
318.524	138.88
318.753	129.88
318.983	113.88
319.212	131.88
319.441	119.88
319.67	120.88
319.9	111.88
320.129	121.88
320.358	122.88
320.587	124.88
320.816	111.88
321.046	118.88
321.275	127.88
321.504	123.88
321.733	114.88
321.962	146.88
322.191	142.88
322.42	127.88
322.649	124.88
322.878	117.88
323.108	120.88
323.337	114.88
323.566	124.88
323.795	119.88
324.024	125.88
324.253	143.88
324.482	167.88
324.71	213.88
324.939	274.88
325.168	213.88
325.397	187.88
325.626	242.88
325.855	466.88
326.084	866.88
326.313	1483.88
326.542	1476.88
326.77	559.88
326.999	249.88
327.228	207.88
327.457	217.88
327.686	209.88
327.914	148.88
328.143	122.88
328.372	124.88
328.6	109.88
328.829	108.88
329.058	110.88
329.287	121.88
329.515	101.88
329.744	116.88
329.972	110.88
330.201	104.88
330.43	110.88
330.658	96.88
330.887	110.88
331.115	119.88
331.344	99.88
331.572	114.88
331.801	116.88
332.03	118.88
332.258	123.88
332.486	172.88
332.715	265.88
332.943	470.88
333.172	698.88
333.4	613.88
333.629	223.88
333.857	140.88
334.085	99.88
334.314	122.88
334.542	107.88
334.771	118.88
334.999	114.88
335.227	122.88
335.455	112.88
335.684	107.88
335.912	108.88
336.14	97.88
336.369	117.88
336.597	113.88
336.825	112.88
337.053	103.88
337.281	100.88
337.51	103.88
337.738	95.88
337.966	121.88
338.194	98.88
338.422	105.88
338.65	102.88
338.878	119.88
339.106	94.88
339.334	106.88
339.562	117.88
339.79	106.88
340.018	99.88
340.246	116.88
340.474	114.88
340.702	122.88
340.93	120.88
341.158	105.88
341.386	113.88
341.614	104.88
341.842	114.88
342.07	101.88
342.298	110.88
342.526	114.88
342.754	98.88
342.981	103.88
343.209	112.88
343.437	124.88
343.665	93.88
343.893	108.88
344.12	94.88
344.348	112.88
344.576	107.88
344.804	118.88
345.031	103.88
345.259	106.88
345.487	122.88
345.714	104.88
345.942	115.88
346.17	111.88
346.397	106.88
346.625	102.88
346.853	108.88
347.08	105.88
347.308	114.88
347.535	104.88
347.763	101.88
347.99	91.88
348.218	108.88
348.445	82.88
348.673	107.88
348.9	104.88
349.128	125.88
349.355	134.88
349.583	117.88
349.81	114.88
350.037	103.88
350.265	112.88
350.492	119.88
350.72	106.88
350.947	113.88
351.174	87.88
351.402	117.88
351.629	110.88
351.856	98.88
352.083	94.88
352.311	111.88
352.538	106.88
352.765	110.88
352.992	109.88
353.22	107.88
353.447	101.88
353.674	92.88
353.901	109.88
354.128	108.88
354.355	107.88
354.583	103.88
354.81	100.88
355.037	95.88
355.264	106.88
355.491	108.88
355.718	107.88
355.945	87.88
356.172	97.88
356.399	96.88
356.626	106.88
356.853	108.88
357.08	112.88
357.307	92.88
357.534	103.88
357.761	109.88
357.988	101.88
358.215	92.88
358.441	112.88
358.668	103.88
358.895	118.88
359.122	114.88
359.349	116.88
359.576	99.88
359.802	124.88
360.029	95.88
360.256	103.88
360.483	106.88
360.709	102.88
360.936	121.88
361.163	103.88
361.39	119.88
361.616	107.88
361.843	119.88
362.07	111.88
362.296	111.88
362.523	115.88
362.749	107.88
362.976	104.88
363.203	102.88
363.429	94.88
363.656	119.88
363.882	104.88
364.109	119.88
364.335	117.88
364.562	101.88
364.788	92.88
365.015	100.88
365.241	146.88
365.468	170.88
365.694	230.88
365.92	182.88
366.147	127.88
366.373	87.88
366.599	100.88
366.826	94.88
367.052	92.88
367.278	98.88
367.505	115.88
367.731	94.88
367.957	95.88
368.184	104.88
368.41	118.88
368.636	112.88
368.862	88.88
369.089	93.88
369.315	98.88
369.541	87.88
369.767	100.88
369.993	100.88
370.219	117.88
370.445	89.88
370.672	97.88
370.898	102.88
371.124	103.88
371.35	93.88
371.576	107.88
371.802	104.88
372.028	103.88
372.254	111.88
372.48	114.88
372.706	100.88
372.932	108.88
373.158	112.88
373.384	98.88
373.61	108.88
373.835	114.88
374.061	113.88
374.287	106.88
374.513	102.88
374.739	93.88
374.965	102.88
375.191	102.88
375.416	94.88
375.642	102.88
375.868	95.88
376.094	111.88
376.319	105.88
376.545	110.88
376.771	96.88
376.997	99.88
377.222	90.88
377.448	90.88
377.674	103.88
377.899	104.88
378.125	85.88
378.35	99.88
378.576	111.88
378.802	110.88
379.027	131.88
379.253	145.88
379.478	156.88
379.704	313.88
379.929	714.88
380.155	1465.88
380.38	1522.88
380.606	509.88
380.831	189.88
381.057	122.88
381.282	113.88
381.507	106.88
381.733	96.88
381.958	110.88
382.184	82.88
382.409	114.88
382.634	105.88
382.86	103.88
383.085	100.88
383.31	112.88
383.535	101.88
383.761	92.88
383.986	83.88
384.211	99.88
384.436	89.88
384.662	94.88
384.887	88.88
385.112	106.88
385.337	98.88
385.562	104.88
385.787	99.88
386.013	111.88
386.238	103.88
386.463	101.88
386.688	98.88
386.913	92.88
387.138	100.88
387.363	98.88
387.588	108.88
387.813	95.88
388.038	85.88
388.263	98.88
388.488	97.88
388.713	100.88
388.938	110.88
389.163	97.88
389.387	90.88
389.612	88.88
389.837	102.88
390.062	99.88
390.287	88.88
390.512	112.88
390.736	93.88
390.961	109.88
391.186	99.88
391.411	99.88
391.636	96.88
391.86	87.88
392.085	103.88
392.31	107.88
392.534	86.88
392.759	90.88
392.984	95.88
393.208	100.88
393.433	126.88
393.658	129.88
393.882	88.88
394.107	93.88
394.331	108.88
394.556	108.88
394.78	99.88
395.005	103.88
395.229	86.88
395.454	99.88
395.678	89.88
395.903	81.88
396.127	96.88
396.352	101.88
396.576	90.88
396.801	102.88
397.025	125.88
397.249	101.88
397.474	93.88
397.698	88.88
397.922	91.88
398.147	92.88
398.371	108.88
398.595	91.88
398.82	87.88
399.044	97.88
399.268	98.88
399.492	112.88
399.717	91.88
399.941	106.88
400.165	112.88
400.389	83.88
400.613	86.88
400.837	100.88
401.062	86.88
401.286	92.88
401.51	93.88
401.734	86.88
401.958	86.88
402.182	101.88
402.406	94.88
402.63	87.88
402.854	87.88
403.078	95.88
403.302	91.88
403.526	102.88
403.75	94.88
403.974	79.88
404.198	94.88
404.422	102.88
404.645	104.88
404.869	94.88
405.093	93.88
405.317	95.88
405.541	101.88
405.765	110.88
405.988	147.88
406.212	112.88
406.436	106.88
406.66	104.88
406.883	108.88
407.107	80.88
407.331	111.88
407.555	95.88
407.778	100.88
408.002	91.88
408.226	85.88
408.449	92.88
408.673	87.88
408.896	79.88
409.12	89.88
409.344	103.88
409.567	86.88
409.791	96.88
410.014	89.88
410.238	99.88
410.461	114.88
410.685	91.88
410.908	98.88
411.132	111.88
411.355	107.88
411.578	87.88
411.802	84.88
412.025	89.88
412.249	107.88
412.472	91.88
412.695	100.88
412.919	100.88
413.142	94.88
413.365	97.88
413.589	109.88
413.812	88.88
414.035	104.88
414.258	95.88
414.482	97.88
414.705	95.88
414.928	118.88
415.151	100.88
415.374	85.88
415.597	92.88
415.821	83.88
416.044	83.88
416.267	95.88
416.49	92.88
416.713	101.88
416.936	100.88
417.159	92.88
417.382	96.88
417.605	90.88
417.828	93.88
418.051	89.88
418.274	94.88
418.497	95.88
418.72	91.88
418.943	98.88
419.166	116.88
419.389	92.88
419.611	99.88
419.834	88.88
420.057	87.88
420.28	86.88
420.503	99.88
420.726	104.88
420.948	98.88
421.171	103.88
421.394	91.88
421.617	93.88
421.839	90.88
422.062	78.88
422.285	85.88
422.507	118.88
422.73	115.88
422.953	116.88
423.175	112.88
423.398	95.88
423.621	99.88
423.843	78.88
424.066	92.88
424.288	96.88
424.511	91.88
424.733	96.88
424.956	104.88
425.178	96.88
425.401	95.88
425.623	92.88
425.846	93.88
426.068	88.88
426.291	83.88
426.513	101.88
426.735	93.88
426.958	90.88
427.18	85.88
427.402	102.88
427.625	91.88
427.847	82.88
428.069	94.88
428.292	79.88
428.514	103.88
428.736	91.88
428.958	102.88
429.181	102.88
429.403	102.88
429.625	94.88
429.847	93.88
430.069	96.88
430.292	103.88
430.514	89.88
430.736	110.88
430.958	97.88
431.18	101.88
431.402	109.88
431.624	99.88
431.846	90.88
432.068	81.88
432.29	94.88
432.512	87.88
432.734	99.88
432.956	93.88
433.178	89.88
433.4	78.88
433.622	83.88
433.844	106.88
434.066	82.88
434.287	94.88
434.509	75.88
434.731	89.88
434.953	90.88
435.175	91.88
435.397	94.88
435.618	92.88
435.84	84.88
436.062	95.88
436.284	80.88
436.505	83.88
436.727	94.88
436.949	93.88
437.17	90.88
437.392	83.88
437.614	80.88
437.835	67.88
438.057	86.88
438.278	94.88
438.5	86.88
438.721	91.88
438.943	99.88
439.165	100.88
439.386	101.88
439.608	86.88
439.829	88.88
440.05	102.88
440.272	125.88
440.493	118.88
440.715	111.88
440.936	99.88
441.158	87.88
441.379	94.88
441.6	96.88
441.822	111.88
442.043	111.88
442.264	127.88
442.486	103.88
442.707	104.88
442.928	101.88
443.149	100.88
443.371	86.88
443.592	106.88
443.813	110.88
444.034	100.88
444.255	80.88
444.476	91.88
444.698	100.88
444.919	102.88
445.14	182.88
445.361	122.88
445.582	75.88
445.803	85.88
446.024	87.88
446.245	108.88
446.466	102.88
446.687	100.88
446.908	96.88
447.129	95.88
447.35	83.88
447.571	93.88
447.792	88.88
448.013	84.88
448.234	79.88
448.455	90.88
448.675	110.88
448.896	91.88
449.117	98.88
449.338	120.88
449.559	143.88
449.779	119.88
450	95.88
450.221	99.88
450.442	118.88
450.662	124.88
450.883	105.88
451.104	94.88
451.324	112.88
451.545	98.88
451.766	114.88
451.986	131.88
452.207	180.88
452.428	530.88
452.648	1214.88
452.869	705.88
453.089	182.88
453.31	117.88
453.53	134.88
453.751	134.88
453.971	154.88
454.192	139.88
454.412	102.88
454.633	90.88
454.853	91.88
455.073	93.88
455.294	77.88
455.514	98.88
455.734	90.88
455.955	98.88
456.175	92.88
456.395	90.88
456.616	87.88
456.836	94.88
457.056	91.88
457.276	94.88
457.497	102.88
457.717	116.88
457.937	100.88
458.157	87.88
458.377	87.88
458.598	80.88
458.818	81.88
459.038	82.88
459.258	81.88
459.478	87.88
459.698	68.88
459.918	70.88
460.138	78.88
460.358	94.88
460.578	102.88
460.798	83.88
461.018	84.88
461.238	84.88
461.458	102.88
461.678	90.88
461.898	82.88
462.118	100.88
462.338	94.88
462.558	108.88
462.777	90.88
462.997	81.88
463.217	101.88
463.437	129.88
463.657	174.88
463.876	167.88
464.096	110.88
464.316	95.88
464.536	98.88
464.755	89.88
464.975	84.88
465.195	83.88
465.414	94.88
465.634	87.88
465.854	102.88
466.073	95.88
466.293	90.88
466.512	83.88
466.732	99.88
466.951	97.88
467.171	123.88
467.391	126.88
467.61	95.88
467.829	107.88
468.049	95.88
468.268	110.88
468.488	89.88
468.707	98.88
468.927	84.88
469.146	85.88
469.365	86.88
469.585	94.88
469.804	96.88
470.023	102.88
470.243	95.88
470.462	96.88
470.681	104.88
470.901	123.88
471.12	167.88
471.339	201.88
471.558	133.88
471.777	105.88
471.997	100.88
472.216	100.88
472.435	94.88
472.654	87.88
472.873	98.88
473.092	99.88
473.311	92.88
473.53	89.88
473.749	87.88
473.968	114.88
474.187	98.88
474.406	92.88
474.625	91.88
474.844	71.88
475.063	88.88
475.282	90.88
475.501	86.88
475.72	85.88
475.939	88.88
476.158	99.88
476.377	103.88
476.596	106.88
476.814	95.88
477.033	82.88
477.252	92.88
477.471	98.88
477.69	96.88
477.908	99.88
478.127	85.88
478.346	102.88
478.564	106.88
478.783	85.88
479.002	84.88
479.22	94.88
479.439	94.88
479.658	94.88
479.876	114.88
480.095	96.88
480.313	101.88
480.532	94.88
480.751	92.88
480.969	97.88
481.188	95.88
481.406	88.88
481.624	98.88
481.843	133.88
482.061	110.88
482.28	87.88
482.498	98.88
482.717	88.88
482.935	91.88
483.153	82.88
483.372	89.88
483.59	97.88
483.808	102.88
484.027	110.88
484.245	101.88
484.463	170.88
484.681	216.88
484.9	134.88
485.118	108.88
485.336	116.88
485.554	99.88
485.772	134.88
485.99	160.88
486.209	242.88
486.427	167.88
486.645	112.88
486.863	99.88
487.081	106.88
487.299	94.88
487.517	97.88
487.735	99.88
487.953	98.88
488.171	106.88
488.389	97.88
488.607	93.88
488.825	86.88
489.043	90.88
489.261	93.88
489.479	88.88
489.696	86.88
489.914	77.88
490.132	91.88
490.35	91.88
490.568	93.88
490.786	103.88
491.003	90.88
491.221	95.88
491.439	116.88
491.657	99.88
491.874	112.88
492.092	113.88
492.31	115.88
492.527	114.88
492.745	89.88
492.963	102.88
493.18	101.88
493.398	108.88
493.615	106.88
493.833	98.88
494.05	98.88
494.268	96.88
494.485	92.88
494.703	94.88
494.92	102.88
495.138	101.88
495.355	106.88
495.573	109.88
495.79	102.88
496.008	93.88
496.225	95.88
496.442	108.88
496.66	110.88
496.877	143.88
497.094	136.88
497.312	97.88
497.529	112.88
497.746	103.88
497.963	99.88
498.181	103.88
498.398	110.88
498.615	102.88
498.832	113.88
499.049	102.88
499.267	120.88
499.484	154.88
499.701	101.88
499.918	121.88
500.135	96.88
500.352	96.88
500.569	94.88
500.786	95.88
501.003	106.88
501.22	100.88
501.437	99.88
501.654	111.88
501.871	96.88
502.088	96.88
502.305	85.88
502.522	91.88
502.739	96.88
502.956	106.88
503.172	103.88
503.389	97.88
503.606	87.88
503.823	92.88
504.04	83.88
504.256	95.88
504.473	99.88
504.69	87.88
504.907	101.88
505.123	109.88
505.34	98.88
505.557	106.88
505.773	89.88
505.99	86.88
506.207	106.88
506.423	99.88
506.64	122.88
506.856	116.88
507.073	113.88
507.289	100.88
507.506	80.88
507.722	63.88
507.939	90.88
508.155	100.88
508.372	95.88
508.588	91.88
508.805	90.88
509.021	80.88
509.238	112.88
509.454	142.88
509.67	156.88
509.887	115.88
510.103	99.88
510.319	84.88
510.536	97.88
