Data from SnStandardFlinnAPT0064_LampEnergy5.5_LIBS07252019.E.O._I.C._HRD10591_15-16-21-492.txt Node
Date: Thu Jul 25 15:16:21 EDT 2019
User: cochatt
Spectrometer: HR+D1059
Trigger mode: 1
Integration Time (sec): 1.000000E-1
Scans to average: 1
Electric dark correction enabled: true
Nonlinearity correction enabled: false
Boxcar width: 0
XAxis mode: Wavelengths
Number of Pixels in Spectrum: 2048
>>>>>Begin Spectral Data<<<<<
223.165	-19.44
223.4	-19.44
223.635	-19.44
223.869	-22.44
224.104	-25.44
224.338	-12.44
224.573	-15.44
224.808	-5.44
225.042	-17.44
225.277	7.56
225.511	-1.44
225.746	18.56
225.98	12.56
226.215	-3.44
226.449	6.56
226.683	15.56
226.918	20.56
227.152	41.56
227.387	25.56
227.621	46.56
227.856	31.56
228.09	55.56
228.324	58.56
228.559	52.56
228.793	84.56
229.027	152.56
229.262	145.56
229.496	154.56
229.73	157.56
229.964	152.56
230.199	155.56
230.433	162.56
230.667	171.56
230.901	172.56
231.136	184.56
231.37	155.56
231.604	184.56
231.838	199.56
232.072	211.56
232.306	230.56
232.541	214.56
232.775	197.56
233.009	191.56
233.243	195.56
233.477	220.56
233.711	213.56
233.945	264.56
234.179	213.56
234.413	203.56
234.647	216.56
234.881	225.56
235.115	225.56
235.349	255.56
235.583	316.56
235.817	396.56
236.051	378.56
236.285	269.56
236.519	244.56
236.753	225.56
236.987	215.56
237.221	226.56
237.455	233.56
237.689	234.56
237.922	214.56
238.156	210.56
238.39	240.56
238.624	214.56
238.858	230.56
239.091	222.56
239.325	226.56
239.559	223.56
239.793	235.56
240.027	232.56
240.26	227.56
240.494	235.56
240.728	257.56
240.961	260.56
241.195	276.56
241.429	283.56
241.662	290.56
241.896	346.56
242.13	376.56
242.363	459.56
242.597	589.56
242.83	573.56
243.064	587.56
243.298	703.56
243.531	574.56
243.765	402.56
243.998	315.56
244.232	290.56
244.465	294.56
244.699	280.56
244.932	272.56
245.166	277.56
245.399	291.56
245.633	282.56
245.866	315.56
246.099	291.56
246.333	290.56
246.566	276.56
246.8	283.56
247.033	290.56
247.266	288.56
247.5	280.56
247.733	282.56
247.966	302.56
248.2	340.56
248.433	356.56
248.666	402.56
248.899	372.56
249.133	345.56
249.366	373.56
249.599	367.56
249.832	418.56
250.066	419.56
250.299	357.56
250.532	340.56
250.765	328.56
250.998	340.56
251.231	333.56
251.465	323.56
251.698	333.56
251.931	323.56
252.164	306.56
252.397	343.56
252.63	350.56
252.863	334.56
253.096	338.56
253.329	350.56
253.562	339.56
253.795	350.56
254.028	355.56
254.261	355.56
254.494	380.56
254.727	421.56
254.96	476.56
255.193	494.56
255.426	406.56
255.659	364.56
255.892	345.56
256.124	391.56
256.357	366.56
256.59	394.56
256.823	389.56
257.056	452.56
257.289	510.56
257.521	563.56
257.754	461.56
257.987	390.56
258.22	376.56
258.452	402.56
258.685	386.56
258.918	407.56
259.151	436.56
259.383	454.56
259.616	479.56
259.849	508.56
260.081	454.56
260.314	416.56
260.547	410.56
260.779	393.56
261.012	423.56
261.244	420.56
261.477	419.56
261.71	436.56
261.942	436.56
262.175	440.56
262.407	450.56
262.64	441.56
262.872	479.56
263.105	499.56
263.337	518.56
263.57	530.56
263.802	529.56
264.035	563.56
264.267	562.56
264.499	580.56
264.732	574.56
264.964	602.56
265.197	604.56
265.429	587.56
265.661	586.56
265.894	654.56
266.126	716.56
266.358	778.56
266.591	745.56
266.823	647.56
267.055	607.56
267.287	599.56
267.52	589.56
267.752	556.56
267.984	547.56
268.216	540.56
268.448	553.56
268.681	525.56
268.913	532.56
269.145	540.56
269.377	525.56
269.609	519.56
269.841	544.56
270.073	572.56
270.306	631.56
270.538	840.56
270.77	1207.56
271.002	1443.56
271.234	1016.56
271.466	714.56
271.698	590.56
271.93	580.56
272.162	553.56
272.394	544.56
272.626	515.56
272.858	525.56
273.09	524.56
273.322	516.56
273.553	519.56
273.785	504.56
274.017	510.56
274.249	513.56
274.481	509.56
274.713	500.56
274.945	492.56
275.176	507.56
275.408	521.56
275.64	543.56
275.872	511.56
276.104	527.56
276.335	533.56
276.567	515.56
276.799	528.56
277.031	547.56
277.262	547.56
277.494	564.56
277.726	628.56
277.957	712.56
278.189	758.56
278.421	728.56
278.652	672.56
278.884	628.56
279.115	588.56
279.347	601.56
279.579	562.56
279.81	582.56
280.042	580.56
280.273	576.56
280.505	586.56
280.736	616.56
280.968	626.56
281.199	667.56
281.431	751.56
281.662	756.56
281.894	689.56
282.125	673.56
282.356	653.56
282.588	681.56
282.819	676.56
283.051	726.56
283.282	760.56
283.513	973.56
283.745	1353.56
283.976	2080.56
284.207	2950.56
284.439	2603.56
284.67	1566.56
284.901	1269.56
285.132	1280.56
285.364	1236.56
285.595	980.56
285.826	924.56
286.057	1066.56
286.288	1433.56
286.52	1851.56
286.751	1763.56
286.982	1143.56
287.213	872.56
287.444	772.56
287.675	703.56
287.906	707.56
288.138	703.56
288.369	678.56
288.6	664.56
288.831	656.56
289.062	676.56
289.293	668.56
289.524	658.56
289.755	698.56
289.986	665.56
290.217	673.56
290.448	675.56
290.679	692.56
290.91	722.56
291.141	737.56
291.371	757.56
291.602	778.56
291.833	741.56
292.064	703.56
292.295	667.56
292.526	676.56
292.757	644.56
292.987	662.56
293.218	641.56
293.449	650.56
293.68	635.56
293.91	658.56
294.141	630.56
294.372	632.56
294.603	661.56
294.833	645.56
295.064	631.56
295.295	653.56
295.525	647.56
295.756	656.56
295.987	631.56
296.217	650.56
296.448	684.56
296.679	662.56
296.909	644.56
297.14	668.56
297.37	657.56
297.601	677.56
297.831	658.56
298.062	670.56
298.292	650.56
298.523	661.56
298.753	698.56
298.984	675.56
299.214	687.56
299.445	674.56
299.675	682.56
299.905	712.56
300.136	759.56
300.366	840.56
300.597	1044.56
300.827	1422.56
301.057	1851.56
301.288	1861.56
301.518	1226.56
301.748	961.56
301.979	850.56
302.209	860.56
302.439	866.56
302.669	937.56
302.9	1076.56
303.13	1507.56
303.36	2184.56
303.59	2819.56
303.82	2469.56
304.051	1494.56
304.281	1098.56
304.511	922.56
304.741	892.56
304.971	818.56
305.201	792.56
305.431	801.56
305.661	795.56
305.891	720.56
306.121	778.56
306.352	747.56
306.582	750.56
306.812	726.56
307.042	737.56
307.272	745.56
307.502	744.56
307.731	715.56
307.961	754.56
308.191	757.56
308.421	750.56
308.651	734.56
308.881	734.56
309.111	735.56
309.341	723.56
309.571	761.56
309.8	794.56
310.03	744.56
310.26	760.56
310.49	729.56
310.72	760.56
310.949	774.56
311.179	754.56
311.409	758.56
311.639	799.56
311.868	792.56
312.098	796.56
312.328	780.56
312.557	802.56
312.787	802.56
313.017	787.56
313.246	800.56
313.476	820.56
313.706	817.56
313.935	880.56
314.165	923.56
314.394	926.56
314.624	908.56
314.853	860.56
315.083	880.56
315.312	850.56
315.542	882.56
315.771	883.56
316.001	886.56
316.23	876.56
316.46	958.56
316.689	1046.56
316.919	1213.56
317.148	1714.56
317.377	2543.56
317.607	3750.56
317.836	3896.56
318.065	2276.56
318.295	1486.56
318.524	1207.56
318.753	1084.56
318.983	1054.56
319.212	978.56
319.441	976.56
319.67	956.56
319.9	932.56
320.129	955.56
320.358	937.56
320.587	919.56
320.816	940.56
321.046	933.56
321.275	949.56
321.504	949.56
321.733	985.56
321.962	944.56
322.191	956.56
322.42	982.56
322.649	978.56
322.878	982.56
323.108	966.56
323.337	1015.56
323.566	1017.56
323.795	1022.56
324.024	1040.56
324.253	1028.56
324.482	1065.56
324.71	1125.56
324.939	1230.56
325.168	1236.56
325.397	1266.56
325.626	1482.56
325.855	2023.56
326.084	3153.56
326.313	4658.56
326.542	4864.56
326.77	3118.56
326.999	2109.56
327.228	1783.56
327.457	1674.56
327.686	1752.56
327.914	1810.56
328.143	2029.56
328.372	2372.56
328.6	2509.56
328.829	2333.56
329.058	2069.56
329.287	1886.56
329.515	1741.56
329.744	1625.56
329.972	1562.56
330.201	1494.56
330.43	1468.56
330.658	1393.56
330.887	1412.56
331.115	1358.56
331.344	1390.56
331.572	1345.56
331.801	1376.56
332.03	1349.56
332.258	1359.56
332.486	1416.56
332.715	1582.56
332.943	1908.56
333.172	2326.56
333.4	2273.56
333.629	1847.56
333.857	1662.56
334.085	1714.56
334.314	1753.56
334.542	1912.56
334.771	2115.56
334.999	2559.56
335.227	3060.56
335.455	3316.56
335.684	3159.56
335.912	2750.56
336.14	2324.56
336.369	2124.56
336.597	1918.56
336.825	1816.56
337.053	1732.56
337.281	1615.56
337.51	1511.56
337.738	1479.56
337.966	1423.56
338.194	1377.56
338.422	1362.56
338.65	1319.56
338.878	1312.56
339.106	1251.56
339.334	1256.56
339.562	1239.56
339.79	1233.56
340.018	1209.56
340.246	1184.56
340.474	1210.56
340.702	1218.56
340.93	1203.56
341.158	1187.56
341.386	1207.56
341.614	1198.56
341.842	1152.56
342.07	1136.56
342.298	1159.56
342.526	1095.56
342.754	1096.56
342.981	1099.56
343.209	1099.56
343.437	1133.56
343.665	1182.56
343.893	1177.56
344.12	1144.56
344.348	1108.56
344.576	1072.56
344.804	1082.56
345.031	1052.56
345.259	1041.56
345.487	1042.56
345.714	994.56
345.942	1026.56
346.17	1041.56
346.397	1027.56
346.625	1023.56
346.853	1007.56
347.08	1011.56
347.308	990.56
347.535	1015.56
347.763	1036.56
347.99	1006.56
348.218	1003.56
348.445	994.56
348.673	1003.56
348.9	1009.56
349.128	999.56
349.355	1003.56
349.583	986.56
349.81	996.56
350.037	975.56
350.265	973.56
350.492	979.56
350.72	980.56
350.947	972.56
351.174	967.56
351.402	993.56
351.629	982.56
351.856	978.56
352.083	999.56
352.311	976.56
352.538	962.56
352.765	942.56
352.992	966.56
353.22	951.56
353.447	979.56
353.674	979.56
353.901	953.56
354.128	999.56
354.355	982.56
354.583	1004.56
354.81	969.56
355.037	993.56
355.264	993.56
355.491	987.56
355.718	970.56
355.945	985.56
356.172	996.56
356.399	974.56
356.626	1022.56
356.853	1016.56
357.08	989.56
357.307	981.56
357.534	1029.56
357.761	1041.56
357.988	1055.56
358.215	1024.56
358.441	1010.56
358.668	1019.56
358.895	1047.56
359.122	1031.56
359.349	1009.56
359.576	1036.56
359.802	1047.56
360.029	1054.56
360.256	1029.56
360.483	1053.56
360.709	1029.56
360.936	1042.56
361.163	1041.56
361.39	1050.56
361.616	1041.56
361.843	1061.56
362.07	1030.56
362.296	1043.56
362.523	1043.56
362.749	1035.56
362.976	1044.56
363.203	1061.56
363.429	1024.56
363.656	1034.56
363.882	1061.56
364.109	1028.56
364.335	1023.56
364.562	1033.56
364.788	1043.56
365.015	1036.56
365.241	1078.56
365.468	1093.56
365.694	1128.56
365.92	1110.56
366.147	1079.56
366.373	1054.56
366.599	1064.56
366.826	1056.56
367.052	1038.56
367.278	1088.56
367.505	1042.56
367.731	1059.56
367.957	1051.56
368.184	1106.56
368.41	1093.56
368.636	1079.56
368.862	1064.56
369.089	1068.56
369.315	1098.56
369.541	1078.56
369.767	1065.56
369.993	1094.56
370.219	1099.56
370.445	1084.56
370.672	1098.56
370.898	1064.56
371.124	1096.56
371.35	1110.56
371.576	1077.56
371.802	1134.56
372.028	1103.56
372.254	1139.56
372.48	1138.56
372.706	1106.56
372.932	1126.56
373.158	1149.56
373.384	1166.56
373.61	1139.56
373.835	1144.56
374.061	1137.56
374.287	1141.56
374.513	1147.56
374.739	1195.56
374.965	1200.56
375.191	1187.56
375.416	1174.56
375.642	1168.56
375.868	1160.56
376.094	1115.56
376.319	1143.56
376.545	1146.56
376.771	1112.56
376.997	1123.56
377.222	1162.56
377.448	1122.56
377.674	1133.56
377.899	1110.56
378.125	1112.56
378.35	1098.56
378.576	1130.56
378.802	1121.56
379.027	1160.56
379.253	1177.56
379.478	1182.56
379.704	1395.56
379.929	1913.56
380.155	2779.56
380.38	2972.56
380.606	1878.56
380.831	1376.56
381.057	1252.56
381.282	1185.56
381.507	1155.56
381.733	1135.56
381.958	1095.56
382.184	1100.56
382.409	1111.56
382.634	1128.56
382.86	1094.56
383.085	1096.56
383.31	1115.56
383.535	1118.56
383.761	1097.56
383.986	1129.56
384.211	1108.56
384.436	1116.56
384.662	1139.56
384.887	1174.56
385.112	1129.56
385.337	1153.56
385.562	1144.56
385.787	1138.56
386.013	1153.56
386.238	1170.56
386.463	1164.56
386.688	1155.56
386.913	1140.56
387.138	1146.56
387.363	1143.56
387.588	1134.56
387.813	1132.56
388.038	1139.56
388.263	1153.56
388.488	1151.56
388.713	1158.56
388.938	1166.56
389.163	1121.56
389.387	1152.56
389.612	1146.56
389.837	1152.56
390.062	1134.56
390.287	1124.56
390.512	1163.56
390.736	1156.56
390.961	1187.56
391.186	1180.56
391.411	1200.56
391.636	1190.56
391.86	1202.56
392.085	1218.56
392.31	1203.56
392.534	1200.56
392.759	1198.56
392.984	1165.56
393.208	1192.56
393.433	1186.56
393.658	1210.56
393.882	1167.56
394.107	1174.56
394.331	1176.56
394.556	1168.56
394.78	1183.56
395.005	1185.56
395.229	1183.56
395.454	1219.56
395.678	1184.56
395.903	1203.56
396.127	1189.56
396.352	1178.56
396.576	1153.56
396.801	1202.56
397.025	1198.56
397.249	1193.56
397.474	1199.56
397.698	1202.56
397.922	1251.56
398.147	1217.56
398.371	1241.56
398.595	1270.56
398.82	1295.56
399.044	1331.56
399.268	1380.56
399.492	1477.56
399.717	1532.56
399.941	1541.56
400.165	1480.56
400.389	1398.56
400.613	1349.56
400.837	1310.56
401.062	1323.56
401.286	1329.56
401.51	1297.56
401.734	1263.56
401.958	1279.56
402.182	1258.56
402.406	1242.56
402.63	1317.56
402.854	1270.56
403.078	1306.56
403.302	1296.56
403.526	1307.56
403.75	1318.56
403.974	1335.56
404.198	1326.56
404.422	1343.56
404.645	1280.56
404.869	1323.56
405.093	1316.56
405.317	1316.56
405.541	1354.56
405.765	1395.56
405.988	1356.56
406.212	1313.56
406.436	1352.56
406.66	1338.56
406.883	1362.56
407.107	1402.56
407.331	1384.56
407.555	1418.56
407.778	1440.56
408.002	1392.56
408.226	1372.56
408.449	1426.56
408.673	1402.56
408.896	1341.56
409.12	1369.56
409.344	1376.56
409.567	1328.56
409.791	1346.56
410.014	1299.56
410.238	1265.56
410.461	1289.56
410.685	1268.56
410.908	1311.56
411.132	1276.56
411.355	1259.56
411.578	1286.56
411.802	1260.56
412.025	1268.56
412.249	1286.56
412.472	1271.56
412.695	1240.56
412.919	1288.56
413.142	1266.56
413.365	1231.56
413.589	1263.56
413.812	1278.56
414.035	1239.56
414.258	1229.56
414.482	1261.56
414.705	1248.56
414.928	1260.56
415.151	1254.56
415.374	1243.56
415.597	1234.56
415.821	1214.56
416.044	1200.56
416.267	1195.56
416.49	1198.56
416.713	1187.56
416.936	1206.56
417.159	1212.56
417.382	1191.56
417.605	1176.56
417.828	1177.56
418.051	1219.56
418.274	1196.56
418.497	1192.56
418.72	1232.56
418.943	1230.56
419.166	1246.56
419.389	1349.56
419.611	1299.56
419.834	1260.56
420.057	1236.56
420.28	1193.56
420.503	1210.56
420.726	1193.56
420.948	1168.56
421.171	1180.56
421.394	1222.56
421.617	1161.56
421.839	1232.56
422.062	1210.56
422.285	1164.56
422.507	1212.56
422.73	1242.56
422.953	1250.56
423.175	1268.56
423.398	1244.56
423.621	1196.56
423.843	1229.56
424.066	1266.56
424.288	1199.56
424.511	1206.56
424.733	1205.56
424.956	1193.56
425.178	1191.56
425.401	1204.56
425.623	1226.56
425.846	1157.56
426.068	1183.56
426.291	1147.56
426.513	1150.56
426.735	1188.56
426.958	1158.56
427.18	1152.56
427.402	1127.56
427.625	1137.56
427.847	1127.56
428.069	1102.56
428.292	1150.56
428.514	1137.56
428.736	1136.56
428.958	1136.56
429.181	1112.56
429.403	1100.56
429.625	1103.56
429.847	1113.56
430.069	1134.56
430.292	1139.56
430.514	1192.56
430.736	1172.56
430.958	1174.56
431.18	1116.56
431.402	1096.56
431.624	1078.56
431.846	1094.56
432.068	1078.56
432.29	1107.56
432.512	1085.56
432.734	1152.56
432.956	1084.56
433.178	1122.56
433.4	1120.56
433.622	1152.56
433.844	1158.56
434.066	1099.56
434.287	1080.56
434.509	1130.56
434.731	1140.56
434.953	1145.56
435.175	1166.56
435.397	1150.56
435.618	1125.56
435.84	1138.56
436.062	1094.56
436.284	1083.56
436.505	1076.56
436.727	1106.56
436.949	1124.56
437.17	1108.56
437.392	1090.56
437.614	1078.56
437.835	1078.56
438.057	1055.56
438.278	1058.56
438.5	1082.56
438.721	1085.56
438.943	1112.56
439.165	1130.56
439.386	1143.56
439.608	1144.56
439.829	1150.56
440.05	1194.56
440.272	1177.56
440.493	1149.56
440.715	1151.56
440.936	1163.56
441.158	1147.56
441.379	1142.56
441.6	1241.56
441.822	1255.56
442.043	1256.56
442.264	1292.56
442.486	1241.56
442.707	1192.56
442.928	1184.56
443.149	1212.56
443.371	1171.56
443.592	1207.56
443.813	1196.56
444.034	1206.56
444.255	1201.56
444.476	1221.56
444.698	1273.56
444.919	1308.56
445.14	1315.56
445.361	1310.56
445.582	1224.56
445.803	1214.56
446.024	1199.56
446.245	1230.56
446.466	1204.56
446.687	1186.56
446.908	1164.56
447.129	1167.56
447.35	1129.56
447.571	1097.56
447.792	1107.56
448.013	1102.56
448.234	1102.56
448.455	1097.56
448.675	1114.56
448.896	1111.56
449.117	1124.56
449.338	1233.56
449.559	1282.56
449.779	1153.56
450	1076.56
450.221	1102.56
450.442	1065.56
450.662	1103.56
450.883	1052.56
451.104	1072.56
451.324	1072.56
451.545	1040.56
451.766	1057.56
451.986	1065.56
452.207	1115.56
452.428	1381.56
452.648	1851.56
452.869	1571.56
453.089	1217.56
453.31	1165.56
453.53	1155.56
453.751	1190.56
453.971	1268.56
454.192	1223.56
454.412	1120.56
454.633	1041.56
454.853	1038.56
455.073	1070.56
455.294	1020.56
455.514	1008.56
455.734	1034.56
455.955	1030.56
456.175	998.56
456.395	1003.56
456.616	1014.56
456.836	1028.56
457.056	1032.56
457.276	1023.56
457.497	1070.56
457.717	1076.56
457.937	1084.56
458.157	1064.56
458.377	1057.56
458.598	1065.56
458.818	1086.56
459.038	1051.56
459.258	1097.56
459.478	1076.56
459.698	1109.56
459.918	1131.56
460.138	1138.56
460.358	1185.56
460.578	1191.56
460.798	1186.56
461.018	1206.56
461.238	1185.56
461.458	1224.56
461.678	1200.56
461.898	1266.56
462.118	1232.56
462.338	1259.56
462.558	1268.56
462.777	1285.56
462.997	1312.56
463.217	1387.56
463.437	1437.56
463.657	1450.56
463.876	1440.56
464.096	1373.56
464.316	1316.56
464.536	1300.56
464.755	1268.56
464.975	1250.56
465.195	1204.56
465.414	1168.56
465.634	1162.56
465.854	1140.56
466.073	1192.56
466.293	1130.56
466.512	1108.56
466.732	1122.56
466.951	1176.56
467.171	1214.56
467.391	1190.56
467.61	1155.56
467.829	1081.56
468.049	1080.56
468.268	1092.56
468.488	1101.56
468.707	1092.56
468.927	1060.56
469.146	1058.56
469.365	1108.56
469.585	1121.56
469.804	1092.56
470.023	1156.56
470.243	1170.56
470.462	1196.56
470.681	1255.56
470.901	1346.56
471.12	1472.56
471.339	1550.56
471.558	1276.56
471.777	1182.56
471.997	1123.56
472.216	1138.56
472.435	1102.56
472.654	1091.56
472.873	1119.56
473.092	1104.56
473.311	1066.56
473.53	1100.56
473.749	1111.56
473.968	1128.56
474.187	1082.56
474.406	1064.56
474.625	1106.56
474.844	1136.56
475.063	1096.56
475.282	1110.56
475.501	1108.56
475.72	1131.56
475.939	1141.56
476.158	1145.56
476.377	1153.56
476.596	1139.56
476.814	1170.56
477.033	1119.56
477.252	1154.56
477.471	1175.56
477.69	1227.56
477.908	1243.56
478.127	1241.56
478.346	1255.56
478.564	1276.56
478.783	1296.56
479.002	1312.56
479.22	1274.56
479.439	1287.56
479.658	1294.56
479.876	1318.56
480.095	1323.56
480.313	1297.56
480.532	1344.56
480.751	1306.56
480.969	1282.56
481.188	1305.56
481.406	1248.56
481.624	1296.56
481.843	1284.56
482.061	1289.56
482.28	1302.56
482.498	1288.56
482.717	1343.56
482.935	1331.56
483.153	1355.56
483.372	1365.56
483.59	1358.56
483.808	1353.56
484.027	1375.56
484.245	1465.56
484.463	1590.56
484.681	1782.56
484.9	1600.56
485.118	1554.56
485.336	1506.56
485.554	1510.56
485.772	1615.56
485.99	1794.56
486.209	1963.56
486.427	1621.56
486.645	1478.56
486.863	1433.56
487.081	1390.56
487.299	1402.56
487.517	1387.56
487.735	1412.56
487.953	1418.56
488.171	1443.56
488.389	1425.56
488.607	1395.56
488.825	1341.56
489.043	1356.56
489.261	1328.56
489.479	1352.56
489.696	1347.56
489.914	1328.56
490.132	1362.56
490.35	1374.56
490.568	1386.56
490.786	1395.56
491.003	1422.56
491.221	1426.56
491.439	1439.56
