Data from SnStandardFlinnAPT0064_QswitchEnergy10_LIBS07252019.E.O._I.C._HRD10591_15-26-26-973.txt Node
Date: Thu Jul 25 15:26:26 EDT 2019
User: cochatt
Spectrometer: HR+D1059
Trigger mode: 1
Integration Time (sec): 1.000000E-1
Scans to average: 1
Electric dark correction enabled: true
Nonlinearity correction enabled: false
Boxcar width: 0
XAxis mode: Wavelengths
Number of Pixels in Spectrum: 2048
>>>>>Begin Spectral Data<<<<<
223.165	-13.88
223.4	-13.88
223.635	-13.88
223.869	-15.88
224.104	-14.88
224.338	-19.88
224.573	-14.88
224.808	-15.88
225.042	4.12
225.277	4.12
225.511	3.12
225.746	-7.88
225.98	-3.88
226.215	11.12
226.449	21.12
226.683	10.12
226.918	23.12
227.152	30.12
227.387	28.12
227.621	38.12
227.856	42.12
228.09	45.12
228.324	52.12
228.559	49.12
228.793	77.12
229.027	72.12
229.262	92.12
229.496	77.12
229.73	61.12
229.964	81.12
230.199	76.12
230.433	78.12
230.667	77.12
230.901	87.12
231.136	75.12
231.37	73.12
231.604	94.12
231.838	96.12
232.072	118.12
232.306	125.12
232.541	101.12
232.775	88.12
233.009	71.12
233.243	78.12
233.477	91.12
233.711	94.12
233.945	118.12
234.179	100.12
234.413	82.12
234.647	81.12
234.881	82.12
235.115	89.12
235.349	98.12
235.583	111.12
235.817	123.12
236.051	124.12
236.285	102.12
236.519	76.12
236.753	91.12
236.987	82.12
237.221	75.12
237.455	78.12
237.689	80.12
237.922	76.12
238.156	81.12
238.39	77.12
238.624	81.12
238.858	77.12
239.091	92.12
239.325	73.12
239.559	77.12
239.793	77.12
240.027	71.12
240.26	67.12
240.494	89.12
240.728	78.12
240.961	96.12
241.195	91.12
241.429	87.12
241.662	83.12
241.896	90.12
242.13	98.12
242.363	134.12
242.597	164.12
242.83	118.12
243.064	122.12
243.298	171.12
243.531	159.12
243.765	108.12
243.998	85.12
244.232	66.12
244.465	86.12
244.699	97.12
244.932	77.12
245.166	92.12
245.399	82.12
245.633	84.12
245.866	112.12
246.099	83.12
246.333	89.12
246.566	73.12
246.8	78.12
247.033	96.12
247.266	75.12
247.5	74.12
247.733	88.12
247.966	99.12
248.2	93.12
248.433	114.12
248.666	118.12
248.899	128.12
249.133	95.12
249.366	97.12
249.599	105.12
249.832	114.12
250.066	130.12
250.299	98.12
250.532	85.12
250.765	91.12
250.998	83.12
251.231	75.12
251.465	98.12
251.698	73.12
251.931	74.12
252.164	98.12
252.397	72.12
252.63	106.12
252.863	111.12
253.096	100.12
253.329	81.12
253.562	97.12
253.795	99.12
254.028	94.12
254.261	93.12
254.494	92.12
254.727	124.12
254.96	150.12
255.193	132.12
255.426	98.12
255.659	86.12
255.892	91.12
256.124	88.12
256.357	93.12
256.59	86.12
256.823	94.12
257.056	113.12
257.289	143.12
257.521	182.12
257.754	136.12
257.987	97.12
258.22	86.12
258.452	94.12
258.685	86.12
258.918	96.12
259.151	101.12
259.383	98.12
259.616	140.12
259.849	152.12
260.081	113.12
260.314	92.12
260.547	87.12
260.779	85.12
261.012	88.12
261.244	89.12
261.477	96.12
261.71	95.12
261.942	74.12
262.175	95.12
262.407	84.12
262.64	81.12
262.872	95.12
263.105	79.12
263.337	94.12
263.57	91.12
263.802	101.12
264.035	91.12
264.267	93.12
264.499	93.12
264.732	99.12
264.964	103.12
265.197	93.12
265.429	102.12
265.661	108.12
265.894	105.12
266.126	118.12
266.358	153.12
266.591	145.12
266.823	110.12
267.055	91.12
267.287	79.12
267.52	84.12
267.752	77.12
267.984	90.12
268.216	84.12
268.448	87.12
268.681	76.12
268.913	91.12
269.145	105.12
269.377	97.12
269.609	74.12
269.841	114.12
270.073	102.12
270.306	108.12
270.538	201.12
270.77	312.12
271.002	373.12
271.234	190.12
271.466	110.12
271.698	93.12
271.93	94.12
272.162	92.12
272.394	101.12
272.626	92.12
272.858	104.12
273.09	92.12
273.322	83.12
273.553	86.12
273.785	84.12
274.017	90.12
274.249	98.12
274.481	93.12
274.713	102.12
274.945	81.12
275.176	81.12
275.408	98.12
275.64	82.12
275.872	89.12
276.104	100.12
276.335	97.12
276.567	100.12
276.799	97.12
277.031	98.12
277.262	86.12
277.494	114.12
277.726	116.12
277.957	166.12
278.189	253.12
278.421	219.12
278.652	179.12
278.884	177.12
279.115	140.12
279.347	102.12
279.579	85.12
279.81	93.12
280.042	94.12
280.273	99.12
280.505	109.12
280.736	106.12
280.968	114.12
281.199	164.12
281.431	235.12
281.662	240.12
281.894	153.12
282.125	88.12
282.356	117.12
282.588	106.12
282.819	112.12
283.051	122.12
283.282	153.12
283.513	177.12
283.745	300.12
283.976	537.12
284.207	737.12
284.439	595.12
284.67	292.12
284.901	248.12
285.132	320.12
285.364	365.12
285.595	200.12
285.826	173.12
286.057	254.12
286.288	370.12
286.52	578.12
286.751	476.12
286.982	189.12
287.213	110.12
287.444	114.12
287.675	108.12
287.906	104.12
288.138	99.12
288.369	104.12
288.6	88.12
288.831	91.12
289.062	98.12
289.293	116.12
289.524	102.12
289.755	105.12
289.986	88.12
290.217	100.12
290.448	105.12
290.679	97.12
290.91	124.12
291.141	168.12
291.371	254.12
291.602	276.12
291.833	197.12
292.064	117.12
292.295	98.12
292.526	100.12
292.757	89.12
292.987	112.12
293.218	101.12
293.449	94.12
293.68	98.12
293.91	96.12
294.141	87.12
294.372	102.12
294.603	84.12
294.833	86.12
295.064	98.12
295.295	97.12
295.525	92.12
295.756	105.12
295.987	102.12
296.217	91.12
296.448	94.12
296.679	99.12
296.909	90.12
297.14	116.12
297.37	100.12
297.601	96.12
297.831	96.12
298.062	92.12
298.292	91.12
298.523	107.12
298.753	104.12
298.984	107.12
299.214	112.12
299.445	100.12
299.675	118.12
299.905	116.12
300.136	126.12
300.366	153.12
300.597	264.12
300.827	442.12
301.057	652.12
301.288	597.12
301.518	272.12
301.748	141.12
301.979	142.12
302.209	131.12
302.439	148.12
302.669	163.12
302.9	268.12
303.13	480.12
303.36	840.12
303.59	1144.12
303.82	813.12
304.051	292.12
304.281	154.12
304.511	123.12
304.741	134.12
304.971	109.12
305.201	106.12
305.431	96.12
305.661	115.12
305.891	103.12
306.121	114.12
306.352	116.12
306.582	118.12
306.812	118.12
307.042	114.12
307.272	109.12
307.502	111.12
307.731	106.12
307.961	105.12
308.191	104.12
308.421	106.12
308.651	98.12
308.881	105.12
309.111	104.12
309.341	119.12
309.571	105.12
309.8	105.12
310.03	94.12
310.26	112.12
310.49	114.12
310.72	109.12
310.949	93.12
311.179	113.12
311.409	123.12
311.639	107.12
311.868	125.12
312.098	114.12
312.328	104.12
312.557	111.12
312.787	117.12
313.017	105.12
313.246	114.12
313.476	123.12
313.706	121.12
313.935	150.12
314.165	168.12
314.394	210.12
314.624	180.12
314.853	128.12
315.083	121.12
315.312	120.12
315.542	124.12
315.771	145.12
316.001	126.12
316.23	136.12
316.46	145.12
316.689	170.12
316.919	249.12
317.148	476.12
317.377	892.12
317.607	1423.12
317.836	1354.12
318.065	515.12
318.295	212.12
318.524	137.12
318.753	119.12
318.983	134.12
319.212	124.12
319.441	132.12
319.67	108.12
319.9	117.12
320.129	144.12
320.358	112.12
320.587	129.12
320.816	124.12
321.046	120.12
321.275	120.12
321.504	137.12
321.733	149.12
321.962	154.12
322.191	164.12
322.42	130.12
322.649	125.12
322.878	120.12
323.108	120.12
323.337	122.12
323.566	120.12
323.795	137.12
324.024	128.12
324.253	139.12
324.482	157.12
324.71	222.12
324.939	276.12
325.168	214.12
325.397	177.12
325.626	235.12
325.855	451.12
326.084	906.12
326.313	1529.12
326.542	1524.12
326.77	578.12
326.999	246.12
327.228	222.12
327.457	218.12
327.686	225.12
327.914	149.12
328.143	125.12
328.372	123.12
328.6	126.12
328.829	125.12
329.058	125.12
329.287	119.12
329.515	122.12
329.744	122.12
329.972	100.12
330.201	109.12
330.43	126.12
330.658	117.12
330.887	110.12
331.115	112.12
331.344	105.12
331.572	108.12
331.801	115.12
332.03	135.12
332.258	138.12
332.486	159.12
332.715	286.12
332.943	478.12
333.172	740.12
333.4	651.12
333.629	247.12
333.857	152.12
334.085	130.12
334.314	115.12
334.542	131.12
334.771	133.12
334.999	112.12
335.227	121.12
335.455	114.12
335.684	114.12
335.912	123.12
336.14	118.12
336.369	117.12
336.597	113.12
336.825	105.12
337.053	116.12
337.281	106.12
337.51	92.12
337.738	123.12
337.966	106.12
338.194	116.12
338.422	120.12
338.65	121.12
338.878	118.12
339.106	111.12
339.334	117.12
339.562	99.12
339.79	110.12
340.018	115.12
340.246	109.12
340.474	92.12
340.702	117.12
340.93	109.12
341.158	101.12
341.386	115.12
341.614	117.12
341.842	122.12
342.07	108.12
342.298	109.12
342.526	112.12
342.754	128.12
342.981	114.12
343.209	117.12
343.437	112.12
343.665	105.12
343.893	116.12
344.12	121.12
344.348	117.12
344.576	100.12
344.804	104.12
345.031	113.12
345.259	99.12
345.487	112.12
345.714	106.12
345.942	115.12
346.17	93.12
346.397	130.12
346.625	123.12
346.853	123.12
347.08	97.12
347.308	102.12
347.535	102.12
347.763	108.12
347.99	115.12
348.218	109.12
348.445	119.12
348.673	94.12
348.9	107.12
349.128	118.12
349.355	112.12
349.583	116.12
349.81	124.12
350.037	120.12
350.265	119.12
350.492	113.12
350.72	115.12
350.947	123.12
351.174	111.12
351.402	101.12
351.629	107.12
351.856	101.12
352.083	130.12
352.311	108.12
352.538	112.12
352.765	107.12
352.992	112.12
353.22	97.12
353.447	100.12
353.674	104.12
353.901	105.12
354.128	101.12
354.355	96.12
354.583	115.12
354.81	123.12
355.037	107.12
355.264	106.12
355.491	98.12
355.718	98.12
355.945	98.12
356.172	107.12
356.399	100.12
356.626	120.12
356.853	103.12
357.08	110.12
357.307	113.12
357.534	104.12
357.761	98.12
357.988	101.12
358.215	91.12
358.441	100.12
358.668	99.12
358.895	116.12
359.122	100.12
359.349	108.12
359.576	113.12
359.802	113.12
360.029	117.12
360.256	120.12
360.483	113.12
360.709	114.12
360.936	117.12
361.163	105.12
361.39	107.12
361.616	108.12
361.843	116.12
362.07	125.12
362.296	100.12
362.523	99.12
362.749	118.12
362.976	115.12
363.203	104.12
363.429	107.12
363.656	117.12
363.882	102.12
364.109	117.12
364.335	119.12
364.562	104.12
364.788	93.12
365.015	113.12
365.241	132.12
365.468	185.12
365.694	258.12
365.92	202.12
366.147	113.12
366.373	90.12
366.599	98.12
366.826	110.12
367.052	109.12
367.278	93.12
367.505	108.12
367.731	114.12
367.957	102.12
368.184	107.12
368.41	116.12
368.636	123.12
368.862	112.12
369.089	96.12
369.315	108.12
369.541	104.12
369.767	107.12
369.993	109.12
370.219	109.12
370.445	108.12
370.672	106.12
370.898	118.12
371.124	105.12
371.35	96.12
371.576	108.12
371.802	123.12
372.028	106.12
372.254	117.12
372.48	116.12
372.706	125.12
372.932	104.12
373.158	107.12
373.384	102.12
373.61	128.12
373.835	124.12
374.061	93.12
374.287	102.12
374.513	113.12
374.739	112.12
374.965	123.12
375.191	104.12
375.416	108.12
375.642	107.12
375.868	115.12
376.094	106.12
376.319	100.12
376.545	112.12
376.771	119.12
376.997	107.12
377.222	108.12
377.448	107.12
377.674	106.12
377.899	116.12
378.125	109.12
378.35	125.12
378.576	112.12
378.802	128.12
379.027	127.12
379.253	127.12
379.478	163.12
379.704	290.12
379.929	709.12
380.155	1522.12
380.38	1550.12
380.606	510.12
380.831	187.12
381.057	134.12
381.282	112.12
381.507	104.12
381.733	112.12
381.958	112.12
382.184	110.12
382.409	94.12
382.634	104.12
382.86	106.12
383.085	104.12
383.31	106.12
383.535	93.12
383.761	81.12
383.986	114.12
384.211	105.12
384.436	108.12
384.662	111.12
384.887	103.12
385.112	103.12
385.337	108.12
385.562	90.12
385.787	96.12
386.013	115.12
386.238	93.12
386.463	103.12
386.688	111.12
386.913	109.12
387.138	105.12
387.363	103.12
387.588	115.12
387.813	104.12
388.038	95.12
388.263	90.12
388.488	119.12
388.713	114.12
388.938	91.12
389.163	89.12
389.387	99.12
389.612	101.12
389.837	107.12
390.062	112.12
390.287	92.12
390.512	112.12
390.736	107.12
390.961	98.12
391.186	101.12
391.411	102.12
391.636	101.12
391.86	94.12
392.085	104.12
392.31	100.12
392.534	98.12
392.759	105.12
392.984	92.12
393.208	125.12
393.433	114.12
393.658	126.12
393.882	91.12
394.107	94.12
394.331	98.12
394.556	92.12
394.78	101.12
395.005	97.12
395.229	96.12
395.454	89.12
395.678	92.12
395.903	98.12
396.127	105.12
396.352	104.12
396.576	97.12
396.801	107.12
397.025	116.12
397.249	117.12
397.474	105.12
397.698	94.12
397.922	87.12
398.147	92.12
398.371	105.12
398.595	112.12
398.82	104.12
399.044	105.12
399.268	92.12
399.492	95.12
399.717	85.12
399.941	93.12
400.165	103.12
400.389	98.12
400.613	93.12
400.837	93.12
401.062	93.12
401.286	116.12
401.51	113.12
401.734	104.12
401.958	103.12
402.182	112.12
402.406	92.12
402.63	89.12
402.854	101.12
403.078	85.12
403.302	89.12
403.526	95.12
403.75	96.12
403.974	98.12
404.198	104.12
404.422	99.12
404.645	101.12
404.869	111.12
405.093	105.12
405.317	104.12
405.541	112.12
405.765	129.12
405.988	136.12
406.212	116.12
406.436	98.12
406.66	86.12
406.883	96.12
407.107	107.12
407.331	96.12
407.555	95.12
407.778	92.12
408.002	107.12
408.226	113.12
408.449	112.12
408.673	114.12
408.896	98.12
409.12	86.12
409.344	101.12
409.567	98.12
409.791	95.12
410.014	101.12
410.238	110.12
410.461	98.12
410.685	93.12
410.908	99.12
411.132	105.12
411.355	86.12
411.578	96.12
411.802	96.12
412.025	99.12
412.249	95.12
412.472	100.12
412.695	93.12
412.919	106.12
413.142	92.12
413.365	95.12
413.589	95.12
413.812	100.12
414.035	94.12
414.258	101.12
414.482	85.12
414.705	96.12
414.928	99.12
415.151	105.12
415.374	94.12
415.597	87.12
415.821	113.12
416.044	88.12
416.267	103.12
416.49	103.12
416.713	96.12
416.936	81.12
417.159	87.12
417.382	91.12
417.605	101.12
417.828	93.12
418.051	105.12
418.274	100.12
418.497	100.12
418.72	104.12
418.943	114.12
419.166	114.12
419.389	115.12
419.611	99.12
419.834	103.12
420.057	99.12
420.28	101.12
420.503	107.12
420.726	98.12
420.948	85.12
421.171	89.12
421.394	98.12
421.617	74.12
421.839	93.12
422.062	109.12
422.285	92.12
422.507	118.12
422.73	133.12
422.953	108.12
423.175	123.12
423.398	98.12
423.621	98.12
423.843	109.12
424.066	96.12
424.288	77.12
424.511	89.12
424.733	92.12
424.956	95.12
425.178	98.12
425.401	93.12
425.623	83.12
425.846	97.12
426.068	98.12
426.291	99.12
426.513	102.12
426.735	94.12
426.958	94.12
427.18	100.12
427.402	112.12
427.625	87.12
427.847	73.12
428.069	114.12
428.292	98.12
428.514	103.12
428.736	97.12
428.958	100.12
429.181	123.12
429.403	107.12
429.625	100.12
429.847	89.12
430.069	98.12
430.292	91.12
430.514	105.12
430.736	99.12
430.958	92.12
431.18	100.12
431.402	84.12
431.624	94.12
431.846	96.12
432.068	98.12
432.29	88.12
432.512	100.12
432.734	92.12
432.956	88.12
433.178	93.12
433.4	89.12
433.622	91.12
433.844	94.12
434.066	103.12
434.287	78.12
434.509	97.12
434.731	104.12
434.953	95.12
435.175	89.12
435.397	93.12
435.618	97.12
435.84	99.12
436.062	102.12
436.284	95.12
436.505	92.12
436.727	92.12
436.949	84.12
437.17	87.12
437.392	92.12
437.614	90.12
437.835	92.12
438.057	83.12
438.278	78.12
438.5	102.12
438.721	107.12
438.943	104.12
439.165	107.12
439.386	118.12
439.608	99.12
439.829	93.12
440.05	115.12
440.272	128.12
440.493	112.12
440.715	77.12
440.936	90.12
441.158	90.12
441.379	94.12
441.6	88.12
441.822	97.12
442.043	116.12
442.264	132.12
442.486	122.12
442.707	101.12
442.928	93.12
443.149	100.12
443.371	102.12
443.592	85.12
443.813	101.12
444.034	107.12
444.255	94.12
444.476	85.12
444.698	86.12
444.919	100.12
445.14	206.12
445.361	144.12
445.582	107.12
445.803	93.12
446.024	92.12
446.245	125.12
446.466	127.12
446.687	127.12
446.908	102.12
447.129	100.12
447.35	94.12
447.571	92.12
447.792	101.12
448.013	92.12
448.234	106.12
448.455	105.12
448.675	95.12
448.896	94.12
449.117	116.12
449.338	136.12
449.559	153.12
449.779	120.12
450	106.12
450.221	105.12
450.442	113.12
450.662	117.12
450.883	96.12
451.104	107.12
451.324	118.12
451.545	106.12
451.766	108.12
451.986	129.12
452.207	214.12
452.428	529.12
452.648	1314.12
452.869	750.12
453.089	205.12
453.31	122.12
453.53	129.12
453.751	149.12
453.971	145.12
454.192	147.12
454.412	123.12
454.633	89.12
454.853	76.12
455.073	88.12
455.294	99.12
455.514	113.12
455.734	79.12
455.955	106.12
456.175	93.12
456.395	100.12
456.616	97.12
456.836	109.12
457.056	85.12
457.276	112.12
457.497	125.12
457.717	122.12
457.937	105.12
458.157	95.12
458.377	93.12
458.598	91.12
458.818	89.12
459.038	88.12
459.258	102.12
459.478	95.12
459.698	87.12
459.918	84.12
460.138	90.12
460.358	93.12
460.578	90.12
460.798	81.12
461.018	105.12
461.238	98.12
461.458	101.12
461.678	88.12
461.898	100.12
462.118	91.12
462.338	88.12
462.558	88.12
462.777	90.12
462.997	99.12
463.217	102.12
463.437	139.12
463.657	189.12
463.876	160.12
464.096	113.12
464.316	103.12
464.536	98.12
464.755	91.12
464.975	95.12
465.195	98.12
465.414	101.12
465.634	90.12
465.854	98.12
466.073	86.12
466.293	85.12
466.512	88.12
466.732	101.12
466.951	118.12
467.171	133.12
467.391	136.12
467.61	100.12
467.829	105.12
468.049	98.12
468.268	107.12
468.488	102.12
468.707	84.12
468.927	107.12
469.146	94.12
469.365	91.12
469.585	99.12
469.804	103.12
470.023	102.12
470.243	99.12
470.462	89.12
470.681	104.12
470.901	123.12
471.12	188.12
471.339	204.12
471.558	129.12
471.777	96.12
471.997	98.12
472.216	124.12
472.435	91.12
472.654	89.12
472.873	98.12
473.092	95.12
473.311	89.12
473.53	114.12
473.749	98.12
473.968	109.12
474.187	87.12
474.406	96.12
474.625	100.12
474.844	115.12
475.063	92.12
475.282	96.12
475.501	105.12
475.72	93.12
475.939	96.12
476.158	99.12
476.377	124.12
476.596	104.12
476.814	100.12
477.033	95.12
477.252	99.12
477.471	102.12
477.69	97.12
477.908	105.12
478.127	89.12
478.346	92.12
478.564	93.12
478.783	88.12
479.002	99.12
479.22	114.12
479.439	98.12
479.658	93.12
479.876	101.12
480.095	108.12
480.313	98.12
480.532	106.12
480.751	100.12
480.969	103.12
481.188	96.12
481.406	108.12
481.624	93.12
481.843	119.12
482.061	119.12
482.28	95.12
482.498	98.12
482.717	99.12
482.935	96.12
483.153	106.12
483.372	98.12
483.59	103.12
483.808	112.12
484.027	104.12
484.245	124.12
484.463	178.12
484.681	236.12
484.9	157.12
485.118	118.12
485.336	113.12
485.554	105.12
485.772	109.12
485.99	176.12
486.209	233.12
486.427	156.12
486.645	116.12
486.863	107.12
487.081	115.12
487.299	98.12
487.517	108.12
487.735	103.12
487.953	103.12
488.171	74.12
488.389	100.12
488.607	94.12
488.825	103.12
489.043	97.12
489.261	93.12
489.479	95.12
489.696	103.12
489.914	89.12
490.132	77.12
490.35	103.12
490.568	109.12
490.786	119.12
491.003	98.12
491.221	111.12
491.439	114.12
491.657	91.12
491.874	104.12
492.092	101.12
492.31	120.12
492.527	98.12
492.745	95.12
492.963	102.12
493.18	113.12
493.398	104.12
493.615	114.12
493.833	102.12
494.05	103.12
494.268	103.12
494.485	104.12
494.703	106.12
494.92	104.12
495.138	80.12
495.355	99.12
495.573	106.12
495.79	89.12
496.008	91.12
496.225	100.12
496.442	108.12
496.66	116.12
496.877	163.12
497.094	147.12
497.312	100.12
497.529	102.12
497.746	105.12
497.963	95.12
498.181	123.12
498.398	116.12
498.615	113.12
498.832	101.12
499.049	102.12
499.267	125.12
499.484	173.12
499.701	107.12
499.918	112.12
500.135	89.12
500.352	97.12
500.569	86.12
500.786	125.12
501.003	111.12
501.22	88.12
501.437	118.12
501.654	92.12
501.871	101.12
502.088	96.12
502.305	108.12
502.522	94.12
502.739	91.12
502.956	87.12
503.172	106.12
503.389	105.12
503.606	94.12
503.823	108.12
504.04	99.12
504.256	94.12
504.473	89.12
504.69	89.12
504.907	123.12
505.123	110.12
505.34	107.12
505.557	95.12
505.773	109.12
505.99	89.12
506.207	109.12
506.423	110.12
506.64	121.12
506.856	121.12
507.073	89.12
507.289	103.12
507.506	112.12
507.722	83.12
507.939	105.12
508.155	114.12
508.372	86.12
