Data from SnStandardFlinnAPT0064_LampEnergy10_LIBS07252019.E.O._I.C._HRD10591_15-21-41-494.txt Node
Date: Thu Jul 25 15:21:41 EDT 2019
User: cochatt
Spectrometer: HR+D1059
Trigger mode: 1
Integration Time (sec): 1.000000E-1
Scans to average: 1
Electric dark correction enabled: true
Nonlinearity correction enabled: false
Boxcar width: 0
XAxis mode: Wavelengths
Number of Pixels in Spectrum: 2048
>>>>>Begin Spectral Data<<<<<
223.165	-4.25
223.4	-4.25
223.635	-4.25
223.869	-21.25
224.104	-22.25
224.338	-0.25
224.573	-19.25
224.808	-24.25
225.042	-9.25
225.277	-5.25
225.511	-2.25
225.746	-0.25
225.98	-2.25
226.215	11.75
226.449	19.75
226.683	21.75
226.918	25.75
227.152	31.75
227.387	38.75
227.621	29.75
227.856	26.75
228.09	44.75
228.324	22.75
228.559	55.75
228.793	117.75
229.027	285.75
229.262	316.75
229.496	287.75
229.73	304.75
229.964	278.75
230.199	311.75
230.433	303.75
230.667	309.75
230.901	302.75
231.136	322.75
231.37	334.75
231.604	373.75
231.838	415.75
232.072	522.75
232.306	570.75
232.541	468.75
232.775	428.75
233.009	404.75
233.243	429.75
233.477	449.75
233.711	507.75
233.945	572.75
234.179	500.75
234.413	447.75
234.647	446.75
234.881	449.75
235.115	525.75
235.349	590.75
235.583	739.75
235.817	968.75
236.051	953.75
236.285	633.75
236.519	520.75
236.753	481.75
236.987	497.75
237.221	526.75
237.455	543.75
237.689	459.75
237.922	463.75
238.156	448.75
238.39	469.75
238.624	496.75
238.858	467.75
239.091	481.75
239.325	494.75
239.559	506.75
239.793	502.75
240.027	521.75
240.26	530.75
240.494	559.75
240.728	589.75
240.961	618.75
241.195	656.75
241.429	662.75
241.662	690.75
241.896	773.75
242.13	935.75
242.363	1227.75
242.597	1556.75
242.83	1490.75
243.064	1488.75
243.298	1753.75
243.531	1450.75
243.765	924.75
243.998	735.75
244.232	687.75
244.465	667.75
244.699	643.75
244.932	658.75
245.166	648.75
245.399	670.75
245.633	679.75
245.866	675.75
246.099	658.75
246.333	642.75
246.566	633.75
246.8	658.75
247.033	653.75
247.266	630.75
247.5	647.75
247.733	688.75
247.966	691.75
248.2	754.75
248.433	893.75
248.666	1016.75
248.899	950.75
249.133	800.75
249.366	839.75
249.599	944.75
249.832	1092.75
250.066	1075.75
250.299	843.75
250.532	788.75
250.765	739.75
250.998	719.75
251.231	715.75
251.465	738.75
251.698	713.75
251.931	743.75
252.164	720.75
252.397	754.75
252.63	792.75
252.863	804.75
253.096	777.75
253.329	785.75
253.562	776.75
253.795	772.75
254.028	783.75
254.261	832.75
254.494	878.75
254.727	1006.75
254.96	1231.75
255.193	1199.75
255.426	982.75
255.659	904.75
255.892	862.75
256.124	865.75
256.357	905.75
256.59	912.75
256.823	951.75
257.056	1126.75
257.289	1367.75
257.521	1454.75
257.754	1178.75
257.987	959.75
258.22	917.75
258.452	933.75
258.685	930.75
258.918	958.75
259.151	993.75
259.383	1095.75
259.616	1212.75
259.849	1280.75
260.081	1091.75
260.314	1016.75
260.547	934.75
260.779	938.75
261.012	942.75
261.244	988.75
261.477	954.75
261.71	962.75
261.942	1008.75
262.175	1008.75
262.407	1031.75
262.64	1070.75
262.872	1092.75
263.105	1138.75
263.337	1208.75
263.57	1256.75
263.802	1289.75
264.035	1288.75
264.267	1318.75
264.499	1330.75
264.732	1423.75
264.964	1414.75
265.197	1441.75
265.429	1433.75
265.661	1480.75
265.894	1595.75
266.126	1731.75
266.358	1957.75
266.591	1896.75
266.823	1567.75
267.055	1434.75
267.287	1408.75
267.52	1340.75
267.752	1305.75
267.984	1312.75
268.216	1238.75
268.448	1269.75
268.681	1239.75
268.913	1208.75
269.145	1216.75
269.377	1214.75
269.609	1251.75
269.841	1301.75
270.073	1353.75
270.306	1588.75
270.538	2094.75
270.77	3034.75
271.002	3780.75
271.234	2751.75
271.466	1864.75
271.698	1514.75
271.93	1367.75
272.162	1301.75
272.394	1285.75
272.626	1267.75
272.858	1223.75
273.09	1222.75
273.322	1221.75
273.553	1193.75
273.785	1190.75
274.017	1188.75
274.249	1176.75
274.481	1199.75
274.713	1186.75
274.945	1202.75
275.176	1210.75
275.408	1207.75
275.64	1212.75
275.872	1248.75
276.104	1226.75
276.335	1288.75
276.567	1285.75
276.799	1298.75
277.031	1298.75
277.262	1342.75
277.494	1399.75
277.726	1558.75
277.957	1831.75
278.189	2081.75
278.421	1939.75
278.652	1746.75
278.884	1653.75
279.115	1517.75
279.347	1402.75
279.579	1370.75
279.81	1391.75
280.042	1386.75
280.273	1423.75
280.505	1451.75
280.736	1500.75
280.968	1544.75
281.199	1764.75
281.431	2028.75
281.662	2105.75
281.894	1793.75
282.125	1639.75
282.356	1629.75
282.588	1631.75
282.819	1694.75
283.051	1810.75
283.282	2001.75
283.513	2450.75
283.745	3517.75
283.976	5498.75
284.207	7688.75
284.439	6977.75
284.67	4451.75
284.901	3665.75
285.132	3670.75
285.364	3493.75
285.595	2716.75
285.826	2375.75
286.057	2801.75
286.288	3797.75
286.52	5112.75
286.751	4714.75
286.982	2972.75
287.213	2263.75
287.444	1948.75
287.675	1854.75
287.906	1754.75
288.138	1694.75
288.369	1719.75
288.6	1716.75
288.831	1668.75
289.062	1665.75
289.293	1654.75
289.524	1701.75
289.755	1710.75
289.986	1741.75
290.217	1710.75
290.448	1735.75
290.679	1755.75
290.91	1738.75
291.141	1843.75
291.371	1994.75
291.602	2134.75
291.833	1912.75
292.064	1768.75
292.295	1649.75
292.526	1655.75
292.757	1605.75
292.987	1582.75
293.218	1552.75
293.449	1600.75
293.68	1588.75
293.91	1585.75
294.141	1552.75
294.372	1540.75
294.603	1563.75
294.833	1586.75
295.064	1597.75
295.295	1562.75
295.525	1530.75
295.756	1551.75
295.987	1525.75
296.217	1553.75
296.448	1575.75
296.679	1541.75
296.909	1586.75
297.14	1576.75
297.37	1632.75
297.601	1660.75
297.831	1636.75
298.062	1633.75
298.292	1656.75
298.523	1678.75
298.753	1681.75
298.984	1689.75
299.214	1733.75
299.445	1728.75
299.675	1743.75
299.905	1812.75
300.136	1869.75
300.366	2143.75
300.597	2752.75
300.827	3741.75
301.057	5014.75
301.288	5103.75
301.518	3322.75
301.748	2517.75
301.979	2320.75
302.209	2230.75
302.439	2279.75
302.669	2476.75
302.9	2938.75
303.13	4089.75
303.36	6012.75
303.59	8036.75
303.82	6892.75
304.051	4138.75
304.281	2959.75
304.511	2496.75
304.741	2330.75
304.971	2173.75
305.201	2072.75
305.431	2022.75
305.661	1926.75
305.891	1902.75
306.121	1856.75
306.352	1880.75
306.582	1833.75
306.812	1816.75
307.042	1858.75
307.272	1844.75
307.502	1776.75
307.731	1850.75
307.961	1812.75
308.191	1799.75
308.421	1776.75
308.651	1803.75
308.881	1791.75
309.111	1811.75
309.341	1783.75
309.571	1827.75
309.8	1848.75
310.03	1869.75
310.26	1865.75
310.49	1854.75
310.72	1840.75
310.949	1861.75
311.179	1882.75
311.409	1906.75
311.639	1932.75
311.868	1928.75
312.098	1940.75
312.328	1922.75
312.557	1966.75
312.787	2004.75
313.017	1990.75
313.246	1969.75
313.476	1962.75
313.706	2067.75
313.935	2163.75
314.165	2334.75
314.394	2465.75
314.624	2342.75
314.853	2136.75
315.083	2169.75
315.312	2178.75
315.542	2184.75
315.771	2174.75
316.001	2239.75
316.23	2313.75
316.46	2409.75
316.689	2652.75
316.919	3167.75
317.148	4573.75
317.377	6930.75
317.607	10151.75
317.836	10518.75
318.065	6450.75
318.295	4136.75
318.524	3414.75
318.753	2899.75
318.983	2710.75
319.212	2537.75
319.441	2492.75
319.67	2452.75
319.9	2346.75
320.129	2378.75
320.358	2356.75
320.587	2316.75
320.816	2327.75
321.046	2331.75
321.275	2300.75
321.504	2379.75
321.733	2428.75
321.962	2436.75
322.191	2523.75
322.42	2484.75
322.649	2485.75
322.878	2495.75
323.108	2458.75
323.337	2503.75
323.566	2559.75
323.795	2562.75
324.024	2645.75
324.253	2733.75
324.482	2814.75
324.71	2963.75
324.939	3238.75
325.168	3241.75
325.397	3382.75
325.626	3987.75
325.855	5514.75
326.084	8520.75
326.313	12398.75
326.542	13070.75
326.77	8854.75
326.999	5808.75
327.228	4893.75
327.457	4604.75
327.686	4702.75
327.914	5024.75
328.143	5741.75
328.372	6897.75
328.6	7462.75
328.829	6774.75
329.058	5694.75
329.287	5008.75
329.515	4577.75
329.744	4224.75
329.972	4044.75
330.201	3872.75
330.43	3655.75
330.658	3538.75
330.887	3525.75
331.115	3497.75
331.344	3524.75
331.572	3422.75
331.801	3468.75
332.03	3570.75
332.258	3522.75
332.486	3725.75
332.715	4296.75
332.943	5268.75
333.172	6480.75
333.4	6474.75
333.629	4933.75
333.857	4486.75
334.085	4504.75
334.314	4625.75
334.542	5004.75
334.771	5839.75
334.999	7229.75
335.227	9052.75
335.455	10064.75
335.684	8996.75
335.912	7468.75
336.14	6312.75
336.369	5668.75
336.597	5132.75
336.825	4768.75
337.053	4513.75
337.281	4248.75
337.51	3963.75
337.738	3842.75
337.966	3739.75
338.194	3572.75
338.422	3454.75
338.65	3351.75
338.878	3314.75
339.106	3279.75
339.334	3220.75
339.562	3202.75
339.79	3070.75
340.018	3124.75
340.246	3040.75
340.474	3013.75
340.702	2961.75
340.93	3027.75
341.158	2981.75
341.386	2974.75
341.614	2905.75
341.842	2871.75
342.07	2844.75
342.298	2772.75
342.526	2790.75
342.754	2755.75
342.981	2734.75
343.209	2736.75
343.437	2753.75
343.665	2742.75
343.893	2807.75
344.12	2822.75
344.348	2784.75
344.576	2701.75
344.804	2752.75
345.031	2606.75
345.259	2605.75
345.487	2605.75
345.714	2563.75
345.942	2486.75
346.17	2559.75
346.397	2575.75
346.625	2541.75
346.853	2507.75
347.08	2476.75
347.308	2536.75
347.535	2538.75
347.763	2545.75
347.99	2453.75
348.218	2454.75
348.445	2418.75
348.673	2486.75
348.9	2458.75
349.128	2458.75
349.355	2407.75
349.583	2416.75
349.81	2380.75
350.037	2383.75
350.265	2384.75
350.492	2420.75
350.72	2393.75
350.947	2383.75
351.174	2380.75
351.402	2421.75
351.629	2387.75
351.856	2389.75
352.083	2371.75
352.311	2336.75
352.538	2391.75
352.765	2380.75
352.992	2323.75
353.22	2347.75
353.447	2340.75
353.674	2354.75
353.901	2400.75
354.128	2408.75
354.355	2373.75
354.583	2405.75
354.81	2404.75
355.037	2426.75
355.264	2406.75
355.491	2433.75
355.718	2425.75
355.945	2430.75
356.172	2466.75
356.399	2472.75
356.626	2507.75
356.853	2508.75
357.08	2518.75
357.307	2546.75
357.534	2583.75
357.761	2594.75
357.988	2562.75
358.215	2536.75
358.441	2547.75
358.668	2504.75
358.895	2547.75
359.122	2495.75
359.349	2506.75
359.576	2506.75
359.802	2522.75
360.029	2546.75
360.256	2558.75
360.483	2539.75
360.709	2519.75
360.936	2520.75
361.163	2571.75
361.39	2557.75
361.616	2531.75
361.843	2575.75
362.07	2554.75
362.296	2538.75
362.523	2561.75
362.749	2522.75
362.976	2550.75
363.203	2540.75
363.429	2515.75
363.656	2592.75
363.882	2547.75
364.109	2517.75
364.335	2509.75
364.562	2563.75
364.788	2574.75
365.015	2583.75
365.241	2624.75
365.468	2809.75
365.694	2928.75
365.92	2821.75
366.147	2624.75
366.373	2641.75
366.599	2613.75
366.826	2603.75
367.052	2623.75
367.278	2617.75
367.505	2580.75
367.731	2610.75
367.957	2609.75
368.184	2605.75
368.41	2657.75
368.636	2644.75
368.862	2587.75
369.089	2663.75
369.315	2654.75
369.541	2588.75
369.767	2693.75
369.993	2663.75
370.219	2669.75
370.445	2640.75
370.672	2655.75
370.898	2684.75
371.124	2660.75
371.35	2702.75
371.576	2722.75
371.802	2756.75
372.028	2742.75
372.254	2756.75
372.48	2775.75
372.706	2805.75
372.932	2794.75
373.158	2790.75
373.384	2824.75
373.61	2792.75
373.835	2775.75
374.061	2771.75
374.287	2821.75
374.513	2829.75
374.739	2896.75
374.965	2917.75
375.191	2892.75
375.416	2885.75
375.642	2830.75
375.868	2865.75
376.094	2807.75
376.319	2798.75
376.545	2815.75
376.771	2774.75
376.997	2748.75
377.222	2754.75
377.448	2704.75
377.674	2718.75
377.899	2728.75
378.125	2754.75
378.35	2775.75
378.576	2749.75
378.802	2711.75
379.027	2802.75
379.253	2874.75
379.478	3136.75
379.704	3554.75
379.929	5164.75
380.155	7892.75
380.38	8469.75
380.606	5194.75
380.831	3696.75
381.057	3163.75
381.282	2963.75
381.507	2886.75
381.733	2783.75
381.958	2739.75
382.184	2710.75
382.409	2663.75
382.634	2671.75
382.86	2685.75
383.085	2710.75
383.31	2672.75
383.535	2657.75
383.761	2662.75
383.986	2707.75
384.211	2701.75
384.436	2766.75
384.662	2726.75
384.887	2749.75
385.112	2754.75
385.337	2799.75
385.562	2765.75
385.787	2764.75
386.013	2815.75
386.238	2820.75
386.463	2768.75
386.688	2783.75
386.913	2758.75
387.138	2771.75
387.363	2774.75
387.588	2751.75
387.813	2749.75
388.038	2751.75
388.263	2787.75
388.488	2757.75
388.713	2743.75
388.938	2726.75
389.163	2777.75
389.387	2810.75
389.612	2730.75
389.837	2749.75
390.062	2760.75
390.287	2774.75
390.512	2795.75
390.736	2832.75
390.961	2918.75
391.186	2795.75
391.411	2881.75
391.636	2926.75
391.86	2962.75
392.085	2915.75
392.31	2874.75
392.534	2910.75
392.759	2834.75
392.984	2809.75
393.208	2805.75
393.433	2831.75
393.658	2791.75
393.882	2822.75
394.107	2790.75
394.331	2770.75
394.556	2801.75
394.78	2807.75
395.005	2838.75
395.229	2824.75
395.454	2916.75
395.678	2895.75
395.903	2845.75
396.127	2857.75
396.352	2852.75
396.576	2892.75
396.801	2894.75
397.025	2929.75
397.249	2864.75
397.474	2902.75
397.698	2935.75
397.922	2962.75
398.147	2974.75
398.371	2995.75
398.595	3022.75
398.82	3062.75
399.044	3218.75
399.268	3351.75
399.492	3588.75
399.717	3606.75
399.941	3700.75
400.165	3490.75
400.389	3438.75
400.613	3245.75
400.837	3151.75
401.062	3154.75
401.286	3074.75
401.51	3059.75
401.734	2992.75
401.958	3082.75
402.182	3030.75
402.406	3086.75
402.63	3100.75
402.854	3139.75
403.078	3170.75
403.302	3172.75
403.526	3131.75
403.75	3158.75
403.974	3192.75
404.198	3158.75
404.422	3185.75
404.645	3202.75
404.869	3139.75
405.093	3194.75
405.317	3205.75
405.541	3268.75
405.765	3267.75
405.988	3269.75
406.212	3236.75
406.436	3239.75
406.66	3302.75
406.883	3239.75
407.107	3394.75
407.331	3496.75
407.555	3460.75
407.778	3413.75
408.002	3399.75
408.226	3368.75
408.449	3391.75
408.673	3301.75
408.896	3297.75
409.12	3275.75
409.344	3231.75
409.567	3187.75
409.791	3189.75
410.014	3190.75
410.238	3156.75
410.461	3106.75
410.685	3123.75
410.908	3118.75
411.132	3143.75
411.355	3019.75
411.578	3070.75
411.802	3002.75
412.025	3034.75
412.249	3075.75
412.472	3043.75
412.695	2996.75
412.919	3001.75
413.142	3037.75
413.365	2901.75
413.589	3019.75
413.812	2957.75
414.035	2983.75
414.258	2987.75
414.482	2988.75
414.705	3004.75
414.928	2986.75
415.151	2987.75
415.374	2960.75
415.597	2940.75
415.821	2852.75
416.044	2877.75
416.267	2868.75
416.49	2902.75
416.713	2846.75
416.936	2892.75
417.159	2842.75
417.382	2871.75
417.605	2876.75
417.828	2846.75
418.051	2893.75
418.274	2837.75
418.497	2912.75
418.72	2915.75
418.943	2930.75
419.166	3068.75
419.389	3297.75
419.611	3198.75
419.834	3071.75
420.057	3019.75
420.28	2939.75
420.503	2887.75
420.726	2882.75
420.948	2909.75
421.171	2896.75
421.394	2876.75
421.617	2850.75
421.839	2879.75
422.062	2924.75
422.285	2806.75
422.507	2924.75
422.73	2942.75
422.953	2930.75
423.175	2984.75
423.398	2942.75
423.621	2877.75
423.843	2934.75
424.066	2864.75
424.288	2838.75
424.511	2823.75
424.733	2849.75
424.956	2844.75
425.178	2814.75
425.401	2830.75
425.623	2838.75
425.846	2747.75
426.068	2806.75
426.291	2802.75
426.513	2743.75
426.735	2739.75
426.958	2757.75
427.18	2671.75
427.402	2713.75
427.625	2735.75
427.847	2662.75
428.069	2687.75
428.292	2676.75
428.514	2661.75
428.736	2618.75
428.958	2677.75
429.181	2636.75
429.403	2608.75
429.625	2607.75
429.847	2620.75
430.069	2696.75
430.292	2776.75
430.514	2826.75
430.736	2852.75
430.958	2675.75
431.18	2639.75
431.402	2683.75
431.624	2631.75
431.846	2640.75
432.068	2619.75
432.29	2620.75
432.512	2530.75
432.734	2623.75
432.956	2633.75
433.178	2624.75
433.4	2595.75
433.622	2669.75
433.844	2640.75
434.066	2646.75
434.287	2642.75
434.509	2703.75
434.731	2762.75
434.953	2745.75
435.175	2759.75
435.397	2717.75
435.618	2638.75
435.84	2622.75
436.062	2645.75
436.284	2615.75
436.505	2602.75
436.727	2668.75
436.949	2607.75
437.17	2615.75
437.392	2600.75
437.614	2598.75
437.835	2526.75
438.057	2504.75
438.278	2528.75
438.5	2560.75
438.721	2600.75
438.943	2689.75
439.165	2712.75
439.386	2713.75
439.608	2706.75
439.829	2702.75
440.05	2791.75
440.272	2835.75
440.493	2770.75
440.715	2688.75
440.936	2760.75
441.158	2818.75
441.379	2723.75
441.6	2894.75
441.822	2901.75
442.043	3045.75
442.264	3139.75
442.486	3020.75
442.707	2911.75
442.928	2810.75
443.149	2819.75
443.371	2802.75
443.592	2828.75
443.813	2828.75
444.034	2801.75
444.255	2880.75
444.476	2917.75
444.698	2979.75
444.919	2980.75
445.14	3083.75
445.361	2969.75
445.582	2871.75
445.803	2781.75
446.024	2781.75
446.245	2784.75
446.466	2842.75
446.687	2743.75
446.908	2776.75
447.129	2698.75
447.35	2642.75
447.571	2642.75
447.792	2554.75
448.013	2575.75
448.234	2543.75
448.455	2565.75
448.675	2577.75
448.896	2676.75
449.117	2766.75
449.338	3017.75
449.559	3054.75
449.779	2802.75
450	2590.75
450.221	2564.75
450.442	2590.75
450.662	2534.75
450.883	2529.75
451.104	2530.75
451.324	2508.75
451.545	2561.75
451.766	2547.75
451.986	2594.75
452.207	2817.75
452.428	3646.75
452.648	5494.75
452.869	4519.75
453.089	3150.75
453.31	2938.75
453.53	2924.75
453.751	3022.75
453.971	3151.75
454.192	3039.75
454.412	2703.75
454.633	2548.75
454.853	2500.75
455.073	2469.75
455.294	2434.75
455.514	2418.75
455.734	2428.75
455.955	2370.75
456.175	2389.75
456.395	2403.75
456.616	2419.75
456.836	2469.75
457.056	2530.75
457.276	2472.75
457.497	2656.75
457.717	2625.75
457.937	2531.75
458.157	2535.75
458.377	2637.75
458.598	2597.75
458.818	2567.75
459.038	2591.75
459.258	2583.75
459.478	2637.75
459.698	2669.75
459.918	2711.75
460.138	2736.75
460.358	2844.75
460.578	2837.75
460.798	2852.75
461.018	2860.75
461.238	2930.75
461.458	2901.75
461.678	2890.75
461.898	3027.75
462.118	3042.75
462.338	3037.75
462.558	3065.75
462.777	3199.75
462.997	3262.75
463.217	3398.75
463.437	3467.75
463.657	3581.75
463.876	3520.75
464.096	3359.75
464.316	3171.75
464.536	3181.75
464.755	3062.75
464.975	2978.75
465.195	2926.75
465.414	2867.75
465.634	2704.75
465.854	2733.75
466.073	2703.75
466.293	2672.75
466.512	2647.75
466.732	2660.75
466.951	2803.75
467.171	2971.75
467.391	2935.75
467.61	2724.75
467.829	2588.75
468.049	2627.75
468.268	2592.75
468.488	2552.75
468.707	2590.75
468.927	2554.75
469.146	2556.75
469.365	2627.75
469.585	2569.75
469.804	2729.75
470.023	2686.75
470.243	2751.75
470.462	2891.75
470.681	2989.75
470.901	3292.75
471.12	3722.75
471.339	3671.75
471.558	3130.75
471.777	2901.75
471.997	2786.75
472.216	2659.75
472.435	2668.75
472.654	2636.75
472.873	2544.75
473.092	2592.75
473.311	2591.75
473.53	2635.75
473.749	2647.75
473.968	2777.75
474.187	2604.75
474.406	2595.75
474.625	2608.75
474.844	2588.75
475.063	2566.75
475.282	2618.75
475.501	2603.75
475.72	2637.75
475.939	2678.75
476.158	2751.75
476.377	2784.75
476.596	2730.75
476.814	2793.75
477.033	2746.75
477.252	2782.75
477.471	2790.75
477.69	2840.75
477.908	2876.75
478.127	2966.75
478.346	2941.75
478.564	2979.75
478.783	2982.75
479.002	3041.75
479.22	3060.75
479.439	3121.75
479.658	3058.75
479.876	3096.75
480.095	3147.75
480.313	3185.75
480.532	3208.75
480.751	3198.75
480.969	3215.75
481.188	3128.75
481.406	3135.75
481.624	3138.75
481.843	3139.75
482.061	3225.75
482.28	3188.75
482.498	3132.75
482.717	3109.75
482.935	3214.75
483.153	3158.75
483.372	3299.75
483.59	3272.75
483.808	3308.75
484.027	3403.75
484.245	3539.75
484.463	4119.75
484.681	4434.75
484.9	4079.75
485.118	3798.75
485.336	3758.75
485.554	3803.75
485.772	4000.75
485.99	4478.75
486.209	4814.75
486.427	4119.75
486.645	3674.75
486.863	3521.75
487.081	3445.75
487.299	3362.75
487.517	3336.75
487.735	3352.75
