Data from SnStandardFlinnAPT0064_LampEnergy10_LIBS07252019.E.O._I.C._HRD10591_15-20-11-494.txt Node
Date: Thu Jul 25 15:20:11 EDT 2019
User: cochatt
Spectrometer: HR+D1059
Trigger mode: 1
Integration Time (sec): 1.000000E-1
Scans to average: 1
Electric dark correction enabled: true
Nonlinearity correction enabled: false
Boxcar width: 0
XAxis mode: Wavelengths
Number of Pixels in Spectrum: 2048
>>>>>Begin Spectral Data<<<<<
223.165	-11.81
223.4	-11.81
223.635	-11.81
223.869	-20.81
224.104	-13.81
224.338	-13.81
224.573	-22.81
224.808	-13.81
225.042	-21.81
225.277	-10.81
225.511	9.19
225.746	0.19
225.98	21.19
226.215	6.19
226.449	25.19
226.683	10.19
226.918	17.19
227.152	40.19
227.387	32.19
227.621	40.19
227.856	38.19
228.09	33.19
228.324	45.19
228.559	58.19
228.793	114.19
229.027	330.19
229.262	354.19
229.496	315.19
229.73	310.19
229.964	283.19
230.199	297.19
230.433	312.19
230.667	317.19
230.901	310.19
231.136	353.19
231.37	365.19
231.604	391.19
231.838	448.19
232.072	520.19
232.306	567.19
232.541	478.19
232.775	433.19
233.009	418.19
233.243	429.19
233.477	473.19
233.711	502.19
233.945	587.19
234.179	538.19
234.413	474.19
234.647	447.19
234.881	487.19
235.115	541.19
235.349	632.19
235.583	793.19
235.817	1034.19
236.051	1001.19
236.285	667.19
236.519	530.19
236.753	502.19
236.987	513.19
237.221	557.19
237.455	538.19
237.689	482.19
237.922	466.19
238.156	465.19
238.39	487.19
238.624	477.19
238.858	486.19
239.091	490.19
239.325	514.19
239.559	505.19
239.793	519.19
240.027	530.19
240.26	557.19
240.494	555.19
240.728	580.19
240.961	614.19
241.195	650.19
241.429	715.19
241.662	707.19
241.896	846.19
242.13	979.19
242.363	1288.19
242.597	1669.19
242.83	1591.19
243.064	1584.19
243.298	1883.19
243.531	1510.19
243.765	969.19
243.998	785.19
244.232	713.19
244.465	646.19
244.699	655.19
244.932	674.19
245.166	669.19
245.399	672.19
245.633	707.19
245.866	704.19
246.099	694.19
246.333	657.19
246.566	646.19
246.8	611.19
247.033	623.19
247.266	641.19
247.5	662.19
247.733	691.19
247.966	735.19
248.2	761.19
248.433	891.19
248.666	1006.19
248.899	955.19
249.133	841.19
249.366	902.19
249.599	997.19
249.832	1104.19
250.066	1094.19
250.299	885.19
250.532	799.19
250.765	746.19
250.998	711.19
251.231	724.19
251.465	702.19
251.698	734.19
251.931	740.19
252.164	756.19
252.397	772.19
252.63	784.19
252.863	805.19
253.096	801.19
253.329	775.19
253.562	769.19
253.795	784.19
254.028	787.19
254.261	823.19
254.494	902.19
254.727	1036.19
254.96	1237.19
255.193	1275.19
255.426	980.19
255.659	889.19
255.892	883.19
256.124	893.19
256.357	858.19
256.59	933.19
256.823	982.19
257.056	1138.19
257.289	1368.19
257.521	1499.19
257.754	1212.19
257.987	979.19
258.22	903.19
258.452	931.19
258.685	943.19
258.918	977.19
259.151	1009.19
259.383	1117.19
259.616	1240.19
259.849	1275.19
260.081	1099.19
260.314	993.19
260.547	954.19
260.779	963.19
261.012	952.19
261.244	986.19
261.477	968.19
261.71	989.19
261.942	1020.19
262.175	1010.19
262.407	1057.19
262.64	1031.19
262.872	1093.19
263.105	1129.19
263.337	1197.19
263.57	1235.19
263.802	1256.19
264.035	1315.19
264.267	1334.19
264.499	1371.19
264.732	1396.19
264.964	1430.19
265.197	1433.19
265.429	1444.19
265.661	1434.19
265.894	1566.19
266.126	1750.19
266.358	1965.19
266.591	1909.19
266.823	1639.19
267.055	1461.19
267.287	1394.19
267.52	1337.19
267.752	1299.19
267.984	1255.19
268.216	1246.19
268.448	1220.19
268.681	1242.19
268.913	1236.19
269.145	1217.19
269.377	1222.19
269.609	1259.19
269.841	1289.19
270.073	1377.19
270.306	1615.19
270.538	2211.19
270.77	3279.19
271.002	3994.19
271.234	2831.19
271.466	1936.19
271.698	1546.19
271.93	1383.19
272.162	1346.19
272.394	1330.19
272.626	1224.19
272.858	1264.19
273.09	1216.19
273.322	1212.19
273.553	1211.19
273.785	1218.19
274.017	1217.19
274.249	1239.19
274.481	1210.19
274.713	1239.19
274.945	1214.19
275.176	1191.19
275.408	1226.19
275.64	1220.19
275.872	1227.19
276.104	1261.19
276.335	1285.19
276.567	1314.19
276.799	1288.19
277.031	1335.19
277.262	1369.19
277.494	1411.19
277.726	1576.19
277.957	1845.19
278.189	2137.19
278.421	1992.19
278.652	1762.19
278.884	1654.19
279.115	1512.19
279.347	1439.19
279.579	1425.19
279.81	1409.19
280.042	1373.19
280.273	1453.19
280.505	1477.19
280.736	1495.19
280.968	1609.19
281.199	1790.19
281.431	2059.19
281.662	2123.19
281.894	1807.19
282.125	1654.19
282.356	1651.19
282.588	1682.19
282.819	1743.19
283.051	1837.19
283.282	1994.19
283.513	2436.19
283.745	3656.19
283.976	5745.19
284.207	8140.19
284.439	7431.19
284.67	4669.19
284.901	3859.19
285.132	3796.19
285.364	3617.19
285.595	2777.19
285.826	2496.19
286.057	2923.19
286.288	3917.19
286.52	5296.19
286.751	4999.19
286.982	3119.19
287.213	2296.19
287.444	2051.19
287.675	1879.19
287.906	1782.19
288.138	1744.19
288.369	1702.19
288.6	1686.19
288.831	1681.19
289.062	1707.19
289.293	1658.19
289.524	1687.19
289.755	1681.19
289.986	1720.19
290.217	1695.19
290.448	1710.19
290.679	1702.19
290.91	1812.19
291.141	1867.19
291.371	2026.19
291.602	2142.19
291.833	1935.19
292.064	1777.19
292.295	1726.19
292.526	1688.19
292.757	1615.19
292.987	1615.19
293.218	1571.19
293.449	1634.19
293.68	1564.19
293.91	1602.19
294.141	1583.19
294.372	1540.19
294.603	1571.19
294.833	1596.19
295.064	1545.19
295.295	1585.19
295.525	1557.19
295.756	1555.19
295.987	1559.19
296.217	1607.19
296.448	1587.19
296.679	1586.19
296.909	1599.19
297.14	1604.19
297.37	1606.19
297.601	1664.19
297.831	1654.19
298.062	1651.19
298.292	1665.19
298.523	1699.19
298.753	1705.19
298.984	1711.19
299.214	1740.19
299.445	1751.19
299.675	1793.19
299.905	1877.19
300.136	1928.19
300.366	2170.19
300.597	2795.19
300.827	3905.19
301.057	5399.19
301.288	5356.19
301.518	3499.19
301.748	2636.19
301.979	2427.19
302.209	2321.19
302.439	2350.19
302.669	2487.19
302.9	2989.19
303.13	4166.19
303.36	6259.19
303.59	8294.19
303.82	7311.19
304.051	4351.19
304.281	3073.19
304.511	2567.19
304.741	2346.19
304.971	2205.19
305.201	2131.19
305.431	2038.19
305.661	1969.19
305.891	1922.19
306.121	1886.19
306.352	1904.19
306.582	1873.19
306.812	1829.19
307.042	1865.19
307.272	1842.19
307.502	1816.19
307.731	1821.19
307.961	1833.19
308.191	1811.19
308.421	1813.19
308.651	1829.19
308.881	1784.19
309.111	1809.19
309.341	1788.19
309.571	1827.19
309.8	1845.19
310.03	1833.19
310.26	1846.19
310.49	1843.19
310.72	1913.19
310.949	1875.19
311.179	1881.19
311.409	1880.19
311.639	1931.19
311.868	1945.19
312.098	1915.19
312.328	1925.19
312.557	1988.19
312.787	1989.19
313.017	1991.19
313.246	1996.19
313.476	2029.19
313.706	2117.19
313.935	2205.19
314.165	2385.19
314.394	2501.19
314.624	2378.19
314.853	2137.19
315.083	2143.19
315.312	2196.19
315.542	2187.19
315.771	2202.19
316.001	2267.19
316.23	2307.19
316.46	2472.19
316.689	2723.19
316.919	3226.19
317.148	4768.19
317.377	7257.19
317.607	10602.19
317.836	11062.19
318.065	6740.19
318.295	4413.19
318.524	3505.19
318.753	3008.19
318.983	2749.19
319.212	2602.19
319.441	2525.19
319.67	2469.19
319.9	2390.19
320.129	2406.19
320.358	2375.19
320.587	2380.19
320.816	2370.19
321.046	2365.19
321.275	2372.19
321.504	2379.19
321.733	2439.19
321.962	2507.19
322.191	2541.19
322.42	2527.19
322.649	2505.19
322.878	2476.19
323.108	2471.19
323.337	2532.19
323.566	2538.19
323.795	2604.19
324.024	2697.19
324.253	2761.19
324.482	2827.19
324.71	3022.19
324.939	3273.19
325.168	3320.19
325.397	3451.19
325.626	4075.19
325.855	5688.19
326.084	8853.19
326.313	12886.19
326.542	13609.19
326.77	9328.19
326.999	6155.19
327.228	5071.19
327.457	4862.19
327.686	4929.19
327.914	5286.19
328.143	6069.19
328.372	7278.19
328.6	8026.19
328.829	7237.19
329.058	5957.19
329.287	5174.19
329.515	4698.19
329.744	4318.19
329.972	4129.19
330.201	3889.19
330.43	3700.19
330.658	3625.19
330.887	3589.19
331.115	3553.19
331.344	3451.19
331.572	3491.19
331.801	3477.19
332.03	3513.19
332.258	3541.19
332.486	3764.19
332.715	4341.19
332.943	5340.19
333.172	6609.19
333.4	6666.19
333.629	5057.19
333.857	4545.19
334.085	4615.19
334.314	4760.19
334.542	5210.19
334.771	6211.19
334.999	7651.19
335.227	9588.19
335.455	10780.19
335.684	9700.19
335.912	7874.19
336.14	6692.19
336.369	5859.19
336.597	5347.19
336.825	4875.19
337.053	4529.19
337.281	4279.19
337.51	4046.19
337.738	3922.19
337.966	3706.19
338.194	3611.19
338.422	3472.19
338.65	3405.19
338.878	3306.19
339.106	3311.19
339.334	3192.19
339.562	3143.19
339.79	3069.19
340.018	3058.19
340.246	3021.19
340.474	3021.19
340.702	3046.19
340.93	3021.19
341.158	3088.19
341.386	2993.19
341.614	3006.19
341.842	2900.19
342.07	2829.19
342.298	2819.19
342.526	2745.19
342.754	2754.19
342.981	2689.19
343.209	2707.19
343.437	2726.19
343.665	2782.19
343.893	2760.19
344.12	2789.19
344.348	2766.19
344.576	2708.19
344.804	2706.19
345.031	2613.19
345.259	2620.19
345.487	2615.19
345.714	2587.19
345.942	2507.19
346.17	2580.19
346.397	2521.19
346.625	2518.19
346.853	2557.19
347.08	2531.19
347.308	2570.19
347.535	2599.19
347.763	2539.19
347.99	2471.19
348.218	2511.19
348.445	2505.19
348.673	2433.19
348.9	2469.19
349.128	2450.19
349.355	2445.19
349.583	2413.19
349.81	2436.19
350.037	2425.19
350.265	2392.19
350.492	2355.19
350.72	2428.19
350.947	2415.19
351.174	2388.19
351.402	2401.19
351.629	2396.19
351.856	2425.19
352.083	2431.19
352.311	2353.19
352.538	2407.19
352.765	2357.19
352.992	2375.19
353.22	2358.19
353.447	2382.19
353.674	2392.19
353.901	2411.19
354.128	2413.19
354.355	2363.19
354.583	2449.19
354.81	2421.19
355.037	2440.19
355.264	2392.19
355.491	2445.19
355.718	2430.19
355.945	2470.19
356.172	2477.19
356.399	2487.19
356.626	2453.19
356.853	2505.19
357.08	2527.19
357.307	2557.19
357.534	2555.19
357.761	2559.19
357.988	2621.19
358.215	2547.19
358.441	2593.19
358.668	2536.19
358.895	2535.19
359.122	2521.19
359.349	2526.19
359.576	2508.19
359.802	2504.19
360.029	2506.19
360.256	2524.19
360.483	2546.19
360.709	2508.19
360.936	2529.19
361.163	2551.19
361.39	2565.19
361.616	2517.19
361.843	2551.19
362.07	2595.19
362.296	2587.19
362.523	2596.19
362.749	2567.19
362.976	2565.19
363.203	2521.19
363.429	2556.19
363.656	2529.19
363.882	2546.19
364.109	2538.19
364.335	2563.19
364.562	2509.19
364.788	2537.19
365.015	2600.19
365.241	2613.19
365.468	2750.19
365.694	2949.19
365.92	2815.19
366.147	2663.19
366.373	2595.19
366.599	2613.19
366.826	2547.19
367.052	2645.19
367.278	2611.19
367.505	2622.19
367.731	2651.19
367.957	2610.19
368.184	2600.19
368.41	2640.19
368.636	2679.19
368.862	2664.19
369.089	2632.19
369.315	2619.19
369.541	2665.19
369.767	2622.19
369.993	2589.19
370.219	2583.19
370.445	2629.19
370.672	2671.19
370.898	2667.19
371.124	2631.19
371.35	2703.19
371.576	2688.19
371.802	2756.19
372.028	2733.19
372.254	2778.19
372.48	2760.19
372.706	2762.19
372.932	2740.19
373.158	2779.19
373.384	2790.19
373.61	2785.19
373.835	2747.19
374.061	2797.19
374.287	2803.19
374.513	2814.19
374.739	2888.19
374.965	2904.19
375.191	2903.19
375.416	2831.19
375.642	2751.19
375.868	2785.19
376.094	2762.19
376.319	2760.19
376.545	2770.19
376.771	2751.19
376.997	2732.19
377.222	2752.19
377.448	2645.19
377.674	2706.19
377.899	2726.19
378.125	2746.19
378.35	2743.19
378.576	2707.19
378.802	2758.19
379.027	2790.19
379.253	2824.19
379.478	3088.19
379.704	3615.19
379.929	5179.19
380.155	8081.19
380.38	8722.19
380.606	5383.19
380.831	3723.19
381.057	3239.19
381.282	2971.19
381.507	2884.19
381.733	2775.19
381.958	2770.19
382.184	2755.19
382.409	2713.19
382.634	2683.19
382.86	2647.19
383.085	2696.19
383.31	2669.19
383.535	2685.19
383.761	2666.19
383.986	2695.19
384.211	2726.19
384.436	2768.19
384.662	2793.19
384.887	2755.19
385.112	2757.19
385.337	2771.19
385.562	2726.19
385.787	2757.19
386.013	2837.19
386.238	2719.19
386.463	2803.19
386.688	2762.19
386.913	2711.19
387.138	2757.19
387.363	2760.19
387.588	2739.19
387.813	2750.19
388.038	2724.19
388.263	2709.19
388.488	2741.19
388.713	2783.19
388.938	2783.19
389.163	2721.19
389.387	2761.19
389.612	2690.19
389.837	2758.19
390.062	2728.19
390.287	2813.19
390.512	2784.19
390.736	2838.19
390.961	2873.19
391.186	2879.19
391.411	2886.19
391.636	2883.19
391.86	2927.19
392.085	2841.19
392.31	2914.19
392.534	2850.19
392.759	2825.19
392.984	2815.19
393.208	2835.19
393.433	2836.19
393.658	2883.19
393.882	2800.19
394.107	2727.19
394.331	2827.19
394.556	2794.19
394.78	2861.19
395.005	2817.19
395.229	2825.19
395.454	2910.19
395.678	2898.19
395.903	2914.19
396.127	2872.19
396.352	2841.19
396.576	2832.19
396.801	2854.19
397.025	2879.19
397.249	2854.19
397.474	2910.19
397.698	2934.19
397.922	2985.19
398.147	2961.19
398.371	2922.19
398.595	2982.19
398.82	3073.19
399.044	3212.19
399.268	3352.19
399.492	3570.19
399.717	3638.19
399.941	3658.19
400.165	3546.19
400.389	3375.19
400.613	3198.19
400.837	3134.19
401.062	3108.19
401.286	3055.19
401.51	3054.19
401.734	3027.19
401.958	3071.19
402.182	3024.19
402.406	3033.19
402.63	3093.19
402.854	3042.19
403.078	3083.19
403.302	3101.19
403.526	3146.19
403.75	3162.19
403.974	3141.19
404.198	3144.19
404.422	3219.19
404.645	3114.19
404.869	3167.19
405.093	3181.19
405.317	3117.19
405.541	3229.19
405.765	3277.19
405.988	3290.19
406.212	3314.19
406.436	3235.19
406.66	3220.19
406.883	3239.19
407.107	3367.19
407.331	3381.19
407.555	3439.19
407.778	3414.19
408.002	3405.19
408.226	3453.19
408.449	3354.19
408.673	3319.19
408.896	3236.19
409.12	3167.19
409.344	3148.19
409.567	3163.19
409.791	3194.19
410.014	3142.19
410.238	3169.19
410.461	3151.19
410.685	3128.19
410.908	3087.19
411.132	3088.19
411.355	3012.19
411.578	3056.19
411.802	3036.19
412.025	3037.19
412.249	3032.19
412.472	3058.19
412.695	3036.19
412.919	2983.19
413.142	2966.19
413.365	2965.19
413.589	3008.19
413.812	3032.19
414.035	2998.19
414.258	2983.19
414.482	2998.19
414.705	2979.19
414.928	2980.19
415.151	2966.19
415.374	2905.19
415.597	2952.19
415.821	2886.19
416.044	2837.19
416.267	2872.19
416.49	2857.19
416.713	2819.19
416.936	2872.19
417.159	2848.19
417.382	2809.19
417.605	2813.19
417.828	2842.19
418.051	2861.19
418.274	2906.19
418.497	2845.19
418.72	3035.19
418.943	2908.19
419.166	3025.19
419.389	3187.19
419.611	3135.19
419.834	3069.19
420.057	3014.19
420.28	2891.19
420.503	2879.19
420.726	2865.19
420.948	2848.19
421.171	2845.19
421.394	2883.19
421.617	2838.19
421.839	2902.19
422.062	2894.19
422.285	2863.19
422.507	2879.19
422.73	2897.19
422.953	2978.19
423.175	2953.19
423.398	2928.19
423.621	2890.19
423.843	2897.19
424.066	2865.19
424.288	2836.19
424.511	2892.19
424.733	2790.19
424.956	2867.19
425.178	2867.19
425.401	2797.19
425.623	2817.19
425.846	2771.19
426.068	2757.19
426.291	2807.19
426.513	2787.19
426.735	2715.19
426.958	2750.19
427.18	2710.19
427.402	2773.19
427.625	2697.19
427.847	2698.19
428.069	2656.19
428.292	2666.19
428.514	2641.19
428.736	2656.19
428.958	2672.19
429.181	2601.19
429.403	2664.19
429.625	2611.19
429.847	2674.19
430.069	2730.19
430.292	2802.19
430.514	2879.19
430.736	2868.19
430.958	2691.19
431.18	2596.19
431.402	2669.19
431.624	2637.19
431.846	2614.19
432.068	2593.19
432.29	2596.19
432.512	2551.19
432.734	2614.19
432.956	2620.19
433.178	2663.19
433.4	2609.19
433.622	2689.19
433.844	2606.19
434.066	2653.19
434.287	2632.19
434.509	2692.19
434.731	2722.19
434.953	2729.19
435.175	2765.19
435.397	2797.19
435.618	2629.19
435.84	2672.19
436.062	2611.19
436.284	2667.19
436.505	2586.19
436.727	2606.19
436.949	2602.19
437.17	2561.19
437.392	2551.19
437.614	2576.19
437.835	2488.19
438.057	2582.19
438.278	2559.19
438.5	2598.19
438.721	2585.19
438.943	2626.19
439.165	2777.19
439.386	2721.19
439.608	2735.19
439.829	2755.19
440.05	2856.19
440.272	2874.19
440.493	2746.19
440.715	2672.19
440.936	2726.19
441.158	2730.19
441.379	2797.19
441.6	2865.19
441.822	2943.19
442.043	3079.19
442.264	3182.19
442.486	2989.19
442.707	2871.19
442.928	2795.19
443.149	2838.19
443.371	2797.19
443.592	2805.19
443.813	2826.19
444.034	2826.19
444.255	2855.19
444.476	2903.19
444.698	2987.19
444.919	2971.19
445.14	3048.19
445.361	2914.19
445.582	2903.19
445.803	2826.19
446.024	2811.19
446.245	2794.19
446.466	2793.19
446.687	2786.19
446.908	2774.19
447.129	2654.19
447.35	2664.19
447.571	2633.19
447.792	2570.19
448.013	2589.19
448.234	2552.19
448.455	2561.19
448.675	2589.19
448.896	2725.19
449.117	2792.19
449.338	3047.19
449.559	3102.19
449.779	2827.19
450	2604.19
450.221	2573.19
450.442	2625.19
450.662	2558.19
450.883	2536.19
451.104	2495.19
451.324	2564.19
451.545	2559.19
451.766	2584.19
451.986	2591.19
452.207	2844.19
452.428	3578.19
452.648	5587.19
452.869	4653.19
453.089	3189.19
453.31	2957.19
453.53	2973.19
453.751	3029.19
453.971	3194.19
454.192	3119.19
454.412	2705.19
454.633	2583.19
454.853	2505.19
455.073	2459.19
455.294	2438.19
455.514	2402.19
455.734	2429.19
455.955	2394.19
456.175	2379.19
456.395	2415.19
456.616	2436.19
456.836	2489.19
457.056	2455.19
457.276	2490.19
457.497	2667.19
457.717	2639.19
457.937	2573.19
458.157	2554.19
458.377	2595.19
458.598	2625.19
458.818	2608.19
459.038	2606.19
459.258	2679.19
459.478	2654.19
459.698	2683.19
459.918	2674.19
460.138	2685.19
460.358	2753.19
460.578	2786.19
460.798	2857.19
461.018	2816.19
461.238	2838.19
461.458	2911.19
461.678	2916.19
461.898	2985.19
462.118	3011.19
462.338	3019.19
462.558	3048.19
462.777	3130.19
462.997	3240.19
463.217	3390.19
463.437	3509.19
463.657	3533.19
463.876	3466.19
464.096	3389.19
464.316	3178.19
464.536	3188.19
464.755	3098.19
464.975	3006.19
465.195	2881.19
465.414	2815.19
465.634	2727.19
465.854	2708.19
466.073	2734.19
466.293	2670.19
466.512	2691.19
466.732	2693.19
466.951	2851.19
467.171	2977.19
467.391	2939.19
467.61	2739.19
467.829	2653.19
468.049	2625.19
468.268	2569.19
468.488	2568.19
468.707	2573.19
468.927	2565.19
469.146	2558.19
469.365	2638.19
469.585	2642.19
469.804	2677.19
470.023	2743.19
470.243	2769.19
470.462	2899.19
470.681	3013.19
470.901	3287.19
471.12	3818.19
471.339	3782.19
471.558	3155.19
471.777	2955.19
471.997	2743.19
472.216	2705.19
472.435	2669.19
472.654	2635.19
472.873	2583.19
473.092	2577.19
473.311	2556.19
473.53	2639.19
473.749	2665.19
473.968	2778.19
474.187	2656.19
474.406	2591.19
474.625	2667.19
474.844	2642.19
475.063	2605.19
475.282	2653.19
475.501	2654.19
475.72	2645.19
475.939	2683.19
476.158	2719.19
476.377	2753.19
476.596	2763.19
476.814	2746.19
477.033	2732.19
477.252	2761.19
477.471	2856.19
477.69	2885.19
477.908	2886.19
478.127	2935.19
478.346	2931.19
478.564	3039.19
478.783	3013.19
479.002	3047.19
479.22	3082.19
479.439	3138.19
479.658	3070.19
479.876	3131.19
480.095	3161.19
480.313	3218.19
480.532	3251.19
480.751	3218.19
480.969	3191.19
481.188	3215.19
481.406	3132.19
481.624	3140.19
481.843	3203.19
482.061	3198.19
482.28	3142.19
482.498	3165.19
482.717	3198.19
482.935	3213.19
483.153	3283.19
483.372	3278.19
483.59	3302.19
483.808	3305.19
484.027	3514.19
484.245	3621.19
484.463	4154.19
484.681	4499.19
484.9	4126.19
485.118	3816.19
485.336	3751.19
485.554	3818.19
485.772	4021.19
485.99	4557.19
486.209	4923.19
486.427	4173.19
486.645	3682.19
486.863	3557.19
487.081	3449.19
487.299	3382.19
487.517	3392.19
487.735	3383.19
