Data from SnStandardFlinnAPT0064_QswitchEnergy10_LIBS07252019.E.O._I.C._HRD10591_15-26-43-973.txt Node
Date: Thu Jul 25 15:26:43 EDT 2019
User: cochatt
Spectrometer: HR+D1059
Trigger mode: 1
Integration Time (sec): 1.000000E-1
Scans to average: 1
Electric dark correction enabled: true
Nonlinearity correction enabled: false
Boxcar width: 0
XAxis mode: Wavelengths
Number of Pixels in Spectrum: 2048
>>>>>Begin Spectral Data<<<<<
223.165	-21.56
223.4	-21.56
223.635	-21.56
223.869	-10.56
224.104	-30.56
224.338	-16.56
224.573	-15.56
224.808	-11.56
225.042	-1.56
225.277	-7.56
225.511	-10.56
225.746	7.44
225.98	14.44
226.215	15.44
226.449	7.44
226.683	30.44
226.918	30.44
227.152	20.44
227.387	34.44
227.621	43.44
227.856	49.44
228.09	41.44
228.324	53.44
228.559	63.44
228.793	60.44
229.027	59.44
229.262	83.44
229.496	78.44
229.73	72.44
229.964	74.44
230.199	81.44
230.433	71.44
230.667	73.44
230.901	78.44
231.136	75.44
231.37	96.44
231.604	82.44
231.838	99.44
232.072	124.44
232.306	123.44
232.541	106.44
232.775	78.44
233.009	83.44
233.243	88.44
233.477	95.44
233.711	88.44
233.945	93.44
234.179	96.44
234.413	83.44
234.647	86.44
234.881	70.44
235.115	90.44
235.349	93.44
235.583	101.44
235.817	131.44
236.051	118.44
236.285	103.44
236.519	84.44
236.753	90.44
236.987	80.44
237.221	91.44
237.455	74.44
237.689	92.44
237.922	95.44
238.156	81.44
238.39	94.44
238.624	96.44
238.858	87.44
239.091	81.44
239.325	93.44
239.559	74.44
239.793	80.44
240.027	74.44
240.26	87.44
240.494	74.44
240.728	79.44
240.961	89.44
241.195	108.44
241.429	83.44
241.662	98.44
241.896	101.44
242.13	98.44
242.363	117.44
242.597	166.44
242.83	130.44
243.064	130.44
243.298	176.44
243.531	129.44
243.765	94.44
243.998	94.44
244.232	79.44
244.465	90.44
244.699	88.44
244.932	90.44
245.166	79.44
245.399	78.44
245.633	80.44
245.866	100.44
246.099	84.44
246.333	92.44
246.566	95.44
246.8	92.44
247.033	83.44
247.266	89.44
247.5	81.44
247.733	85.44
247.966	90.44
248.2	86.44
248.433	98.44
248.666	122.44
248.899	103.44
249.133	90.44
249.366	95.44
249.599	90.44
249.832	111.44
250.066	142.44
250.299	97.44
250.532	80.44
250.765	77.44
250.998	95.44
251.231	78.44
251.465	73.44
251.698	64.44
251.931	79.44
252.164	79.44
252.397	90.44
252.63	106.44
252.863	97.44
253.096	90.44
253.329	101.44
253.562	90.44
253.795	82.44
254.028	106.44
254.261	96.44
254.494	110.44
254.727	108.44
254.96	140.44
255.193	126.44
255.426	89.44
255.659	94.44
255.892	90.44
256.124	88.44
256.357	89.44
256.59	102.44
256.823	104.44
257.056	91.44
257.289	148.44
257.521	178.44
257.754	139.44
257.987	87.44
258.22	71.44
258.452	77.44
258.685	95.44
258.918	73.44
259.151	90.44
259.383	113.44
259.616	121.44
259.849	144.44
260.081	94.44
260.314	95.44
260.547	80.44
260.779	85.44
261.012	97.44
261.244	81.44
261.477	92.44
261.71	91.44
261.942	82.44
262.175	90.44
262.407	85.44
262.64	89.44
262.872	93.44
263.105	88.44
263.337	95.44
263.57	88.44
263.802	94.44
264.035	75.44
264.267	101.44
264.499	77.44
264.732	81.44
264.964	70.44
265.197	99.44
265.429	86.44
265.661	85.44
265.894	102.44
266.126	138.44
266.358	160.44
266.591	143.44
266.823	97.44
267.055	97.44
267.287	94.44
267.52	84.44
267.752	87.44
267.984	88.44
268.216	82.44
268.448	99.44
268.681	94.44
268.913	89.44
269.145	84.44
269.377	97.44
269.609	84.44
269.841	101.44
270.073	91.44
270.306	119.44
270.538	197.44
270.77	315.44
271.002	370.44
271.234	198.44
271.466	108.44
271.698	99.44
271.93	90.44
272.162	92.44
272.394	67.44
272.626	78.44
272.858	91.44
273.09	98.44
273.322	84.44
273.553	82.44
273.785	96.44
274.017	83.44
274.249	75.44
274.481	83.44
274.713	87.44
274.945	102.44
275.176	86.44
275.408	93.44
275.64	97.44
275.872	94.44
276.104	102.44
276.335	107.44
276.567	92.44
276.799	90.44
277.031	92.44
277.262	104.44
277.494	100.44
277.726	137.44
277.957	177.44
278.189	257.44
278.421	234.44
278.652	194.44
278.884	174.44
279.115	146.44
279.347	110.44
279.579	98.44
279.81	91.44
280.042	93.44
280.273	94.44
280.505	108.44
280.736	110.44
280.968	123.44
281.199	161.44
281.431	232.44
281.662	280.44
281.894	160.44
282.125	115.44
282.356	101.44
282.588	104.44
282.819	95.44
283.051	103.44
283.282	133.44
283.513	189.44
283.745	299.44
283.976	528.44
284.207	772.44
284.439	598.44
284.67	260.44
284.901	253.44
285.132	355.44
285.364	371.44
285.595	222.44
285.826	182.44
286.057	255.44
286.288	382.44
286.52	613.44
286.751	478.44
286.982	201.44
287.213	126.44
287.444	110.44
287.675	103.44
287.906	87.44
288.138	74.44
288.369	100.44
288.6	90.44
288.831	89.44
289.062	96.44
289.293	78.44
289.524	100.44
289.755	86.44
289.986	101.44
290.217	107.44
290.448	90.44
290.679	92.44
290.91	130.44
291.141	155.44
291.371	213.44
291.602	277.44
291.833	193.44
292.064	117.44
292.295	105.44
292.526	84.44
292.757	100.44
292.987	105.44
293.218	104.44
293.449	90.44
293.68	93.44
293.91	103.44
294.141	91.44
294.372	107.44
294.603	78.44
294.833	88.44
295.064	80.44
295.295	92.44
295.525	93.44
295.756	102.44
295.987	83.44
296.217	87.44
296.448	106.44
296.679	84.44
296.909	105.44
297.14	100.44
297.37	103.44
297.601	78.44
297.831	91.44
298.062	101.44
298.292	101.44
298.523	93.44
298.753	103.44
298.984	95.44
299.214	101.44
299.445	91.44
299.675	112.44
299.905	122.44
300.136	130.44
300.366	161.44
300.597	250.44
300.827	424.44
301.057	672.44
301.288	615.44
301.518	264.44
301.748	139.44
301.979	114.44
302.209	130.44
302.439	131.44
302.669	148.44
302.9	277.44
303.13	469.44
303.36	834.44
303.59	1170.44
303.82	814.44
304.051	281.44
304.281	166.44
304.511	132.44
304.741	102.44
304.971	118.44
305.201	103.44
305.431	118.44
305.661	106.44
305.891	110.44
306.121	106.44
306.352	108.44
306.582	108.44
306.812	118.44
307.042	118.44
307.272	109.44
307.502	122.44
307.731	89.44
307.961	107.44
308.191	109.44
308.421	92.44
308.651	111.44
308.881	110.44
309.111	92.44
309.341	103.44
309.571	110.44
309.8	124.44
310.03	113.44
310.26	110.44
310.49	97.44
310.72	83.44
310.949	94.44
311.179	115.44
311.409	101.44
311.639	103.44
311.868	111.44
312.098	101.44
312.328	110.44
312.557	99.44
312.787	104.44
313.017	87.44
313.246	114.44
313.476	100.44
313.706	124.44
313.935	141.44
314.165	184.44
314.394	222.44
314.624	175.44
314.853	134.44
315.083	107.44
315.312	128.44
315.542	122.44
315.771	117.44
316.001	144.44
316.23	139.44
316.46	140.44
316.689	173.44
316.919	247.44
317.148	450.44
317.377	859.44
317.607	1449.44
317.836	1332.44
318.065	478.44
318.295	197.44
318.524	137.44
318.753	125.44
318.983	123.44
319.212	114.44
319.441	125.44
319.67	118.44
319.9	117.44
320.129	118.44
320.358	120.44
320.587	130.44
320.816	115.44
321.046	112.44
321.275	124.44
321.504	127.44
321.733	137.44
321.962	154.44
322.191	165.44
322.42	137.44
322.649	131.44
322.878	123.44
323.108	111.44
323.337	125.44
323.566	125.44
323.795	118.44
324.024	123.44
324.253	143.44
324.482	177.44
324.71	213.44
324.939	248.44
325.168	214.44
325.397	163.44
325.626	229.44
325.855	447.44
326.084	924.44
326.313	1523.44
326.542	1528.44
326.77	606.44
326.999	258.44
327.228	200.44
327.457	216.44
327.686	215.44
327.914	178.44
328.143	146.44
328.372	134.44
328.6	124.44
328.829	120.44
329.058	117.44
329.287	114.44
329.515	101.44
329.744	112.44
329.972	122.44
330.201	116.44
330.43	129.44
330.658	127.44
330.887	105.44
331.115	119.44
331.344	105.44
331.572	110.44
331.801	116.44
332.03	122.44
332.258	129.44
332.486	176.44
332.715	264.44
332.943	480.44
333.172	774.44
333.4	630.44
333.629	228.44
333.857	152.44
334.085	124.44
334.314	126.44
334.542	116.44
334.771	121.44
334.999	116.44
335.227	121.44
335.455	131.44
335.684	124.44
335.912	123.44
336.14	143.44
336.369	106.44
336.597	110.44
336.825	118.44
337.053	97.44
337.281	102.44
337.51	105.44
337.738	102.44
337.966	113.44
338.194	111.44
338.422	115.44
338.65	120.44
338.878	113.44
339.106	104.44
339.334	126.44
339.562	120.44
339.79	122.44
340.018	112.44
340.246	114.44
340.474	106.44
340.702	106.44
340.93	114.44
341.158	115.44
341.386	110.44
341.614	123.44
341.842	123.44
342.07	112.44
342.298	119.44
342.526	115.44
342.754	100.44
342.981	106.44
343.209	96.44
343.437	107.44
343.665	102.44
343.893	99.44
344.12	116.44
344.348	127.44
344.576	108.44
344.804	107.44
345.031	99.44
345.259	108.44
345.487	92.44
345.714	108.44
345.942	104.44
346.17	100.44
346.397	107.44
346.625	103.44
346.853	104.44
347.08	102.44
347.308	116.44
347.535	101.44
347.763	95.44
347.99	107.44
348.218	111.44
348.445	115.44
348.673	102.44
348.9	130.44
349.128	128.44
349.355	102.44
349.583	120.44
349.81	102.44
350.037	100.44
350.265	102.44
350.492	116.44
350.72	126.44
350.947	105.44
351.174	105.44
351.402	99.44
351.629	122.44
351.856	110.44
352.083	97.44
352.311	106.44
352.538	122.44
352.765	124.44
352.992	117.44
353.22	102.44
353.447	97.44
353.674	96.44
353.901	109.44
354.128	100.44
354.355	94.44
354.583	119.44
354.81	118.44
355.037	97.44
355.264	110.44
355.491	99.44
355.718	102.44
355.945	100.44
356.172	98.44
356.399	94.44
356.626	94.44
356.853	98.44
357.08	106.44
357.307	110.44
357.534	109.44
357.761	95.44
357.988	106.44
358.215	105.44
358.441	104.44
358.668	120.44
358.895	112.44
359.122	114.44
359.349	111.44
359.576	100.44
359.802	103.44
360.029	121.44
360.256	106.44
360.483	105.44
360.709	116.44
360.936	127.44
361.163	102.44
361.39	107.44
361.616	112.44
361.843	102.44
362.07	112.44
362.296	112.44
362.523	104.44
362.749	95.44
362.976	113.44
363.203	107.44
363.429	102.44
363.656	123.44
363.882	103.44
364.109	114.44
364.335	105.44
364.562	114.44
364.788	117.44
365.015	110.44
365.241	121.44
365.468	176.44
365.694	238.44
365.92	195.44
366.147	112.44
366.373	83.44
366.599	100.44
366.826	103.44
367.052	92.44
367.278	99.44
367.505	95.44
367.731	93.44
367.957	100.44
368.184	107.44
368.41	116.44
368.636	110.44
368.862	105.44
369.089	88.44
369.315	97.44
369.541	102.44
369.767	111.44
369.993	89.44
370.219	112.44
370.445	104.44
370.672	122.44
370.898	99.44
371.124	97.44
371.35	114.44
371.576	105.44
371.802	89.44
372.028	105.44
372.254	103.44
372.48	112.44
372.706	113.44
372.932	112.44
373.158	99.44
373.384	123.44
373.61	126.44
373.835	114.44
374.061	112.44
374.287	124.44
374.513	106.44
374.739	121.44
374.965	121.44
375.191	125.44
375.416	117.44
375.642	114.44
375.868	120.44
376.094	111.44
376.319	106.44
376.545	116.44
376.771	98.44
376.997	107.44
377.222	114.44
377.448	101.44
377.674	99.44
377.899	102.44
378.125	111.44
378.35	110.44
378.576	122.44
378.802	122.44
379.027	122.44
379.253	132.44
379.478	149.44
379.704	299.44
379.929	744.44
380.155	1524.44
380.38	1582.44
380.606	507.44
380.831	196.44
381.057	144.44
381.282	113.44
381.507	121.44
381.733	95.44
381.958	112.44
382.184	104.44
382.409	94.44
382.634	92.44
382.86	98.44
383.085	101.44
383.31	113.44
383.535	89.44
383.761	106.44
383.986	109.44
384.211	107.44
384.436	104.44
384.662	92.44
384.887	102.44
385.112	100.44
385.337	100.44
385.562	107.44
385.787	84.44
386.013	112.44
386.238	99.44
386.463	102.44
386.688	111.44
386.913	98.44
387.138	104.44
387.363	102.44
387.588	112.44
387.813	105.44
388.038	103.44
388.263	111.44
388.488	113.44
388.713	97.44
388.938	99.44
389.163	98.44
389.387	85.44
389.612	85.44
389.837	92.44
390.062	104.44
390.287	96.44
390.512	107.44
390.736	101.44
390.961	90.44
391.186	92.44
391.411	101.44
391.636	112.44
391.86	96.44
392.085	100.44
392.31	107.44
392.534	98.44
392.759	80.44
392.984	97.44
393.208	115.44
393.433	141.44
393.658	149.44
393.882	104.44
394.107	112.44
394.331	96.44
394.556	102.44
394.78	95.44
395.005	91.44
395.229	82.44
395.454	105.44
395.678	91.44
395.903	99.44
396.127	117.44
396.352	99.44
396.576	102.44
396.801	119.44
397.025	137.44
397.249	124.44
397.474	110.44
397.698	93.44
397.922	97.44
398.147	96.44
398.371	95.44
398.595	100.44
398.82	102.44
399.044	107.44
399.268	101.44
399.492	110.44
399.717	107.44
399.941	95.44
400.165	103.44
400.389	85.44
400.613	103.44
400.837	95.44
401.062	98.44
401.286	106.44
401.51	95.44
401.734	104.44
401.958	90.44
402.182	93.44
402.406	105.44
402.63	99.44
402.854	95.44
403.078	89.44
403.302	101.44
403.526	102.44
403.75	99.44
403.974	110.44
404.198	89.44
404.422	91.44
404.645	86.44
404.869	98.44
405.093	99.44
405.317	109.44
405.541	102.44
405.765	139.44
405.988	140.44
406.212	119.44
406.436	92.44
406.66	111.44
406.883	92.44
407.107	112.44
407.331	90.44
407.555	86.44
407.778	104.44
408.002	94.44
408.226	95.44
408.449	100.44
408.673	104.44
408.896	89.44
409.12	105.44
409.344	100.44
409.567	96.44
409.791	113.44
410.014	101.44
410.238	91.44
410.461	112.44
410.685	91.44
410.908	103.44
411.132	104.44
411.355	96.44
411.578	99.44
411.802	88.44
412.025	83.44
412.249	99.44
412.472	89.44
412.695	92.44
412.919	89.44
413.142	115.44
413.365	86.44
413.589	92.44
413.812	103.44
414.035	100.44
414.258	102.44
414.482	102.44
414.705	104.44
414.928	111.44
415.151	108.44
415.374	97.44
415.597	83.44
415.821	106.44
416.044	99.44
416.267	102.44
416.49	105.44
416.713	97.44
416.936	88.44
417.159	91.44
417.382	101.44
417.605	91.44
417.828	103.44
418.051	99.44
418.274	85.44
418.497	91.44
418.72	104.44
418.943	97.44
419.166	102.44
419.389	110.44
419.611	88.44
419.834	89.44
420.057	95.44
420.28	96.44
420.503	106.44
420.726	104.44
420.948	96.44
421.171	90.44
421.394	102.44
421.617	95.44
421.839	94.44
422.062	110.44
422.285	96.44
422.507	95.44
422.73	119.44
422.953	136.44
423.175	100.44
423.398	105.44
423.621	112.44
423.843	82.44
424.066	98.44
424.288	81.44
424.511	96.44
424.733	104.44
424.956	87.44
425.178	100.44
425.401	86.44
425.623	96.44
425.846	87.44
426.068	94.44
426.291	97.44
426.513	102.44
426.735	83.44
426.958	95.44
427.18	105.44
427.402	98.44
427.625	107.44
427.847	85.44
428.069	107.44
428.292	101.44
428.514	97.44
428.736	94.44
428.958	95.44
429.181	88.44
429.403	91.44
429.625	99.44
429.847	109.44
430.069	94.44
430.292	98.44
430.514	107.44
430.736	110.44
430.958	86.44
431.18	89.44
431.402	100.44
431.624	94.44
431.846	102.44
432.068	105.44
432.29	88.44
432.512	101.44
432.734	90.44
432.956	99.44
433.178	105.44
433.4	95.44
433.622	90.44
433.844	91.44
434.066	99.44
434.287	90.44
434.509	92.44
434.731	96.44
434.953	92.44
435.175	103.44
435.397	90.44
435.618	95.44
435.84	68.44
436.062	84.44
436.284	105.44
436.505	94.44
436.727	93.44
436.949	93.44
437.17	82.44
437.392	92.44
437.614	88.44
437.835	101.44
438.057	101.44
438.278	106.44
438.5	96.44
438.721	87.44
438.943	104.44
439.165	112.44
439.386	109.44
439.608	113.44
439.829	97.44
440.05	112.44
440.272	129.44
440.493	99.44
440.715	120.44
440.936	110.44
441.158	92.44
441.379	93.44
441.6	90.44
441.822	96.44
442.043	112.44
442.264	133.44
442.486	106.44
442.707	103.44
442.928	97.44
443.149	91.44
443.371	103.44
443.592	97.44
443.813	84.44
444.034	100.44
444.255	101.44
444.476	97.44
444.698	99.44
444.919	98.44
445.14	200.44
445.361	144.44
445.582	106.44
445.803	91.44
446.024	93.44
446.245	101.44
446.466	110.44
446.687	111.44
446.908	99.44
447.129	82.44
447.35	92.44
447.571	76.44
447.792	80.44
448.013	105.44
448.234	89.44
448.455	105.44
448.675	88.44
448.896	103.44
449.117	95.44
449.338	131.44
449.559	147.44
449.779	130.44
450	110.44
450.221	114.44
450.442	112.44
450.662	119.44
450.883	107.44
451.104	104.44
451.324	129.44
451.545	114.44
451.766	123.44
451.986	124.44
452.207	206.44
452.428	515.44
452.648	1262.44
452.869	712.44
453.089	194.44
453.31	114.44
453.53	116.44
453.751	135.44
453.971	151.44
454.192	149.44
454.412	126.44
454.633	118.44
454.853	102.44
455.073	89.44
455.294	83.44
455.514	100.44
455.734	104.44
455.955	84.44
456.175	88.44
456.395	96.44
456.616	87.44
456.836	103.44
457.056	95.44
457.276	99.44
457.497	120.44
457.717	125.44
457.937	102.44
458.157	95.44
458.377	81.44
458.598	102.44
458.818	104.44
459.038	99.44
459.258	101.44
459.478	99.44
459.698	92.44
459.918	83.44
460.138	85.44
460.358	98.44
460.578	87.44
460.798	97.44
461.018	81.44
461.238	96.44
461.458	93.44
461.678	78.44
461.898	101.44
462.118	103.44
462.338	91.44
462.558	99.44
462.777	85.44
462.997	101.44
463.217	95.44
463.437	121.44
463.657	188.44
463.876	188.44
464.096	103.44
464.316	103.44
464.536	102.44
464.755	93.44
464.975	92.44
465.195	82.44
465.414	102.44
465.634	88.44
465.854	96.44
466.073	94.44
466.293	81.44
466.512	88.44
466.732	90.44
466.951	106.44
467.171	136.44
467.391	144.44
467.61	114.44
467.829	92.44
468.049	110.44
468.268	103.44
468.488	108.44
468.707	95.44
468.927	99.44
469.146	92.44
469.365	98.44
469.585	95.44
469.804	82.44
470.023	93.44
470.243	97.44
470.462	91.44
470.681	108.44
470.901	126.44
471.12	190.44
471.339	217.44
471.558	132.44
471.777	105.44
471.997	103.44
472.216	98.44
472.435	95.44
472.654	91.44
472.873	88.44
473.092	101.44
473.311	98.44
473.53	93.44
473.749	92.44
473.968	103.44
474.187	91.44
474.406	94.44
474.625	86.44
474.844	106.44
475.063	107.44
475.282	103.44
475.501	85.44
475.72	88.44
475.939	97.44
476.158	111.44
476.377	119.44
476.596	90.44
476.814	102.44
477.033	106.44
477.252	86.44
477.471	104.44
477.69	111.44
477.908	94.44
478.127	94.44
478.346	89.44
478.564	91.44
478.783	81.44
479.002	105.44
479.22	89.44
479.439	93.44
479.658	91.44
479.876	95.44
480.095	92.44
480.313	97.44
480.532	99.44
480.751	86.44
480.969	97.44
481.188	97.44
481.406	94.44
481.624	100.44
481.843	120.44
482.061	109.44
482.28	94.44
482.498	98.44
482.717	89.44
482.935	103.44
483.153	86.44
483.372	95.44
483.59	102.44
483.808	106.44
484.027	95.44
484.245	116.44
484.463	178.44
484.681	232.44
484.9	145.44
485.118	110.44
485.336	113.44
485.554	114.44
485.772	137.44
485.99	179.44
486.209	255.44
486.427	151.44
486.645	101.44
486.863	124.44
487.081	109.44
487.299	87.44
487.517	90.44
487.735	94.44
487.953	102.44
488.171	102.44
488.389	112.44
488.607	97.44
488.825	108.44
489.043	105.44
489.261	105.44
489.479	112.44
489.696	101.44
489.914	103.44
490.132	88.44
490.35	99.44
490.568	113.44
490.786	102.44
491.003	82.44
491.221	114.44
491.439	105.44
491.657	91.44
491.874	117.44
492.092	104.44
492.31	114.44
492.527	108.44
492.745	88.44
492.963	113.44
493.18	116.44
493.398	111.44
493.615	100.44
493.833	118.44
494.05	106.44
494.268	90.44
494.485	92.44
494.703	104.44
494.92	105.44
495.138	118.44
495.355	118.44
495.573	97.44
495.79	107.44
496.008	114.44
496.225	102.44
496.442	116.44
496.66	118.44
496.877	146.44
497.094	147.44
497.312	111.44
497.529	107.44
497.746	97.44
497.963	105.44
498.181	98.44
498.398	97.44
498.615	106.44
498.832	101.44
499.049	108.44
499.267	134.44
499.484	152.44
499.701	97.44
499.918	102.44
500.135	98.44
500.352	98.44
500.569	107.44
500.786	100.44
501.003	117.44
501.22	98.44
501.437	86.44
501.654	95.44
501.871	105.44
502.088	110.44
502.305	89.44
502.522	99.44
502.739	103.44
502.956	101.44
503.172	114.44
503.389	101.44
503.606	102.44
503.823	104.44
504.04	103.44
504.256	98.44
504.473	94.44
504.69	103.44
504.907	106.44
505.123	114.44
505.34	110.44
505.557	90.44
505.773	111.44
505.99	106.44
506.207	94.44
506.423	105.44
506.64	103.44
506.856	95.44
507.073	105.44
507.289	94.44
507.506	86.44
507.722	94.44
507.939	90.44
508.155	91.44
508.372	91.44
508.588	96.44
