Data from SnStandardFlinnAPT0064_QswitchEnergy10_LIBS07252019.E.O._I.C._HRD10591_15-27-09-973.txt Node
Date: Thu Jul 25 15:27:09 EDT 2019
User: cochatt
Spectrometer: HR+D1059
Trigger mode: 1
Integration Time (sec): 1.000000E-1
Scans to average: 1
Electric dark correction enabled: true
Nonlinearity correction enabled: false
Boxcar width: 0
XAxis mode: Wavelengths
Number of Pixels in Spectrum: 2048
>>>>>Begin Spectral Data<<<<<
223.165	-12.25
223.4	-12.25
223.635	-12.25
223.869	-18.25
224.104	-19.25
224.338	-15.25
224.573	-25.25
224.808	-25.25
225.042	-2.25
225.277	-5.25
225.511	8.75
225.746	12.75
225.98	10.75
226.215	-0.25
226.449	0.75
226.683	28.75
226.918	27.75
227.152	33.75
227.387	27.75
227.621	33.75
227.856	39.75
228.09	58.75
228.324	56.75
228.559	49.75
228.793	53.75
229.027	67.75
229.262	65.75
229.496	79.75
229.73	68.75
229.964	88.75
230.199	79.75
230.433	83.75
230.667	76.75
230.901	78.75
231.136	87.75
231.37	87.75
231.604	101.75
231.838	99.75
232.072	113.75
232.306	122.75
232.541	102.75
232.775	86.75
233.009	72.75
233.243	80.75
233.477	82.75
233.711	84.75
233.945	108.75
234.179	92.75
234.413	77.75
234.647	79.75
234.881	87.75
235.115	87.75
235.349	74.75
235.583	102.75
235.817	123.75
236.051	125.75
236.285	99.75
236.519	84.75
236.753	96.75
236.987	93.75
237.221	76.75
237.455	73.75
237.689	82.75
237.922	85.75
238.156	85.75
238.39	84.75
238.624	81.75
238.858	89.75
239.091	84.75
239.325	84.75
239.559	84.75
239.793	77.75
240.027	84.75
240.26	81.75
240.494	86.75
240.728	83.75
240.961	86.75
241.195	101.75
241.429	93.75
241.662	83.75
241.896	79.75
242.13	101.75
242.363	115.75
242.597	179.75
242.83	138.75
243.064	133.75
243.298	162.75
243.531	153.75
243.765	96.75
243.998	68.75
244.232	96.75
244.465	87.75
244.699	83.75
244.932	85.75
245.166	82.75
245.399	90.75
245.633	97.75
245.866	106.75
246.099	81.75
246.333	77.75
246.566	71.75
246.8	75.75
247.033	76.75
247.266	82.75
247.5	88.75
247.733	88.75
247.966	101.75
248.2	99.75
248.433	117.75
248.666	121.75
248.899	130.75
249.133	93.75
249.366	99.75
249.599	106.75
249.832	135.75
250.066	137.75
250.299	98.75
250.532	83.75
250.765	80.75
250.998	101.75
251.231	81.75
251.465	90.75
251.698	82.75
251.931	87.75
252.164	79.75
252.397	81.75
252.63	110.75
252.863	93.75
253.096	89.75
253.329	103.75
253.562	81.75
253.795	87.75
254.028	92.75
254.261	111.75
254.494	94.75
254.727	110.75
254.96	138.75
255.193	131.75
255.426	91.75
255.659	83.75
255.892	99.75
256.124	87.75
256.357	112.75
256.59	93.75
256.823	91.75
257.056	113.75
257.289	142.75
257.521	180.75
257.754	112.75
257.987	98.75
258.22	76.75
258.452	99.75
258.685	89.75
258.918	70.75
259.151	91.75
259.383	116.75
259.616	126.75
259.849	144.75
260.081	126.75
260.314	86.75
260.547	90.75
260.779	90.75
261.012	87.75
261.244	75.75
261.477	94.75
261.71	88.75
261.942	83.75
262.175	89.75
262.407	87.75
262.64	106.75
262.872	91.75
263.105	74.75
263.337	90.75
263.57	88.75
263.802	101.75
264.035	86.75
264.267	85.75
264.499	86.75
264.732	100.75
264.964	88.75
265.197	84.75
265.429	100.75
265.661	96.75
265.894	103.75
266.126	130.75
266.358	153.75
266.591	150.75
266.823	107.75
267.055	90.75
267.287	82.75
267.52	81.75
267.752	87.75
267.984	102.75
268.216	87.75
268.448	87.75
268.681	82.75
268.913	86.75
269.145	85.75
269.377	84.75
269.609	101.75
269.841	105.75
270.073	117.75
270.306	123.75
270.538	168.75
270.77	316.75
271.002	354.75
271.234	184.75
271.466	123.75
271.698	93.75
271.93	78.75
272.162	92.75
272.394	94.75
272.626	101.75
272.858	66.75
273.09	89.75
273.322	93.75
273.553	81.75
273.785	94.75
274.017	107.75
274.249	70.75
274.481	95.75
274.713	99.75
274.945	93.75
275.176	78.75
275.408	100.75
275.64	97.75
275.872	92.75
276.104	101.75
276.335	107.75
276.567	101.75
276.799	100.75
277.031	100.75
277.262	106.75
277.494	111.75
277.726	131.75
277.957	171.75
278.189	252.75
278.421	228.75
278.652	180.75
278.884	168.75
279.115	120.75
279.347	118.75
279.579	104.75
279.81	100.75
280.042	86.75
280.273	100.75
280.505	98.75
280.736	107.75
280.968	123.75
281.199	150.75
281.431	220.75
281.662	246.75
281.894	140.75
282.125	109.75
282.356	126.75
282.588	121.75
282.819	114.75
283.051	122.75
283.282	124.75
283.513	179.75
283.745	302.75
283.976	523.75
284.207	772.75
284.439	564.75
284.67	259.75
284.901	245.75
285.132	335.75
285.364	369.75
285.595	206.75
285.826	176.75
286.057	224.75
286.288	378.75
286.52	606.75
286.751	471.75
286.982	180.75
287.213	116.75
287.444	114.75
287.675	105.75
287.906	104.75
288.138	103.75
288.369	76.75
288.6	88.75
288.831	85.75
289.062	98.75
289.293	100.75
289.524	83.75
289.755	93.75
289.986	97.75
290.217	92.75
290.448	100.75
290.679	110.75
290.91	121.75
291.141	150.75
291.371	200.75
291.602	246.75
291.833	190.75
292.064	108.75
292.295	99.75
292.526	88.75
292.757	91.75
292.987	81.75
293.218	93.75
293.449	99.75
293.68	98.75
293.91	110.75
294.141	102.75
294.372	106.75
294.603	102.75
294.833	96.75
295.064	84.75
295.295	93.75
295.525	97.75
295.756	85.75
295.987	94.75
296.217	90.75
296.448	98.75
296.679	94.75
296.909	99.75
297.14	103.75
297.37	87.75
297.601	108.75
297.831	104.75
298.062	100.75
298.292	110.75
298.523	98.75
298.753	105.75
298.984	106.75
299.214	101.75
299.445	106.75
299.675	120.75
299.905	102.75
300.136	122.75
300.366	169.75
300.597	263.75
300.827	436.75
301.057	660.75
301.288	585.75
301.518	229.75
301.748	141.75
301.979	136.75
302.209	121.75
302.439	136.75
302.669	153.75
302.9	251.75
303.13	446.75
303.36	810.75
303.59	1106.75
303.82	781.75
304.051	283.75
304.281	156.75
304.511	136.75
304.741	112.75
304.971	113.75
305.201	110.75
305.431	98.75
305.661	104.75
305.891	117.75
306.121	110.75
306.352	108.75
306.582	94.75
306.812	99.75
307.042	115.75
307.272	113.75
307.502	101.75
307.731	96.75
307.961	101.75
308.191	107.75
308.421	97.75
308.651	106.75
308.881	110.75
309.111	108.75
309.341	114.75
309.571	103.75
309.8	118.75
310.03	112.75
310.26	88.75
310.49	113.75
310.72	108.75
310.949	109.75
311.179	116.75
311.409	96.75
311.639	116.75
311.868	104.75
312.098	109.75
312.328	108.75
312.557	116.75
312.787	111.75
313.017	108.75
313.246	115.75
313.476	120.75
313.706	119.75
313.935	152.75
314.165	182.75
314.394	221.75
314.624	155.75
314.853	135.75
315.083	109.75
315.312	127.75
315.542	133.75
315.771	130.75
316.001	133.75
316.23	145.75
316.46	152.75
316.689	163.75
316.919	255.75
317.148	456.75
317.377	870.75
317.607	1396.75
317.836	1343.75
318.065	500.75
318.295	225.75
318.524	162.75
318.753	131.75
318.983	118.75
319.212	121.75
319.441	112.75
319.67	115.75
319.9	111.75
320.129	114.75
320.358	117.75
320.587	123.75
320.816	117.75
321.046	114.75
321.275	100.75
321.504	117.75
321.733	133.75
321.962	152.75
322.191	147.75
322.42	137.75
322.649	112.75
322.878	134.75
323.108	125.75
323.337	124.75
323.566	131.75
323.795	105.75
324.024	131.75
324.253	142.75
324.482	148.75
324.71	202.75
324.939	252.75
325.168	211.75
325.397	185.75
325.626	246.75
325.855	460.75
326.084	867.75
326.313	1493.75
326.542	1428.75
326.77	561.75
326.999	242.75
327.228	210.75
327.457	199.75
327.686	215.75
327.914	159.75
328.143	138.75
328.372	122.75
328.6	126.75
328.829	105.75
329.058	122.75
329.287	120.75
329.515	129.75
329.744	116.75
329.972	119.75
330.201	100.75
330.43	118.75
330.658	120.75
330.887	99.75
331.115	123.75
331.344	108.75
331.572	125.75
331.801	126.75
332.03	130.75
332.258	141.75
332.486	179.75
332.715	262.75
332.943	475.75
333.172	683.75
333.4	626.75
333.629	222.75
333.857	148.75
334.085	102.75
334.314	122.75
334.542	108.75
334.771	121.75
334.999	110.75
335.227	126.75
335.455	127.75
335.684	108.75
335.912	113.75
336.14	114.75
336.369	113.75
336.597	111.75
336.825	121.75
337.053	98.75
337.281	118.75
337.51	106.75
337.738	108.75
337.966	115.75
338.194	109.75
338.422	119.75
338.65	104.75
338.878	112.75
339.106	120.75
339.334	105.75
339.562	98.75
339.79	105.75
340.018	99.75
340.246	102.75
340.474	111.75
340.702	116.75
340.93	102.75
341.158	112.75
341.386	117.75
341.614	124.75
341.842	108.75
342.07	106.75
342.298	120.75
342.526	107.75
342.754	100.75
342.981	118.75
343.209	101.75
343.437	109.75
343.665	113.75
343.893	106.75
344.12	120.75
344.348	102.75
344.576	116.75
344.804	103.75
345.031	114.75
345.259	98.75
345.487	109.75
345.714	97.75
345.942	106.75
346.17	112.75
346.397	114.75
346.625	93.75
346.853	111.75
347.08	104.75
347.308	100.75
347.535	112.75
347.763	103.75
347.99	96.75
348.218	107.75
348.445	101.75
348.673	112.75
348.9	112.75
349.128	116.75
349.355	117.75
349.583	121.75
349.81	102.75
350.037	107.75
350.265	118.75
350.492	102.75
350.72	105.75
350.947	110.75
351.174	107.75
351.402	112.75
351.629	124.75
351.856	114.75
352.083	110.75
352.311	118.75
352.538	112.75
352.765	123.75
352.992	108.75
353.22	104.75
353.447	101.75
353.674	96.75
353.901	103.75
354.128	105.75
354.355	121.75
354.583	93.75
354.81	100.75
355.037	102.75
355.264	102.75
355.491	104.75
355.718	93.75
355.945	103.75
356.172	98.75
356.399	101.75
356.626	100.75
356.853	120.75
357.08	112.75
357.307	107.75
357.534	112.75
357.761	92.75
357.988	111.75
358.215	104.75
358.441	113.75
358.668	99.75
358.895	112.75
359.122	118.75
359.349	121.75
359.576	120.75
359.802	118.75
360.029	98.75
360.256	88.75
360.483	119.75
360.709	106.75
360.936	112.75
361.163	114.75
361.39	113.75
361.616	113.75
361.843	103.75
362.07	105.75
362.296	108.75
362.523	114.75
362.749	99.75
362.976	103.75
363.203	121.75
363.429	106.75
363.656	116.75
363.882	108.75
364.109	116.75
364.335	96.75
364.562	102.75
364.788	120.75
365.015	118.75
365.241	139.75
365.468	165.75
365.694	216.75
365.92	207.75
366.147	108.75
366.373	104.75
366.599	102.75
366.826	110.75
367.052	96.75
367.278	96.75
367.505	110.75
367.731	103.75
367.957	96.75
368.184	114.75
368.41	105.75
368.636	117.75
368.862	102.75
369.089	104.75
369.315	105.75
369.541	112.75
369.767	107.75
369.993	114.75
370.219	113.75
370.445	116.75
370.672	111.75
370.898	93.75
371.124	117.75
371.35	102.75
371.576	116.75
371.802	107.75
372.028	102.75
372.254	119.75
372.48	105.75
372.706	116.75
372.932	112.75
373.158	117.75
373.384	114.75
373.61	114.75
373.835	111.75
374.061	116.75
374.287	124.75
374.513	112.75
374.739	114.75
374.965	119.75
375.191	113.75
375.416	100.75
375.642	112.75
375.868	109.75
376.094	99.75
376.319	99.75
376.545	116.75
376.771	124.75
376.997	109.75
377.222	120.75
377.448	99.75
377.674	110.75
377.899	90.75
378.125	111.75
378.35	123.75
378.576	121.75
378.802	120.75
379.027	127.75
379.253	134.75
379.478	178.75
379.704	310.75
379.929	712.75
380.155	1412.75
380.38	1494.75
380.606	487.75
380.831	170.75
381.057	132.75
381.282	130.75
381.507	121.75
381.733	113.75
381.958	89.75
382.184	106.75
382.409	112.75
382.634	108.75
382.86	120.75
383.085	104.75
383.31	88.75
383.535	123.75
383.761	95.75
383.986	101.75
384.211	109.75
384.436	101.75
384.662	98.75
384.887	117.75
385.112	109.75
385.337	119.75
385.562	98.75
385.787	107.75
386.013	109.75
386.238	105.75
386.463	96.75
386.688	96.75
386.913	100.75
387.138	110.75
387.363	113.75
387.588	110.75
387.813	124.75
388.038	97.75
388.263	88.75
388.488	101.75
388.713	98.75
388.938	102.75
389.163	105.75
389.387	101.75
389.612	103.75
389.837	97.75
390.062	98.75
390.287	99.75
390.512	116.75
390.736	95.75
390.961	96.75
391.186	106.75
391.411	92.75
391.636	99.75
391.86	83.75
392.085	99.75
392.31	104.75
392.534	93.75
392.759	99.75
392.984	103.75
393.208	114.75
393.433	140.75
393.658	113.75
393.882	106.75
394.107	94.75
394.331	96.75
394.556	93.75
394.78	99.75
395.005	103.75
395.229	103.75
395.454	99.75
395.678	116.75
395.903	112.75
396.127	101.75
396.352	96.75
396.576	106.75
396.801	116.75
397.025	116.75
397.249	115.75
397.474	104.75
397.698	93.75
397.922	107.75
398.147	93.75
398.371	84.75
398.595	104.75
398.82	98.75
399.044	103.75
399.268	96.75
399.492	92.75
399.717	89.75
399.941	97.75
400.165	106.75
400.389	99.75
400.613	104.75
400.837	114.75
401.062	96.75
401.286	98.75
401.51	100.75
401.734	97.75
401.958	109.75
402.182	94.75
402.406	85.75
402.63	93.75
402.854	99.75
403.078	96.75
403.302	101.75
403.526	100.75
403.75	92.75
403.974	98.75
404.198	102.75
404.422	86.75
404.645	78.75
404.869	110.75
405.093	93.75
405.317	104.75
405.541	99.75
405.765	115.75
405.988	120.75
406.212	105.75
406.436	102.75
406.66	100.75
406.883	89.75
407.107	103.75
407.331	105.75
407.555	99.75
407.778	106.75
408.002	108.75
408.226	105.75
408.449	87.75
408.673	108.75
408.896	105.75
409.12	102.75
409.344	98.75
409.567	112.75
409.791	100.75
410.014	112.75
410.238	112.75
410.461	88.75
410.685	98.75
410.908	101.75
411.132	103.75
411.355	105.75
411.578	99.75
411.802	97.75
412.025	102.75
412.249	97.75
412.472	96.75
412.695	100.75
412.919	103.75
413.142	97.75
413.365	89.75
413.589	103.75
413.812	104.75
414.035	105.75
414.258	112.75
414.482	102.75
414.705	116.75
414.928	104.75
415.151	97.75
415.374	104.75
415.597	112.75
415.821	93.75
416.044	92.75
416.267	96.75
416.49	109.75
416.713	108.75
416.936	104.75
417.159	92.75
417.382	87.75
417.605	101.75
417.828	77.75
418.051	95.75
418.274	104.75
418.497	82.75
418.72	103.75
418.943	90.75
419.166	102.75
419.389	91.75
419.611	94.75
419.834	111.75
420.057	100.75
420.28	108.75
420.503	102.75
420.726	104.75
420.948	101.75
421.171	93.75
421.394	80.75
421.617	91.75
421.839	92.75
422.062	101.75
422.285	95.75
422.507	104.75
422.73	114.75
422.953	125.75
423.175	107.75
423.398	98.75
423.621	100.75
423.843	91.75
424.066	77.75
424.288	101.75
424.511	95.75
424.733	96.75
424.956	100.75
425.178	100.75
425.401	89.75
425.623	105.75
425.846	89.75
426.068	99.75
426.291	96.75
426.513	95.75
426.735	109.75
426.958	107.75
427.18	102.75
427.402	113.75
427.625	84.75
427.847	100.75
428.069	82.75
428.292	105.75
428.514	105.75
428.736	96.75
428.958	99.75
429.181	100.75
429.403	99.75
429.625	90.75
429.847	101.75
430.069	104.75
430.292	107.75
430.514	99.75
430.736	109.75
430.958	104.75
431.18	102.75
431.402	90.75
431.624	83.75
431.846	78.75
432.068	80.75
432.29	87.75
432.512	93.75
432.734	114.75
432.956	86.75
433.178	114.75
433.4	79.75
433.622	98.75
433.844	84.75
434.066	79.75
434.287	94.75
434.509	108.75
434.731	94.75
434.953	103.75
435.175	90.75
435.397	83.75
435.618	103.75
435.84	97.75
436.062	87.75
436.284	97.75
436.505	91.75
436.727	87.75
436.949	97.75
437.17	108.75
437.392	89.75
437.614	104.75
437.835	101.75
438.057	85.75
438.278	91.75
438.5	100.75
438.721	88.75
438.943	93.75
439.165	105.75
439.386	109.75
439.608	102.75
439.829	91.75
440.05	104.75
440.272	123.75
440.493	107.75
440.715	94.75
440.936	92.75
441.158	99.75
441.379	102.75
441.6	99.75
441.822	91.75
442.043	115.75
442.264	134.75
442.486	116.75
442.707	105.75
442.928	101.75
443.149	97.75
443.371	105.75
443.592	90.75
443.813	90.75
444.034	95.75
444.255	86.75
444.476	90.75
444.698	98.75
444.919	101.75
445.14	226.75
445.361	171.75
445.582	86.75
445.803	105.75
446.024	100.75
446.245	112.75
446.466	111.75
446.687	104.75
446.908	124.75
447.129	101.75
447.35	82.75
447.571	104.75
447.792	96.75
448.013	90.75
448.234	106.75
448.455	104.75
448.675	98.75
448.896	106.75
449.117	108.75
449.338	122.75
449.559	126.75
449.779	124.75
450	102.75
450.221	122.75
450.442	108.75
450.662	117.75
450.883	104.75
451.104	113.75
451.324	114.75
451.545	113.75
451.766	112.75
451.986	117.75
452.207	208.75
452.428	493.75
452.648	1170.75
452.869	682.75
453.089	194.75
453.31	125.75
453.53	122.75
453.751	157.75
453.971	161.75
454.192	146.75
454.412	114.75
454.633	105.75
454.853	99.75
455.073	106.75
455.294	103.75
455.514	105.75
455.734	90.75
455.955	85.75
456.175	94.75
456.395	101.75
456.616	101.75
456.836	90.75
457.056	98.75
457.276	113.75
457.497	100.75
457.717	113.75
457.937	101.75
458.157	92.75
458.377	113.75
458.598	99.75
458.818	97.75
459.038	92.75
459.258	92.75
459.478	93.75
459.698	88.75
459.918	86.75
460.138	100.75
460.358	80.75
460.578	100.75
460.798	105.75
461.018	97.75
461.238	79.75
461.458	90.75
461.678	94.75
461.898	99.75
462.118	99.75
462.338	112.75
462.558	84.75
462.777	99.75
462.997	109.75
463.217	102.75
463.437	123.75
463.657	173.75
463.876	185.75
464.096	119.75
464.316	85.75
464.536	92.75
464.755	113.75
464.975	98.75
465.195	101.75
465.414	99.75
465.634	109.75
465.854	89.75
466.073	85.75
466.293	96.75
466.512	103.75
466.732	109.75
466.951	110.75
467.171	156.75
467.391	136.75
467.61	114.75
467.829	110.75
468.049	103.75
468.268	94.75
468.488	101.75
468.707	111.75
468.927	98.75
469.146	102.75
469.365	98.75
469.585	100.75
469.804	85.75
470.023	94.75
470.243	106.75
470.462	102.75
470.681	104.75
470.901	134.75
471.12	199.75
471.339	211.75
471.558	122.75
471.777	118.75
471.997	112.75
472.216	109.75
472.435	92.75
472.654	99.75
472.873	79.75
473.092	99.75
473.311	105.75
473.53	92.75
473.749	93.75
473.968	98.75
474.187	102.75
474.406	88.75
474.625	100.75
474.844	91.75
475.063	100.75
475.282	101.75
475.501	96.75
475.72	98.75
475.939	100.75
476.158	104.75
476.377	114.75
476.596	107.75
476.814	95.75
477.033	105.75
477.252	103.75
477.471	109.75
477.69	87.75
477.908	99.75
478.127	100.75
478.346	118.75
478.564	92.75
478.783	96.75
479.002	99.75
479.22	94.75
479.439	96.75
479.658	103.75
479.876	93.75
480.095	108.75
480.313	118.75
480.532	112.75
480.751	88.75
480.969	96.75
481.188	104.75
481.406	107.75
481.624	115.75
481.843	121.75
482.061	117.75
482.28	116.75
482.498	95.75
482.717	102.75
482.935	100.75
483.153	86.75
483.372	92.75
483.59	97.75
483.808	81.75
484.027	105.75
484.245	119.75
484.463	186.75
484.681	228.75
484.9	127.75
485.118	114.75
485.336	101.75
485.554	114.75
485.772	123.75
485.99	189.75
486.209	259.75
486.427	160.75
486.645	109.75
486.863	105.75
487.081	107.75
487.299	103.75
487.517	108.75
487.735	98.75
487.953	99.75
488.171	122.75
488.389	108.75
488.607	98.75
488.825	111.75
489.043	105.75
489.261	94.75
489.479	73.75
489.696	95.75
489.914	99.75
490.132	101.75
490.35	108.75
490.568	98.75
490.786	106.75
491.003	101.75
491.221	103.75
491.439	100.75
491.657	90.75
491.874	103.75
492.092	114.75
492.31	107.75
492.527	98.75
492.745	104.75
492.963	120.75
493.18	102.75
493.398	108.75
493.615	106.75
493.833	100.75
494.05	109.75
494.268	111.75
494.485	98.75
494.703	98.75
494.92	98.75
495.138	96.75
495.355	124.75
495.573	112.75
495.79	98.75
496.008	109.75
496.225	112.75
496.442	107.75
496.66	117.75
496.877	154.75
497.094	151.75
497.312	113.75
497.529	108.75
497.746	106.75
497.963	114.75
498.181	109.75
498.398	106.75
498.615	93.75
498.832	97.75
499.049	118.75
499.267	140.75
499.484	169.75
499.701	113.75
499.918	95.75
500.135	93.75
500.352	112.75
500.569	101.75
500.786	95.75
501.003	100.75
501.22	93.75
501.437	99.75
501.654	114.75
501.871	112.75
502.088	96.75
502.305	95.75
502.522	97.75
502.739	95.75
502.956	105.75
503.172	103.75
503.389	89.75
503.606	90.75
503.823	118.75
504.04	104.75
504.256	104.75
504.473	98.75
504.69	96.75
504.907	123.75
505.123	111.75
505.34	102.75
505.557	104.75
505.773	92.75
505.99	108.75
506.207	105.75
506.423	106.75
506.64	117.75
506.856	112.75
507.073	102.75
507.289	103.75
507.506	96.75
507.722	94.75
