Data from SnStandardFlinnAPT0064_LampEnergy10_LIBS07252019.E.O._I.C._HRD10591_15-19-25-492.txt Node
Date: Thu Jul 25 15:19:25 EDT 2019
User: cochatt
Spectrometer: HR+D1059
Trigger mode: 1
Integration Time (sec): 1.000000E-1
Scans to average: 1
Electric dark correction enabled: true
Nonlinearity correction enabled: false
Boxcar width: 0
XAxis mode: Wavelengths
Number of Pixels in Spectrum: 2048
>>>>>Begin Spectral Data<<<<<
223.165	-3.19
223.4	-3.19
223.635	-3.19
223.869	-19.19
224.104	-13.19
224.338	-9.19
224.573	-18.19
224.808	-22.19
225.042	-3.19
225.277	-9.19
225.511	-3.19
225.746	2.81
225.98	7.81
226.215	1.81
226.449	13.81
226.683	26.81
226.918	16.81
227.152	30.81
227.387	31.81
227.621	37.81
227.856	41.81
228.09	57.81
228.324	46.81
228.559	51.81
228.793	107.81
229.027	330.81
229.262	364.81
229.496	332.81
229.73	310.81
229.964	309.81
230.199	310.81
230.433	297.81
230.667	313.81
230.901	323.81
231.136	341.81
231.37	376.81
231.604	416.81
231.838	453.81
232.072	542.81
232.306	611.81
232.541	517.81
232.775	460.81
233.009	426.81
233.243	426.81
233.477	481.81
233.711	555.81
233.945	616.81
234.179	550.81
234.413	462.81
234.647	456.81
234.881	504.81
235.115	535.81
235.349	653.81
235.583	863.81
235.817	1064.81
236.051	1056.81
236.285	711.81
236.519	590.81
236.753	529.81
236.987	517.81
237.221	553.81
237.455	527.81
237.689	497.81
237.922	478.81
238.156	485.81
238.39	475.81
238.624	508.81
238.858	493.81
239.091	507.81
239.325	505.81
239.559	524.81
239.793	532.81
240.027	532.81
240.26	572.81
240.494	575.81
240.728	628.81
240.961	654.81
241.195	677.81
241.429	736.81
241.662	749.81
241.896	828.81
242.13	1008.81
242.363	1361.81
242.597	1720.81
242.83	1670.81
243.064	1660.81
243.298	1912.81
243.531	1620.81
243.765	1030.81
243.998	844.81
244.232	729.81
244.465	665.81
244.699	649.81
244.932	672.81
245.166	664.81
245.399	691.81
245.633	711.81
245.866	710.81
246.099	697.81
246.333	680.81
246.566	640.81
246.8	638.81
247.033	649.81
247.266	652.81
247.5	656.81
247.733	692.81
247.966	697.81
248.2	776.81
248.433	899.81
248.666	1032.81
248.899	988.81
249.133	871.81
249.366	927.81
249.599	1002.81
249.832	1132.81
250.066	1129.81
250.299	880.81
250.532	838.81
250.765	782.81
250.998	737.81
251.231	742.81
251.465	741.81
251.698	742.81
251.931	753.81
252.164	753.81
252.397	764.81
252.63	800.81
252.863	800.81
253.096	798.81
253.329	804.81
253.562	805.81
253.795	818.81
254.028	792.81
254.261	810.81
254.494	879.81
254.727	1085.81
254.96	1283.81
255.193	1315.81
255.426	990.81
255.659	918.81
255.892	869.81
256.124	896.81
256.357	924.81
256.59	917.81
256.823	1011.81
257.056	1184.81
257.289	1430.81
257.521	1550.81
257.754	1235.81
257.987	978.81
258.22	942.81
258.452	916.81
258.685	913.81
258.918	951.81
259.151	1000.81
259.383	1112.81
259.616	1267.81
259.849	1297.81
260.081	1130.81
260.314	991.81
260.547	929.81
260.779	959.81
261.012	967.81
261.244	945.81
261.477	982.81
261.71	968.81
261.942	986.81
262.175	996.81
262.407	1027.81
262.64	1018.81
262.872	1079.81
263.105	1134.81
263.337	1199.81
263.57	1241.81
263.802	1254.81
264.035	1285.81
264.267	1272.81
264.499	1324.81
264.732	1359.81
264.964	1330.81
265.197	1372.81
265.429	1407.81
265.661	1428.81
265.894	1540.81
266.126	1711.81
266.358	2014.81
266.591	1920.81
266.823	1633.81
267.055	1431.81
267.287	1362.81
267.52	1301.81
267.752	1286.81
267.984	1253.81
268.216	1246.81
268.448	1193.81
268.681	1219.81
268.913	1233.81
269.145	1244.81
269.377	1238.81
269.609	1299.81
269.841	1292.81
270.073	1419.81
270.306	1662.81
270.538	2286.81
270.77	3427.81
271.002	4279.81
271.234	3049.81
271.466	2021.81
271.698	1572.81
271.93	1452.81
272.162	1382.81
272.394	1289.81
272.626	1273.81
272.858	1232.81
273.09	1218.81
273.322	1216.81
273.553	1214.81
273.785	1210.81
274.017	1198.81
274.249	1210.81
274.481	1200.81
274.713	1178.81
274.945	1201.81
275.176	1218.81
275.408	1197.81
275.64	1223.81
275.872	1220.81
276.104	1249.81
276.335	1284.81
276.567	1320.81
276.799	1286.81
277.031	1309.81
277.262	1306.81
277.494	1454.81
277.726	1596.81
277.957	1957.81
278.189	2191.81
278.421	2068.81
278.652	1817.81
278.884	1734.81
279.115	1557.81
279.347	1446.81
279.579	1444.81
279.81	1420.81
280.042	1399.81
280.273	1437.81
280.505	1490.81
280.736	1554.81
280.968	1616.81
281.199	1841.81
281.431	2139.81
281.662	2190.81
281.894	1884.81
282.125	1667.81
282.356	1659.81
282.588	1706.81
282.819	1792.81
283.051	1877.81
283.282	2083.81
283.513	2624.81
283.745	3826.81
283.976	6043.81
284.207	8638.81
284.439	8028.81
284.67	4983.81
284.901	4124.81
285.132	4173.81
285.364	3916.81
285.595	2905.81
285.826	2620.81
286.057	3034.81
286.288	4183.81
286.52	5689.81
286.751	5322.81
286.982	3320.81
287.213	2480.81
287.444	2113.81
287.675	1926.81
287.906	1826.81
288.138	1823.81
288.369	1694.81
288.6	1723.81
288.831	1678.81
289.062	1703.81
289.293	1681.81
289.524	1711.81
289.755	1685.81
289.986	1720.81
290.217	1702.81
290.448	1721.81
290.679	1778.81
290.91	1794.81
291.141	1923.81
291.371	2050.81
291.602	2197.81
291.833	1975.81
292.064	1749.81
292.295	1688.81
292.526	1656.81
292.757	1636.81
292.987	1590.81
293.218	1613.81
293.449	1650.81
293.68	1587.81
293.91	1591.81
294.141	1582.81
294.372	1524.81
294.603	1540.81
294.833	1522.81
295.064	1549.81
295.295	1553.81
295.525	1559.81
295.756	1557.81
295.987	1509.81
296.217	1593.81
296.448	1562.81
296.679	1582.81
296.909	1554.81
297.14	1590.81
297.37	1589.81
297.601	1658.81
297.831	1614.81
298.062	1614.81
298.292	1690.81
298.523	1698.81
298.753	1737.81
298.984	1731.81
299.214	1724.81
299.445	1794.81
299.675	1781.81
299.905	1901.81
300.136	1968.81
300.366	2206.81
300.597	2903.81
300.827	4147.81
301.057	5654.81
301.288	5770.81
301.518	3709.81
301.748	2778.81
301.979	2456.81
302.209	2354.81
302.439	2401.81
302.669	2554.81
302.9	3156.81
303.13	4379.81
303.36	6554.81
303.59	8827.81
303.82	7799.81
304.051	4624.81
304.281	3344.81
304.511	2673.81
304.741	2433.81
304.971	2267.81
305.201	2157.81
305.431	2092.81
305.661	1980.81
305.891	1939.81
306.121	1887.81
306.352	1884.81
306.582	1869.81
306.812	1859.81
307.042	1860.81
307.272	1824.81
307.502	1814.81
307.731	1840.81
307.961	1782.81
308.191	1773.81
308.421	1785.81
308.651	1794.81
308.881	1803.81
309.111	1800.81
309.341	1808.81
309.571	1844.81
309.8	1840.81
310.03	1837.81
310.26	1871.81
310.49	1829.81
310.72	1855.81
310.949	1844.81
311.179	1879.81
311.409	1863.81
311.639	1922.81
311.868	1942.81
312.098	1952.81
312.328	1940.81
312.557	1949.81
312.787	1978.81
313.017	2004.81
313.246	2008.81
313.476	2001.81
313.706	2052.81
313.935	2228.81
314.165	2437.81
314.394	2550.81
314.624	2428.81
314.853	2222.81
315.083	2192.81
315.312	2144.81
315.542	2244.81
315.771	2273.81
316.001	2252.81
316.23	2377.81
316.46	2441.81
316.689	2752.81
316.919	3391.81
317.148	4898.81
317.377	7717.81
317.607	11237.81
317.836	11747.81
318.065	7354.81
318.295	4697.81
318.524	3716.81
318.753	3164.81
318.983	2881.81
319.212	2651.81
319.441	2566.81
319.67	2569.81
319.9	2466.81
320.129	2425.81
320.358	2358.81
320.587	2373.81
320.816	2359.81
321.046	2378.81
321.275	2400.81
321.504	2382.81
321.733	2468.81
321.962	2547.81
322.191	2553.81
322.42	2530.81
322.649	2533.81
322.878	2472.81
323.108	2485.81
323.337	2591.81
323.566	2616.81
323.795	2662.81
324.024	2703.81
324.253	2751.81
324.482	2891.81
324.71	3072.81
324.939	3306.81
325.168	3395.81
325.397	3569.81
325.626	4175.81
325.855	5972.81
326.084	9353.81
326.313	13358.81
326.542	14078.81
326.77	9918.81
326.999	6505.81
327.228	5364.81
327.457	4988.81
327.686	5025.81
327.914	5239.81
328.143	6070.81
328.372	7132.81
328.6	7826.81
328.829	7006.81
329.058	5905.81
329.287	5186.81
329.515	4716.81
329.744	4374.81
329.972	4121.81
330.201	3881.81
330.43	3753.81
330.658	3599.81
330.887	3611.81
331.115	3488.81
331.344	3454.81
331.572	3465.81
331.801	3485.81
332.03	3495.81
332.258	3605.81
332.486	3783.81
332.715	4318.81
332.943	5507.81
333.172	6921.81
333.4	6897.81
333.629	5192.81
333.857	4655.81
334.085	4562.81
334.314	4686.81
334.542	5108.81
334.771	6030.81
334.999	7340.81
335.227	9192.81
335.455	10258.81
335.684	9384.81
335.912	7680.81
336.14	6492.81
336.369	5764.81
336.597	5270.81
336.825	4852.81
337.053	4514.81
337.281	4254.81
337.51	4031.81
337.738	3853.81
337.966	3652.81
338.194	3534.81
338.422	3428.81
338.65	3374.81
338.878	3262.81
339.106	3215.81
339.334	3194.81
339.562	3080.81
339.79	3094.81
340.018	3050.81
340.246	2998.81
340.474	2993.81
340.702	2970.81
340.93	3009.81
341.158	2950.81
341.386	2940.81
341.614	2908.81
341.842	2872.81
342.07	2814.81
342.298	2721.81
342.526	2689.81
342.754	2689.81
342.981	2655.81
343.209	2704.81
343.437	2688.81
343.665	2725.81
343.893	2798.81
344.12	2730.81
344.348	2723.81
344.576	2690.81
344.804	2616.81
345.031	2583.81
345.259	2598.81
345.487	2548.81
345.714	2518.81
345.942	2520.81
346.17	2500.81
346.397	2503.81
346.625	2514.81
346.853	2456.81
347.08	2457.81
347.308	2496.81
347.535	2432.81
347.763	2495.81
347.99	2467.81
348.218	2459.81
348.445	2455.81
348.673	2445.81
348.9	2384.81
349.128	2443.81
349.355	2404.81
349.583	2360.81
349.81	2399.81
350.037	2357.81
350.265	2337.81
350.492	2412.81
350.72	2405.81
350.947	2364.81
351.174	2336.81
351.402	2367.81
351.629	2315.81
351.856	2332.81
352.083	2352.81
352.311	2364.81
352.538	2320.81
352.765	2329.81
352.992	2356.81
353.22	2326.81
353.447	2322.81
353.674	2369.81
353.901	2348.81
354.128	2408.81
354.355	2344.81
354.583	2364.81
354.81	2358.81
355.037	2374.81
355.264	2348.81
355.491	2427.81
355.718	2425.81
355.945	2381.81
356.172	2420.81
356.399	2444.81
356.626	2435.81
356.853	2468.81
357.08	2466.81
357.307	2489.81
357.534	2540.81
357.761	2517.81
357.988	2514.81
358.215	2498.81
358.441	2512.81
358.668	2505.81
358.895	2508.81
359.122	2484.81
359.349	2466.81
359.576	2521.81
359.802	2505.81
360.029	2446.81
360.256	2512.81
360.483	2486.81
360.709	2517.81
360.936	2498.81
361.163	2472.81
361.39	2532.81
361.616	2511.81
361.843	2521.81
362.07	2526.81
362.296	2531.81
362.523	2503.81
362.749	2491.81
362.976	2511.81
363.203	2508.81
363.429	2464.81
363.656	2489.81
363.882	2512.81
364.109	2505.81
364.335	2494.81
364.562	2494.81
364.788	2482.81
365.015	2535.81
365.241	2558.81
365.468	2750.81
365.694	2910.81
365.92	2811.81
366.147	2584.81
366.373	2570.81
366.599	2529.81
366.826	2560.81
367.052	2560.81
367.278	2583.81
367.505	2554.81
367.731	2566.81
367.957	2548.81
368.184	2552.81
368.41	2601.81
368.636	2626.81
368.862	2652.81
369.089	2594.81
369.315	2534.81
369.541	2589.81
369.767	2580.81
369.993	2534.81
370.219	2569.81
370.445	2578.81
370.672	2612.81
370.898	2574.81
371.124	2601.81
371.35	2662.81
371.576	2641.81
371.802	2665.81
372.028	2671.81
372.254	2711.81
372.48	2661.81
372.706	2656.81
372.932	2750.81
373.158	2737.81
373.384	2698.81
373.61	2707.81
373.835	2756.81
374.061	2708.81
374.287	2793.81
374.513	2796.81
374.739	2846.81
374.965	2817.81
375.191	2805.81
375.416	2785.81
375.642	2768.81
375.868	2753.81
376.094	2731.81
376.319	2700.81
376.545	2727.81
376.771	2698.81
376.997	2660.81
377.222	2688.81
377.448	2630.81
377.674	2650.81
377.899	2636.81
378.125	2702.81
378.35	2648.81
378.576	2696.81
378.802	2758.81
379.027	2720.81
379.253	2852.81
379.478	3034.81
379.704	3641.81
379.929	5315.81
380.155	8375.81
380.38	9191.81
380.606	5705.81
380.831	3906.81
381.057	3297.81
381.282	3006.81
381.507	2824.81
381.733	2816.81
381.958	2712.81
382.184	2697.81
382.409	2632.81
382.634	2623.81
382.86	2613.81
383.085	2668.81
383.31	2638.81
383.535	2657.81
383.761	2646.81
383.986	2674.81
384.211	2722.81
384.436	2648.81
384.662	2710.81
384.887	2759.81
385.112	2699.81
385.337	2764.81
385.562	2719.81
385.787	2720.81
386.013	2739.81
386.238	2725.81
386.463	2720.81
386.688	2731.81
386.913	2661.81
387.138	2696.81
387.363	2702.81
387.588	2660.81
387.813	2681.81
388.038	2692.81
388.263	2679.81
388.488	2674.81
388.713	2738.81
388.938	2639.81
389.163	2679.81
389.387	2708.81
389.612	2681.81
389.837	2721.81
390.062	2644.81
390.287	2760.81
390.512	2762.81
390.736	2739.81
390.961	2809.81
391.186	2836.81
391.411	2769.81
391.636	2828.81
391.86	2841.81
392.085	2849.81
392.31	2829.81
392.534	2774.81
392.759	2730.81
392.984	2762.81
393.208	2814.81
393.433	2829.81
393.658	2756.81
393.882	2696.81
394.107	2703.81
394.331	2769.81
394.556	2720.81
394.78	2774.81
395.005	2810.81
395.229	2726.81
395.454	2781.81
395.678	2846.81
395.903	2801.81
396.127	2832.81
396.352	2785.81
396.576	2829.81
396.801	2784.81
397.025	2866.81
397.249	2866.81
397.474	2832.81
397.698	2829.81
397.922	2856.81
398.147	2844.81
398.371	2869.81
398.595	2981.81
398.82	2964.81
399.044	3161.81
399.268	3281.81
399.492	3415.81
399.717	3492.81
399.941	3518.81
400.165	3432.81
400.389	3290.81
400.613	3159.81
400.837	3072.81
401.062	3012.81
401.286	2996.81
401.51	2977.81
401.734	2944.81
401.958	2940.81
402.182	2990.81
402.406	2966.81
402.63	2975.81
402.854	2976.81
403.078	2995.81
403.302	3032.81
403.526	3054.81
403.75	3108.81
403.974	3022.81
404.198	3058.81
404.422	3057.81
404.645	3045.81
404.869	3089.81
405.093	3062.81
405.317	3147.81
405.541	3118.81
405.765	3120.81
405.988	3250.81
406.212	3157.81
406.436	3127.81
406.66	3207.81
406.883	3158.81
407.107	3284.81
407.331	3316.81
407.555	3352.81
407.778	3341.81
408.002	3354.81
408.226	3250.81
408.449	3283.81
408.673	3194.81
408.896	3166.81
409.12	3143.81
409.344	3206.81
409.567	3072.81
409.791	3118.81
410.014	3065.81
410.238	3073.81
410.461	3060.81
410.685	3072.81
410.908	3025.81
411.132	3027.81
411.355	2966.81
411.578	2983.81
411.802	3025.81
412.025	2928.81
412.249	2976.81
412.472	2941.81
412.695	2928.81
412.919	2877.81
413.142	2887.81
413.365	2946.81
413.589	2926.81
413.812	2874.81
414.035	2864.81
414.258	2908.81
414.482	2879.81
414.705	2945.81
414.928	2928.81
415.151	2830.81
415.374	2854.81
415.597	2845.81
415.821	2792.81
416.044	2813.81
416.267	2767.81
416.49	2818.81
416.713	2791.81
416.936	2806.81
417.159	2778.81
417.382	2812.81
417.605	2771.81
417.828	2772.81
418.051	2839.81
418.274	2857.81
418.497	2869.81
418.72	2938.81
418.943	2836.81
419.166	2982.81
419.389	3084.81
419.611	3059.81
419.834	2957.81
420.057	2873.81
420.28	2935.81
420.503	2774.81
420.726	2766.81
420.948	2846.81
421.171	2801.81
421.394	2799.81
421.617	2804.81
421.839	2840.81
422.062	2798.81
422.285	2751.81
422.507	2840.81
422.73	2869.81
422.953	2917.81
423.175	2893.81
423.398	2880.81
423.621	2785.81
423.843	2802.81
424.066	2830.81
424.288	2825.81
424.511	2774.81
424.733	2790.81
424.956	2792.81
425.178	2731.81
425.401	2771.81
425.623	2789.81
425.846	2719.81
426.068	2715.81
426.291	2661.81
426.513	2682.81
426.735	2664.81
426.958	2732.81
427.18	2681.81
427.402	2665.81
427.625	2704.81
427.847	2620.81
428.069	2578.81
428.292	2658.81
428.514	2596.81
428.736	2598.81
428.958	2605.81
429.181	2513.81
429.403	2522.81
429.625	2578.81
429.847	2579.81
430.069	2629.81
430.292	2781.81
430.514	2814.81
430.736	2807.81
430.958	2713.81
431.18	2634.81
431.402	2568.81
431.624	2493.81
431.846	2545.81
432.068	2544.81
432.29	2557.81
432.512	2522.81
432.734	2542.81
432.956	2535.81
433.178	2598.81
433.4	2585.81
433.622	2625.81
433.844	2618.81
434.066	2632.81
434.287	2573.81
434.509	2648.81
434.731	2641.81
434.953	2659.81
435.175	2696.81
435.397	2657.81
435.618	2624.81
435.84	2598.81
436.062	2544.81
436.284	2592.81
436.505	2574.81
436.727	2577.81
436.949	2555.81
437.17	2587.81
437.392	2541.81
437.614	2550.81
437.835	2449.81
438.057	2537.81
438.278	2480.81
438.5	2515.81
438.721	2546.81
438.943	2640.81
439.165	2708.81
439.386	2706.81
439.608	2697.81
439.829	2724.81
440.05	2822.81
440.272	2868.81
440.493	2733.81
440.715	2702.81
440.936	2685.81
441.158	2717.81
441.379	2742.81
441.6	2839.81
441.822	2884.81
442.043	3047.81
442.264	3139.81
442.486	2892.81
442.707	2842.81
442.928	2766.81
443.149	2756.81
443.371	2710.81
443.592	2761.81
443.813	2798.81
444.034	2787.81
444.255	2789.81
444.476	2867.81
444.698	2885.81
444.919	2932.81
445.14	3033.81
445.361	2884.81
445.582	2824.81
445.803	2776.81
446.024	2742.81
446.245	2759.81
446.466	2785.81
446.687	2712.81
446.908	2688.81
447.129	2612.81
447.35	2606.81
447.571	2612.81
447.792	2551.81
448.013	2563.81
448.234	2574.81
448.455	2535.81
448.675	2620.81
448.896	2681.81
449.117	2778.81
449.338	2994.81
449.559	3088.81
449.779	2801.81
450	2564.81
450.221	2538.81
450.442	2560.81
450.662	2514.81
450.883	2480.81
451.104	2538.81
451.324	2528.81
451.545	2529.81
451.766	2559.81
451.986	2601.81
452.207	2839.81
452.428	3683.81
452.648	5778.81
452.869	4841.81
453.089	3313.81
453.31	3088.81
453.53	3004.81
453.751	3108.81
453.971	3192.81
454.192	3177.81
454.412	2720.81
454.633	2544.81
454.853	2502.81
455.073	2424.81
455.294	2413.81
455.514	2380.81
455.734	2425.81
455.955	2366.81
456.175	2340.81
456.395	2380.81
456.616	2425.81
456.836	2405.81
457.056	2426.81
457.276	2447.81
457.497	2630.81
457.717	2632.81
457.937	2531.81
458.157	2508.81
458.377	2496.81
458.598	2545.81
458.818	2558.81
459.038	2519.81
459.258	2602.81
459.478	2564.81
459.698	2622.81
459.918	2616.81
460.138	2644.81
460.358	2719.81
460.578	2729.81
460.798	2797.81
461.018	2830.81
461.238	2807.81
461.458	2839.81
461.678	2802.81
461.898	2886.81
462.118	2943.81
462.338	2963.81
462.558	3031.81
462.777	3075.81
462.997	3213.81
463.217	3291.81
463.437	3429.81
463.657	3488.81
463.876	3527.81
464.096	3284.81
464.316	3175.81
464.536	3143.81
464.755	3022.81
464.975	2996.81
465.195	2900.81
465.414	2816.81
465.634	2698.81
465.854	2692.81
466.073	2674.81
466.293	2638.81
466.512	2661.81
466.732	2667.81
466.951	2810.81
467.171	3009.81
467.391	2931.81
467.61	2711.81
467.829	2588.81
468.049	2590.81
468.268	2557.81
468.488	2522.81
468.707	2558.81
468.927	2595.81
469.146	2602.81
469.365	2620.81
469.585	2570.81
469.804	2678.81
470.023	2795.81
470.243	2724.81
470.462	2892.81
470.681	3018.81
470.901	3313.81
471.12	3841.81
471.339	3823.81
471.558	3204.81
471.777	2921.81
471.997	2760.81
472.216	2684.81
472.435	2676.81
472.654	2589.81
472.873	2574.81
473.092	2557.81
473.311	2552.81
473.53	2653.81
473.749	2748.81
473.968	2776.81
474.187	2597.81
474.406	2552.81
474.625	2568.81
474.844	2595.81
475.063	2580.81
475.282	2602.81
475.501	2593.81
475.72	2652.81
475.939	2654.81
476.158	2710.81
476.377	2736.81
476.596	2705.81
476.814	2738.81
477.033	2693.81
477.252	2716.81
477.471	2780.81
477.69	2848.81
477.908	2897.81
478.127	2898.81
478.346	2936.81
478.564	2986.81
478.783	3008.81
479.002	2999.81
479.22	3011.81
479.439	3062.81
479.658	3016.81
479.876	3079.81
480.095	3087.81
480.313	3188.81
480.532	3196.81
480.751	3208.81
480.969	3133.81
481.188	3061.81
481.406	3106.81
481.624	3136.81
481.843	3113.81
482.061	3105.81
482.28	3181.81
482.498	3111.81
482.717	3124.81
482.935	3130.81
483.153	3223.81
483.372	3311.81
483.59	3267.81
483.808	3292.81
484.027	3410.81
484.245	3656.81
484.463	4114.81
484.681	4557.81
484.9	4226.81
485.118	3864.81
485.336	3786.81
485.554	3795.81
485.772	4089.81
485.99	4709.81
486.209	4920.81
486.427	4164.81
486.645	3689.81
486.863	3510.81
487.081	3419.81
487.299	3378.81
487.517	3340.81
487.735	3414.81
