Data from SnStandardFlinnAPT0064_QswitchEnergy10_LIBS07252019.E.O._I.C._HRD10591_15-26-25-973.txt Node
Date: Thu Jul 25 15:26:25 EDT 2019
User: cochatt
Spectrometer: HR+D1059
Trigger mode: 1
Integration Time (sec): 1.000000E-1
Scans to average: 1
Electric dark correction enabled: true
Nonlinearity correction enabled: false
Boxcar width: 0
XAxis mode: Wavelengths
Number of Pixels in Spectrum: 2048
>>>>>Begin Spectral Data<<<<<
223.165	-11.19
223.4	-11.19
223.635	-11.19
223.869	-13.19
224.104	0.81
224.338	-18.19
224.573	-15.19
224.808	-7.19
225.042	-12.19
225.277	4.81
225.511	-6.19
225.746	-1.19
225.98	1.81
226.215	6.81
226.449	9.81
226.683	28.81
226.918	13.81
227.152	17.81
227.387	17.81
227.621	31.81
227.856	37.81
228.09	31.81
228.324	38.81
228.559	65.81
228.793	55.81
229.027	68.81
229.262	76.81
229.496	75.81
229.73	60.81
229.964	68.81
230.199	74.81
230.433	85.81
230.667	71.81
230.901	80.81
231.136	66.81
231.37	71.81
231.604	92.81
231.838	90.81
232.072	98.81
232.306	117.81
232.541	89.81
232.775	83.81
233.009	87.81
233.243	84.81
233.477	80.81
233.711	83.81
233.945	100.81
234.179	97.81
234.413	84.81
234.647	81.81
234.881	78.81
235.115	95.81
235.349	93.81
235.583	124.81
235.817	106.81
236.051	120.81
236.285	110.81
236.519	77.81
236.753	74.81
236.987	75.81
237.221	72.81
237.455	76.81
237.689	69.81
237.922	91.81
238.156	86.81
238.39	79.81
238.624	73.81
238.858	73.81
239.091	83.81
239.325	80.81
239.559	89.81
239.793	84.81
240.027	72.81
240.26	89.81
240.494	88.81
240.728	89.81
240.961	84.81
241.195	98.81
241.429	93.81
241.662	93.81
241.896	91.81
242.13	100.81
242.363	124.81
242.597	149.81
242.83	118.81
243.064	126.81
243.298	137.81
243.531	136.81
243.765	96.81
243.998	71.81
244.232	70.81
244.465	84.81
244.699	76.81
244.932	79.81
245.166	74.81
245.399	83.81
245.633	80.81
245.866	96.81
246.099	87.81
246.333	72.81
246.566	75.81
246.8	84.81
247.033	59.81
247.266	77.81
247.5	75.81
247.733	73.81
247.966	73.81
248.2	79.81
248.433	104.81
248.666	121.81
248.899	98.81
249.133	88.81
249.366	91.81
249.599	108.81
249.832	123.81
250.066	129.81
250.299	102.81
250.532	76.81
250.765	73.81
250.998	68.81
251.231	63.81
251.465	86.81
251.698	90.81
251.931	77.81
252.164	91.81
252.397	80.81
252.63	94.81
252.863	105.81
253.096	87.81
253.329	90.81
253.562	81.81
253.795	96.81
254.028	96.81
254.261	91.81
254.494	100.81
254.727	112.81
254.96	132.81
255.193	124.81
255.426	93.81
255.659	82.81
255.892	78.81
256.124	113.81
256.357	85.81
256.59	95.81
256.823	90.81
257.056	91.81
257.289	144.81
257.521	159.81
257.754	118.81
257.987	94.81
258.22	88.81
258.452	70.81
258.685	95.81
258.918	69.81
259.151	83.81
259.383	105.81
259.616	130.81
259.849	130.81
260.081	90.81
260.314	75.81
260.547	73.81
260.779	93.81
261.012	94.81
261.244	94.81
261.477	90.81
261.71	83.81
261.942	90.81
262.175	84.81
262.407	74.81
262.64	85.81
262.872	80.81
263.105	97.81
263.337	93.81
263.57	81.81
263.802	69.81
264.035	83.81
264.267	67.81
264.499	82.81
264.732	80.81
264.964	100.81
265.197	96.81
265.429	87.81
265.661	86.81
265.894	104.81
266.126	116.81
266.358	158.81
266.591	133.81
266.823	118.81
267.055	78.81
267.287	92.81
267.52	80.81
267.752	77.81
267.984	78.81
268.216	74.81
268.448	82.81
268.681	100.81
268.913	89.81
269.145	95.81
269.377	89.81
269.609	78.81
269.841	74.81
270.073	96.81
270.306	114.81
270.538	189.81
270.77	283.81
271.002	327.81
271.234	162.81
271.466	105.81
271.698	83.81
271.93	92.81
272.162	85.81
272.394	89.81
272.626	78.81
272.858	85.81
273.09	93.81
273.322	81.81
273.553	85.81
273.785	85.81
274.017	100.81
274.249	92.81
274.481	88.81
274.713	84.81
274.945	84.81
275.176	65.81
275.408	78.81
275.64	87.81
275.872	82.81
276.104	95.81
276.335	100.81
276.567	94.81
276.799	77.81
277.031	97.81
277.262	104.81
277.494	109.81
277.726	142.81
277.957	162.81
278.189	237.81
278.421	214.81
278.652	184.81
278.884	164.81
279.115	115.81
279.347	127.81
279.579	99.81
279.81	96.81
280.042	83.81
280.273	88.81
280.505	92.81
280.736	96.81
280.968	117.81
281.199	148.81
281.431	221.81
281.662	264.81
281.894	140.81
282.125	109.81
282.356	99.81
282.588	106.81
282.819	117.81
283.051	100.81
283.282	129.81
283.513	179.81
283.745	295.81
283.976	490.81
284.207	710.81
284.439	546.81
284.67	242.81
284.901	224.81
285.132	322.81
285.364	354.81
285.595	206.81
285.826	168.81
286.057	210.81
286.288	374.81
286.52	564.81
286.751	429.81
286.982	175.81
287.213	103.81
287.444	99.81
287.675	90.81
287.906	104.81
288.138	90.81
288.369	87.81
288.6	98.81
288.831	98.81
289.062	99.81
289.293	90.81
289.524	99.81
289.755	92.81
289.986	110.81
290.217	87.81
290.448	79.81
290.679	94.81
290.91	137.81
291.141	168.81
291.371	232.81
291.602	265.81
291.833	176.81
292.064	97.81
292.295	112.81
292.526	88.81
292.757	90.81
292.987	82.81
293.218	87.81
293.449	98.81
293.68	98.81
293.91	78.81
294.141	88.81
294.372	95.81
294.603	96.81
294.833	99.81
295.064	84.81
295.295	83.81
295.525	79.81
295.756	89.81
295.987	85.81
296.217	98.81
296.448	85.81
296.679	90.81
296.909	88.81
297.14	87.81
297.37	89.81
297.601	98.81
297.831	97.81
298.062	95.81
298.292	107.81
298.523	106.81
298.753	104.81
298.984	93.81
299.214	93.81
299.445	109.81
299.675	117.81
299.905	116.81
300.136	126.81
300.366	148.81
300.597	252.81
300.827	422.81
301.057	606.81
301.288	556.81
301.518	225.81
301.748	136.81
301.979	130.81
302.209	96.81
302.439	118.81
302.669	152.81
302.9	264.81
303.13	466.81
303.36	790.81
303.59	1110.81
303.82	783.81
304.051	265.81
304.281	134.81
304.511	114.81
304.741	99.81
304.971	103.81
305.201	119.81
305.431	110.81
305.661	100.81
305.891	104.81
306.121	106.81
306.352	99.81
306.582	93.81
306.812	110.81
307.042	119.81
307.272	125.81
307.502	103.81
307.731	96.81
307.961	93.81
308.191	100.81
308.421	104.81
308.651	91.81
308.881	90.81
309.111	94.81
309.341	110.81
309.571	108.81
309.8	96.81
310.03	101.81
310.26	108.81
310.49	102.81
310.72	105.81
310.949	116.81
311.179	110.81
311.409	100.81
311.639	112.81
311.868	118.81
312.098	119.81
312.328	103.81
312.557	107.81
312.787	105.81
313.017	120.81
313.246	108.81
313.476	115.81
313.706	130.81
313.935	144.81
314.165	182.81
314.394	206.81
314.624	169.81
314.853	121.81
315.083	129.81
315.312	118.81
315.542	116.81
315.771	124.81
316.001	135.81
316.23	128.81
316.46	141.81
316.689	164.81
316.919	233.81
317.148	444.81
317.377	830.81
317.607	1336.81
317.836	1249.81
318.065	477.81
318.295	212.81
318.524	145.81
318.753	134.81
318.983	128.81
319.212	118.81
319.441	113.81
319.67	112.81
319.9	114.81
320.129	122.81
320.358	108.81
320.587	100.81
320.816	121.81
321.046	115.81
321.275	120.81
321.504	107.81
321.733	141.81
321.962	160.81
322.191	150.81
322.42	123.81
322.649	132.81
322.878	112.81
323.108	109.81
323.337	116.81
323.566	118.81
323.795	122.81
324.024	113.81
324.253	143.81
324.482	159.81
324.71	211.81
324.939	259.81
325.168	223.81
325.397	189.81
325.626	241.81
325.855	430.81
326.084	866.81
326.313	1431.81
326.542	1412.81
326.77	566.81
326.999	250.81
327.228	203.81
327.457	232.81
327.686	213.81
327.914	162.81
328.143	124.81
328.372	120.81
328.6	101.81
328.829	112.81
329.058	112.81
329.287	110.81
329.515	102.81
329.744	108.81
329.972	93.81
330.201	102.81
330.43	112.81
330.658	106.81
330.887	106.81
331.115	125.81
331.344	105.81
331.572	108.81
331.801	114.81
332.03	107.81
332.258	122.81
332.486	163.81
332.715	261.81
332.943	462.81
333.172	682.81
333.4	602.81
333.629	236.81
333.857	142.81
334.085	123.81
334.314	133.81
334.542	118.81
334.771	112.81
334.999	100.81
335.227	105.81
335.455	136.81
335.684	114.81
335.912	110.81
336.14	115.81
336.369	116.81
336.597	99.81
336.825	106.81
337.053	104.81
337.281	112.81
337.51	97.81
337.738	86.81
337.966	104.81
338.194	113.81
338.422	108.81
338.65	105.81
338.878	114.81
339.106	90.81
339.334	127.81
339.562	119.81
339.79	108.81
340.018	93.81
340.246	109.81
340.474	112.81
340.702	100.81
340.93	121.81
341.158	113.81
341.386	102.81
341.614	114.81
341.842	115.81
342.07	129.81
342.298	125.81
342.526	114.81
342.754	113.81
342.981	98.81
343.209	102.81
343.437	104.81
343.665	103.81
343.893	114.81
344.12	108.81
344.348	113.81
344.576	104.81
344.804	105.81
345.031	119.81
345.259	102.81
345.487	111.81
345.714	95.81
345.942	97.81
346.17	103.81
346.397	103.81
346.625	102.81
346.853	99.81
347.08	97.81
347.308	88.81
347.535	86.81
347.763	111.81
347.99	96.81
348.218	96.81
348.445	102.81
348.673	106.81
348.9	105.81
349.128	104.81
349.355	114.81
349.583	117.81
349.81	112.81
350.037	96.81
350.265	103.81
350.492	112.81
350.72	96.81
350.947	99.81
351.174	104.81
351.402	110.81
351.629	104.81
351.856	103.81
352.083	90.81
352.311	117.81
352.538	120.81
352.765	99.81
352.992	101.81
353.22	94.81
353.447	88.81
353.674	110.81
353.901	103.81
354.128	96.81
354.355	84.81
354.583	104.81
354.81	97.81
355.037	121.81
355.264	105.81
355.491	98.81
355.718	101.81
355.945	99.81
356.172	99.81
356.399	94.81
356.626	98.81
356.853	95.81
357.08	101.81
357.307	95.81
357.534	93.81
357.761	102.81
357.988	96.81
358.215	110.81
358.441	88.81
358.668	111.81
358.895	105.81
359.122	98.81
359.349	97.81
359.576	114.81
359.802	102.81
360.029	113.81
360.256	110.81
360.483	104.81
360.709	102.81
360.936	124.81
361.163	111.81
361.39	99.81
361.616	114.81
361.843	100.81
362.07	110.81
362.296	109.81
362.523	105.81
362.749	100.81
362.976	93.81
363.203	96.81
363.429	91.81
363.656	103.81
363.882	100.81
364.109	105.81
364.335	116.81
364.562	95.81
364.788	118.81
365.015	104.81
365.241	120.81
365.468	178.81
365.694	241.81
365.92	183.81
366.147	121.81
366.373	100.81
366.599	102.81
366.826	102.81
367.052	95.81
367.278	92.81
367.505	96.81
367.731	111.81
367.957	100.81
368.184	99.81
368.41	114.81
368.636	113.81
368.862	99.81
369.089	105.81
369.315	99.81
369.541	104.81
369.767	96.81
369.993	102.81
370.219	111.81
370.445	99.81
370.672	116.81
370.898	121.81
371.124	106.81
371.35	108.81
371.576	98.81
371.802	99.81
372.028	100.81
372.254	112.81
372.48	127.81
372.706	119.81
372.932	103.81
373.158	101.81
373.384	76.81
373.61	104.81
373.835	109.81
374.061	104.81
374.287	102.81
374.513	112.81
374.739	103.81
374.965	110.81
375.191	101.81
375.416	99.81
375.642	97.81
375.868	101.81
376.094	116.81
376.319	108.81
376.545	106.81
376.771	108.81
376.997	101.81
377.222	106.81
377.448	102.81
377.674	108.81
377.899	93.81
378.125	106.81
378.35	122.81
378.576	124.81
378.802	122.81
379.027	112.81
379.253	142.81
379.478	162.81
379.704	294.81
379.929	682.81
380.155	1450.81
380.38	1488.81
380.606	508.81
380.831	178.81
381.057	128.81
381.282	112.81
381.507	94.81
381.733	98.81
381.958	97.81
382.184	103.81
382.409	108.81
382.634	102.81
382.86	97.81
383.085	106.81
383.31	96.81
383.535	103.81
383.761	102.81
383.986	98.81
384.211	95.81
384.436	101.81
384.662	106.81
384.887	104.81
385.112	90.81
385.337	102.81
385.562	105.81
385.787	99.81
386.013	102.81
386.238	104.81
386.463	101.81
386.688	95.81
386.913	92.81
387.138	100.81
387.363	113.81
387.588	106.81
387.813	99.81
388.038	107.81
388.263	108.81
388.488	92.81
388.713	93.81
388.938	105.81
389.163	106.81
389.387	100.81
389.612	89.81
389.837	95.81
390.062	94.81
390.287	83.81
390.512	108.81
390.736	86.81
390.961	97.81
391.186	85.81
391.411	92.81
391.636	96.81
391.86	99.81
392.085	111.81
392.31	96.81
392.534	98.81
392.759	85.81
392.984	92.81
393.208	116.81
393.433	132.81
393.658	115.81
393.882	103.81
394.107	87.81
394.331	82.81
394.556	100.81
394.78	96.81
395.005	92.81
395.229	95.81
395.454	94.81
395.678	96.81
395.903	100.81
396.127	108.81
396.352	99.81
396.576	92.81
396.801	101.81
397.025	116.81
397.249	114.81
397.474	99.81
397.698	90.81
397.922	102.81
398.147	96.81
398.371	89.81
398.595	101.81
398.82	79.81
399.044	94.81
399.268	94.81
399.492	81.81
399.717	92.81
399.941	91.81
400.165	89.81
400.389	88.81
400.613	91.81
400.837	97.81
401.062	100.81
401.286	75.81
401.51	100.81
401.734	97.81
401.958	81.81
402.182	99.81
402.406	97.81
402.63	90.81
402.854	100.81
403.078	93.81
403.302	86.81
403.526	98.81
403.75	89.81
403.974	81.81
404.198	80.81
404.422	81.81
404.645	85.81
404.869	108.81
405.093	95.81
405.317	94.81
405.541	93.81
405.765	127.81
405.988	124.81
406.212	109.81
406.436	101.81
406.66	103.81
406.883	82.81
407.107	91.81
407.331	100.81
407.555	97.81
407.778	99.81
408.002	98.81
408.226	106.81
408.449	114.81
408.673	100.81
408.896	99.81
409.12	95.81
409.344	92.81
409.567	92.81
409.791	86.81
410.014	95.81
410.238	108.81
410.461	89.81
410.685	108.81
410.908	98.81
411.132	104.81
411.355	82.81
411.578	100.81
411.802	94.81
412.025	79.81
412.249	106.81
412.472	100.81
412.695	98.81
412.919	109.81
413.142	96.81
413.365	93.81
413.589	98.81
413.812	83.81
414.035	101.81
414.258	77.81
414.482	90.81
414.705	117.81
414.928	100.81
415.151	87.81
415.374	90.81
415.597	96.81
415.821	99.81
416.044	92.81
416.267	96.81
416.49	108.81
416.713	90.81
416.936	99.81
417.159	96.81
417.382	85.81
417.605	77.81
417.828	93.81
418.051	93.81
418.274	88.81
418.497	94.81
418.72	94.81
418.943	90.81
419.166	105.81
419.389	100.81
419.611	118.81
419.834	90.81
420.057	113.81
420.28	100.81
420.503	98.81
420.726	100.81
420.948	93.81
421.171	83.81
421.394	90.81
421.617	82.81
421.839	96.81
422.062	80.81
422.285	85.81
422.507	102.81
422.73	122.81
422.953	135.81
423.175	116.81
423.398	94.81
423.621	98.81
423.843	86.81
424.066	91.81
424.288	83.81
424.511	103.81
424.733	93.81
424.956	86.81
425.178	96.81
425.401	81.81
425.623	87.81
425.846	92.81
426.068	92.81
426.291	87.81
426.513	81.81
426.735	102.81
426.958	90.81
427.18	112.81
427.402	76.81
427.625	78.81
427.847	96.81
428.069	95.81
428.292	98.81
428.514	90.81
428.736	101.81
428.958	101.81
429.181	87.81
429.403	92.81
429.625	86.81
429.847	88.81
430.069	106.81
430.292	88.81
430.514	99.81
430.736	86.81
430.958	97.81
431.18	90.81
431.402	80.81
431.624	90.81
431.846	106.81
432.068	100.81
432.29	104.81
432.512	95.81
432.734	104.81
432.956	90.81
433.178	103.81
433.4	107.81
433.622	92.81
433.844	96.81
434.066	90.81
434.287	103.81
434.509	87.81
434.731	87.81
434.953	88.81
435.175	96.81
435.397	93.81
435.618	89.81
435.84	89.81
436.062	90.81
436.284	82.81
436.505	99.81
436.727	98.81
436.949	98.81
437.17	83.81
437.392	96.81
437.614	89.81
437.835	81.81
438.057	74.81
438.278	73.81
438.5	81.81
438.721	96.81
438.943	97.81
439.165	103.81
439.386	100.81
439.608	97.81
439.829	103.81
440.05	117.81
440.272	112.81
440.493	105.81
440.715	90.81
440.936	78.81
441.158	95.81
441.379	103.81
441.6	81.81
441.822	99.81
442.043	115.81
442.264	133.81
442.486	114.81
442.707	88.81
442.928	99.81
443.149	83.81
443.371	96.81
443.592	90.81
443.813	96.81
444.034	89.81
444.255	92.81
444.476	100.81
444.698	82.81
444.919	96.81
445.14	200.81
445.361	148.81
445.582	90.81
445.803	89.81
446.024	109.81
446.245	88.81
446.466	100.81
446.687	110.81
446.908	98.81
447.129	108.81
447.35	98.81
447.571	82.81
447.792	91.81
448.013	85.81
448.234	94.81
448.455	95.81
448.675	94.81
448.896	105.81
449.117	105.81
449.338	126.81
449.559	129.81
449.779	120.81
450	94.81
450.221	83.81
450.442	101.81
450.662	100.81
450.883	101.81
451.104	112.81
451.324	96.81
451.545	107.81
451.766	107.81
451.986	129.81
452.207	199.81
452.428	522.81
452.648	1246.81
452.869	698.81
453.089	184.81
453.31	120.81
453.53	102.81
453.751	137.81
453.971	160.81
454.192	133.81
454.412	102.81
454.633	89.81
454.853	97.81
455.073	89.81
455.294	87.81
455.514	93.81
455.734	80.81
455.955	97.81
456.175	88.81
456.395	87.81
456.616	88.81
456.836	95.81
457.056	96.81
457.276	94.81
457.497	124.81
457.717	118.81
457.937	94.81
458.157	98.81
458.377	77.81
458.598	105.81
458.818	92.81
459.038	95.81
459.258	72.81
459.478	74.81
459.698	87.81
459.918	86.81
460.138	90.81
460.358	74.81
460.578	90.81
460.798	115.81
461.018	85.81
461.238	94.81
461.458	93.81
461.678	78.81
461.898	79.81
462.118	101.81
462.338	77.81
462.558	88.81
462.777	89.81
462.997	89.81
463.217	98.81
463.437	126.81
463.657	176.81
463.876	174.81
464.096	119.81
464.316	98.81
464.536	93.81
464.755	89.81
464.975	89.81
465.195	101.81
465.414	105.81
465.634	92.81
465.854	94.81
466.073	95.81
466.293	84.81
466.512	85.81
466.732	89.81
466.951	108.81
467.171	144.81
467.391	127.81
467.61	94.81
467.829	93.81
468.049	101.81
468.268	101.81
468.488	88.81
468.707	93.81
468.927	100.81
469.146	97.81
469.365	103.81
469.585	98.81
469.804	89.81
470.023	90.81
470.243	86.81
470.462	88.81
470.681	110.81
470.901	113.81
471.12	169.81
471.339	183.81
471.558	138.81
471.777	98.81
471.997	96.81
472.216	102.81
472.435	103.81
472.654	101.81
472.873	112.81
473.092	100.81
473.311	94.81
473.53	87.81
473.749	108.81
473.968	103.81
474.187	88.81
474.406	93.81
474.625	97.81
474.844	101.81
475.063	92.81
475.282	89.81
475.501	95.81
475.72	103.81
475.939	84.81
476.158	97.81
476.377	104.81
476.596	99.81
476.814	95.81
477.033	86.81
477.252	95.81
477.471	97.81
477.69	95.81
477.908	105.81
478.127	92.81
478.346	88.81
478.564	87.81
478.783	86.81
479.002	96.81
479.22	89.81
479.439	82.81
479.658	96.81
479.876	93.81
480.095	97.81
480.313	82.81
480.532	88.81
480.751	93.81
480.969	82.81
481.188	91.81
481.406	95.81
481.624	96.81
481.843	110.81
482.061	100.81
482.28	84.81
482.498	78.81
482.717	82.81
482.935	108.81
483.153	112.81
483.372	110.81
483.59	101.81
483.808	101.81
484.027	93.81
484.245	115.81
484.463	173.81
484.681	212.81
484.9	142.81
485.118	110.81
485.336	102.81
485.554	112.81
485.772	110.81
485.99	166.81
486.209	215.81
486.427	153.81
486.645	121.81
486.863	109.81
487.081	101.81
487.299	85.81
487.517	115.81
487.735	96.81
487.953	96.81
488.171	101.81
488.389	98.81
488.607	111.81
488.825	80.81
489.043	97.81
489.261	91.81
489.479	93.81
489.696	110.81
489.914	98.81
490.132	83.81
490.35	103.81
490.568	84.81
490.786	92.81
491.003	93.81
491.221	115.81
491.439	97.81
491.657	94.81
491.874	102.81
492.092	116.81
492.31	111.81
492.527	120.81
492.745	101.81
492.963	105.81
493.18	109.81
493.398	102.81
493.615	89.81
493.833	113.81
494.05	97.81
494.268	118.81
494.485	109.81
494.703	98.81
494.92	92.81
495.138	97.81
495.355	104.81
495.573	103.81
495.79	103.81
496.008	104.81
496.225	124.81
496.442	92.81
496.66	112.81
496.877	148.81
497.094	139.81
497.312	117.81
497.529	95.81
497.746	92.81
497.963	92.81
498.181	103.81
498.398	94.81
498.615	89.81
498.832	86.81
499.049	98.81
499.267	114.81
499.484	148.81
499.701	117.81
499.918	102.81
500.135	98.81
500.352	94.81
500.569	88.81
500.786	93.81
501.003	91.81
501.22	90.81
501.437	99.81
501.654	101.81
501.871	99.81
502.088	108.81
502.305	100.81
502.522	90.81
502.739	96.81
502.956	106.81
503.172	92.81
503.389	92.81
503.606	104.81
503.823	110.81
504.04	97.81
504.256	96.81
504.473	86.81
504.69	104.81
504.907	125.81
505.123	105.81
505.34	95.81
505.557	109.81
505.773	95.81
505.99	102.81
506.207	104.81
506.423	104.81
506.64	110.81
506.856	102.81
507.073	102.81
507.289	101.81
507.506	92.81
507.722	95.81
507.939	91.81
508.155	90.81
508.372	96.81
508.588	91.81
508.805	91.81
509.021	100.81
509.238	100.81
509.454	127.81
509.67	145.81
509.887	108.81
510.103	91.81
510.319	99.81
