Data from SnStandardFlinnAPT0064_LampEnergy10_LIBS07252019.E.O._I.C._HRD10591_15-21-20-494.txt Node
Date: Thu Jul 25 15:21:20 EDT 2019
User: cochatt
Spectrometer: HR+D1059
Trigger mode: 1
Integration Time (sec): 1.000000E-1
Scans to average: 1
Electric dark correction enabled: true
Nonlinearity correction enabled: false
Boxcar width: 0
XAxis mode: Wavelengths
Number of Pixels in Spectrum: 2048
>>>>>Begin Spectral Data<<<<<
223.165	-20.81
223.4	-20.81
223.635	-20.81
223.869	-16.81
224.104	-25.81
224.338	-16.81
224.573	-23.81
224.808	-12.81
225.042	-10.81
225.277	-10.81
225.511	15.19
225.746	1.19
225.98	6.19
226.215	18.19
226.449	12.19
226.683	22.19
226.918	29.19
227.152	34.19
227.387	21.19
227.621	42.19
227.856	36.19
228.09	49.19
228.324	48.19
228.559	47.19
228.793	114.19
229.027	315.19
229.262	333.19
229.496	304.19
229.73	303.19
229.964	296.19
230.199	301.19
230.433	312.19
230.667	299.19
230.901	306.19
231.136	325.19
231.37	344.19
231.604	387.19
231.838	439.19
232.072	509.19
232.306	553.19
232.541	468.19
232.775	417.19
233.009	410.19
233.243	417.19
233.477	470.19
233.711	527.19
233.945	571.19
234.179	521.19
234.413	444.19
234.647	450.19
234.881	463.19
235.115	525.19
235.349	630.19
235.583	799.19
235.817	978.19
236.051	1001.19
236.285	644.19
236.519	512.19
236.753	493.19
236.987	499.19
237.221	544.19
237.455	520.19
237.689	484.19
237.922	473.19
238.156	476.19
238.39	486.19
238.624	496.19
238.858	477.19
239.091	470.19
239.325	497.19
239.559	484.19
239.793	510.19
240.027	530.19
240.26	550.19
240.494	560.19
240.728	576.19
240.961	602.19
241.195	625.19
241.429	690.19
241.662	697.19
241.896	769.19
242.13	961.19
242.363	1250.19
242.597	1632.19
242.83	1533.19
243.064	1565.19
243.298	1827.19
243.531	1511.19
243.765	969.19
243.998	776.19
244.232	707.19
244.465	680.19
244.699	626.19
244.932	645.19
245.166	671.19
245.399	673.19
245.633	678.19
245.866	695.19
246.099	675.19
246.333	637.19
246.566	634.19
246.8	659.19
247.033	646.19
247.266	663.19
247.5	657.19
247.733	664.19
247.966	702.19
248.2	785.19
248.433	865.19
248.666	995.19
248.899	976.19
249.133	857.19
249.366	864.19
249.599	967.19
249.832	1099.19
250.066	1078.19
250.299	862.19
250.532	798.19
250.765	756.19
250.998	723.19
251.231	759.19
251.465	728.19
251.698	733.19
251.931	757.19
252.164	735.19
252.397	735.19
252.63	785.19
252.863	796.19
253.096	775.19
253.329	777.19
253.562	780.19
253.795	772.19
254.028	797.19
254.261	843.19
254.494	863.19
254.727	1038.19
254.96	1267.19
255.193	1216.19
255.426	943.19
255.659	868.19
255.892	865.19
256.124	848.19
256.357	886.19
256.59	887.19
256.823	974.19
257.056	1133.19
257.289	1351.19
257.521	1469.19
257.754	1184.19
257.987	981.19
258.22	897.19
258.452	897.19
258.685	925.19
258.918	913.19
259.151	989.19
259.383	1099.19
259.616	1204.19
259.849	1261.19
260.081	1087.19
260.314	1026.19
260.547	983.19
260.779	979.19
261.012	938.19
261.244	975.19
261.477	962.19
261.71	959.19
261.942	990.19
262.175	1014.19
262.407	1026.19
262.64	1075.19
262.872	1110.19
263.105	1156.19
263.337	1211.19
263.57	1231.19
263.802	1283.19
264.035	1309.19
264.267	1360.19
264.499	1355.19
264.732	1382.19
264.964	1442.19
265.197	1419.19
265.429	1445.19
265.661	1481.19
265.894	1561.19
266.126	1784.19
266.358	1983.19
266.591	1920.19
266.823	1603.19
267.055	1453.19
267.287	1407.19
267.52	1306.19
267.752	1294.19
267.984	1262.19
268.216	1284.19
268.448	1255.19
268.681	1242.19
268.913	1213.19
269.145	1226.19
269.377	1263.19
269.609	1238.19
269.841	1277.19
270.073	1355.19
270.306	1627.19
270.538	2171.19
270.77	3245.19
271.002	3965.19
271.234	2778.19
271.466	1848.19
271.698	1515.19
271.93	1412.19
272.162	1309.19
272.394	1256.19
272.626	1241.19
272.858	1238.19
273.09	1203.19
273.322	1233.19
273.553	1184.19
273.785	1178.19
274.017	1181.19
274.249	1230.19
274.481	1225.19
274.713	1197.19
274.945	1203.19
275.176	1205.19
275.408	1227.19
275.64	1213.19
275.872	1209.19
276.104	1263.19
276.335	1235.19
276.567	1272.19
276.799	1275.19
277.031	1295.19
277.262	1329.19
277.494	1412.19
277.726	1589.19
277.957	1798.19
278.189	2114.19
278.421	1981.19
278.652	1747.19
278.884	1696.19
279.115	1474.19
279.347	1419.19
279.579	1381.19
279.81	1420.19
280.042	1385.19
280.273	1406.19
280.505	1446.19
280.736	1462.19
280.968	1603.19
281.199	1741.19
281.431	2028.19
281.662	2105.19
281.894	1779.19
282.125	1611.19
282.356	1651.19
282.588	1648.19
282.819	1684.19
283.051	1807.19
283.282	1975.19
283.513	2472.19
283.745	3595.19
283.976	5711.19
284.207	8208.19
284.439	7345.19
284.67	4514.19
284.901	3769.19
285.132	3739.19
285.364	3571.19
285.595	2696.19
285.826	2392.19
286.057	2908.19
286.288	3883.19
286.52	5260.19
286.751	4914.19
286.982	3030.19
287.213	2257.19
287.444	1983.19
287.675	1871.19
287.906	1797.19
288.138	1723.19
288.369	1714.19
288.6	1671.19
288.831	1657.19
289.062	1668.19
289.293	1695.19
289.524	1653.19
289.755	1687.19
289.986	1706.19
290.217	1716.19
290.448	1700.19
290.679	1735.19
290.91	1829.19
291.141	1868.19
291.371	2075.19
291.602	2117.19
291.833	1917.19
292.064	1718.19
292.295	1639.19
292.526	1626.19
292.757	1615.19
292.987	1557.19
293.218	1548.19
293.449	1601.19
293.68	1601.19
293.91	1594.19
294.141	1590.19
294.372	1531.19
294.603	1555.19
294.833	1587.19
295.064	1574.19
295.295	1544.19
295.525	1531.19
295.756	1559.19
295.987	1513.19
296.217	1565.19
296.448	1568.19
296.679	1559.19
296.909	1562.19
297.14	1600.19
297.37	1595.19
297.601	1608.19
297.831	1658.19
298.062	1621.19
298.292	1647.19
298.523	1662.19
298.753	1715.19
298.984	1671.19
299.214	1733.19
299.445	1734.19
299.675	1774.19
299.905	1807.19
300.136	1931.19
300.366	2165.19
300.597	2751.19
300.827	3855.19
301.057	5215.19
301.288	5269.19
301.518	3379.19
301.748	2555.19
301.979	2351.19
302.209	2245.19
302.439	2296.19
302.669	2458.19
302.9	2953.19
303.13	4213.19
303.36	6259.19
303.59	8321.19
303.82	7217.19
304.051	4185.19
304.281	2998.19
304.511	2584.19
304.741	2356.19
304.971	2181.19
305.201	2046.19
305.431	1985.19
305.661	1920.19
305.891	1855.19
306.121	1883.19
306.352	1862.19
306.582	1867.19
306.812	1805.19
307.042	1859.19
307.272	1807.19
307.502	1804.19
307.731	1776.19
307.961	1801.19
308.191	1792.19
308.421	1776.19
308.651	1809.19
308.881	1788.19
309.111	1800.19
309.341	1803.19
309.571	1863.19
309.8	1833.19
310.03	1837.19
310.26	1864.19
310.49	1857.19
310.72	1863.19
310.949	1840.19
311.179	1866.19
311.409	1875.19
311.639	1929.19
311.868	1910.19
312.098	1923.19
312.328	1938.19
312.557	1949.19
312.787	1949.19
313.017	1938.19
313.246	1985.19
313.476	2005.19
313.706	2073.19
313.935	2208.19
314.165	2377.19
314.394	2454.19
314.624	2335.19
314.853	2151.19
315.083	2148.19
315.312	2182.19
315.542	2197.19
315.771	2214.19
316.001	2263.19
316.23	2278.19
316.46	2427.19
316.689	2662.19
316.919	3265.19
317.148	4711.19
317.377	7223.19
317.607	10635.19
317.836	10966.19
318.065	6627.19
318.295	4202.19
318.524	3377.19
318.753	2947.19
318.983	2697.19
319.212	2525.19
319.441	2493.19
319.67	2403.19
319.9	2358.19
320.129	2383.19
320.358	2331.19
320.587	2311.19
320.816	2341.19
321.046	2333.19
321.275	2339.19
321.504	2389.19
321.733	2410.19
321.962	2487.19
322.191	2512.19
322.42	2481.19
322.649	2499.19
322.878	2490.19
323.108	2482.19
323.337	2513.19
323.566	2549.19
323.795	2615.19
324.024	2640.19
324.253	2737.19
324.482	2833.19
324.71	2955.19
324.939	3227.19
325.168	3277.19
325.397	3339.19
325.626	4007.19
325.855	5658.19
326.084	8890.19
326.313	12816.19
326.542	13577.19
326.77	9039.19
326.999	5963.19
327.228	4924.19
327.457	4699.19
327.686	4712.19
327.914	5110.19
328.143	5977.19
328.372	7120.19
328.6	7812.19
328.829	6973.19
329.058	5790.19
329.287	5050.19
329.515	4589.19
329.744	4222.19
329.972	4075.19
330.201	3827.19
330.43	3717.19
330.658	3603.19
330.887	3601.19
331.115	3539.19
331.344	3460.19
331.572	3483.19
331.801	3477.19
332.03	3525.19
332.258	3631.19
332.486	3759.19
332.715	4280.19
332.943	5250.19
333.172	6637.19
333.4	6533.19
333.629	4951.19
333.857	4554.19
334.085	4555.19
334.314	4683.19
334.542	5157.19
334.771	6009.19
334.999	7391.19
335.227	9372.19
335.455	10365.19
335.684	9326.19
335.912	7614.19
336.14	6397.19
336.369	5703.19
336.597	5242.19
336.825	4824.19
337.053	4545.19
337.281	4277.19
337.51	3966.19
337.738	3848.19
337.966	3739.19
338.194	3578.19
338.422	3532.19
338.65	3444.19
338.878	3316.19
339.106	3192.19
339.334	3236.19
339.562	3142.19
339.79	3077.19
340.018	3098.19
340.246	3060.19
340.474	3029.19
340.702	3053.19
340.93	2987.19
341.158	3010.19
341.386	2977.19
341.614	2983.19
341.842	2888.19
342.07	2849.19
342.298	2838.19
342.526	2805.19
342.754	2775.19
342.981	2720.19
343.209	2718.19
343.437	2750.19
343.665	2753.19
343.893	2806.19
344.12	2819.19
344.348	2813.19
344.576	2756.19
344.804	2683.19
345.031	2625.19
345.259	2580.19
345.487	2557.19
345.714	2544.19
345.942	2527.19
346.17	2541.19
346.397	2530.19
346.625	2498.19
346.853	2532.19
347.08	2483.19
347.308	2461.19
347.535	2529.19
347.763	2477.19
347.99	2457.19
348.218	2523.19
348.445	2464.19
348.673	2448.19
348.9	2453.19
349.128	2470.19
349.355	2475.19
349.583	2423.19
349.81	2449.19
350.037	2416.19
350.265	2390.19
350.492	2421.19
350.72	2437.19
350.947	2373.19
351.174	2405.19
351.402	2401.19
351.629	2363.19
351.856	2330.19
352.083	2388.19
352.311	2380.19
352.538	2341.19
352.765	2366.19
352.992	2363.19
353.22	2350.19
353.447	2343.19
353.674	2367.19
353.901	2413.19
354.128	2412.19
354.355	2387.19
354.583	2422.19
354.81	2410.19
355.037	2436.19
355.264	2438.19
355.491	2411.19
355.718	2433.19
355.945	2437.19
356.172	2448.19
356.399	2471.19
356.626	2505.19
356.853	2536.19
357.08	2555.19
357.307	2546.19
357.534	2571.19
357.761	2626.19
357.988	2581.19
358.215	2589.19
358.441	2524.19
358.668	2512.19
358.895	2523.19
359.122	2510.19
359.349	2566.19
359.576	2517.19
359.802	2552.19
360.029	2498.19
360.256	2520.19
360.483	2553.19
360.709	2544.19
360.936	2558.19
361.163	2522.19
361.39	2553.19
361.616	2545.19
361.843	2623.19
362.07	2593.19
362.296	2527.19
362.523	2583.19
362.749	2558.19
362.976	2592.19
363.203	2498.19
363.429	2515.19
363.656	2520.19
363.882	2579.19
364.109	2538.19
364.335	2533.19
364.562	2506.19
364.788	2594.19
365.015	2572.19
365.241	2650.19
365.468	2778.19
365.694	2922.19
365.92	2825.19
366.147	2593.19
366.373	2603.19
366.599	2619.19
366.826	2631.19
367.052	2616.19
367.278	2673.19
367.505	2689.19
367.731	2572.19
367.957	2621.19
368.184	2643.19
368.41	2677.19
368.636	2627.19
368.862	2669.19
369.089	2671.19
369.315	2636.19
369.541	2654.19
369.767	2609.19
369.993	2623.19
370.219	2626.19
370.445	2652.19
370.672	2646.19
370.898	2653.19
371.124	2691.19
371.35	2656.19
371.576	2680.19
371.802	2705.19
372.028	2752.19
372.254	2720.19
372.48	2698.19
372.706	2786.19
372.932	2833.19
373.158	2802.19
373.384	2786.19
373.61	2745.19
373.835	2815.19
374.061	2819.19
374.287	2806.19
374.513	2842.19
374.739	2911.19
374.965	2971.19
375.191	2875.19
375.416	2857.19
375.642	2818.19
375.868	2840.19
376.094	2815.19
376.319	2767.19
376.545	2801.19
376.771	2808.19
376.997	2730.19
377.222	2706.19
377.448	2717.19
377.674	2721.19
377.899	2746.19
378.125	2754.19
378.35	2733.19
378.576	2727.19
378.802	2723.19
379.027	2794.19
379.253	2839.19
379.478	3042.19
379.704	3549.19
379.929	5148.19
380.155	8029.19
380.38	8585.19
380.606	5249.19
380.831	3683.19
381.057	3190.19
381.282	2953.19
381.507	2877.19
381.733	2822.19
381.958	2767.19
382.184	2753.19
382.409	2729.19
382.634	2681.19
382.86	2666.19
383.085	2665.19
383.31	2641.19
383.535	2703.19
383.761	2678.19
383.986	2707.19
384.211	2717.19
384.436	2740.19
384.662	2783.19
384.887	2813.19
385.112	2765.19
385.337	2737.19
385.562	2720.19
385.787	2763.19
386.013	2812.19
386.238	2785.19
386.463	2765.19
386.688	2780.19
386.913	2761.19
387.138	2748.19
387.363	2817.19
387.588	2705.19
387.813	2755.19
388.038	2728.19
388.263	2749.19
388.488	2791.19
388.713	2771.19
388.938	2748.19
389.163	2738.19
389.387	2768.19
389.612	2774.19
389.837	2813.19
390.062	2772.19
390.287	2777.19
390.512	2789.19
390.736	2842.19
390.961	2893.19
391.186	2887.19
391.411	2914.19
391.636	2846.19
391.86	2931.19
392.085	2929.19
392.31	2902.19
392.534	2903.19
392.759	2835.19
392.984	2829.19
393.208	2853.19
393.433	2817.19
393.658	2789.19
393.882	2806.19
394.107	2735.19
394.331	2771.19
394.556	2835.19
394.78	2845.19
395.005	2818.19
395.229	2815.19
395.454	2872.19
395.678	2858.19
395.903	2882.19
396.127	2929.19
396.352	2845.19
396.576	2795.19
396.801	2840.19
397.025	2893.19
397.249	2894.19
397.474	2934.19
397.698	2945.19
397.922	2883.19
398.147	2954.19
398.371	3019.19
398.595	3011.19
398.82	3082.19
399.044	3204.19
399.268	3409.19
399.492	3552.19
399.717	3669.19
399.941	3663.19
400.165	3444.19
400.389	3354.19
400.613	3269.19
400.837	3160.19
401.062	3153.19
401.286	3053.19
401.51	3038.19
401.734	3021.19
401.958	3058.19
402.182	3121.19
402.406	3122.19
402.63	3061.19
402.854	3104.19
403.078	3093.19
403.302	3166.19
403.526	3188.19
403.75	3167.19
403.974	3181.19
404.198	3141.19
404.422	3147.19
404.645	3203.19
404.869	3163.19
405.093	3176.19
405.317	3179.19
405.541	3212.19
405.765	3272.19
405.988	3289.19
406.212	3279.19
406.436	3216.19
406.66	3316.19
406.883	3245.19
407.107	3360.19
407.331	3419.19
407.555	3521.19
407.778	3463.19
408.002	3364.19
408.226	3412.19
408.449	3402.19
408.673	3317.19
408.896	3233.19
409.12	3194.19
409.344	3245.19
409.567	3192.19
409.791	3211.19
410.014	3136.19
410.238	3131.19
410.461	3170.19
410.685	3137.19
410.908	3102.19
411.132	3119.19
411.355	3079.19
411.578	3045.19
411.802	3040.19
412.025	3020.19
412.249	3061.19
412.472	3047.19
412.695	3002.19
412.919	2993.19
413.142	3028.19
413.365	3006.19
413.589	3018.19
413.812	2933.19
414.035	3016.19
414.258	3023.19
414.482	2999.19
414.705	2983.19
414.928	2983.19
415.151	3027.19
415.374	2973.19
415.597	2938.19
415.821	2889.19
416.044	2864.19
416.267	2911.19
416.49	2904.19
416.713	2827.19
416.936	2906.19
417.159	2865.19
417.382	2843.19
417.605	2861.19
417.828	2827.19
418.051	2920.19
418.274	2916.19
418.497	2934.19
418.72	2977.19
418.943	2895.19
419.166	3025.19
419.389	3201.19
419.611	3227.19
419.834	3091.19
420.057	3029.19
420.28	2916.19
420.503	2867.19
420.726	2826.19
420.948	2896.19
421.171	2873.19
421.394	2866.19
421.617	2852.19
421.839	2945.19
422.062	2887.19
422.285	2846.19
422.507	2939.19
422.73	2918.19
422.953	3001.19
423.175	2969.19
423.398	2992.19
423.621	2853.19
423.843	2873.19
424.066	2890.19
424.288	2825.19
424.511	2816.19
424.733	2904.19
424.956	2821.19
425.178	2847.19
425.401	2816.19
425.623	2837.19
425.846	2813.19
426.068	2779.19
426.291	2773.19
426.513	2752.19
426.735	2708.19
426.958	2709.19
427.18	2679.19
427.402	2690.19
427.625	2711.19
427.847	2678.19
428.069	2657.19
428.292	2711.19
428.514	2699.19
428.736	2616.19
428.958	2707.19
429.181	2635.19
429.403	2585.19
429.625	2642.19
429.847	2629.19
430.069	2730.19
430.292	2817.19
430.514	2829.19
430.736	2845.19
430.958	2658.19
431.18	2662.19
431.402	2693.19
431.624	2616.19
431.846	2622.19
432.068	2640.19
432.29	2673.19
432.512	2599.19
432.734	2619.19
432.956	2650.19
433.178	2675.19
433.4	2670.19
433.622	2653.19
433.844	2695.19
434.066	2617.19
434.287	2635.19
434.509	2652.19
434.731	2735.19
434.953	2756.19
435.175	2740.19
435.397	2770.19
435.618	2705.19
435.84	2662.19
436.062	2639.19
436.284	2625.19
436.505	2608.19
436.727	2645.19
436.949	2609.19
437.17	2644.19
437.392	2588.19
437.614	2561.19
437.835	2565.19
438.057	2539.19
438.278	2542.19
438.5	2520.19
438.721	2621.19
438.943	2693.19
439.165	2707.19
439.386	2721.19
439.608	2705.19
439.829	2770.19
440.05	2870.19
440.272	2839.19
440.493	2766.19
440.715	2704.19
440.936	2748.19
441.158	2724.19
441.379	2823.19
441.6	2869.19
441.822	2957.19
442.043	3094.19
442.264	3217.19
442.486	3030.19
442.707	2894.19
442.928	2796.19
443.149	2846.19
443.371	2743.19
443.592	2777.19
443.813	2861.19
444.034	2818.19
444.255	2884.19
444.476	2906.19
444.698	2935.19
444.919	3007.19
445.14	3089.19
445.361	2947.19
445.582	2881.19
445.803	2814.19
446.024	2822.19
446.245	2813.19
446.466	2853.19
446.687	2775.19
446.908	2722.19
447.129	2662.19
447.35	2641.19
447.571	2659.19
447.792	2569.19
448.013	2607.19
448.234	2591.19
448.455	2561.19
448.675	2604.19
448.896	2692.19
449.117	2808.19
449.338	3021.19
449.559	3096.19
449.779	2791.19
450	2644.19
450.221	2576.19
450.442	2538.19
450.662	2534.19
450.883	2556.19
451.104	2551.19
451.324	2515.19
451.545	2519.19
451.766	2594.19
451.986	2629.19
452.207	2862.19
452.428	3600.19
452.648	5538.19
452.869	4512.19
453.089	3097.19
453.31	2965.19
453.53	2914.19
453.751	3053.19
453.971	3181.19
454.192	3082.19
454.412	2712.19
454.633	2559.19
454.853	2473.19
455.073	2430.19
455.294	2403.19
455.514	2455.19
455.734	2419.19
455.955	2405.19
456.175	2413.19
456.395	2391.19
456.616	2437.19
456.836	2469.19
457.056	2490.19
457.276	2439.19
457.497	2661.19
457.717	2658.19
457.937	2586.19
458.157	2547.19
458.377	2579.19
458.598	2681.19
458.818	2627.19
459.038	2613.19
459.258	2621.19
459.478	2667.19
459.698	2671.19
459.918	2766.19
460.138	2754.19
460.358	2804.19
460.578	2841.19
460.798	2933.19
461.018	2850.19
461.238	2896.19
461.458	2925.19
461.678	2891.19
461.898	2981.19
462.118	2975.19
462.338	3074.19
462.558	3105.19
462.777	3091.19
462.997	3270.19
463.217	3417.19
463.437	3559.19
463.657	3577.19
463.876	3592.19
464.096	3378.19
464.316	3210.19
464.536	3148.19
464.755	3081.19
464.975	3041.19
465.195	2964.19
465.414	2878.19
465.634	2750.19
465.854	2753.19
466.073	2709.19
466.293	2693.19
466.512	2655.19
466.732	2689.19
466.951	2838.19
467.171	3032.19
467.391	2969.19
467.61	2671.19
467.829	2623.19
468.049	2589.19
468.268	2589.19
468.488	2577.19
468.707	2586.19
468.927	2576.19
469.146	2523.19
469.365	2617.19
469.585	2596.19
469.804	2689.19
470.023	2712.19
470.243	2781.19
470.462	2856.19
470.681	3008.19
470.901	3326.19
471.12	3848.19
471.339	3804.19
471.558	3111.19
471.777	2907.19
471.997	2761.19
472.216	2689.19
472.435	2672.19
472.654	2606.19
472.873	2590.19
473.092	2581.19
473.311	2562.19
473.53	2661.19
473.749	2690.19
473.968	2810.19
474.187	2656.19
474.406	2601.19
474.625	2595.19
474.844	2593.19
475.063	2597.19
475.282	2609.19
475.501	2601.19
475.72	2628.19
475.939	2667.19
476.158	2753.19
476.377	2775.19
476.596	2760.19
476.814	2791.19
477.033	2743.19
477.252	2784.19
477.471	2860.19
477.69	2845.19
477.908	2993.19
478.127	2976.19
478.346	2989.19
478.564	2992.19
478.783	3044.19
479.002	3091.19
479.22	3152.19
479.439	3141.19
479.658	3085.19
479.876	3107.19
480.095	3146.19
480.313	3247.19
480.532	3254.19
480.751	3250.19
480.969	3199.19
481.188	3152.19
481.406	3172.19
481.624	3102.19
481.843	3167.19
482.061	3197.19
482.28	3172.19
482.498	3158.19
482.717	3104.19
482.935	3146.19
483.153	3261.19
483.372	3280.19
483.59	3258.19
483.808	3282.19
484.027	3400.19
484.245	3594.19
484.463	4079.19
484.681	4545.19
484.9	4107.19
485.118	3799.19
485.336	3687.19
485.554	3770.19
485.772	4025.19
485.99	4554.19
486.209	4960.19
486.427	4095.19
486.645	3683.19
486.863	3534.19
487.081	3456.19
487.299	3456.19
487.517	3373.19
487.735	3377.19
