Data from SnStandardFlinnAPT0064_LampEnergy10_LIBS07252019.E.O._I.C._HRD10591_15-20-23-493.txt Node
Date: Thu Jul 25 15:20:23 EDT 2019
User: cochatt
Spectrometer: HR+D1059
Trigger mode: 1
Integration Time (sec): 1.000000E-1
Scans to average: 1
Electric dark correction enabled: true
Nonlinearity correction enabled: false
Boxcar width: 0
XAxis mode: Wavelengths
Number of Pixels in Spectrum: 2048
>>>>>Begin Spectral Data<<<<<
223.165	-4.38
223.4	-4.38
223.635	-4.38
223.869	-22.38
224.104	-11.38
224.338	-8.38
224.573	-5.38
224.808	-13.38
225.042	-17.38
225.277	-10.38
225.511	1.62
225.746	4.62
225.98	-13.38
226.215	12.62
226.449	18.62
226.683	27.62
226.918	21.62
227.152	19.62
227.387	26.62
227.621	36.62
227.856	42.62
228.09	29.62
228.324	39.62
228.559	46.62
228.793	129.62
229.027	305.62
229.262	337.62
229.496	323.62
229.73	295.62
229.964	305.62
230.199	289.62
230.433	320.62
230.667	314.62
230.901	326.62
231.136	330.62
231.37	348.62
231.604	385.62
231.838	447.62
232.072	537.62
232.306	579.62
232.541	478.62
232.775	413.62
233.009	420.62
233.243	423.62
233.477	456.62
233.711	524.62
233.945	602.62
234.179	524.62
234.413	450.62
234.647	463.62
234.881	497.62
235.115	530.62
235.349	626.62
235.583	783.62
235.817	1021.62
236.051	1018.62
236.285	671.62
236.519	541.62
236.753	494.62
236.987	497.62
237.221	539.62
237.455	495.62
237.689	465.62
237.922	453.62
238.156	474.62
238.39	502.62
238.624	506.62
238.858	495.62
239.091	477.62
239.325	486.62
239.559	497.62
239.793	508.62
240.027	514.62
240.26	541.62
240.494	563.62
240.728	593.62
240.961	624.62
241.195	662.62
241.429	675.62
241.662	706.62
241.896	829.62
242.13	953.62
242.363	1290.62
242.597	1653.62
242.83	1577.62
243.064	1584.62
243.298	1845.62
243.531	1513.62
243.765	967.62
243.998	777.62
244.232	729.62
244.465	680.62
244.699	657.62
244.932	649.62
245.166	672.62
245.399	677.62
245.633	690.62
245.866	696.62
246.099	669.62
246.333	651.62
246.566	633.62
246.8	639.62
247.033	673.62
247.266	634.62
247.5	674.62
247.733	706.62
247.966	698.62
248.2	769.62
248.433	867.62
248.666	995.62
248.899	964.62
249.133	870.62
249.366	865.62
249.599	972.62
249.832	1107.62
250.066	1111.62
250.299	866.62
250.532	789.62
250.765	737.62
250.998	732.62
251.231	740.62
251.465	747.62
251.698	747.62
251.931	737.62
252.164	775.62
252.397	772.62
252.63	783.62
252.863	787.62
253.096	760.62
253.329	754.62
253.562	754.62
253.795	768.62
254.028	797.62
254.261	844.62
254.494	878.62
254.727	1053.62
254.96	1259.62
255.193	1254.62
255.426	987.62
255.659	885.62
255.892	890.62
256.124	866.62
256.357	871.62
256.59	897.62
256.823	955.62
257.056	1120.62
257.289	1378.62
257.521	1492.62
257.754	1207.62
257.987	987.62
258.22	905.62
258.452	929.62
258.685	930.62
258.918	939.62
259.151	972.62
259.383	1103.62
259.616	1247.62
259.849	1282.62
260.081	1088.62
260.314	999.62
260.547	939.62
260.779	939.62
261.012	929.62
261.244	944.62
261.477	976.62
261.71	1008.62
261.942	990.62
262.175	1005.62
262.407	1035.62
262.64	1052.62
262.872	1089.62
263.105	1142.62
263.337	1194.62
263.57	1251.62
263.802	1303.62
264.035	1291.62
264.267	1273.62
264.499	1379.62
264.732	1402.62
264.964	1411.62
265.197	1394.62
265.429	1425.62
265.661	1437.62
265.894	1546.62
266.126	1782.62
266.358	1988.62
266.591	1921.62
266.823	1613.62
267.055	1422.62
267.287	1400.62
267.52	1333.62
267.752	1291.62
267.984	1302.62
268.216	1263.62
268.448	1239.62
268.681	1240.62
268.913	1260.62
269.145	1231.62
269.377	1222.62
269.609	1250.62
269.841	1298.62
270.073	1377.62
270.306	1573.62
270.538	2200.62
270.77	3279.62
271.002	4083.62
271.234	2873.62
271.466	1917.62
271.698	1546.62
271.93	1419.62
272.162	1350.62
272.394	1279.62
272.626	1285.62
272.858	1258.62
273.09	1259.62
273.322	1244.62
273.553	1231.62
273.785	1185.62
274.017	1197.62
274.249	1198.62
274.481	1197.62
274.713	1202.62
274.945	1218.62
275.176	1214.62
275.408	1216.62
275.64	1185.62
275.872	1246.62
276.104	1249.62
276.335	1280.62
276.567	1284.62
276.799	1269.62
277.031	1328.62
277.262	1348.62
277.494	1443.62
277.726	1563.62
277.957	1892.62
278.189	2140.62
278.421	2008.62
278.652	1762.62
278.884	1709.62
279.115	1522.62
279.347	1393.62
279.579	1390.62
279.81	1420.62
280.042	1399.62
280.273	1443.62
280.505	1441.62
280.736	1491.62
280.968	1587.62
281.199	1779.62
281.431	2103.62
281.662	2151.62
281.894	1831.62
282.125	1661.62
282.356	1716.62
282.588	1666.62
282.819	1741.62
283.051	1844.62
283.282	2024.62
283.513	2527.62
283.745	3656.62
283.976	5873.62
284.207	8326.62
284.439	7573.62
284.67	4682.62
284.901	3887.62
285.132	3908.62
285.364	3702.62
285.595	2803.62
285.826	2472.62
286.057	2888.62
286.288	3998.62
286.52	5421.62
286.751	5043.62
286.982	3121.62
287.213	2340.62
287.444	1982.62
287.675	1886.62
287.906	1780.62
288.138	1715.62
288.369	1723.62
288.6	1696.62
288.831	1710.62
289.062	1655.62
289.293	1689.62
289.524	1699.62
289.755	1685.62
289.986	1711.62
290.217	1706.62
290.448	1729.62
290.679	1755.62
290.91	1771.62
291.141	1866.62
291.371	2053.62
291.602	2153.62
291.833	1936.62
292.064	1760.62
292.295	1641.62
292.526	1624.62
292.757	1640.62
292.987	1613.62
293.218	1590.62
293.449	1605.62
293.68	1581.62
293.91	1590.62
294.141	1581.62
294.372	1559.62
294.603	1593.62
294.833	1561.62
295.064	1529.62
295.295	1605.62
295.525	1518.62
295.756	1559.62
295.987	1560.62
296.217	1554.62
296.448	1547.62
296.679	1576.62
296.909	1561.62
297.14	1565.62
297.37	1588.62
297.601	1653.62
297.831	1638.62
298.062	1649.62
298.292	1665.62
298.523	1712.62
298.753	1696.62
298.984	1716.62
299.214	1706.62
299.445	1745.62
299.675	1818.62
299.905	1830.62
300.136	1913.62
300.366	2197.62
300.597	2782.62
300.827	3941.62
301.057	5387.62
301.288	5347.62
301.518	3519.62
301.748	2634.62
301.979	2363.62
302.209	2298.62
302.439	2293.62
302.669	2506.62
302.9	3035.62
303.13	4245.62
303.36	6346.62
303.59	8528.62
303.82	7362.62
304.051	4300.62
304.281	3075.62
304.511	2588.62
304.741	2370.62
304.971	2253.62
305.201	2086.62
305.431	2026.62
305.661	1991.62
305.891	1913.62
306.121	1891.62
306.352	1858.62
306.582	1877.62
306.812	1829.62
307.042	1819.62
307.272	1827.62
307.502	1809.62
307.731	1806.62
307.961	1817.62
308.191	1803.62
308.421	1811.62
308.651	1817.62
308.881	1775.62
309.111	1827.62
309.341	1835.62
309.571	1808.62
309.8	1866.62
310.03	1843.62
310.26	1874.62
310.49	1882.62
310.72	1882.62
310.949	1862.62
311.179	1925.62
311.409	1875.62
311.639	1921.62
311.868	1932.62
312.098	1931.62
312.328	1949.62
312.557	1961.62
312.787	1962.62
313.017	1963.62
313.246	1990.62
313.476	2012.62
313.706	2117.62
313.935	2224.62
314.165	2392.62
314.394	2470.62
314.624	2377.62
314.853	2177.62
315.083	2155.62
315.312	2171.62
315.542	2190.62
315.771	2195.62
316.001	2283.62
316.23	2342.62
316.46	2435.62
316.689	2673.62
316.919	3213.62
317.148	4714.62
317.377	7317.62
317.607	10776.62
317.836	11251.62
318.065	6871.62
318.295	4355.62
318.524	3459.62
318.753	2969.62
318.983	2721.62
319.212	2597.62
319.441	2529.62
319.67	2409.62
319.9	2419.62
320.129	2409.62
320.358	2353.62
320.587	2355.62
320.816	2339.62
321.046	2349.62
321.275	2333.62
321.504	2410.62
321.733	2427.62
321.962	2499.62
322.191	2524.62
322.42	2440.62
322.649	2463.62
322.878	2487.62
323.108	2514.62
323.337	2544.62
323.566	2513.62
323.795	2623.62
324.024	2696.62
324.253	2715.62
324.482	2783.62
324.71	3032.62
324.939	3201.62
325.168	3333.62
325.397	3418.62
325.626	4099.62
325.855	5711.62
326.084	8930.62
326.313	13033.62
326.542	13701.62
326.77	9372.62
326.999	6065.62
327.228	5083.62
327.457	4769.62
327.686	4813.62
327.914	5240.62
328.143	6115.62
328.372	7267.62
328.6	7814.62
328.829	6990.62
329.058	5837.62
329.287	5117.62
329.515	4652.62
329.744	4300.62
329.972	4087.62
330.201	3823.62
330.43	3759.62
330.658	3599.62
330.887	3575.62
331.115	3508.62
331.344	3485.62
331.572	3414.62
331.801	3483.62
332.03	3498.62
332.258	3563.62
332.486	3777.62
332.715	4287.62
332.943	5448.62
333.172	6726.62
333.4	6722.62
333.629	5035.62
333.857	4521.62
334.085	4495.62
334.314	4681.62
334.542	5136.62
334.771	6063.62
334.999	7521.62
335.227	9614.62
335.455	10603.62
335.684	9575.62
335.912	7743.62
336.14	6535.62
336.369	5738.62
336.597	5244.62
336.825	4855.62
337.053	4466.62
337.281	4255.62
337.51	4000.62
337.738	3834.62
337.966	3616.62
338.194	3499.62
338.422	3448.62
338.65	3346.62
338.878	3290.62
339.106	3215.62
339.334	3156.62
339.562	3123.62
339.79	3020.62
340.018	3064.62
340.246	3055.62
340.474	3021.62
340.702	3019.62
340.93	2973.62
341.158	2985.62
341.386	2995.62
341.614	2926.62
341.842	2879.62
342.07	2805.62
342.298	2788.62
342.526	2774.62
342.754	2719.62
342.981	2724.62
343.209	2657.62
343.437	2733.62
343.665	2817.62
343.893	2824.62
344.12	2828.62
344.348	2706.62
344.576	2726.62
344.804	2662.62
345.031	2635.62
345.259	2627.62
345.487	2582.62
345.714	2564.62
345.942	2552.62
346.17	2518.62
346.397	2530.62
346.625	2499.62
346.853	2538.62
347.08	2495.62
347.308	2552.62
347.535	2495.62
347.763	2531.62
347.99	2519.62
348.218	2474.62
348.445	2446.62
348.673	2448.62
348.9	2441.62
349.128	2419.62
349.355	2422.62
349.583	2454.62
349.81	2385.62
350.037	2426.62
350.265	2398.62
350.492	2371.62
350.72	2433.62
350.947	2372.62
351.174	2394.62
351.402	2382.62
351.629	2373.62
351.856	2391.62
352.083	2399.62
352.311	2335.62
352.538	2360.62
352.765	2375.62
352.992	2319.62
353.22	2368.62
353.447	2367.62
353.674	2358.62
353.901	2413.62
354.128	2345.62
354.355	2351.62
354.583	2382.62
354.81	2412.62
355.037	2431.62
355.264	2390.62
355.491	2428.62
355.718	2411.62
355.945	2420.62
356.172	2417.62
356.399	2444.62
356.626	2498.62
356.853	2477.62
357.08	2477.62
357.307	2511.62
357.534	2615.62
357.761	2546.62
357.988	2591.62
358.215	2590.62
358.441	2544.62
358.668	2507.62
358.895	2479.62
359.122	2522.62
359.349	2530.62
359.576	2491.62
359.802	2534.62
360.029	2501.62
360.256	2488.62
360.483	2570.62
360.709	2554.62
360.936	2560.62
361.163	2561.62
361.39	2503.62
361.616	2567.62
361.843	2525.62
362.07	2578.62
362.296	2593.62
362.523	2521.62
362.749	2583.62
362.976	2539.62
363.203	2510.62
363.429	2530.62
363.656	2535.62
363.882	2525.62
364.109	2504.62
364.335	2505.62
364.562	2534.62
364.788	2576.62
365.015	2589.62
365.241	2626.62
365.468	2826.62
365.694	2937.62
365.92	2773.62
366.147	2553.62
366.373	2573.62
366.599	2575.62
366.826	2595.62
367.052	2550.62
367.278	2589.62
367.505	2612.62
367.731	2571.62
367.957	2584.62
368.184	2665.62
368.41	2652.62
368.636	2616.62
368.862	2627.62
369.089	2610.62
369.315	2621.62
369.541	2601.62
369.767	2595.62
369.993	2593.62
370.219	2600.62
370.445	2661.62
370.672	2662.62
370.898	2631.62
371.124	2654.62
371.35	2671.62
371.576	2682.62
371.802	2749.62
372.028	2705.62
372.254	2741.62
372.48	2743.62
372.706	2786.62
372.932	2774.62
373.158	2776.62
373.384	2769.62
373.61	2740.62
373.835	2795.62
374.061	2749.62
374.287	2797.62
374.513	2778.62
374.739	2857.62
374.965	2897.62
375.191	2868.62
375.416	2902.62
375.642	2785.62
375.868	2787.62
376.094	2812.62
376.319	2801.62
376.545	2763.62
376.771	2720.62
376.997	2711.62
377.222	2720.62
377.448	2707.62
377.674	2711.62
377.899	2620.62
378.125	2690.62
378.35	2705.62
378.576	2742.62
378.802	2714.62
379.027	2759.62
379.253	2897.62
379.478	3053.62
379.704	3647.62
379.929	5262.62
380.155	8202.62
380.38	8877.62
380.606	5335.62
380.831	3662.62
381.057	3277.62
381.282	2976.62
381.507	2845.62
381.733	2797.62
381.958	2841.62
382.184	2713.62
382.409	2711.62
382.634	2695.62
382.86	2691.62
383.085	2661.62
383.31	2680.62
383.535	2679.62
383.761	2680.62
383.986	2701.62
384.211	2685.62
384.436	2741.62
384.662	2770.62
384.887	2795.62
385.112	2711.62
385.337	2790.62
385.562	2729.62
385.787	2756.62
386.013	2776.62
386.238	2767.62
386.463	2742.62
386.688	2724.62
386.913	2755.62
387.138	2739.62
387.363	2785.62
387.588	2709.62
387.813	2776.62
388.038	2705.62
388.263	2735.62
388.488	2761.62
388.713	2735.62
388.938	2749.62
389.163	2665.62
389.387	2772.62
389.612	2755.62
389.837	2750.62
390.062	2757.62
390.287	2777.62
390.512	2740.62
390.736	2842.62
390.961	2855.62
391.186	2873.62
391.411	2833.62
391.636	2933.62
391.86	2891.62
392.085	2909.62
392.31	2890.62
392.534	2856.62
392.759	2849.62
392.984	2792.62
393.208	2812.62
393.433	2789.62
393.658	2827.62
393.882	2805.62
394.107	2766.62
394.331	2780.62
394.556	2838.62
394.78	2813.62
395.005	2835.62
395.229	2765.62
395.454	2813.62
395.678	2860.62
395.903	2864.62
396.127	2846.62
396.352	2834.62
396.576	2851.62
396.801	2822.62
397.025	2824.62
397.249	2861.62
397.474	2890.62
397.698	2894.62
397.922	2923.62
398.147	2952.62
398.371	2981.62
398.595	3028.62
398.82	3087.62
399.044	3182.62
399.268	3343.62
399.492	3536.62
399.717	3653.62
399.941	3682.62
400.165	3514.62
400.389	3329.62
400.613	3301.62
400.837	3134.62
401.062	3125.62
401.286	3063.62
401.51	3026.62
401.734	2981.62
401.958	3041.62
402.182	2991.62
402.406	2987.62
402.63	3087.62
402.854	3106.62
403.078	3078.62
403.302	3087.62
403.526	3182.62
403.75	3142.62
403.974	3170.62
404.198	3099.62
404.422	3233.62
404.645	3170.62
404.869	3077.62
405.093	3171.62
405.317	3159.62
405.541	3188.62
405.765	3227.62
405.988	3203.62
406.212	3259.62
406.436	3181.62
406.66	3304.62
406.883	3290.62
407.107	3349.62
407.331	3329.62
407.555	3438.62
407.778	3439.62
408.002	3362.62
408.226	3405.62
408.449	3425.62
408.673	3311.62
408.896	3197.62
409.12	3185.62
409.344	3262.62
409.567	3149.62
409.791	3164.62
410.014	3134.62
410.238	3110.62
410.461	3092.62
410.685	3137.62
410.908	3069.62
411.132	3078.62
411.355	3028.62
411.578	3030.62
411.802	2970.62
412.025	3021.62
412.249	3077.62
412.472	3073.62
412.695	2982.62
412.919	2955.62
413.142	2972.62
413.365	2984.62
413.589	2947.62
413.812	2965.62
414.035	2982.62
414.258	3039.62
414.482	2983.62
414.705	3014.62
414.928	2973.62
415.151	2973.62
415.374	2930.62
415.597	2916.62
415.821	2843.62
416.044	2852.62
416.267	2862.62
416.49	2867.62
416.713	2820.62
416.936	2878.62
417.159	2807.62
417.382	2776.62
417.605	2791.62
417.828	2865.62
418.051	2893.62
418.274	2856.62
418.497	2872.62
418.72	2992.62
418.943	2888.62
419.166	3009.62
419.389	3125.62
419.611	3130.62
419.834	3061.62
420.057	2977.62
420.28	2929.62
420.503	2856.62
420.726	2841.62
420.948	2852.62
421.171	2856.62
421.394	2870.62
421.617	2869.62
421.839	2827.62
422.062	2890.62
422.285	2846.62
422.507	2875.62
422.73	2896.62
422.953	2952.62
423.175	3015.62
423.398	2920.62
423.621	2855.62
423.843	2923.62
424.066	2840.62
424.288	2888.62
424.511	2825.62
424.733	2867.62
424.956	2816.62
425.178	2838.62
425.401	2790.62
425.623	2830.62
425.846	2719.62
426.068	2721.62
426.291	2763.62
426.513	2737.62
426.735	2705.62
426.958	2739.62
427.18	2706.62
427.402	2730.62
427.625	2713.62
427.847	2642.62
428.069	2628.62
428.292	2697.62
428.514	2649.62
428.736	2669.62
428.958	2711.62
429.181	2599.62
429.403	2602.62
429.625	2624.62
429.847	2645.62
430.069	2638.62
430.292	2761.62
430.514	2836.62
430.736	2863.62
430.958	2696.62
431.18	2585.62
431.402	2616.62
431.624	2568.62
431.846	2590.62
432.068	2627.62
432.29	2617.62
432.512	2578.62
432.734	2619.62
432.956	2625.62
433.178	2600.62
433.4	2591.62
433.622	2638.62
433.844	2621.62
434.066	2594.62
434.287	2617.62
434.509	2606.62
434.731	2725.62
434.953	2757.62
435.175	2746.62
435.397	2773.62
435.618	2699.62
435.84	2672.62
436.062	2638.62
436.284	2593.62
436.505	2605.62
436.727	2644.62
436.949	2577.62
437.17	2578.62
437.392	2593.62
437.614	2593.62
437.835	2497.62
438.057	2515.62
438.278	2506.62
438.5	2541.62
438.721	2557.62
438.943	2697.62
439.165	2721.62
439.386	2744.62
439.608	2703.62
439.829	2741.62
440.05	2816.62
440.272	2857.62
440.493	2688.62
440.715	2711.62
440.936	2725.62
441.158	2750.62
441.379	2744.62
441.6	2859.62
441.822	2936.62
442.043	3083.62
442.264	3146.62
442.486	2947.62
442.707	2839.62
442.928	2812.62
443.149	2789.62
443.371	2758.62
443.592	2770.62
443.813	2786.62
444.034	2831.62
444.255	2849.62
444.476	2905.62
444.698	2981.62
444.919	3019.62
445.14	3042.62
445.361	2946.62
445.582	2827.62
445.803	2813.62
446.024	2805.62
446.245	2798.62
446.466	2775.62
446.687	2728.62
446.908	2768.62
447.129	2665.62
447.35	2573.62
447.571	2667.62
447.792	2612.62
448.013	2604.62
448.234	2597.62
448.455	2574.62
448.675	2606.62
448.896	2693.62
449.117	2773.62
449.338	3007.62
449.559	3170.62
449.779	2806.62
450	2629.62
450.221	2527.62
450.442	2538.62
450.662	2555.62
450.883	2498.62
451.104	2496.62
451.324	2530.62
451.545	2525.62
451.766	2562.62
451.986	2600.62
452.207	2837.62
452.428	3630.62
452.648	5571.62
452.869	4657.62
453.089	3199.62
453.31	2920.62
453.53	2959.62
453.751	3084.62
453.971	3213.62
454.192	3121.62
454.412	2728.62
454.633	2525.62
454.853	2479.62
455.073	2431.62
455.294	2431.62
455.514	2414.62
455.734	2462.62
455.955	2346.62
456.175	2381.62
456.395	2419.62
456.616	2392.62
456.836	2457.62
457.056	2432.62
457.276	2479.62
457.497	2634.62
457.717	2623.62
457.937	2569.62
458.157	2516.62
458.377	2524.62
458.598	2600.62
458.818	2607.62
459.038	2567.62
459.258	2654.62
459.478	2649.62
459.698	2677.62
459.918	2661.62
460.138	2707.62
460.358	2773.62
460.578	2806.62
460.798	2880.62
461.018	2845.62
461.238	2855.62
461.458	2889.62
461.678	2916.62
461.898	2983.62
462.118	3010.62
462.338	3021.62
462.558	3071.62
462.777	3078.62
462.997	3203.62
463.217	3329.62
463.437	3527.62
463.657	3614.62
463.876	3558.62
464.096	3340.62
464.316	3191.62
464.536	3142.62
464.755	3109.62
464.975	3014.62
465.195	2927.62
465.414	2778.62
465.634	2752.62
465.854	2690.62
466.073	2690.62
466.293	2665.62
466.512	2673.62
466.732	2675.62
466.951	2789.62
467.171	2995.62
467.391	2963.62
467.61	2682.62
467.829	2628.62
468.049	2575.62
468.268	2563.62
468.488	2548.62
468.707	2563.62
468.927	2579.62
469.146	2541.62
469.365	2567.62
469.585	2639.62
469.804	2725.62
470.023	2734.62
470.243	2789.62
470.462	2899.62
470.681	3050.62
470.901	3286.62
471.12	3812.62
471.339	3866.62
471.558	3158.62
471.777	2894.62
471.997	2753.62
472.216	2705.62
472.435	2643.62
472.654	2609.62
472.873	2574.62
473.092	2554.62
473.311	2627.62
473.53	2596.62
473.749	2709.62
473.968	2789.62
474.187	2644.62
474.406	2575.62
474.625	2649.62
474.844	2559.62
475.063	2645.62
475.282	2639.62
475.501	2629.62
475.72	2632.62
475.939	2643.62
476.158	2715.62
476.377	2771.62
476.596	2746.62
476.814	2764.62
477.033	2735.62
477.252	2704.62
477.471	2847.62
477.69	2816.62
477.908	2897.62
478.127	2911.62
478.346	2977.62
478.564	2930.62
478.783	3009.62
479.002	3021.62
479.22	3042.62
479.439	3102.62
479.658	3132.62
479.876	3133.62
480.095	3146.62
480.313	3215.62
480.532	3216.62
480.751	3188.62
480.969	3177.62
481.188	3147.62
481.406	3184.62
481.624	3137.62
481.843	3182.62
482.061	3208.62
482.28	3114.62
482.498	3159.62
482.717	3140.62
482.935	3145.62
483.153	3205.62
483.372	3290.62
483.59	3313.62
483.808	3365.62
484.027	3427.62
484.245	3585.62
484.463	4128.62
484.681	4574.62
484.9	4114.62
485.118	3815.62
485.336	3731.62
485.554	3789.62
485.772	4045.62
485.99	4597.62
486.209	4943.62
486.427	4182.62
486.645	3631.62
486.863	3489.62
487.081	3430.62
487.299	3380.62
487.517	3346.62
487.735	3350.62
