Data from SnStandardFlinnAPT0064_LampEnergy5.5_LIBS07252019.E.O._I.C._HRD10591_15-14-52-491.txt Node
Date: Thu Jul 25 15:14:52 EDT 2019
User: cochatt
Spectrometer: HR+D1059
Trigger mode: 1
Integration Time (sec): 1.000000E-1
Scans to average: 1
Electric dark correction enabled: true
Nonlinearity correction enabled: false
Boxcar width: 0
XAxis mode: Wavelengths
Number of Pixels in Spectrum: 2048
>>>>>Begin Spectral Data<<<<<
223.165	-15.75
223.4	-15.75
223.635	-15.75
223.869	-15.75
224.104	-9.75
224.338	-5.75
224.573	-26.75
224.808	-10.75
225.042	-15.75
225.277	-2.75
225.511	-4.75
225.746	-8.75
225.98	14.25
226.215	10.25
226.449	26.25
226.683	19.25
226.918	10.25
227.152	36.25
227.387	27.25
227.621	34.25
227.856	48.25
228.09	36.25
228.324	52.25
228.559	42.25
228.793	74.25
229.027	128.25
229.262	152.25
229.496	152.25
229.73	143.25
229.964	146.25
230.199	148.25
230.433	147.25
230.667	152.25
230.901	159.25
231.136	160.25
231.37	154.25
231.604	183.25
231.838	181.25
232.072	208.25
232.306	208.25
232.541	201.25
232.775	163.25
233.009	180.25
233.243	201.25
233.477	195.25
233.711	207.25
233.945	233.25
234.179	222.25
234.413	202.25
234.647	207.25
234.881	225.25
235.115	207.25
235.349	254.25
235.583	294.25
235.817	364.25
236.051	357.25
236.285	230.25
236.519	241.25
236.753	217.25
236.987	221.25
237.221	207.25
237.455	222.25
237.689	191.25
237.922	188.25
238.156	211.25
238.39	207.25
238.624	218.25
238.858	218.25
239.091	218.25
239.325	216.25
239.559	230.25
239.793	218.25
240.027	224.25
240.26	238.25
240.494	222.25
240.728	238.25
240.961	265.25
241.195	244.25
241.429	265.25
241.662	268.25
241.896	292.25
242.13	341.25
242.363	424.25
242.597	518.25
242.83	526.25
243.064	523.25
243.298	578.25
243.531	505.25
243.765	351.25
243.998	306.25
244.232	289.25
244.465	278.25
244.699	291.25
244.932	273.25
245.166	276.25
245.399	288.25
245.633	280.25
245.866	290.25
246.099	278.25
246.333	275.25
246.566	284.25
246.8	260.25
247.033	279.25
247.266	266.25
247.5	265.25
247.733	280.25
247.966	296.25
248.2	305.25
248.433	356.25
248.666	357.25
248.899	355.25
249.133	341.25
249.366	347.25
249.599	342.25
249.832	368.25
250.066	376.25
250.299	339.25
250.532	320.25
250.765	308.25
250.998	316.25
251.231	322.25
251.465	310.25
251.698	312.25
251.931	316.25
252.164	310.25
252.397	306.25
252.63	337.25
252.863	319.25
253.096	335.25
253.329	329.25
253.562	316.25
253.795	312.25
254.028	319.25
254.261	344.25
254.494	352.25
254.727	404.25
254.96	450.25
255.193	464.25
255.426	372.25
255.659	349.25
255.892	358.25
256.124	344.25
256.357	354.25
256.59	358.25
256.823	375.25
257.056	398.25
257.289	468.25
257.521	487.25
257.754	419.25
257.987	372.25
258.22	370.25
258.452	346.25
258.685	369.25
258.918	391.25
259.151	422.25
259.383	412.25
259.616	422.25
259.849	453.25
260.081	418.25
260.314	406.25
260.547	389.25
260.779	380.25
261.012	388.25
261.244	402.25
261.477	412.25
261.71	408.25
261.942	432.25
262.175	414.25
262.407	411.25
262.64	435.25
262.872	448.25
263.105	466.25
263.337	501.25
263.57	530.25
263.802	531.25
264.035	555.25
264.267	549.25
264.499	570.25
264.732	576.25
264.964	611.25
265.197	597.25
265.429	609.25
265.661	588.25
265.894	631.25
266.126	682.25
266.358	700.25
266.591	700.25
266.823	637.25
267.055	578.25
267.287	585.25
267.52	545.25
267.752	535.25
267.984	543.25
268.216	522.25
268.448	501.25
268.681	495.25
268.913	516.25
269.145	512.25
269.377	503.25
269.609	532.25
269.841	516.25
270.073	536.25
270.306	594.25
270.538	759.25
270.77	1022.25
271.002	1242.25
271.234	919.25
271.466	658.25
271.698	580.25
271.93	550.25
272.162	560.25
272.394	538.25
272.626	485.25
272.858	496.25
273.09	501.25
273.322	474.25
273.553	469.25
273.785	493.25
274.017	495.25
274.249	479.25
274.481	502.25
274.713	490.25
274.945	493.25
275.176	483.25
275.408	498.25
275.64	528.25
275.872	500.25
276.104	512.25
276.335	515.25
276.567	512.25
276.799	502.25
277.031	509.25
277.262	527.25
277.494	537.25
277.726	578.25
277.957	632.25
278.189	686.25
278.421	672.25
278.652	622.25
278.884	586.25
279.115	565.25
279.347	547.25
279.579	550.25
279.81	544.25
280.042	532.25
280.273	541.25
280.505	566.25
280.736	555.25
280.968	592.25
281.199	611.25
281.431	686.25
281.662	699.25
281.894	626.25
282.125	619.25
282.356	620.25
282.588	623.25
282.819	629.25
283.051	645.25
283.282	707.25
283.513	878.25
283.745	1163.25
283.976	1760.25
284.207	2468.25
284.439	2256.25
284.67	1450.25
284.901	1200.25
285.132	1121.25
285.364	1110.25
285.595	907.25
285.826	856.25
286.057	964.25
286.288	1214.25
286.52	1606.25
286.751	1512.25
286.982	1026.25
287.213	803.25
287.444	728.25
287.675	702.25
287.906	674.25
288.138	675.25
288.369	656.25
288.6	652.25
288.831	640.25
289.062	625.25
289.293	640.25
289.524	660.25
289.755	658.25
289.986	664.25
290.217	660.25
290.448	664.25
290.679	665.25
290.91	685.25
291.141	708.25
291.371	701.25
291.602	702.25
291.833	686.25
292.064	681.25
292.295	642.25
292.526	631.25
292.757	639.25
292.987	607.25
293.218	615.25
293.449	626.25
293.68	648.25
293.91	599.25
294.141	615.25
294.372	613.25
294.603	632.25
294.833	624.25
295.064	605.25
295.295	642.25
295.525	613.25
295.756	632.25
295.987	626.25
296.217	614.25
296.448	630.25
296.679	618.25
296.909	602.25
297.14	624.25
297.37	637.25
297.601	631.25
297.831	647.25
298.062	614.25
298.292	668.25
298.523	640.25
298.753	643.25
298.984	648.25
299.214	669.25
299.445	672.25
299.675	692.25
299.905	688.25
300.136	688.25
300.366	769.25
300.597	930.25
300.827	1229.25
301.057	1598.25
301.288	1623.25
301.518	1112.25
301.748	888.25
301.979	853.25
302.209	816.25
302.439	818.25
302.669	860.25
302.9	1002.25
303.13	1268.25
303.36	1820.25
303.59	2382.25
303.82	2079.25
304.051	1364.25
304.281	1024.25
304.511	912.25
304.741	837.25
304.971	804.25
305.201	810.25
305.431	773.25
305.661	773.25
305.891	732.25
306.121	724.25
306.352	720.25
306.582	691.25
306.812	709.25
307.042	716.25
307.272	721.25
307.502	694.25
307.731	712.25
307.961	710.25
308.191	710.25
308.421	696.25
308.651	718.25
308.881	707.25
309.111	714.25
309.341	723.25
309.571	723.25
309.8	751.25
310.03	702.25
310.26	745.25
310.49	715.25
310.72	745.25
310.949	732.25
311.179	744.25
311.409	760.25
311.639	739.25
311.868	753.25
312.098	716.25
312.328	745.25
312.557	777.25
312.787	745.25
313.017	772.25
313.246	773.25
313.476	784.25
313.706	804.25
313.935	812.25
314.165	858.25
314.394	882.25
314.624	850.25
314.853	840.25
315.083	802.25
315.312	831.25
315.542	815.25
315.771	830.25
316.001	849.25
316.23	847.25
316.46	870.25
316.689	951.25
316.919	1120.25
317.148	1480.25
317.377	2192.25
317.607	3110.25
317.836	3234.25
318.065	1967.25
318.295	1382.25
318.524	1160.25
318.753	1081.25
318.983	988.25
319.212	966.25
319.441	930.25
319.67	916.25
319.9	894.25
320.129	904.25
320.358	894.25
320.587	910.25
320.816	903.25
321.046	893.25
321.275	926.25
321.504	895.25
321.733	903.25
321.962	940.25
322.191	952.25
322.42	966.25
322.649	953.25
322.878	918.25
323.108	918.25
323.337	975.25
323.566	994.25
323.795	988.25
324.024	1024.25
324.253	1002.25
324.482	1017.25
324.71	1079.25
324.939	1113.25
325.168	1133.25
325.397	1210.25
325.626	1352.25
325.855	1849.25
326.084	2655.25
326.313	3852.25
326.542	4112.25
326.77	2781.25
326.999	1924.25
327.228	1692.25
327.457	1602.25
327.686	1638.25
327.914	1697.25
328.143	2005.25
328.372	2249.25
328.6	2433.25
328.829	2266.25
329.058	2016.25
329.287	1823.25
329.515	1685.25
329.744	1615.25
329.972	1489.25
330.201	1428.25
330.43	1392.25
330.658	1361.25
330.887	1316.25
331.115	1304.25
331.344	1301.25
331.572	1295.25
331.801	1287.25
332.03	1300.25
332.258	1340.25
332.486	1352.25
332.715	1545.25
332.943	1757.25
333.172	2037.25
333.4	2037.25
333.629	1704.25
333.857	1595.25
334.085	1591.25
334.314	1701.25
334.542	1842.25
334.771	2058.25
334.999	2450.25
335.227	2936.25
335.455	3186.25
335.684	3026.25
335.912	2639.25
336.14	2327.25
336.369	2039.25
336.597	1909.25
336.825	1773.25
337.053	1691.25
337.281	1566.25
337.51	1496.25
337.738	1459.25
337.966	1381.25
338.194	1347.25
338.422	1309.25
338.65	1280.25
338.878	1268.25
339.106	1223.25
339.334	1240.25
339.562	1196.25
339.79	1151.25
340.018	1170.25
340.246	1184.25
340.474	1175.25
340.702	1150.25
340.93	1142.25
341.158	1185.25
341.386	1133.25
341.614	1151.25
341.842	1131.25
342.07	1140.25
342.298	1099.25
342.526	1084.25
342.754	1082.25
342.981	1041.25
343.209	1086.25
343.437	1072.25
343.665	1097.25
343.893	1117.25
344.12	1092.25
344.348	1082.25
344.576	1085.25
344.804	1068.25
345.031	1013.25
345.259	1002.25
345.487	1004.25
345.714	979.25
345.942	1005.25
346.17	1000.25
346.397	962.25
346.625	997.25
346.853	979.25
347.08	959.25
347.308	980.25
347.535	976.25
347.763	972.25
347.99	965.25
348.218	947.25
348.445	951.25
348.673	943.25
348.9	974.25
349.128	947.25
349.355	957.25
349.583	974.25
349.81	948.25
350.037	905.25
350.265	953.25
350.492	936.25
350.72	957.25
350.947	950.25
351.174	958.25
351.402	939.25
351.629	940.25
351.856	929.25
352.083	908.25
352.311	947.25
352.538	930.25
352.765	957.25
352.992	946.25
353.22	940.25
353.447	910.25
353.674	935.25
353.901	948.25
354.128	935.25
354.355	930.25
354.583	927.25
354.81	958.25
355.037	960.25
355.264	933.25
355.491	944.25
355.718	942.25
355.945	952.25
356.172	974.25
356.399	992.25
356.626	957.25
356.853	987.25
357.08	960.25
357.307	979.25
357.534	995.25
357.761	1009.25
357.988	996.25
358.215	1014.25
358.441	980.25
358.668	969.25
358.895	970.25
359.122	972.25
359.349	996.25
359.576	1002.25
359.802	986.25
360.029	987.25
360.256	989.25
360.483	985.25
360.709	995.25
360.936	1019.25
361.163	977.25
361.39	1020.25
361.616	999.25
361.843	962.25
362.07	989.25
362.296	996.25
362.523	986.25
362.749	1009.25
362.976	1012.25
363.203	1006.25
363.429	1008.25
363.656	975.25
363.882	985.25
364.109	998.25
364.335	1006.25
364.562	1008.25
364.788	1004.25
365.015	1012.25
365.241	1034.25
365.468	1055.25
365.694	1085.25
365.92	1044.25
366.147	1004.25
366.373	1005.25
366.599	1021.25
366.826	999.25
367.052	1030.25
367.278	1030.25
367.505	1021.25
367.731	1046.25
367.957	1038.25
368.184	1005.25
368.41	1051.25
368.636	1030.25
368.862	1046.25
369.089	1053.25
369.315	1040.25
369.541	1015.25
369.767	1038.25
369.993	1026.25
370.219	1025.25
370.445	1036.25
370.672	1057.25
370.898	1007.25
371.124	1069.25
371.35	1068.25
371.576	1044.25
371.802	1082.25
372.028	1042.25
372.254	1062.25
372.48	1097.25
372.706	1135.25
372.932	1097.25
373.158	1091.25
373.384	1137.25
373.61	1088.25
373.835	1112.25
374.061	1119.25
374.287	1141.25
374.513	1144.25
374.739	1137.25
374.965	1154.25
375.191	1143.25
375.416	1163.25
375.642	1107.25
375.868	1109.25
376.094	1092.25
376.319	1079.25
376.545	1114.25
376.771	1089.25
376.997	1081.25
377.222	1078.25
377.448	1068.25
377.674	1100.25
377.899	1075.25
378.125	1074.25
378.35	1065.25
378.576	1081.25
378.802	1093.25
379.027	1095.25
379.253	1132.25
379.478	1128.25
379.704	1306.25
379.929	1670.25
380.155	2374.25
380.38	2484.25
380.606	1696.25
380.831	1297.25
381.057	1198.25
381.282	1147.25
381.507	1092.25
381.733	1086.25
381.958	1093.25
382.184	1089.25
382.409	1065.25
382.634	1079.25
382.86	1088.25
383.085	1082.25
383.31	1057.25
383.535	1088.25
383.761	1067.25
383.986	1068.25
384.211	1093.25
384.436	1109.25
384.662	1128.25
384.887	1100.25
385.112	1105.25
385.337	1111.25
385.562	1110.25
385.787	1072.25
386.013	1136.25
386.238	1113.25
386.463	1101.25
386.688	1111.25
386.913	1084.25
387.138	1109.25
387.363	1081.25
387.588	1110.25
387.813	1118.25
388.038	1103.25
388.263	1102.25
388.488	1111.25
388.713	1093.25
388.938	1121.25
389.163	1113.25
389.387	1100.25
389.612	1092.25
389.837	1110.25
390.062	1087.25
390.287	1113.25
390.512	1120.25
390.736	1136.25
390.961	1179.25
391.186	1125.25
391.411	1154.25
391.636	1139.25
391.86	1160.25
392.085	1175.25
392.31	1153.25
392.534	1150.25
392.759	1160.25
392.984	1119.25
393.208	1122.25
393.433	1117.25
393.658	1111.25
393.882	1092.25
394.107	1124.25
394.331	1110.25
394.556	1123.25
394.78	1126.25
395.005	1120.25
395.229	1137.25
395.454	1152.25
395.678	1169.25
395.903	1144.25
396.127	1162.25
396.352	1122.25
396.576	1135.25
396.801	1154.25
397.025	1145.25
397.249	1170.25
397.474	1157.25
397.698	1179.25
397.922	1195.25
398.147	1181.25
398.371	1210.25
398.595	1223.25
398.82	1225.25
399.044	1275.25
399.268	1346.25
399.492	1418.25
399.717	1467.25
399.941	1494.25
400.165	1402.25
400.389	1342.25
400.613	1308.25
400.837	1243.25
401.062	1257.25
401.286	1245.25
401.51	1235.25
401.734	1218.25
401.958	1261.25
402.182	1247.25
402.406	1235.25
402.63	1252.25
402.854	1234.25
403.078	1225.25
403.302	1245.25
403.526	1260.25
403.75	1269.25
403.974	1296.25
404.198	1311.25
404.422	1287.25
404.645	1294.25
404.869	1295.25
405.093	1279.25
405.317	1287.25
405.541	1261.25
405.765	1301.25
405.988	1296.25
406.212	1307.25
406.436	1316.25
406.66	1326.25
406.883	1314.25
407.107	1343.25
407.331	1360.25
407.555	1396.25
407.778	1391.25
408.002	1358.25
408.226	1358.25
408.449	1367.25
408.673	1319.25
408.896	1338.25
409.12	1251.25
409.344	1261.25
409.567	1253.25
409.791	1282.25
410.014	1256.25
410.238	1269.25
410.461	1303.25
410.685	1296.25
410.908	1189.25
411.132	1220.25
411.355	1213.25
411.578	1225.25
411.802	1228.25
412.025	1224.25
412.249	1198.25
412.472	1208.25
412.695	1206.25
412.919	1208.25
413.142	1206.25
413.365	1188.25
413.589	1202.25
413.812	1200.25
414.035	1209.25
414.258	1205.25
414.482	1228.25
414.705	1186.25
414.928	1183.25
415.151	1198.25
415.374	1189.25
415.597	1218.25
415.821	1166.25
416.044	1159.25
416.267	1153.25
416.49	1173.25
416.713	1191.25
416.936	1165.25
417.159	1138.25
417.382	1161.25
417.605	1154.25
417.828	1130.25
418.051	1161.25
418.274	1145.25
418.497	1176.25
418.72	1167.25
418.943	1186.25
419.166	1223.25
419.389	1294.25
419.611	1263.25
419.834	1229.25
420.057	1180.25
420.28	1192.25
420.503	1183.25
420.726	1171.25
420.948	1152.25
421.171	1145.25
421.394	1163.25
421.617	1189.25
421.839	1187.25
422.062	1174.25
422.285	1154.25
422.507	1205.25
422.73	1190.25
422.953	1204.25
423.175	1205.25
423.398	1170.25
423.621	1188.25
423.843	1168.25
424.066	1206.25
424.288	1165.25
424.511	1172.25
424.733	1159.25
424.956	1145.25
425.178	1168.25
425.401	1188.25
425.623	1161.25
425.846	1118.25
426.068	1136.25
426.291	1136.25
426.513	1156.25
426.735	1124.25
426.958	1118.25
427.18	1072.25
427.402	1106.25
427.625	1125.25
427.847	1078.25
428.069	1094.25
428.292	1109.25
428.514	1087.25
428.736	1082.25
428.958	1113.25
429.181	1079.25
429.403	1109.25
429.625	1094.25
429.847	1066.25
430.069	1082.25
430.292	1129.25
430.514	1157.25
430.736	1146.25
430.958	1074.25
431.18	1076.25
431.402	1070.25
431.624	1058.25
431.846	1075.25
432.068	1012.25
432.29	1075.25
432.512	1054.25
432.734	1069.25
432.956	1085.25
433.178	1089.25
433.4	1080.25
433.622	1073.25
433.844	1107.25
434.066	1072.25
434.287	1084.25
434.509	1086.25
434.731	1109.25
434.953	1113.25
435.175	1105.25
435.397	1142.25
435.618	1106.25
435.84	1073.25
436.062	1064.25
436.284	1072.25
436.505	1068.25
436.727	1088.25
436.949	1106.25
437.17	1058.25
437.392	1050.25
437.614	1065.25
437.835	1019.25
438.057	1018.25
438.278	1028.25
438.5	1058.25
438.721	1055.25
438.943	1069.25
439.165	1115.25
439.386	1073.25
439.608	1110.25
439.829	1096.25
440.05	1122.25
440.272	1141.25
440.493	1116.25
440.715	1110.25
440.936	1128.25
441.158	1138.25
441.379	1164.25
441.6	1150.25
441.822	1186.25
442.043	1224.25
442.264	1260.25
442.486	1184.25
442.707	1149.25
442.928	1130.25
443.149	1165.25
443.371	1129.25
443.592	1178.25
443.813	1156.25
444.034	1177.25
444.255	1182.25
444.476	1234.25
444.698	1245.25
444.919	1264.25
445.14	1311.25
445.361	1252.25
445.582	1247.25
445.803	1168.25
446.024	1146.25
446.245	1161.25
446.466	1130.25
446.687	1136.25
446.908	1138.25
447.129	1142.25
447.35	1097.25
447.571	1095.25
447.792	1065.25
448.013	1071.25
448.234	1051.25
448.455	1027.25
448.675	1094.25
448.896	1073.25
449.117	1119.25
449.338	1162.25
449.559	1216.25
449.779	1126.25
450	1094.25
450.221	1043.25
450.442	1011.25
450.662	1038.25
450.883	1024.25
451.104	1036.25
451.324	1052.25
451.545	1022.25
451.766	1040.25
451.986	1039.25
452.207	1095.25
452.428	1249.25
452.648	1621.25
452.869	1429.25
453.089	1152.25
453.31	1097.25
453.53	1089.25
453.751	1119.25
453.971	1162.25
454.192	1137.25
454.412	1049.25
454.633	1021.25
454.853	1032.25
455.073	1028.25
455.294	999.25
455.514	971.25
455.734	957.25
455.955	981.25
456.175	1001.25
456.395	976.25
456.616	950.25
456.836	997.25
457.056	1024.25
457.276	977.25
457.497	1032.25
457.717	1026.25
457.937	995.25
458.157	1014.25
458.377	1046.25
458.598	1052.25
458.818	1039.25
459.038	1044.25
459.258	1053.25
459.478	1086.25
459.698	1081.25
459.918	1084.25
460.138	1102.25
460.358	1172.25
460.578	1158.25
460.798	1169.25
461.018	1176.25
461.238	1143.25
461.458	1167.25
461.678	1174.25
461.898	1204.25
462.118	1214.25
462.338	1252.25
462.558	1262.25
462.777	1282.25
462.997	1308.25
463.217	1345.25
463.437	1389.25
463.657	1354.25
463.876	1324.25
464.096	1316.25
464.316	1280.25
464.536	1267.25
464.755	1234.25
464.975	1225.25
465.195	1175.25
465.414	1107.25
465.634	1120.25
465.854	1099.25
466.073	1090.25
466.293	1080.25
466.512	1085.25
466.732	1073.25
466.951	1134.25
467.171	1148.25
467.391	1146.25
467.61	1086.25
467.829	1089.25
468.049	1091.25
468.268	1065.25
468.488	1041.25
468.707	1050.25
468.927	1065.25
469.146	1062.25
469.365	1085.25
469.585	1071.25
469.804	1065.25
470.023	1131.25
470.243	1139.25
470.462	1163.25
470.681	1201.25
470.901	1250.25
471.12	1406.25
471.339	1408.25
471.558	1223.25
471.777	1154.25
471.997	1100.25
472.216	1096.25
472.435	1070.25
472.654	1015.25
472.873	1013.25
473.092	1079.25
473.311	1050.25
473.53	1079.25
473.749	1086.25
473.968	1071.25
474.187	1069.25
474.406	1057.25
474.625	1078.25
474.844	1062.25
475.063	1069.25
475.282	1056.25
475.501	1050.25
475.72	1081.25
475.939	1098.25
476.158	1108.25
476.377	1141.25
476.596	1141.25
476.814	1114.25
477.033	1092.25
477.252	1154.25
477.471	1145.25
477.69	1189.25
477.908	1177.25
478.127	1199.25
478.346	1189.25
478.564	1226.25
478.783	1208.25
479.002	1266.25
479.22	1249.25
479.439	1263.25
479.658	1278.25
479.876	1251.25
480.095	1243.25
480.313	1316.25
480.532	1265.25
480.751	1299.25
480.969	1279.25
481.188	1248.25
481.406	1246.25
481.624	1280.25
481.843	1235.25
482.061	1225.25
482.28	1233.25
482.498	1244.25
482.717	1274.25
482.935	1303.25
483.153	1307.25
483.372	1318.25
483.59	1315.25
483.808	1324.25
484.027	1327.25
484.245	1372.25
484.463	1486.25
484.681	1646.25
484.9	1537.25
485.118	1483.25
485.336	1432.25
485.554	1449.25
485.772	1520.25
485.99	1681.25
486.209	1766.25
486.427	1524.25
486.645	1440.25
486.863	1412.25
487.081	1363.25
487.299	1342.25
487.517	1321.25
487.735	1359.25
487.953	1378.25
488.171	1380.25
488.389	1372.25
488.607	1345.25
488.825	1291.25
489.043	1286.25
489.261	1302.25
489.479	1296.25
489.696	1313.25
489.914	1312.25
490.132	1329.25
490.35	1346.25
490.568	1357.25
490.786	1377.25
491.003	1363.25
491.221	1393.25
491.439	1385.25
491.657	1428.25
491.874	1418.25
492.092	1447.25
