Data from SnStandardFlinnAPT0064_LampEnergy5.5_LIBS07252019.E.O._I.C._HRD10591_15-15-50-491.txt Node
Date: Thu Jul 25 15:15:50 EDT 2019
User: cochatt
Spectrometer: HR+D1059
Trigger mode: 1
Integration Time (sec): 1.000000E-1
Scans to average: 1
Electric dark correction enabled: true
Nonlinearity correction enabled: false
Boxcar width: 0
XAxis mode: Wavelengths
Number of Pixels in Spectrum: 2048
>>>>>Begin Spectral Data<<<<<
223.165	-13.38
223.4	-13.38
223.635	-13.38
223.869	-16.38
224.104	-17.38
224.338	-12.38
224.573	0.62
224.808	-11.38
225.042	-23.38
225.277	-11.38
225.511	4.62
225.746	-2.38
225.98	6.62
226.215	6.62
226.449	8.62
226.683	24.62
226.918	40.62
227.152	15.62
227.387	29.62
227.621	37.62
227.856	67.62
228.09	56.62
228.324	50.62
228.559	70.62
228.793	89.62
229.027	153.62
229.262	142.62
229.496	154.62
229.73	154.62
229.964	168.62
230.199	167.62
230.433	171.62
230.667	165.62
230.901	169.62
231.136	175.62
231.37	179.62
231.604	180.62
231.838	201.62
232.072	226.62
232.306	230.62
232.541	204.62
232.775	209.62
233.009	202.62
233.243	197.62
233.477	212.62
233.711	237.62
233.945	238.62
234.179	236.62
234.413	220.62
234.647	207.62
234.881	224.62
235.115	238.62
235.349	269.62
235.583	318.62
235.817	387.62
236.051	390.62
236.285	268.62
236.519	240.62
236.753	229.62
236.987	218.62
237.221	229.62
237.455	231.62
237.689	226.62
237.922	208.62
238.156	215.62
238.39	236.62
238.624	226.62
238.858	201.62
239.091	216.62
239.325	228.62
239.559	238.62
239.793	236.62
240.027	231.62
240.26	235.62
240.494	237.62
240.728	250.62
240.961	235.62
241.195	274.62
241.429	270.62
241.662	294.62
241.896	338.62
242.13	387.62
242.363	453.62
242.597	575.62
242.83	567.62
243.064	550.62
243.298	660.62
243.531	530.62
243.765	388.62
243.998	314.62
244.232	288.62
244.465	289.62
244.699	298.62
244.932	278.62
245.166	299.62
245.399	306.62
245.633	306.62
245.866	306.62
246.099	309.62
246.333	283.62
246.566	281.62
246.8	285.62
247.033	301.62
247.266	309.62
247.5	293.62
247.733	298.62
247.966	316.62
248.2	317.62
248.433	355.62
248.666	395.62
248.899	384.62
249.133	354.62
249.366	359.62
249.599	395.62
249.832	420.62
250.066	418.62
250.299	334.62
250.532	332.62
250.765	328.62
250.998	330.62
251.231	328.62
251.465	331.62
251.698	323.62
251.931	337.62
252.164	326.62
252.397	337.62
252.63	341.62
252.863	336.62
253.096	340.62
253.329	356.62
253.562	334.62
253.795	349.62
254.028	353.62
254.261	351.62
254.494	363.62
254.727	404.62
254.96	477.62
255.193	472.62
255.426	387.62
255.659	343.62
255.892	373.62
256.124	364.62
256.357	373.62
256.59	382.62
256.823	402.62
257.056	435.62
257.289	508.62
257.521	532.62
257.754	478.62
257.987	397.62
258.22	395.62
258.452	392.62
258.685	374.62
258.918	415.62
259.151	407.62
259.383	431.62
259.616	454.62
259.849	486.62
260.081	454.62
260.314	428.62
260.547	419.62
260.779	420.62
261.012	424.62
261.244	431.62
261.477	424.62
261.71	439.62
261.942	440.62
262.175	429.62
262.407	432.62
262.64	467.62
262.872	466.62
263.105	486.62
263.337	519.62
263.57	526.62
263.802	546.62
264.035	566.62
264.267	547.62
264.499	587.62
264.732	607.62
264.964	592.62
265.197	575.62
265.429	609.62
265.661	626.62
265.894	654.62
266.126	700.62
266.358	778.62
266.591	756.62
266.823	657.62
267.055	611.62
267.287	607.62
267.52	571.62
267.752	559.62
267.984	535.62
268.216	547.62
268.448	528.62
268.681	538.62
268.913	534.62
269.145	525.62
269.377	522.62
269.609	532.62
269.841	534.62
270.073	581.62
270.306	645.62
270.538	856.62
270.77	1124.62
271.002	1380.62
271.234	1014.62
271.466	727.62
271.698	627.62
271.93	587.62
272.162	558.62
272.394	550.62
272.626	518.62
272.858	515.62
273.09	496.62
273.322	513.62
273.553	507.62
273.785	503.62
274.017	510.62
274.249	495.62
274.481	507.62
274.713	518.62
274.945	486.62
275.176	526.62
275.408	524.62
275.64	516.62
275.872	524.62
276.104	551.62
276.335	529.62
276.567	530.62
276.799	535.62
277.031	556.62
277.262	570.62
277.494	562.62
277.726	618.62
277.957	660.62
278.189	738.62
278.421	693.62
278.652	646.62
278.884	615.62
279.115	590.62
279.347	600.62
279.579	578.62
279.81	578.62
280.042	581.62
280.273	596.62
280.505	582.62
280.736	603.62
280.968	627.62
281.199	643.62
281.431	716.62
281.662	772.62
281.894	687.62
282.125	652.62
282.356	666.62
282.588	642.62
282.819	655.62
283.051	692.62
283.282	770.62
283.513	919.62
283.745	1290.62
283.976	2006.62
284.207	2771.62
284.439	2512.62
284.67	1552.62
284.901	1252.62
285.132	1259.62
285.364	1178.62
285.595	983.62
285.826	902.62
286.057	1049.62
286.288	1330.62
286.52	1824.62
286.751	1684.62
286.982	1088.62
287.213	866.62
287.444	751.62
287.675	728.62
287.906	739.62
288.138	723.62
288.369	717.62
288.6	706.62
288.831	687.62
289.062	664.62
289.293	683.62
289.524	716.62
289.755	712.62
289.986	686.62
290.217	692.62
290.448	694.62
290.679	683.62
290.91	710.62
291.141	727.62
291.371	757.62
291.602	749.62
291.833	720.62
292.064	703.62
292.295	670.62
292.526	688.62
292.757	676.62
292.987	651.62
293.218	640.62
293.449	678.62
293.68	637.62
293.91	656.62
294.141	641.62
294.372	648.62
294.603	644.62
294.833	662.62
295.064	646.62
295.295	657.62
295.525	637.62
295.756	653.62
295.987	654.62
296.217	639.62
296.448	644.62
296.679	645.62
296.909	645.62
297.14	682.62
297.37	674.62
297.601	668.62
297.831	643.62
298.062	651.62
298.292	680.62
298.523	692.62
298.753	700.62
298.984	699.62
299.214	716.62
299.445	707.62
299.675	696.62
299.905	732.62
300.136	747.62
300.366	846.62
300.597	1012.62
300.827	1342.62
301.057	1759.62
301.288	1805.62
301.518	1214.62
301.748	958.62
301.979	882.62
302.209	883.62
302.439	911.62
302.669	932.62
302.9	1054.62
303.13	1404.62
303.36	2015.62
303.59	2692.62
303.82	2336.62
304.051	1456.62
304.281	1065.62
304.511	911.62
304.741	882.62
304.971	804.62
305.201	816.62
305.431	792.62
305.661	792.62
305.891	782.62
306.121	729.62
306.352	757.62
306.582	740.62
306.812	732.62
307.042	756.62
307.272	745.62
307.502	751.62
307.731	733.62
307.961	768.62
308.191	753.62
308.421	745.62
308.651	727.62
308.881	735.62
309.111	751.62
309.341	749.62
309.571	746.62
309.8	765.62
310.03	754.62
310.26	758.62
310.49	739.62
310.72	764.62
310.949	755.62
311.179	770.62
311.409	783.62
311.639	787.62
311.868	785.62
312.098	791.62
312.328	761.62
312.557	793.62
312.787	760.62
313.017	794.62
313.246	788.62
313.476	807.62
313.706	802.62
313.935	838.62
314.165	875.62
314.394	927.62
314.624	912.62
314.853	863.62
315.083	882.62
315.312	834.62
315.542	857.62
315.771	858.62
316.001	885.62
316.23	898.62
316.46	913.62
316.689	1012.62
316.919	1193.62
317.148	1661.62
317.377	2419.62
317.607	3588.62
317.836	3605.62
318.065	2231.62
318.295	1501.62
318.524	1247.62
318.753	1118.62
318.983	1043.62
319.212	987.62
319.441	988.62
319.67	962.62
319.9	942.62
320.129	950.62
320.358	943.62
320.587	921.62
320.816	911.62
321.046	915.62
321.275	939.62
321.504	938.62
321.733	959.62
321.962	969.62
322.191	989.62
322.42	990.62
322.649	983.62
322.878	992.62
323.108	998.62
323.337	1025.62
323.566	1032.62
323.795	1034.62
324.024	1029.62
324.253	1055.62
324.482	1082.62
324.71	1136.62
324.939	1188.62
325.168	1233.62
325.397	1246.62
325.626	1452.62
325.855	1981.62
326.084	2954.62
326.313	4338.62
326.542	4654.62
326.77	3053.62
326.999	2074.62
327.228	1754.62
327.457	1726.62
327.686	1696.62
327.914	1814.62
328.143	2041.62
328.372	2326.62
328.6	2504.62
328.829	2338.62
329.058	2098.62
329.287	1866.62
329.515	1755.62
329.744	1632.62
329.972	1553.62
330.201	1460.62
330.43	1389.62
330.658	1403.62
330.887	1380.62
331.115	1346.62
331.344	1364.62
331.572	1365.62
331.801	1339.62
332.03	1412.62
332.258	1388.62
332.486	1428.62
332.715	1562.62
332.943	1884.62
333.172	2234.62
333.4	2217.62
333.629	1812.62
333.857	1652.62
334.085	1719.62
334.314	1733.62
334.542	1892.62
334.771	2096.62
334.999	2533.62
335.227	3036.62
335.455	3354.62
335.684	3101.62
335.912	2735.62
336.14	2437.62
336.369	2165.62
336.597	1976.62
336.825	1829.62
337.053	1736.62
337.281	1654.62
337.51	1560.62
337.738	1499.62
337.966	1449.62
338.194	1385.62
338.422	1380.62
338.65	1335.62
338.878	1322.62
339.106	1270.62
339.334	1253.62
339.562	1258.62
339.79	1230.62
340.018	1223.62
340.246	1207.62
340.474	1186.62
340.702	1194.62
340.93	1172.62
341.158	1212.62
341.386	1215.62
341.614	1193.62
341.842	1168.62
342.07	1152.62
342.298	1135.62
342.526	1120.62
342.754	1103.62
342.981	1075.62
343.209	1090.62
343.437	1104.62
343.665	1151.62
343.893	1118.62
344.12	1164.62
344.348	1142.62
344.576	1109.62
344.804	1084.62
345.031	1086.62
345.259	1069.62
345.487	1075.62
345.714	1054.62
345.942	1038.62
346.17	1022.62
346.397	1006.62
346.625	1014.62
346.853	1055.62
347.08	1019.62
347.308	1011.62
347.535	1001.62
347.763	997.62
347.99	988.62
348.218	984.62
348.445	1007.62
348.673	992.62
348.9	997.62
349.128	984.62
349.355	998.62
349.583	966.62
349.81	995.62
350.037	985.62
350.265	1007.62
350.492	976.62
350.72	976.62
350.947	953.62
351.174	992.62
351.402	994.62
351.629	967.62
351.856	972.62
352.083	978.62
352.311	965.62
352.538	970.62
352.765	1016.62
352.992	967.62
353.22	946.62
353.447	971.62
353.674	974.62
353.901	957.62
354.128	985.62
354.355	990.62
354.583	976.62
354.81	1004.62
355.037	975.62
355.264	999.62
355.491	990.62
355.718	1025.62
355.945	1004.62
356.172	1005.62
356.399	1002.62
356.626	1002.62
356.853	1030.62
357.08	982.62
357.307	1023.62
357.534	1050.62
357.761	1059.62
357.988	1021.62
358.215	1034.62
358.441	1032.62
358.668	1032.62
358.895	1031.62
359.122	1046.62
359.349	1001.62
359.576	1022.62
359.802	1035.62
360.029	1032.62
360.256	1036.62
360.483	1032.62
360.709	1027.62
360.936	1040.62
361.163	1026.62
361.39	1068.62
361.616	1068.62
361.843	1046.62
362.07	1029.62
362.296	1051.62
362.523	1038.62
362.749	1058.62
362.976	1032.62
363.203	1058.62
363.429	1032.62
363.656	1050.62
363.882	1057.62
364.109	1042.62
364.335	1024.62
364.562	1033.62
364.788	1038.62
365.015	1064.62
365.241	1036.62
365.468	1110.62
365.694	1122.62
365.92	1096.62
366.147	1070.62
366.373	1086.62
366.599	1062.62
366.826	1062.62
367.052	1065.62
367.278	1093.62
367.505	1071.62
367.731	1082.62
367.957	1086.62
368.184	1084.62
368.41	1074.62
368.636	1073.62
368.862	1076.62
369.089	1084.62
369.315	1082.62
369.541	1086.62
369.767	1078.62
369.993	1095.62
370.219	1081.62
370.445	1106.62
370.672	1103.62
370.898	1089.62
371.124	1122.62
371.35	1117.62
371.576	1124.62
371.802	1117.62
372.028	1111.62
372.254	1132.62
372.48	1129.62
372.706	1150.62
372.932	1134.62
373.158	1141.62
373.384	1124.62
373.61	1140.62
373.835	1151.62
374.061	1140.62
374.287	1144.62
374.513	1168.62
374.739	1190.62
374.965	1168.62
375.191	1198.62
375.416	1179.62
375.642	1159.62
375.868	1163.62
376.094	1173.62
376.319	1110.62
376.545	1130.62
376.771	1127.62
376.997	1127.62
377.222	1095.62
377.448	1111.62
377.674	1129.62
377.899	1086.62
378.125	1136.62
378.35	1111.62
378.576	1108.62
378.802	1128.62
379.027	1112.62
379.253	1154.62
379.478	1202.62
379.704	1415.62
379.929	1842.62
380.155	2657.62
380.38	2788.62
380.606	1848.62
380.831	1404.62
381.057	1251.62
381.282	1178.62
381.507	1147.62
381.733	1126.62
381.958	1138.62
382.184	1128.62
382.409	1126.62
382.634	1130.62
382.86	1126.62
383.085	1114.62
383.31	1112.62
383.535	1109.62
383.761	1108.62
383.986	1137.62
384.211	1136.62
384.436	1114.62
384.662	1149.62
384.887	1128.62
385.112	1137.62
385.337	1132.62
385.562	1156.62
385.787	1180.62
386.013	1147.62
386.238	1163.62
386.463	1152.62
386.688	1163.62
386.913	1146.62
387.138	1146.62
387.363	1147.62
387.588	1146.62
387.813	1132.62
388.038	1130.62
388.263	1131.62
388.488	1161.62
388.713	1126.62
388.938	1150.62
389.163	1159.62
389.387	1146.62
389.612	1130.62
389.837	1150.62
390.062	1150.62
390.287	1161.62
390.512	1133.62
390.736	1174.62
390.961	1192.62
391.186	1203.62
391.411	1183.62
391.636	1212.62
391.86	1218.62
392.085	1225.62
392.31	1215.62
392.534	1176.62
392.759	1182.62
392.984	1173.62
393.208	1155.62
393.433	1162.62
393.658	1171.62
393.882	1166.62
394.107	1182.62
394.331	1191.62
394.556	1166.62
394.78	1183.62
395.005	1190.62
395.229	1156.62
395.454	1200.62
395.678	1225.62
395.903	1191.62
396.127	1214.62
396.352	1189.62
396.576	1164.62
396.801	1174.62
397.025	1188.62
397.249	1195.62
397.474	1208.62
397.698	1247.62
397.922	1230.62
398.147	1244.62
398.371	1243.62
398.595	1259.62
398.82	1278.62
399.044	1313.62
399.268	1382.62
399.492	1519.62
399.717	1530.62
399.941	1564.62
400.165	1449.62
400.389	1394.62
400.613	1371.62
400.837	1315.62
401.062	1298.62
401.286	1280.62
401.51	1280.62
401.734	1263.62
401.958	1313.62
402.182	1245.62
402.406	1268.62
402.63	1306.62
402.854	1324.62
403.078	1309.62
403.302	1296.62
403.526	1321.62
403.75	1329.62
403.974	1315.62
404.198	1303.62
404.422	1299.62
404.645	1337.62
404.869	1333.62
405.093	1344.62
405.317	1338.62
405.541	1337.62
405.765	1359.62
405.988	1374.62
406.212	1355.62
406.436	1335.62
406.66	1372.62
406.883	1358.62
407.107	1440.62
407.331	1432.62
407.555	1463.62
407.778	1410.62
408.002	1413.62
408.226	1395.62
408.449	1395.62
408.673	1377.62
408.896	1372.62
409.12	1330.62
409.344	1320.62
409.567	1294.62
409.791	1320.62
410.014	1300.62
410.238	1315.62
410.461	1302.62
410.685	1343.62
410.908	1309.62
411.132	1295.62
411.355	1295.62
411.578	1274.62
411.802	1280.62
412.025	1326.62
412.249	1292.62
412.472	1255.62
412.695	1227.62
412.919	1242.62
413.142	1251.62
413.365	1230.62
413.589	1224.62
413.812	1255.62
414.035	1243.62
414.258	1242.62
414.482	1276.62
414.705	1293.62
414.928	1282.62
415.151	1259.62
415.374	1229.62
415.597	1219.62
415.821	1239.62
416.044	1211.62
416.267	1175.62
416.49	1179.62
416.713	1200.62
416.936	1231.62
417.159	1196.62
417.382	1195.62
417.605	1186.62
417.828	1208.62
418.051	1225.62
418.274	1208.62
418.497	1204.62
418.72	1237.62
418.943	1214.62
419.166	1266.62
419.389	1358.62
419.611	1293.62
419.834	1297.62
420.057	1259.62
420.28	1245.62
420.503	1202.62
420.726	1210.62
420.948	1228.62
421.171	1218.62
421.394	1254.62
421.617	1246.62
421.839	1242.62
422.062	1240.62
422.285	1180.62
422.507	1223.62
422.73	1241.62
422.953	1225.62
423.175	1244.62
423.398	1258.62
423.621	1212.62
423.843	1216.62
424.066	1250.62
424.288	1210.62
424.511	1188.62
424.733	1214.62
424.956	1223.62
425.178	1198.62
425.401	1180.62
425.623	1232.62
425.846	1190.62
426.068	1175.62
426.291	1158.62
426.513	1176.62
426.735	1178.62
426.958	1116.62
427.18	1152.62
427.402	1160.62
427.625	1157.62
427.847	1096.62
428.069	1139.62
428.292	1133.62
428.514	1138.62
428.736	1132.62
428.958	1134.62
429.181	1120.62
429.403	1124.62
429.625	1094.62
429.847	1125.62
430.069	1124.62
430.292	1152.62
430.514	1178.62
430.736	1194.62
430.958	1132.62
431.18	1121.62
431.402	1130.62
431.624	1104.62
431.846	1109.62
432.068	1078.62
432.29	1107.62
432.512	1106.62
432.734	1119.62
432.956	1090.62
433.178	1118.62
433.4	1138.62
433.622	1133.62
433.844	1121.62
434.066	1109.62
434.287	1103.62
434.509	1114.62
434.731	1138.62
434.953	1141.62
435.175	1152.62
435.397	1152.62
435.618	1152.62
435.84	1113.62
436.062	1103.62
436.284	1085.62
436.505	1115.62
436.727	1095.62
436.949	1113.62
437.17	1133.62
437.392	1079.62
437.614	1088.62
437.835	1070.62
438.057	1091.62
438.278	1069.62
438.5	1073.62
438.721	1082.62
438.943	1127.62
439.165	1138.62
439.386	1131.62
439.608	1142.62
439.829	1151.62
440.05	1166.62
440.272	1197.62
440.493	1143.62
440.715	1123.62
440.936	1149.62
441.158	1176.62
441.379	1164.62
441.6	1222.62
441.822	1258.62
442.043	1271.62
442.264	1302.62
442.486	1231.62
442.707	1195.62
442.928	1170.62
443.149	1190.62
443.371	1181.62
443.592	1184.62
443.813	1218.62
444.034	1200.62
444.255	1242.62
444.476	1241.62
444.698	1286.62
444.919	1305.62
445.14	1375.62
445.361	1293.62
445.582	1218.62
445.803	1206.62
446.024	1174.62
446.245	1218.62
446.466	1184.62
446.687	1194.62
446.908	1204.62
447.129	1163.62
447.35	1101.62
447.571	1149.62
447.792	1109.62
448.013	1138.62
448.234	1091.62
448.455	1104.62
448.675	1117.62
448.896	1132.62
449.117	1102.62
449.338	1252.62
449.559	1301.62
449.779	1175.62
450	1102.62
450.221	1072.62
450.442	1108.62
450.662	1070.62
450.883	1067.62
451.104	1056.62
451.324	1063.62
451.545	1071.62
451.766	1074.62
451.986	1069.62
452.207	1150.62
452.428	1334.62
452.648	1759.62
452.869	1522.62
453.089	1211.62
453.31	1158.62
453.53	1142.62
453.751	1157.62
453.971	1221.62
454.192	1216.62
454.412	1124.62
454.633	1069.62
454.853	1050.62
455.073	1036.62
455.294	1036.62
455.514	1015.62
455.734	1012.62
455.955	1011.62
456.175	991.62
456.395	986.62
456.616	1022.62
456.836	1000.62
457.056	1043.62
457.276	1040.62
457.497	1085.62
457.717	1052.62
457.937	1063.62
458.157	1080.62
458.377	1071.62
458.598	1078.62
458.818	1083.62
459.038	1072.62
459.258	1098.62
459.478	1109.62
459.698	1129.62
459.918	1128.62
460.138	1139.62
460.358	1214.62
460.578	1155.62
460.798	1210.62
461.018	1206.62
461.238	1202.62
461.458	1212.62
461.678	1203.62
461.898	1232.62
462.118	1219.62
462.338	1263.62
462.558	1318.62
462.777	1305.62
462.997	1351.62
463.217	1382.62
463.437	1432.62
463.657	1434.62
463.876	1391.62
464.096	1357.62
464.316	1332.62
464.536	1293.62
464.755	1308.62
464.975	1291.62
465.195	1226.62
465.414	1199.62
465.634	1169.62
465.854	1152.62
466.073	1128.62
466.293	1138.62
466.512	1129.62
466.732	1132.62
466.951	1183.62
467.171	1204.62
467.391	1210.62
467.61	1147.62
467.829	1106.62
468.049	1147.62
468.268	1118.62
468.488	1076.62
468.707	1111.62
468.927	1111.62
469.146	1098.62
469.365	1099.62
469.585	1135.62
469.804	1127.62
470.023	1151.62
470.243	1155.62
470.462	1189.62
470.681	1243.62
470.901	1306.62
471.12	1485.62
471.339	1494.62
471.558	1271.62
471.777	1185.62
471.997	1150.62
472.216	1118.62
472.435	1108.62
472.654	1086.62
472.873	1092.62
473.092	1080.62
473.311	1104.62
473.53	1107.62
473.749	1130.62
473.968	1171.62
474.187	1107.62
474.406	1078.62
474.625	1119.62
474.844	1113.62
475.063	1141.62
475.282	1104.62
475.501	1124.62
475.72	1095.62
475.939	1096.62
476.158	1143.62
476.377	1160.62
476.596	1159.62
476.814	1151.62
477.033	1144.62
477.252	1185.62
477.471	1188.62
477.69	1198.62
477.908	1205.62
478.127	1251.62
478.346	1247.62
478.564	1299.62
478.783	1285.62
479.002	1306.62
479.22	1301.62
479.439	1315.62
479.658	1254.62
479.876	1250.62
480.095	1301.62
480.313	1345.62
480.532	1342.62
480.751	1347.62
480.969	1282.62
481.188	1287.62
481.406	1276.62
481.624	1270.62
481.843	1294.62
482.061	1292.62
482.28	1281.62
482.498	1282.62
482.717	1295.62
482.935	1304.62
483.153	1340.62
483.372	1391.62
483.59	1413.62
483.808	1358.62
484.027	1391.62
484.245	1457.62
484.463	1629.62
484.681	1726.62
484.9	1611.62
485.118	1520.62
485.336	1522.62
485.554	1522.62
485.772	1593.62
485.99	1773.62
486.209	1927.62
486.427	1616.62
486.645	1496.62
486.863	1483.62
487.081	1444.62
487.299	1392.62
487.517	1390.62
487.735	1414.62
487.953	1436.62
488.171	1436.62
488.389	1415.62
488.607	1368.62
488.825	1340.62
489.043	1328.62
489.261	1344.62
489.479	1338.62
489.696	1359.62
489.914	1346.62
490.132	1396.62
490.35	1374.62
490.568	1388.62
490.786	1402.62
491.003	1463.62
491.221	1446.62
491.439	1432.62
