Data from SnStandardFlinnAPT0064_LampEnergy5.5_LIBS07252019.E.O._I.C._HRD10591_15-16-16-492.txt Node
Date: Thu Jul 25 15:16:16 EDT 2019
User: cochatt
Spectrometer: HR+D1059
Trigger mode: 1
Integration Time (sec): 1.000000E-1
Scans to average: 1
Electric dark correction enabled: true
Nonlinearity correction enabled: false
Boxcar width: 0
XAxis mode: Wavelengths
Number of Pixels in Spectrum: 2048
>>>>>Begin Spectral Data<<<<<
223.165	-18.19
223.4	-18.19
223.635	-18.19
223.869	-18.19
224.104	-25.19
224.338	-12.19
224.573	-32.19
224.808	-5.19
225.042	-2.19
225.277	-3.19
225.511	0.81
225.746	-5.19
225.98	7.81
226.215	13.81
226.449	21.81
226.683	24.81
226.918	21.81
227.152	30.81
227.387	36.81
227.621	50.81
227.856	37.81
228.09	40.81
228.324	49.81
228.559	59.81
228.793	84.81
229.027	154.81
229.262	164.81
229.496	166.81
229.73	158.81
229.964	155.81
230.199	165.81
230.433	162.81
230.667	160.81
230.901	172.81
231.136	169.81
231.37	176.81
231.604	200.81
231.838	212.81
232.072	226.81
232.306	249.81
232.541	223.81
232.775	202.81
233.009	206.81
233.243	199.81
233.477	217.81
233.711	232.81
233.945	271.81
234.179	236.81
234.413	223.81
234.647	215.81
234.881	215.81
235.115	253.81
235.349	298.81
235.583	346.81
235.817	433.81
236.051	419.81
236.285	306.81
236.519	240.81
236.753	237.81
236.987	237.81
237.221	253.81
237.455	246.81
237.689	226.81
237.922	221.81
238.156	227.81
238.39	231.81
238.624	217.81
238.858	228.81
239.091	241.81
239.325	245.81
239.559	240.81
239.793	232.81
240.027	255.81
240.26	255.81
240.494	256.81
240.728	244.81
240.961	276.81
241.195	283.81
241.429	281.81
241.662	309.81
241.896	353.81
242.13	416.81
242.363	494.81
242.597	629.81
242.83	600.81
243.064	600.81
243.298	716.81
243.531	610.81
243.765	427.81
243.998	332.81
244.232	315.81
244.465	291.81
244.699	287.81
244.932	295.81
245.166	290.81
245.399	301.81
245.633	308.81
245.866	309.81
246.099	313.81
246.333	275.81
246.566	300.81
246.8	297.81
247.033	297.81
247.266	304.81
247.5	298.81
247.733	304.81
247.966	328.81
248.2	327.81
248.433	369.81
248.666	395.81
248.899	402.81
249.133	368.81
249.366	383.81
249.599	395.81
249.832	447.81
250.066	459.81
250.299	367.81
250.532	338.81
250.765	335.81
250.998	353.81
251.231	346.81
251.465	340.81
251.698	333.81
251.931	327.81
252.164	360.81
252.397	343.81
252.63	347.81
252.863	353.81
253.096	360.81
253.329	343.81
253.562	340.81
253.795	355.81
254.028	391.81
254.261	364.81
254.494	393.81
254.727	460.81
254.96	490.81
255.193	492.81
255.426	412.81
255.659	402.81
255.892	378.81
256.124	367.81
256.357	379.81
256.59	396.81
256.823	408.81
257.056	452.81
257.289	520.81
257.521	568.81
257.754	470.81
257.987	423.81
258.22	404.81
258.452	391.81
258.685	422.81
258.918	439.81
259.151	424.81
259.383	447.81
259.616	491.81
259.849	513.81
260.081	474.81
260.314	447.81
260.547	426.81
260.779	431.81
261.012	446.81
261.244	441.81
261.477	430.81
261.71	437.81
261.942	441.81
262.175	459.81
262.407	461.81
262.64	458.81
262.872	503.81
263.105	514.81
263.337	544.81
263.57	556.81
263.802	580.81
264.035	583.81
264.267	586.81
264.499	575.81
264.732	633.81
264.964	676.81
265.197	613.81
265.429	624.81
265.661	639.81
265.894	705.81
266.126	751.81
266.358	817.81
266.591	789.81
266.823	660.81
267.055	635.81
267.287	626.81
267.52	579.81
267.752	601.81
267.984	577.81
268.216	549.81
268.448	596.81
268.681	551.81
268.913	543.81
269.145	544.81
269.377	560.81
269.609	552.81
269.841	549.81
270.073	573.81
270.306	682.81
270.538	867.81
270.77	1228.81
271.002	1523.81
271.234	1082.81
271.466	749.81
271.698	650.81
271.93	578.81
272.162	573.81
272.394	546.81
272.626	549.81
272.858	533.81
273.09	525.81
273.322	554.81
273.553	531.81
273.785	553.81
274.017	534.81
274.249	531.81
274.481	532.81
274.713	536.81
274.945	544.81
275.176	525.81
275.408	531.81
275.64	521.81
275.872	544.81
276.104	537.81
276.335	560.81
276.567	546.81
276.799	559.81
277.031	562.81
277.262	565.81
277.494	588.81
277.726	646.81
277.957	710.81
278.189	816.81
278.421	764.81
278.652	693.81
278.884	692.81
279.115	634.81
279.347	599.81
279.579	592.81
279.81	594.81
280.042	587.81
280.273	608.81
280.505	625.81
280.736	635.81
280.968	663.81
281.199	695.81
281.431	803.81
281.662	801.81
281.894	728.81
282.125	664.81
282.356	698.81
282.588	693.81
282.819	718.81
283.051	727.81
283.282	792.81
283.513	967.81
283.745	1403.81
283.976	2203.81
284.207	3065.81
284.439	2728.81
284.67	1669.81
284.901	1378.81
285.132	1358.81
285.364	1257.81
285.595	1055.81
285.826	975.81
286.057	1116.81
286.288	1467.81
286.52	1964.81
286.751	1811.81
286.982	1171.81
287.213	887.81
287.444	774.81
287.675	733.81
287.906	735.81
288.138	715.81
288.369	723.81
288.6	696.81
288.831	730.81
289.062	710.81
289.293	694.81
289.524	715.81
289.755	703.81
289.986	729.81
290.217	716.81
290.448	713.81
290.679	733.81
290.91	728.81
291.141	735.81
291.371	780.81
291.602	803.81
291.833	751.81
292.064	711.81
292.295	708.81
292.526	692.81
292.757	684.81
292.987	676.81
293.218	672.81
293.449	670.81
293.68	668.81
293.91	655.81
294.141	693.81
294.372	682.81
294.603	673.81
294.833	662.81
295.064	685.81
295.295	697.81
295.525	654.81
295.756	641.81
295.987	667.81
296.217	694.81
296.448	694.81
296.679	668.81
296.909	669.81
297.14	684.81
297.37	688.81
297.601	694.81
297.831	722.81
298.062	699.81
298.292	701.81
298.523	710.81
298.753	723.81
298.984	715.81
299.214	735.81
299.445	753.81
299.675	732.81
299.905	755.81
300.136	771.81
300.366	876.81
300.597	1096.81
300.827	1475.81
301.057	1931.81
301.288	1924.81
301.518	1282.81
301.748	1010.81
301.979	916.81
302.209	914.81
302.439	888.81
302.669	970.81
302.9	1148.81
303.13	1559.81
303.36	2291.81
303.59	3021.81
303.82	2636.81
304.051	1562.81
304.281	1159.81
304.511	980.81
304.741	961.81
304.971	879.81
305.201	839.81
305.431	830.81
305.661	815.81
305.891	792.81
306.121	769.81
306.352	779.81
306.582	784.81
306.812	799.81
307.042	797.81
307.272	793.81
307.502	758.81
307.731	793.81
307.961	768.81
308.191	760.81
308.421	747.81
308.651	775.81
308.881	749.81
309.111	772.81
309.341	793.81
309.571	780.81
309.8	813.81
310.03	759.81
310.26	796.81
310.49	793.81
310.72	801.81
310.949	779.81
311.179	785.81
311.409	803.81
311.639	843.81
311.868	835.81
312.098	816.81
312.328	817.81
312.557	813.81
312.787	835.81
313.017	825.81
313.246	872.81
313.476	849.81
313.706	871.81
313.935	925.81
314.165	919.81
314.394	987.81
314.624	936.81
314.853	895.81
315.083	876.81
315.312	874.81
315.542	918.81
315.771	905.81
316.001	933.81
316.23	948.81
316.46	1005.81
316.689	1059.81
316.919	1279.81
317.148	1804.81
317.377	2733.81
317.607	3932.81
317.836	4132.81
318.065	2423.81
318.295	1608.81
318.524	1283.81
318.753	1164.81
318.983	1106.81
319.212	1039.81
319.441	1001.81
319.67	979.81
319.9	991.81
320.129	976.81
320.358	973.81
320.587	984.81
320.816	969.81
321.046	968.81
321.275	984.81
321.504	989.81
321.733	1024.81
321.962	1027.81
322.191	1027.81
322.42	1038.81
322.649	1031.81
322.878	1025.81
323.108	1025.81
323.337	1046.81
323.566	1091.81
323.795	1074.81
324.024	1090.81
324.253	1131.81
324.482	1151.81
324.71	1199.81
324.939	1260.81
325.168	1292.81
325.397	1303.81
325.626	1555.81
325.855	2171.81
326.084	3298.81
326.313	4889.81
326.542	5089.81
326.77	3268.81
326.999	2211.81
327.228	1833.81
327.457	1773.81
327.686	1792.81
327.914	1885.81
328.143	2175.81
328.372	2550.81
328.6	2643.81
328.829	2533.81
329.058	2193.81
329.287	1996.81
329.515	1822.81
329.744	1701.81
329.972	1631.81
330.201	1518.81
330.43	1540.81
330.658	1482.81
330.887	1420.81
331.115	1398.81
331.344	1443.81
331.572	1405.81
331.801	1416.81
332.03	1417.81
332.258	1444.81
332.486	1557.81
332.715	1717.81
332.943	2010.81
333.172	2418.81
333.4	2409.81
333.629	1866.81
333.857	1807.81
334.085	1781.81
334.314	1857.81
334.542	1992.81
334.771	2269.81
334.999	2668.81
335.227	3260.81
335.455	3619.81
335.684	3370.81
335.912	2879.81
336.14	2489.81
336.369	2251.81
336.597	2080.81
336.825	1931.81
337.053	1852.81
337.281	1725.81
337.51	1651.81
337.738	1555.81
337.966	1520.81
338.194	1486.81
338.422	1432.81
338.65	1377.81
338.878	1345.81
339.106	1356.81
339.334	1312.81
339.562	1292.81
339.79	1252.81
340.018	1261.81
340.246	1261.81
340.474	1252.81
340.702	1279.81
340.93	1246.81
341.158	1253.81
341.386	1237.81
341.614	1208.81
341.842	1215.81
342.07	1166.81
342.298	1187.81
342.526	1146.81
342.754	1149.81
342.981	1135.81
343.209	1149.81
343.437	1177.81
343.665	1181.81
343.893	1199.81
344.12	1205.81
344.348	1131.81
344.576	1164.81
344.804	1147.81
345.031	1105.81
345.259	1086.81
345.487	1095.81
345.714	1077.81
345.942	1077.81
346.17	1087.81
346.397	1047.81
346.625	1043.81
346.853	1088.81
347.08	1065.81
347.308	1066.81
347.535	1035.81
347.763	1063.81
347.99	1061.81
348.218	1077.81
348.445	1072.81
348.673	1027.81
348.9	1043.81
349.128	1028.81
349.355	1029.81
349.583	1050.81
349.81	1014.81
350.037	1015.81
350.265	1051.81
350.492	1035.81
350.72	1027.81
350.947	1030.81
351.174	1051.81
351.402	1024.81
351.629	1008.81
351.856	1057.81
352.083	1022.81
352.311	1034.81
352.538	989.81
352.765	1000.81
352.992	1019.81
353.22	1027.81
353.447	1043.81
353.674	1024.81
353.901	993.81
354.128	1003.81
354.355	1009.81
354.583	1025.81
354.81	1022.81
355.037	1045.81
355.264	1031.81
355.491	1036.81
355.718	1061.81
355.945	1035.81
356.172	1057.81
356.399	1058.81
356.626	1060.81
356.853	1049.81
357.08	1058.81
357.307	1081.81
357.534	1086.81
357.761	1071.81
357.988	1089.81
358.215	1088.81
358.441	1079.81
358.668	1040.81
358.895	1071.81
359.122	1081.81
359.349	1044.81
359.576	1045.81
359.802	1050.81
360.029	1091.81
360.256	1068.81
360.483	1071.81
360.709	1089.81
360.936	1081.81
361.163	1100.81
361.39	1072.81
361.616	1081.81
361.843	1063.81
362.07	1101.81
362.296	1092.81
362.523	1074.81
362.749	1131.81
362.976	1125.81
363.203	1095.81
363.429	1072.81
363.656	1040.81
363.882	1057.81
364.109	1079.81
364.335	1089.81
364.562	1112.81
364.788	1084.81
365.015	1127.81
365.241	1111.81
365.468	1162.81
365.694	1185.81
365.92	1170.81
366.147	1119.81
366.373	1136.81
366.599	1149.81
366.826	1107.81
367.052	1077.81
367.278	1103.81
367.505	1118.81
367.731	1114.81
367.957	1073.81
368.184	1132.81
368.41	1108.81
368.636	1117.81
368.862	1132.81
369.089	1131.81
369.315	1120.81
369.541	1123.81
369.767	1131.81
369.993	1142.81
370.219	1150.81
370.445	1134.81
370.672	1152.81
370.898	1144.81
371.124	1177.81
371.35	1151.81
371.576	1151.81
371.802	1155.81
372.028	1190.81
372.254	1177.81
372.48	1171.81
372.706	1195.81
372.932	1182.81
373.158	1189.81
373.384	1163.81
373.61	1176.81
373.835	1177.81
374.061	1224.81
374.287	1202.81
374.513	1195.81
374.739	1211.81
374.965	1236.81
375.191	1211.81
375.416	1207.81
375.642	1228.81
375.868	1204.81
376.094	1200.81
376.319	1168.81
376.545	1189.81
376.771	1166.81
376.997	1195.81
377.222	1200.81
377.448	1187.81
377.674	1158.81
377.899	1158.81
378.125	1170.81
378.35	1140.81
378.576	1174.81
378.802	1172.81
379.027	1180.81
379.253	1227.81
379.478	1252.81
379.704	1434.81
379.929	1999.81
380.155	2904.81
380.38	3093.81
380.606	1979.81
380.831	1448.81
381.057	1312.81
381.282	1228.81
381.507	1220.81
381.733	1174.81
381.958	1179.81
382.184	1193.81
382.409	1189.81
382.634	1139.81
382.86	1123.81
383.085	1153.81
383.31	1158.81
383.535	1149.81
383.761	1175.81
383.986	1185.81
384.211	1178.81
384.436	1174.81
384.662	1173.81
384.887	1168.81
385.112	1182.81
385.337	1207.81
385.562	1188.81
385.787	1213.81
386.013	1214.81
386.238	1217.81
386.463	1171.81
386.688	1195.81
386.913	1210.81
387.138	1204.81
387.363	1205.81
387.588	1173.81
387.813	1193.81
388.038	1230.81
388.263	1145.81
388.488	1146.81
388.713	1175.81
388.938	1186.81
389.163	1183.81
389.387	1180.81
389.612	1177.81
389.837	1205.81
390.062	1221.81
390.287	1206.81
390.512	1207.81
390.736	1204.81
390.961	1228.81
391.186	1226.81
391.411	1245.81
391.636	1248.81
391.86	1234.81
392.085	1263.81
392.31	1243.81
392.534	1258.81
392.759	1213.81
392.984	1229.81
393.208	1255.81
393.433	1255.81
393.658	1251.81
393.882	1220.81
394.107	1202.81
394.331	1206.81
394.556	1217.81
394.78	1236.81
395.005	1215.81
395.229	1232.81
395.454	1241.81
395.678	1265.81
395.903	1240.81
396.127	1260.81
396.352	1219.81
396.576	1240.81
396.801	1260.81
397.025	1254.81
397.249	1291.81
397.474	1256.81
397.698	1266.81
397.922	1294.81
398.147	1279.81
398.371	1284.81
398.595	1352.81
398.82	1344.81
399.044	1394.81
399.268	1487.81
399.492	1508.81
399.717	1600.81
399.941	1585.81
400.165	1525.81
400.389	1463.81
400.613	1411.81
400.837	1350.81
401.062	1317.81
401.286	1331.81
401.51	1315.81
401.734	1324.81
401.958	1330.81
402.182	1327.81
402.406	1328.81
402.63	1376.81
402.854	1340.81
403.078	1375.81
403.302	1339.81
403.526	1353.81
403.75	1353.81
403.974	1393.81
404.198	1377.81
404.422	1413.81
404.645	1361.81
404.869	1365.81
405.093	1357.81
405.317	1374.81
405.541	1403.81
405.765	1409.81
405.988	1420.81
406.212	1384.81
406.436	1401.81
406.66	1425.81
406.883	1402.81
407.107	1431.81
407.331	1480.81
407.555	1508.81
407.778	1493.81
408.002	1478.81
408.226	1457.81
408.449	1436.81
408.673	1415.81
408.896	1410.81
409.12	1370.81
409.344	1390.81
409.567	1357.81
409.791	1365.81
410.014	1343.81
410.238	1385.81
410.461	1378.81
410.685	1356.81
410.908	1380.81
411.132	1340.81
411.355	1323.81
411.578	1351.81
411.802	1366.81
412.025	1315.81
412.249	1313.81
412.472	1329.81
412.695	1297.81
412.919	1293.81
413.142	1303.81
413.365	1301.81
413.589	1319.81
413.812	1288.81
414.035	1315.81
414.258	1298.81
414.482	1314.81
414.705	1334.81
414.928	1307.81
415.151	1287.81
415.374	1284.81
415.597	1263.81
415.821	1257.81
416.044	1234.81
416.267	1268.81
416.49	1235.81
416.713	1243.81
416.936	1269.81
417.159	1257.81
417.382	1241.81
417.605	1212.81
417.828	1241.81
418.051	1261.81
418.274	1244.81
418.497	1257.81
418.72	1275.81
418.943	1274.81
419.166	1317.81
419.389	1397.81
419.611	1376.81
419.834	1339.81
420.057	1323.81
420.28	1270.81
420.503	1253.81
420.726	1253.81
420.948	1235.81
421.171	1236.81
421.394	1233.81
421.617	1217.81
421.839	1274.81
422.062	1283.81
422.285	1224.81
422.507	1281.81
422.73	1273.81
422.953	1292.81
423.175	1302.81
423.398	1269.81
423.621	1253.81
423.843	1237.81
424.066	1289.81
424.288	1285.81
424.511	1240.81
424.733	1232.81
424.956	1242.81
425.178	1233.81
425.401	1235.81
425.623	1241.81
425.846	1200.81
426.068	1239.81
426.291	1205.81
426.513	1171.81
426.735	1192.81
426.958	1209.81
427.18	1191.81
427.402	1195.81
427.625	1192.81
427.847	1175.81
428.069	1164.81
428.292	1137.81
428.514	1156.81
428.736	1149.81
428.958	1173.81
429.181	1154.81
429.403	1176.81
429.625	1172.81
429.847	1146.81
430.069	1145.81
430.292	1196.81
430.514	1229.81
430.736	1213.81
430.958	1197.81
431.18	1149.81
431.402	1147.81
431.624	1145.81
431.846	1137.81
432.068	1124.81
432.29	1105.81
432.512	1086.81
432.734	1163.81
432.956	1142.81
433.178	1176.81
433.4	1147.81
433.622	1147.81
433.844	1154.81
434.066	1167.81
434.287	1122.81
434.509	1131.81
434.731	1171.81
434.953	1178.81
435.175	1177.81
435.397	1189.81
435.618	1191.81
435.84	1146.81
436.062	1164.81
436.284	1149.81
436.505	1139.81
436.727	1154.81
436.949	1126.81
437.17	1167.81
437.392	1163.81
437.614	1158.81
437.835	1107.81
438.057	1109.81
438.278	1119.81
438.5	1114.81
438.721	1148.81
438.943	1151.81
439.165	1184.81
439.386	1199.81
439.608	1161.81
439.829	1194.81
440.05	1216.81
440.272	1258.81
440.493	1213.81
440.715	1208.81
440.936	1196.81
441.158	1206.81
441.379	1220.81
441.6	1244.81
441.822	1258.81
442.043	1312.81
442.264	1351.81
442.486	1272.81
442.707	1226.81
442.928	1231.81
443.149	1225.81
443.371	1181.81
443.592	1237.81
443.813	1247.81
444.034	1267.81
444.255	1267.81
444.476	1312.81
444.698	1301.81
444.919	1322.81
445.14	1369.81
445.361	1304.81
445.582	1263.81
445.803	1245.81
446.024	1225.81
446.245	1252.81
446.466	1243.81
446.687	1233.81
446.908	1204.81
447.129	1206.81
447.35	1173.81
447.571	1183.81
447.792	1147.81
448.013	1137.81
448.234	1138.81
448.455	1126.81
448.675	1170.81
448.896	1159.81
449.117	1192.81
449.338	1265.81
449.559	1313.81
449.779	1216.81
450	1130.81
450.221	1105.81
450.442	1139.81
450.662	1111.81
450.883	1115.81
451.104	1111.81
451.324	1109.81
451.545	1121.81
451.766	1115.81
451.986	1131.81
452.207	1146.81
452.428	1409.81
452.648	1841.81
452.869	1652.81
453.089	1265.81
453.31	1204.81
453.53	1220.81
453.751	1225.81
453.971	1339.81
454.192	1315.81
454.412	1145.81
454.633	1121.81
454.853	1060.81
455.073	1042.81
455.294	1075.81
455.514	1059.81
455.734	1052.81
455.955	1076.81
456.175	1061.81
456.395	1066.81
456.616	1061.81
456.836	1095.81
457.056	1057.81
457.276	1085.81
457.497	1079.81
457.717	1108.81
457.937	1102.81
458.157	1081.81
458.377	1085.81
458.598	1112.81
458.818	1158.81
459.038	1129.81
459.258	1115.81
459.478	1139.81
459.698	1139.81
459.918	1191.81
460.138	1192.81
460.358	1237.81
460.578	1269.81
460.798	1279.81
461.018	1238.81
461.238	1255.81
461.458	1276.81
461.678	1279.81
461.898	1323.81
462.118	1281.81
462.338	1322.81
462.558	1332.81
462.777	1333.81
462.997	1408.81
463.217	1442.81
463.437	1488.81
463.657	1479.81
463.876	1484.81
464.096	1421.81
464.316	1398.81
464.536	1392.81
464.755	1352.81
464.975	1306.81
465.195	1274.81
465.414	1247.81
465.634	1177.81
465.854	1170.81
466.073	1147.81
466.293	1155.81
466.512	1155.81
466.732	1149.81
466.951	1227.81
467.171	1258.81
467.391	1255.81
467.61	1159.81
467.829	1110.81
468.049	1169.81
468.268	1115.81
468.488	1098.81
468.707	1131.81
468.927	1143.81
469.146	1124.81
469.365	1149.81
469.585	1161.81
469.804	1219.81
470.023	1180.81
470.243	1183.81
470.462	1247.81
470.681	1274.81
470.901	1389.81
471.12	1579.81
471.339	1583.81
471.558	1331.81
471.777	1226.81
471.997	1218.81
472.216	1162.81
472.435	1154.81
472.654	1153.81
472.873	1119.81
473.092	1142.81
473.311	1148.81
473.53	1171.81
473.749	1153.81
473.968	1165.81
474.187	1151.81
474.406	1129.81
474.625	1157.81
474.844	1148.81
475.063	1168.81
475.282	1133.81
475.501	1137.81
475.72	1138.81
475.939	1145.81
476.158	1207.81
476.377	1212.81
476.596	1208.81
476.814	1212.81
477.033	1195.81
477.252	1193.81
477.471	1234.81
477.69	1239.81
477.908	1283.81
478.127	1307.81
478.346	1306.81
478.564	1324.81
478.783	1338.81
479.002	1347.81
479.22	1338.81
479.439	1383.81
479.658	1316.81
479.876	1349.81
480.095	1335.81
480.313	1407.81
480.532	1413.81
480.751	1384.81
480.969	1354.81
481.188	1353.81
481.406	1363.81
481.624	1318.81
481.843	1327.81
482.061	1311.81
482.28	1339.81
482.498	1337.81
482.717	1356.81
482.935	1380.81
483.153	1394.81
483.372	1393.81
483.59	1468.81
483.808	1417.81
484.027	1472.81
484.245	1512.81
484.463	1712.81
484.681	1846.81
484.9	1663.81
485.118	1589.81
485.336	1589.81
485.554	1583.81
485.772	1671.81
485.99	1862.81
486.209	1993.81
486.427	1715.81
486.645	1550.81
486.863	1523.81
487.081	1483.81
487.299	1475.81
487.517	1467.81
487.735	1479.81
487.953	1485.81
488.171	1488.81
488.389	1472.81
488.607	1419.81
488.825	1421.81
489.043	1398.81
489.261	1409.81
489.479	1440.81
489.696	1415.81
489.914	1419.81
490.132	1393.81
490.35	1422.81
490.568	1439.81
490.786	1457.81
491.003	1507.81
