Data from SnStandardFlinnAPT0064_QswitchEnergy10_LIBS07252019.E.O._I.C._HRD10591_15-26-41-973.txt Node
Date: Thu Jul 25 15:26:41 EDT 2019
User: cochatt
Spectrometer: HR+D1059
Trigger mode: 1
Integration Time (sec): 1.000000E-1
Scans to average: 1
Electric dark correction enabled: true
Nonlinearity correction enabled: false
Boxcar width: 0
XAxis mode: Wavelengths
Number of Pixels in Spectrum: 2048
>>>>>Begin Spectral Data<<<<<
223.165	-26.94
223.4	-26.94
223.635	-26.94
223.869	-24.94
224.104	-19.94
224.338	-15.94
224.573	-7.94
224.808	4.06
225.042	-3.94
225.277	-9.94
225.511	-22.94
225.746	11.06
225.98	16.06
226.215	5.06
226.449	15.06
226.683	26.06
226.918	25.06
227.152	30.06
227.387	34.06
227.621	47.06
227.856	56.06
228.09	47.06
228.324	48.06
228.559	56.06
228.793	57.06
229.027	70.06
229.262	77.06
229.496	64.06
229.73	78.06
229.964	66.06
230.199	73.06
230.433	65.06
230.667	85.06
230.901	72.06
231.136	68.06
231.37	92.06
231.604	82.06
231.838	84.06
232.072	101.06
232.306	120.06
232.541	98.06
232.775	97.06
233.009	76.06
233.243	76.06
233.477	80.06
233.711	91.06
233.945	114.06
234.179	94.06
234.413	82.06
234.647	93.06
234.881	87.06
235.115	78.06
235.349	84.06
235.583	105.06
235.817	123.06
236.051	108.06
236.285	104.06
236.519	72.06
236.753	72.06
236.987	82.06
237.221	70.06
237.455	82.06
237.689	91.06
237.922	78.06
238.156	84.06
238.39	95.06
238.624	74.06
238.858	72.06
239.091	69.06
239.325	62.06
239.559	76.06
239.793	76.06
240.027	80.06
240.26	78.06
240.494	82.06
240.728	75.06
240.961	80.06
241.195	78.06
241.429	82.06
241.662	85.06
241.896	82.06
242.13	107.06
242.363	119.06
242.597	154.06
242.83	133.06
243.064	138.06
243.298	168.06
243.531	136.06
243.765	88.06
243.998	89.06
244.232	90.06
244.465	90.06
244.699	81.06
244.932	88.06
245.166	68.06
245.399	76.06
245.633	81.06
245.866	82.06
246.099	91.06
246.333	69.06
246.566	75.06
246.8	63.06
247.033	76.06
247.266	81.06
247.5	74.06
247.733	82.06
247.966	85.06
248.2	98.06
248.433	119.06
248.666	116.06
248.899	114.06
249.133	105.06
249.366	82.06
249.599	88.06
249.832	115.06
250.066	120.06
250.299	100.06
250.532	81.06
250.765	75.06
250.998	80.06
251.231	80.06
251.465	89.06
251.698	79.06
251.931	72.06
252.164	86.06
252.397	89.06
252.63	94.06
252.863	108.06
253.096	88.06
253.329	91.06
253.562	95.06
253.795	81.06
254.028	87.06
254.261	82.06
254.494	86.06
254.727	107.06
254.96	139.06
255.193	133.06
255.426	102.06
255.659	94.06
255.892	87.06
256.124	92.06
256.357	85.06
256.59	72.06
256.823	107.06
257.056	107.06
257.289	149.06
257.521	170.06
257.754	114.06
257.987	88.06
258.22	90.06
258.452	89.06
258.685	86.06
258.918	72.06
259.151	81.06
259.383	92.06
259.616	131.06
259.849	138.06
260.081	105.06
260.314	81.06
260.547	74.06
260.779	83.06
261.012	72.06
261.244	81.06
261.477	95.06
261.71	85.06
261.942	84.06
262.175	82.06
262.407	75.06
262.64	86.06
262.872	93.06
263.105	99.06
263.337	84.06
263.57	92.06
263.802	75.06
264.035	99.06
264.267	93.06
264.499	88.06
264.732	95.06
264.964	71.06
265.197	82.06
265.429	100.06
265.661	91.06
265.894	99.06
266.126	111.06
266.358	149.06
266.591	137.06
266.823	90.06
267.055	96.06
267.287	89.06
267.52	93.06
267.752	83.06
267.984	108.06
268.216	80.06
268.448	81.06
268.681	82.06
268.913	83.06
269.145	88.06
269.377	112.06
269.609	87.06
269.841	104.06
270.073	100.06
270.306	115.06
270.538	187.06
270.77	297.06
271.002	357.06
271.234	193.06
271.466	121.06
271.698	86.06
271.93	93.06
272.162	106.06
272.394	99.06
272.626	100.06
272.858	89.06
273.09	74.06
273.322	89.06
273.553	81.06
273.785	72.06
274.017	74.06
274.249	82.06
274.481	75.06
274.713	91.06
274.945	78.06
275.176	83.06
275.408	92.06
275.64	96.06
275.872	89.06
276.104	87.06
276.335	97.06
276.567	89.06
276.799	97.06
277.031	84.06
277.262	99.06
277.494	96.06
277.726	123.06
277.957	178.06
278.189	235.06
278.421	226.06
278.652	185.06
278.884	180.06
279.115	141.06
279.347	128.06
279.579	90.06
279.81	98.06
280.042	92.06
280.273	103.06
280.505	111.06
280.736	99.06
280.968	116.06
281.199	173.06
281.431	240.06
281.662	266.06
281.894	168.06
282.125	98.06
282.356	114.06
282.588	116.06
282.819	103.06
283.051	128.06
283.282	132.06
283.513	199.06
283.745	283.06
283.976	524.06
284.207	720.06
284.439	568.06
284.67	251.06
284.901	224.06
285.132	331.06
285.364	359.06
285.595	208.06
285.826	174.06
286.057	244.06
286.288	384.06
286.52	598.06
286.751	456.06
286.982	198.06
287.213	122.06
287.444	119.06
287.675	110.06
287.906	102.06
288.138	98.06
288.369	91.06
288.6	86.06
288.831	80.06
289.062	91.06
289.293	99.06
289.524	100.06
289.755	107.06
289.986	85.06
290.217	84.06
290.448	103.06
290.679	99.06
290.91	113.06
291.141	165.06
291.371	221.06
291.602	286.06
291.833	196.06
292.064	107.06
292.295	94.06
292.526	92.06
292.757	78.06
292.987	105.06
293.218	84.06
293.449	106.06
293.68	94.06
293.91	108.06
294.141	99.06
294.372	91.06
294.603	88.06
294.833	90.06
295.064	88.06
295.295	96.06
295.525	100.06
295.756	88.06
295.987	75.06
296.217	86.06
296.448	94.06
296.679	93.06
296.909	87.06
297.14	92.06
297.37	98.06
297.601	99.06
297.831	89.06
298.062	97.06
298.292	97.06
298.523	93.06
298.753	113.06
298.984	95.06
299.214	98.06
299.445	120.06
299.675	101.06
299.905	108.06
300.136	125.06
300.366	160.06
300.597	252.06
300.827	424.06
301.057	663.06
301.288	607.06
301.518	234.06
301.748	148.06
301.979	136.06
302.209	130.06
302.439	139.06
302.669	163.06
302.9	249.06
303.13	478.06
303.36	866.06
303.59	1158.06
303.82	767.06
304.051	278.06
304.281	156.06
304.511	122.06
304.741	110.06
304.971	105.06
305.201	99.06
305.431	113.06
305.661	111.06
305.891	98.06
306.121	105.06
306.352	100.06
306.582	102.06
306.812	114.06
307.042	107.06
307.272	107.06
307.502	96.06
307.731	92.06
307.961	105.06
308.191	99.06
308.421	101.06
308.651	108.06
308.881	92.06
309.111	99.06
309.341	89.06
309.571	115.06
309.8	105.06
310.03	96.06
310.26	111.06
310.49	111.06
310.72	117.06
310.949	93.06
311.179	104.06
311.409	115.06
311.639	101.06
311.868	111.06
312.098	97.06
312.328	111.06
312.557	111.06
312.787	96.06
313.017	98.06
313.246	124.06
313.476	121.06
313.706	132.06
313.935	149.06
314.165	167.06
314.394	210.06
314.624	167.06
314.853	130.06
315.083	110.06
315.312	126.06
315.542	108.06
315.771	124.06
316.001	127.06
316.23	143.06
316.46	154.06
316.689	161.06
316.919	255.06
317.148	446.06
317.377	850.06
317.607	1387.06
317.836	1339.06
318.065	504.06
318.295	218.06
318.524	165.06
318.753	132.06
318.983	126.06
319.212	129.06
319.441	115.06
319.67	130.06
319.9	109.06
320.129	123.06
320.358	104.06
320.587	105.06
320.816	107.06
321.046	97.06
321.275	122.06
321.504	130.06
321.733	139.06
321.962	146.06
322.191	158.06
322.42	140.06
322.649	130.06
322.878	103.06
323.108	119.06
323.337	103.06
323.566	126.06
323.795	116.06
324.024	139.06
324.253	149.06
324.482	169.06
324.71	225.06
324.939	247.06
325.168	220.06
325.397	176.06
325.626	254.06
325.855	459.06
326.084	888.06
326.313	1547.06
326.542	1481.06
326.77	575.06
326.999	254.06
327.228	209.06
327.457	227.06
327.686	210.06
327.914	139.06
328.143	125.06
328.372	126.06
328.6	128.06
328.829	106.06
329.058	106.06
329.287	108.06
329.515	114.06
329.744	94.06
329.972	114.06
330.201	105.06
330.43	111.06
330.658	128.06
330.887	123.06
331.115	110.06
331.344	115.06
331.572	115.06
331.801	118.06
332.03	120.06
332.258	145.06
332.486	178.06
332.715	283.06
332.943	498.06
333.172	710.06
333.4	632.06
333.629	233.06
333.857	144.06
334.085	128.06
334.314	127.06
334.542	126.06
334.771	124.06
334.999	131.06
335.227	115.06
335.455	120.06
335.684	119.06
335.912	118.06
336.14	117.06
336.369	107.06
336.597	107.06
336.825	98.06
337.053	117.06
337.281	98.06
337.51	94.06
337.738	92.06
337.966	97.06
338.194	101.06
338.422	111.06
338.65	94.06
338.878	100.06
339.106	110.06
339.334	106.06
339.562	118.06
339.79	126.06
340.018	114.06
340.246	115.06
340.474	108.06
340.702	116.06
340.93	104.06
341.158	123.06
341.386	110.06
341.614	104.06
341.842	111.06
342.07	118.06
342.298	105.06
342.526	114.06
342.754	117.06
342.981	100.06
343.209	110.06
343.437	106.06
343.665	109.06
343.893	109.06
344.12	97.06
344.348	112.06
344.576	117.06
344.804	110.06
345.031	112.06
345.259	108.06
345.487	106.06
345.714	113.06
345.942	96.06
346.17	88.06
346.397	113.06
346.625	116.06
346.853	104.06
347.08	108.06
347.308	113.06
347.535	99.06
347.763	115.06
347.99	87.06
348.218	112.06
348.445	122.06
348.673	102.06
348.9	121.06
349.128	121.06
349.355	120.06
349.583	107.06
349.81	122.06
350.037	128.06
350.265	114.06
350.492	108.06
350.72	106.06
350.947	103.06
351.174	110.06
351.402	114.06
351.629	102.06
351.856	99.06
352.083	101.06
352.311	120.06
352.538	112.06
352.765	111.06
352.992	90.06
353.22	108.06
353.447	119.06
353.674	89.06
353.901	107.06
354.128	111.06
354.355	101.06
354.583	84.06
354.81	98.06
355.037	115.06
355.264	106.06
355.491	101.06
355.718	85.06
355.945	104.06
356.172	99.06
356.399	110.06
356.626	106.06
356.853	103.06
357.08	100.06
357.307	92.06
357.534	96.06
357.761	94.06
357.988	120.06
358.215	112.06
358.441	119.06
358.668	112.06
358.895	120.06
359.122	104.06
359.349	114.06
359.576	119.06
359.802	95.06
360.029	108.06
360.256	116.06
360.483	98.06
360.709	90.06
360.936	121.06
361.163	106.06
361.39	113.06
361.616	104.06
361.843	99.06
362.07	94.06
362.296	106.06
362.523	107.06
362.749	103.06
362.976	110.06
363.203	106.06
363.429	91.06
363.656	110.06
363.882	107.06
364.109	112.06
364.335	103.06
364.562	102.06
364.788	114.06
365.015	116.06
365.241	149.06
365.468	185.06
365.694	247.06
365.92	198.06
366.147	126.06
366.373	107.06
366.599	94.06
366.826	89.06
367.052	90.06
367.278	86.06
367.505	95.06
367.731	99.06
367.957	91.06
368.184	98.06
368.41	118.06
368.636	104.06
368.862	106.06
369.089	95.06
369.315	110.06
369.541	112.06
369.767	111.06
369.993	116.06
370.219	103.06
370.445	110.06
370.672	99.06
370.898	118.06
371.124	112.06
371.35	109.06
371.576	105.06
371.802	106.06
372.028	116.06
372.254	112.06
372.48	99.06
372.706	105.06
372.932	100.06
373.158	119.06
373.384	116.06
373.61	105.06
373.835	109.06
374.061	116.06
374.287	116.06
374.513	109.06
374.739	99.06
374.965	112.06
375.191	126.06
375.416	114.06
375.642	114.06
375.868	105.06
376.094	114.06
376.319	111.06
376.545	105.06
376.771	107.06
376.997	96.06
377.222	108.06
377.448	114.06
377.674	101.06
377.899	106.06
378.125	108.06
378.35	118.06
378.576	115.06
378.802	114.06
379.027	130.06
379.253	133.06
379.478	164.06
379.704	308.06
379.929	706.06
380.155	1463.06
380.38	1558.06
380.606	507.06
380.831	190.06
381.057	132.06
381.282	122.06
381.507	122.06
381.733	118.06
381.958	104.06
382.184	119.06
382.409	101.06
382.634	99.06
382.86	101.06
383.085	99.06
383.31	104.06
383.535	103.06
383.761	94.06
383.986	114.06
384.211	94.06
384.436	107.06
384.662	110.06
384.887	92.06
385.112	108.06
385.337	107.06
385.562	94.06
385.787	102.06
386.013	107.06
386.238	110.06
386.463	104.06
386.688	97.06
386.913	92.06
387.138	96.06
387.363	104.06
387.588	101.06
387.813	86.06
388.038	100.06
388.263	99.06
388.488	106.06
388.713	110.06
388.938	94.06
389.163	102.06
389.387	97.06
389.612	106.06
389.837	98.06
390.062	107.06
390.287	102.06
390.512	101.06
390.736	115.06
390.961	102.06
391.186	90.06
391.411	93.06
391.636	98.06
391.86	91.06
392.085	98.06
392.31	97.06
392.534	92.06
392.759	107.06
392.984	108.06
393.208	128.06
393.433	131.06
393.658	138.06
393.882	100.06
394.107	99.06
394.331	83.06
394.556	91.06
394.78	112.06
395.005	104.06
395.229	91.06
395.454	99.06
395.678	95.06
395.903	101.06
396.127	102.06
396.352	112.06
396.576	94.06
396.801	108.06
397.025	122.06
397.249	116.06
397.474	113.06
397.698	99.06
397.922	103.06
398.147	95.06
398.371	87.06
398.595	89.06
398.82	74.06
399.044	89.06
399.268	91.06
399.492	83.06
399.717	93.06
399.941	109.06
400.165	95.06
400.389	89.06
400.613	102.06
400.837	94.06
401.062	107.06
401.286	103.06
401.51	95.06
401.734	87.06
401.958	96.06
402.182	105.06
402.406	92.06
402.63	90.06
402.854	101.06
403.078	111.06
403.302	90.06
403.526	85.06
403.75	87.06
403.974	100.06
404.198	105.06
404.422	106.06
404.645	96.06
404.869	87.06
405.093	96.06
405.317	91.06
405.541	110.06
405.765	115.06
405.988	137.06
406.212	105.06
406.436	99.06
406.66	108.06
406.883	87.06
407.107	93.06
407.331	86.06
407.555	91.06
407.778	97.06
408.002	104.06
408.226	98.06
408.449	112.06
408.673	105.06
408.896	94.06
409.12	91.06
409.344	93.06
409.567	88.06
409.791	90.06
410.014	94.06
410.238	104.06
410.461	110.06
410.685	94.06
410.908	75.06
411.132	93.06
411.355	97.06
411.578	105.06
411.802	80.06
412.025	108.06
412.249	78.06
412.472	104.06
412.695	99.06
412.919	97.06
413.142	108.06
413.365	90.06
413.589	85.06
413.812	112.06
414.035	102.06
414.258	100.06
414.482	102.06
414.705	90.06
414.928	89.06
415.151	86.06
415.374	100.06
415.597	91.06
415.821	94.06
416.044	108.06
416.267	102.06
416.49	80.06
416.713	103.06
416.936	88.06
417.159	95.06
417.382	100.06
417.605	82.06
417.828	94.06
418.051	91.06
418.274	101.06
418.497	119.06
418.72	115.06
418.943	88.06
419.166	111.06
419.389	107.06
419.611	98.06
419.834	102.06
420.057	112.06
420.28	110.06
420.503	100.06
420.726	87.06
420.948	94.06
421.171	103.06
421.394	103.06
421.617	96.06
421.839	92.06
422.062	94.06
422.285	88.06
422.507	97.06
422.73	124.06
422.953	122.06
423.175	111.06
423.398	90.06
423.621	91.06
423.843	103.06
424.066	102.06
424.288	103.06
424.511	100.06
424.733	110.06
424.956	93.06
425.178	86.06
425.401	97.06
425.623	89.06
425.846	111.06
426.068	92.06
426.291	88.06
426.513	87.06
426.735	103.06
426.958	95.06
427.18	99.06
427.402	112.06
427.625	97.06
427.847	89.06
428.069	100.06
428.292	87.06
428.514	97.06
428.736	97.06
428.958	103.06
429.181	83.06
429.403	101.06
429.625	93.06
429.847	92.06
430.069	98.06
430.292	94.06
430.514	103.06
430.736	94.06
430.958	115.06
431.18	99.06
431.402	104.06
431.624	90.06
431.846	107.06
432.068	96.06
432.29	106.06
432.512	79.06
432.734	102.06
432.956	93.06
433.178	112.06
433.4	96.06
433.622	113.06
433.844	95.06
434.066	94.06
434.287	102.06
434.509	83.06
434.731	92.06
434.953	87.06
435.175	80.06
435.397	94.06
435.618	83.06
435.84	100.06
436.062	92.06
436.284	96.06
436.505	91.06
436.727	87.06
436.949	94.06
437.17	97.06
437.392	93.06
437.614	90.06
437.835	100.06
438.057	80.06
438.278	93.06
438.5	103.06
438.721	90.06
438.943	103.06
439.165	99.06
439.386	91.06
439.608	90.06
439.829	105.06
440.05	118.06
440.272	113.06
440.493	95.06
440.715	100.06
440.936	98.06
441.158	91.06
441.379	97.06
441.6	102.06
441.822	106.06
442.043	119.06
442.264	128.06
442.486	101.06
442.707	104.06
442.928	104.06
443.149	93.06
443.371	86.06
443.592	99.06
443.813	88.06
444.034	87.06
444.255	109.06
444.476	101.06
444.698	89.06
444.919	95.06
445.14	220.06
445.361	158.06
445.582	94.06
445.803	84.06
446.024	104.06
446.245	102.06
446.466	109.06
446.687	122.06
446.908	102.06
447.129	97.06
447.35	86.06
447.571	74.06
447.792	96.06
448.013	95.06
448.234	98.06
448.455	86.06
448.675	91.06
448.896	112.06
449.117	102.06
449.338	128.06
449.559	153.06
449.779	132.06
450	91.06
450.221	114.06
450.442	111.06
450.662	124.06
450.883	118.06
451.104	99.06
451.324	107.06
451.545	103.06
451.766	107.06
451.986	114.06
452.207	203.06
452.428	519.06
452.648	1281.06
452.869	734.06
453.089	202.06
453.31	121.06
453.53	135.06
453.751	140.06
453.971	146.06
454.192	151.06
454.412	126.06
454.633	94.06
454.853	89.06
455.073	94.06
455.294	99.06
455.514	96.06
455.734	95.06
455.955	84.06
456.175	103.06
456.395	105.06
456.616	108.06
456.836	92.06
457.056	84.06
457.276	97.06
457.497	128.06
457.717	120.06
457.937	102.06
458.157	98.06
458.377	102.06
458.598	101.06
458.818	88.06
459.038	72.06
459.258	82.06
459.478	85.06
459.698	97.06
459.918	78.06
460.138	77.06
460.358	99.06
460.578	87.06
460.798	83.06
461.018	93.06
461.238	109.06
461.458	85.06
461.678	100.06
461.898	89.06
462.118	91.06
462.338	93.06
462.558	86.06
462.777	94.06
462.997	117.06
463.217	117.06
463.437	123.06
463.657	185.06
463.876	170.06
464.096	122.06
464.316	108.06
464.536	86.06
464.755	91.06
464.975	79.06
465.195	97.06
465.414	101.06
465.634	96.06
465.854	106.06
466.073	81.06
466.293	79.06
466.512	99.06
466.732	97.06
466.951	113.06
467.171	123.06
467.391	132.06
467.61	98.06
467.829	97.06
468.049	91.06
468.268	86.06
468.488	86.06
468.707	97.06
468.927	93.06
469.146	99.06
469.365	97.06
469.585	108.06
469.804	86.06
470.023	87.06
470.243	90.06
470.462	107.06
470.681	112.06
470.901	133.06
471.12	185.06
471.339	203.06
471.558	127.06
471.777	118.06
471.997	117.06
472.216	94.06
472.435	92.06
472.654	100.06
472.873	93.06
473.092	92.06
473.311	91.06
473.53	90.06
473.749	100.06
473.968	91.06
474.187	96.06
474.406	85.06
474.625	93.06
474.844	94.06
475.063	82.06
475.282	101.06
475.501	100.06
475.72	104.06
475.939	93.06
476.158	91.06
476.377	105.06
476.596	119.06
476.814	95.06
477.033	97.06
477.252	103.06
477.471	83.06
477.69	95.06
477.908	101.06
478.127	107.06
478.346	99.06
478.564	107.06
478.783	76.06
479.002	90.06
479.22	92.06
479.439	88.06
479.658	95.06
479.876	86.06
480.095	85.06
480.313	97.06
480.532	84.06
480.751	84.06
480.969	99.06
481.188	99.06
481.406	99.06
481.624	105.06
481.843	108.06
482.061	105.06
482.28	79.06
482.498	103.06
482.717	87.06
482.935	90.06
483.153	104.06
483.372	85.06
483.59	95.06
483.808	96.06
484.027	115.06
484.245	121.06
484.463	164.06
484.681	221.06
484.9	149.06
485.118	119.06
485.336	126.06
485.554	103.06
485.772	123.06
485.99	167.06
486.209	225.06
486.427	163.06
486.645	111.06
486.863	107.06
487.081	118.06
487.299	93.06
487.517	100.06
487.735	98.06
487.953	99.06
488.171	100.06
488.389	106.06
488.607	92.06
488.825	78.06
489.043	96.06
489.261	95.06
489.479	89.06
489.696	77.06
489.914	100.06
490.132	103.06
490.35	99.06
490.568	107.06
490.786	82.06
491.003	98.06
491.221	108.06
491.439	107.06
491.657	107.06
491.874	105.06
492.092	102.06
492.31	100.06
492.527	100.06
492.745	102.06
492.963	117.06
493.18	102.06
493.398	105.06
493.615	91.06
493.833	88.06
494.05	95.06
494.268	95.06
494.485	108.06
494.703	104.06
494.92	94.06
495.138	99.06
495.355	95.06
495.573	107.06
495.79	123.06
496.008	98.06
496.225	98.06
496.442	101.06
496.66	126.06
496.877	154.06
497.094	146.06
497.312	96.06
497.529	102.06
497.746	104.06
497.963	113.06
498.181	110.06
498.398	99.06
498.615	102.06
498.832	96.06
499.049	101.06
499.267	135.06
499.484	161.06
499.701	104.06
499.918	104.06
500.135	105.06
500.352	101.06
500.569	102.06
500.786	107.06
501.003	95.06
501.22	95.06
501.437	94.06
501.654	105.06
501.871	80.06
502.088	90.06
502.305	100.06
502.522	107.06
502.739	83.06
502.956	97.06
503.172	109.06
503.389	95.06
503.606	100.06
503.823	103.06
504.04	111.06
504.256	101.06
504.473	101.06
504.69	89.06
504.907	120.06
505.123	128.06
505.34	105.06
505.557	114.06
505.773	100.06
505.99	98.06
506.207	101.06
506.423	102.06
506.64	108.06
506.856	96.06
507.073	105.06
507.289	94.06
507.506	91.06
507.722	99.06
507.939	90.06
508.155	95.06
508.372	98.06
508.588	96.06
508.805	94.06
509.021	111.06
509.238	101.06
