Data from SnStandardFlinnAPT0064_LampEnergy10_LIBS07252019.E.O._I.C._HRD10591_15-19-22-493.txt Node
Date: Thu Jul 25 15:19:22 EDT 2019
User: cochatt
Spectrometer: HR+D1059
Trigger mode: 1
Integration Time (sec): 1.000000E-1
Scans to average: 1
Electric dark correction enabled: true
Nonlinearity correction enabled: false
Boxcar width: 0
XAxis mode: Wavelengths
Number of Pixels in Spectrum: 2048
>>>>>Begin Spectral Data<<<<<
223.165	-22.69
223.4	-22.69
223.635	-22.69
223.869	-25.69
224.104	-18.69
224.338	-12.69
224.573	-12.69
224.808	-6.69
225.042	-27.69
225.277	-9.69
225.511	-4.69
225.746	7.31
225.98	12.31
226.215	5.31
226.449	15.31
226.683	30.31
226.918	36.31
227.152	34.31
227.387	26.31
227.621	45.31
227.856	61.31
228.09	52.31
228.324	51.31
228.559	68.31
228.793	136.31
229.027	307.31
229.262	345.31
229.496	323.31
229.73	319.31
229.964	325.31
230.199	314.31
230.433	327.31
230.667	321.31
230.901	331.31
231.136	338.31
231.37	371.31
231.604	395.31
231.838	447.31
232.072	549.31
232.306	613.31
232.541	510.31
232.775	457.31
233.009	432.31
233.243	429.31
233.477	490.31
233.711	544.31
233.945	602.31
234.179	528.31
234.413	483.31
234.647	486.31
234.881	497.31
235.115	552.31
235.349	643.31
235.583	803.31
235.817	1065.31
236.051	1019.31
236.285	682.31
236.519	582.31
236.753	504.31
236.987	541.31
237.221	563.31
237.455	517.31
237.689	492.31
237.922	481.31
238.156	474.31
238.39	500.31
238.624	515.31
238.858	499.31
239.091	494.31
239.325	522.31
239.559	510.31
239.793	528.31
240.027	538.31
240.26	564.31
240.494	557.31
240.728	608.31
240.961	630.31
241.195	659.31
241.429	709.31
241.662	732.31
241.896	823.31
242.13	1015.31
242.363	1310.31
242.597	1712.31
242.83	1665.31
243.064	1657.31
243.298	1923.31
243.531	1571.31
243.765	1036.31
243.998	827.31
244.232	733.31
244.465	694.31
244.699	683.31
244.932	662.31
245.166	673.31
245.399	701.31
245.633	703.31
245.866	727.31
246.099	709.31
246.333	641.31
246.566	665.31
246.8	661.31
247.033	659.31
247.266	650.31
247.5	657.31
247.733	675.31
247.966	691.31
248.2	812.31
248.433	884.31
248.666	1033.31
248.899	972.31
249.133	841.31
249.366	897.31
249.599	981.31
249.832	1143.31
250.066	1101.31
250.299	850.31
250.532	811.31
250.765	777.31
250.998	765.31
251.231	724.31
251.465	738.31
251.698	759.31
251.931	773.31
252.164	745.31
252.397	735.31
252.63	795.31
252.863	805.31
253.096	807.31
253.329	761.31
253.562	765.31
253.795	787.31
254.028	808.31
254.261	834.31
254.494	899.31
254.727	1035.31
254.96	1308.31
255.193	1281.31
255.426	993.31
255.659	908.31
255.892	868.31
256.124	862.31
256.357	900.31
256.59	925.31
256.823	1011.31
257.056	1155.31
257.289	1414.31
257.521	1539.31
257.754	1210.31
257.987	980.31
258.22	908.31
258.452	921.31
258.685	923.31
258.918	938.31
259.151	1005.31
259.383	1097.31
259.616	1243.31
259.849	1291.31
260.081	1108.31
260.314	994.31
260.547	948.31
260.779	927.31
261.012	942.31
261.244	957.31
261.477	970.31
261.71	941.31
261.942	967.31
262.175	986.31
262.407	1004.31
262.64	1011.31
262.872	1077.31
263.105	1119.31
263.337	1190.31
263.57	1237.31
263.802	1224.31
264.035	1286.31
264.267	1303.31
264.499	1316.31
264.732	1386.31
264.964	1379.31
265.197	1383.31
265.429	1411.31
265.661	1412.31
265.894	1516.31
266.126	1706.31
266.358	1926.31
266.591	1849.31
266.823	1582.31
267.055	1403.31
267.287	1366.31
267.52	1275.31
267.752	1238.31
267.984	1256.31
268.216	1241.31
268.448	1224.31
268.681	1225.31
268.913	1182.31
269.145	1201.31
269.377	1212.31
269.609	1255.31
269.841	1258.31
270.073	1355.31
270.306	1617.31
270.538	2238.31
270.77	3411.31
271.002	4150.31
271.234	2988.31
271.466	2003.31
271.698	1621.31
271.93	1401.31
272.162	1391.31
272.394	1323.31
272.626	1243.31
272.858	1230.31
273.09	1201.31
273.322	1205.31
273.553	1167.31
273.785	1197.31
274.017	1179.31
274.249	1182.31
274.481	1177.31
274.713	1215.31
274.945	1174.31
275.176	1207.31
275.408	1190.31
275.64	1225.31
275.872	1240.31
276.104	1257.31
276.335	1271.31
276.567	1213.31
276.799	1263.31
277.031	1274.31
277.262	1330.31
277.494	1406.31
277.726	1547.31
277.957	1900.31
278.189	2159.31
278.421	2073.31
278.652	1807.31
278.884	1678.31
279.115	1495.31
279.347	1425.31
279.579	1387.31
279.81	1401.31
280.042	1399.31
280.273	1450.31
280.505	1430.31
280.736	1493.31
280.968	1601.31
281.199	1816.31
281.431	2104.31
281.662	2134.31
281.894	1837.31
282.125	1676.31
282.356	1677.31
282.588	1697.31
282.819	1789.31
283.051	1893.31
283.282	2077.31
283.513	2577.31
283.745	3747.31
283.976	5905.31
284.207	8345.31
284.439	7813.31
284.67	5002.31
284.901	4098.31
285.132	4065.31
285.364	3826.31
285.595	2905.31
285.826	2532.31
286.057	2957.31
286.288	4074.31
286.52	5521.31
286.751	5206.31
286.982	3261.31
287.213	2441.31
287.444	2105.31
287.675	1915.31
287.906	1812.31
288.138	1778.31
288.369	1717.31
288.6	1684.31
288.831	1646.31
289.062	1667.31
289.293	1657.31
289.524	1659.31
289.755	1659.31
289.986	1711.31
290.217	1657.31
290.448	1719.31
290.679	1723.31
290.91	1778.31
291.141	1879.31
291.371	2021.31
291.602	2177.31
291.833	1963.31
292.064	1705.31
292.295	1688.31
292.526	1638.31
292.757	1581.31
292.987	1573.31
293.218	1542.31
293.449	1573.31
293.68	1555.31
293.91	1546.31
294.141	1576.31
294.372	1532.31
294.603	1520.31
294.833	1532.31
295.064	1528.31
295.295	1506.31
295.525	1543.31
295.756	1550.31
295.987	1533.31
296.217	1546.31
296.448	1516.31
296.679	1557.31
296.909	1538.31
297.14	1526.31
297.37	1582.31
297.601	1588.31
297.831	1611.31
298.062	1642.31
298.292	1620.31
298.523	1675.31
298.753	1657.31
298.984	1677.31
299.214	1726.31
299.445	1743.31
299.675	1765.31
299.905	1822.31
300.136	1913.31
300.366	2151.31
300.597	2810.31
300.827	3965.31
301.057	5452.31
301.288	5551.31
301.518	3627.31
301.748	2753.31
301.979	2460.31
302.209	2330.31
302.439	2369.31
302.669	2533.31
302.9	3060.31
303.13	4331.31
303.36	6441.31
303.59	8635.31
303.82	7555.31
304.051	4643.31
304.281	3230.31
304.511	2649.31
304.741	2424.31
304.971	2246.31
305.201	2067.31
305.431	1998.31
305.661	1935.31
305.891	1934.31
306.121	1855.31
306.352	1894.31
306.582	1830.31
306.812	1822.31
307.042	1811.31
307.272	1872.31
307.502	1791.31
307.731	1773.31
307.961	1783.31
308.191	1785.31
308.421	1782.31
308.651	1756.31
308.881	1747.31
309.111	1755.31
309.341	1763.31
309.571	1803.31
309.8	1826.31
310.03	1792.31
310.26	1826.31
310.49	1823.31
310.72	1801.31
310.949	1783.31
311.179	1829.31
311.409	1893.31
311.639	1898.31
311.868	1862.31
312.098	1881.31
312.328	1934.31
312.557	1929.31
312.787	1939.31
313.017	1916.31
313.246	1933.31
313.476	1992.31
313.706	2039.31
313.935	2178.31
314.165	2371.31
314.394	2486.31
314.624	2371.31
314.853	2141.31
315.083	2129.31
315.312	2117.31
315.542	2142.31
315.771	2182.31
316.001	2222.31
316.23	2343.31
316.46	2459.31
316.689	2729.31
316.919	3327.31
317.148	4818.31
317.377	7425.31
317.607	10746.31
317.836	11445.31
318.065	7267.31
318.295	4725.31
318.524	3726.31
318.753	3125.31
318.983	2823.31
319.212	2660.31
319.441	2537.31
319.67	2470.31
319.9	2397.31
320.129	2351.31
320.358	2372.31
320.587	2346.31
320.816	2352.31
321.046	2313.31
321.275	2363.31
321.504	2334.31
321.733	2432.31
321.962	2435.31
322.191	2508.31
322.42	2467.31
322.649	2429.31
322.878	2431.31
323.108	2462.31
323.337	2498.31
323.566	2547.31
323.795	2618.31
324.024	2633.31
324.253	2742.31
324.482	2831.31
324.71	3022.31
324.939	3261.31
325.168	3365.31
325.397	3457.31
325.626	4175.31
325.855	5751.31
326.084	9141.31
326.313	13092.31
326.542	13889.31
326.77	9861.31
326.999	6495.31
327.228	5323.31
327.457	4920.31
327.686	4976.31
327.914	5165.31
328.143	6033.31
328.372	7135.31
328.6	7677.31
328.829	6946.31
329.058	5801.31
329.287	5121.31
329.515	4609.31
329.744	4216.31
329.972	4017.31
330.201	3793.31
330.43	3713.31
330.658	3524.31
330.887	3533.31
331.115	3491.31
331.344	3427.31
331.572	3448.31
331.801	3435.31
332.03	3457.31
332.258	3521.31
332.486	3724.31
332.715	4289.31
332.943	5329.31
333.172	6734.31
333.4	6764.31
333.629	5128.31
333.857	4525.31
334.085	4457.31
334.314	4732.31
334.542	5035.31
334.771	5951.31
334.999	7329.31
335.227	9098.31
335.455	10223.31
335.684	9294.31
335.912	7602.31
336.14	6468.31
336.369	5687.31
336.597	5161.31
336.825	4736.31
337.053	4417.31
337.281	4178.31
337.51	3955.31
337.738	3790.31
337.966	3577.31
338.194	3511.31
338.422	3396.31
338.65	3307.31
338.878	3238.31
339.106	3148.31
339.334	3172.31
339.562	3043.31
339.79	3005.31
340.018	2995.31
340.246	2915.31
340.474	2923.31
340.702	2938.31
340.93	2922.31
341.158	2926.31
341.386	2859.31
341.614	2893.31
341.842	2826.31
342.07	2774.31
342.298	2729.31
342.526	2673.31
342.754	2659.31
342.981	2646.31
343.209	2630.31
343.437	2647.31
343.665	2689.31
343.893	2705.31
344.12	2660.31
344.348	2661.31
344.576	2598.31
344.804	2634.31
345.031	2553.31
345.259	2549.31
345.487	2478.31
345.714	2455.31
345.942	2473.31
346.17	2440.31
346.397	2422.31
346.625	2450.31
346.853	2455.31
347.08	2442.31
347.308	2437.31
347.535	2449.31
347.763	2461.31
347.99	2424.31
348.218	2398.31
348.445	2379.31
348.673	2362.31
348.9	2386.31
349.128	2383.31
349.355	2329.31
349.583	2367.31
349.81	2333.31
350.037	2298.31
350.265	2282.31
350.492	2294.31
350.72	2275.31
350.947	2335.31
351.174	2333.31
351.402	2345.31
351.629	2294.31
351.856	2323.31
352.083	2299.31
352.311	2277.31
352.538	2290.31
352.765	2314.31
352.992	2274.31
353.22	2291.31
353.447	2298.31
353.674	2293.31
353.901	2322.31
354.128	2344.31
354.355	2300.31
354.583	2338.31
354.81	2336.31
355.037	2305.31
355.264	2325.31
355.491	2366.31
355.718	2346.31
355.945	2363.31
356.172	2399.31
356.399	2373.31
356.626	2388.31
356.853	2421.31
357.08	2373.31
357.307	2456.31
357.534	2486.31
357.761	2489.31
357.988	2494.31
358.215	2468.31
358.441	2497.31
358.668	2465.31
358.895	2457.31
359.122	2425.31
359.349	2436.31
359.576	2417.31
359.802	2398.31
360.029	2451.31
360.256	2460.31
360.483	2441.31
360.709	2485.31
360.936	2483.31
361.163	2446.31
361.39	2488.31
361.616	2433.31
361.843	2453.31
362.07	2439.31
362.296	2446.31
362.523	2446.31
362.749	2434.31
362.976	2444.31
363.203	2441.31
363.429	2418.31
363.656	2442.31
363.882	2476.31
364.109	2438.31
364.335	2414.31
364.562	2426.31
364.788	2453.31
365.015	2478.31
365.241	2523.31
365.468	2721.31
365.694	2913.31
365.92	2742.31
366.147	2584.31
366.373	2494.31
366.599	2498.31
366.826	2478.31
367.052	2490.31
367.278	2522.31
367.505	2504.31
367.731	2554.31
367.957	2513.31
368.184	2512.31
368.41	2538.31
368.636	2573.31
368.862	2553.31
369.089	2563.31
369.315	2573.31
369.541	2543.31
369.767	2503.31
369.993	2506.31
370.219	2486.31
370.445	2548.31
370.672	2577.31
370.898	2570.31
371.124	2572.31
371.35	2603.31
371.576	2649.31
371.802	2633.31
372.028	2634.31
372.254	2634.31
372.48	2658.31
372.706	2667.31
372.932	2687.31
373.158	2691.31
373.384	2640.31
373.61	2686.31
373.835	2691.31
374.061	2635.31
374.287	2726.31
374.513	2747.31
374.739	2773.31
374.965	2751.31
375.191	2772.31
375.416	2740.31
375.642	2730.31
375.868	2760.31
376.094	2682.31
376.319	2659.31
376.545	2625.31
376.771	2650.31
376.997	2629.31
377.222	2617.31
377.448	2597.31
377.674	2651.31
377.899	2626.31
378.125	2643.31
378.35	2648.31
378.576	2644.31
378.802	2622.31
379.027	2717.31
379.253	2849.31
379.478	3019.31
379.704	3550.31
379.929	5197.31
380.155	8104.31
380.38	9025.31
380.606	5615.31
380.831	3813.31
381.057	3243.31
381.282	3007.31
381.507	2835.31
381.733	2769.31
381.958	2710.31
382.184	2691.31
382.409	2678.31
382.634	2638.31
382.86	2579.31
383.085	2589.31
383.31	2581.31
383.535	2602.31
383.761	2607.31
383.986	2604.31
384.211	2588.31
384.436	2685.31
384.662	2684.31
384.887	2649.31
385.112	2653.31
385.337	2658.31
385.562	2685.31
385.787	2673.31
386.013	2680.31
386.238	2651.31
386.463	2671.31
386.688	2729.31
386.913	2650.31
387.138	2645.31
387.363	2649.31
387.588	2658.31
387.813	2662.31
388.038	2695.31
388.263	2666.31
388.488	2643.31
388.713	2691.31
388.938	2695.31
389.163	2650.31
389.387	2628.31
389.612	2668.31
389.837	2646.31
390.062	2646.31
390.287	2706.31
390.512	2695.31
390.736	2694.31
390.961	2757.31
391.186	2726.31
391.411	2756.31
391.636	2780.31
391.86	2818.31
392.085	2790.31
392.31	2774.31
392.534	2777.31
392.759	2699.31
392.984	2714.31
393.208	2765.31
393.433	2809.31
393.658	2745.31
393.882	2673.31
394.107	2673.31
394.331	2708.31
394.556	2758.31
394.78	2726.31
395.005	2735.31
395.229	2708.31
395.454	2757.31
395.678	2756.31
395.903	2763.31
396.127	2740.31
396.352	2739.31
396.576	2785.31
396.801	2729.31
397.025	2847.31
397.249	2760.31
397.474	2789.31
397.698	2809.31
397.922	2824.31
398.147	2786.31
398.371	2886.31
398.595	2925.31
398.82	2934.31
399.044	3051.31
399.268	3165.31
399.492	3322.31
399.717	3482.31
399.941	3454.31
400.165	3381.31
400.389	3243.31
400.613	3059.31
400.837	2953.31
401.062	2921.31
401.286	2951.31
401.51	2896.31
401.734	2905.31
401.958	2943.31
402.182	2877.31
402.406	2952.31
402.63	2869.31
402.854	2967.31
403.078	2985.31
403.302	3001.31
403.526	2981.31
403.75	2990.31
403.974	3053.31
404.198	3023.31
404.422	3043.31
404.645	2988.31
404.869	3021.31
405.093	3064.31
405.317	3009.31
405.541	3063.31
405.765	3150.31
405.988	3144.31
406.212	3114.31
406.436	3053.31
406.66	3152.31
406.883	3106.31
407.107	3158.31
407.331	3207.31
407.555	3316.31
407.778	3281.31
408.002	3217.31
408.226	3212.31
408.449	3227.31
408.673	3187.31
408.896	3077.31
409.12	3059.31
409.344	3087.31
409.567	3046.31
409.791	3097.31
410.014	3017.31
410.238	3025.31
410.461	3000.31
410.685	3029.31
410.908	2941.31
411.132	2968.31
411.355	2913.31
411.578	2923.31
411.802	2934.31
412.025	2929.31
412.249	2943.31
412.472	2909.31
412.695	2869.31
412.919	2900.31
413.142	2895.31
413.365	2826.31
413.589	2879.31
413.812	2888.31
414.035	2917.31
414.258	2903.31
414.482	2888.31
414.705	2937.31
414.928	2911.31
415.151	2877.31
415.374	2826.31
415.597	2797.31
415.821	2753.31
416.044	2778.31
416.267	2761.31
416.49	2734.31
416.713	2707.31
416.936	2766.31
417.159	2687.31
417.382	2676.31
417.605	2680.31
417.828	2701.31
418.051	2771.31
418.274	2804.31
418.497	2727.31
418.72	2828.31
418.943	2780.31
419.166	2918.31
419.389	3034.31
419.611	3073.31
419.834	2957.31
420.057	2876.31
420.28	2792.31
420.503	2698.31
420.726	2743.31
420.948	2734.31
421.171	2771.31
421.394	2774.31
421.617	2773.31
421.839	2735.31
422.062	2825.31
422.285	2773.31
422.507	2809.31
422.73	2844.31
422.953	2871.31
423.175	2845.31
423.398	2869.31
423.621	2758.31
423.843	2782.31
424.066	2826.31
424.288	2757.31
424.511	2780.31
424.733	2683.31
424.956	2760.31
425.178	2721.31
425.401	2720.31
425.623	2727.31
425.846	2621.31
426.068	2626.31
426.291	2675.31
426.513	2643.31
426.735	2602.31
426.958	2670.31
427.18	2597.31
427.402	2587.31
427.625	2644.31
427.847	2563.31
428.069	2525.31
428.292	2627.31
428.514	2596.31
428.736	2522.31
428.958	2573.31
429.181	2516.31
429.403	2485.31
429.625	2515.31
429.847	2557.31
430.069	2617.31
430.292	2700.31
430.514	2798.31
430.736	2738.31
430.958	2621.31
431.18	2549.31
431.402	2565.31
431.624	2485.31
431.846	2537.31
432.068	2508.31
432.29	2486.31
432.512	2473.31
432.734	2567.31
432.956	2522.31
433.178	2547.31
433.4	2511.31
433.622	2529.31
433.844	2556.31
434.066	2538.31
434.287	2530.31
434.509	2565.31
434.731	2661.31
434.953	2617.31
435.175	2703.31
435.397	2622.31
435.618	2542.31
435.84	2542.31
436.062	2529.31
436.284	2501.31
436.505	2515.31
436.727	2530.31
436.949	2526.31
437.17	2517.31
437.392	2467.31
437.614	2447.31
437.835	2403.31
438.057	2409.31
438.278	2408.31
438.5	2498.31
438.721	2502.31
438.943	2571.31
439.165	2637.31
439.386	2651.31
439.608	2612.31
439.829	2676.31
440.05	2745.31
440.272	2789.31
440.493	2652.31
440.715	2620.31
440.936	2630.31
441.158	2652.31
441.379	2649.31
441.6	2789.31
441.822	2842.31
442.043	3009.31
442.264	3134.31
442.486	2879.31
442.707	2811.31
442.928	2709.31
443.149	2737.31
443.371	2712.31
443.592	2727.31
443.813	2761.31
444.034	2760.31
444.255	2757.31
444.476	2851.31
444.698	2860.31
444.919	2852.31
445.14	2897.31
445.361	2817.31
445.582	2766.31
445.803	2772.31
446.024	2693.31
446.245	2676.31
446.466	2692.31
446.687	2674.31
446.908	2675.31
447.129	2582.31
447.35	2573.31
447.571	2553.31
447.792	2486.31
448.013	2477.31
448.234	2495.31
448.455	2575.31
448.675	2570.31
448.896	2685.31
449.117	2709.31
449.338	2941.31
449.559	3056.31
449.779	2749.31
450	2561.31
450.221	2543.31
450.442	2493.31
450.662	2481.31
450.883	2503.31
451.104	2429.31
451.324	2514.31
451.545	2494.31
451.766	2495.31
451.986	2589.31
452.207	2763.31
452.428	3601.31
452.648	5671.31
452.869	4746.31
453.089	3211.31
453.31	2995.31
453.53	2963.31
453.751	3055.31
453.971	3148.31
454.192	3044.31
454.412	2639.31
454.633	2516.31
454.853	2439.31
455.073	2374.31
455.294	2424.31
455.514	2355.31
455.734	2345.31
455.955	2302.31
456.175	2326.31
456.395	2377.31
456.616	2379.31
456.836	2413.31
457.056	2407.31
457.276	2390.31
457.497	2512.31
457.717	2570.31
457.937	2503.31
458.157	2506.31
458.377	2497.31
458.598	2497.31
458.818	2506.31
459.038	2541.31
459.258	2495.31
459.478	2541.31
459.698	2592.31
459.918	2589.31
460.138	2631.31
460.358	2679.31
460.578	2722.31
460.798	2769.31
461.018	2794.31
461.238	2750.31
461.458	2822.31
461.678	2837.31
461.898	2897.31
462.118	2854.31
462.338	2926.31
462.558	3005.31
462.777	3049.31
462.997	3129.31
463.217	3245.31
463.437	3411.31
463.657	3433.31
463.876	3454.31
464.096	3276.31
464.316	3128.31
464.536	3063.31
464.755	2941.31
464.975	2918.31
465.195	2827.31
465.414	2811.31
465.634	2636.31
465.854	2625.31
466.073	2641.31
466.293	2618.31
466.512	2644.31
466.732	2677.31
466.951	2803.31
467.171	2972.31
467.391	2902.31
467.61	2658.31
467.829	2582.31
468.049	2531.31
468.268	2523.31
468.488	2498.31
468.707	2531.31
468.927	2497.31
469.146	2531.31
469.365	2581.31
469.585	2547.31
469.804	2644.31
470.023	2668.31
470.243	2737.31
470.462	2803.31
470.681	2996.31
470.901	3265.31
471.12	3731.31
471.339	3725.31
471.558	3143.31
471.777	2893.31
471.997	2686.31
472.216	2683.31
472.435	2594.31
472.654	2547.31
472.873	2510.31
473.092	2561.31
473.311	2534.31
473.53	2608.31
473.749	2637.31
473.968	2718.31
474.187	2587.31
474.406	2527.31
474.625	2505.31
474.844	2553.31
475.063	2519.31
475.282	2558.31
475.501	2523.31
475.72	2529.31
475.939	2575.31
476.158	2645.31
476.377	2697.31
476.596	2651.31
476.814	2643.31
477.033	2698.31
477.252	2699.31
477.471	2729.31
477.69	2772.31
477.908	2840.31
478.127	2869.31
478.346	2833.31
478.564	2923.31
478.783	2959.31
479.002	3006.31
479.22	3017.31
479.439	2959.31
479.658	3066.31
479.876	3041.31
480.095	3081.31
480.313	3123.31
480.532	3101.31
480.751	3097.31
480.969	3067.31
481.188	3061.31
481.406	3063.31
481.624	3045.31
481.843	3059.31
482.061	3129.31
482.28	3067.31
482.498	3086.31
482.717	3065.31
482.935	3122.31
483.153	3130.31
483.372	3240.31
483.59	3185.31
483.808	3289.31
484.027	3395.31
484.245	3565.31
484.463	3948.31
484.681	4389.31
484.9	4089.31
485.118	3847.31
485.336	3715.31
485.554	3779.31
485.772	4051.31
485.99	4510.31
486.209	4776.31
486.427	4062.31
486.645	3655.31
486.863	3486.31
487.081	3392.31
487.299	3353.31
487.517	3294.31
487.735	3279.31
