Data from SnStandardFlinnAPT0064_LampEnergy10_LIBS07252019.E.O._I.C._HRD10591_15-20-05-493.txt Node
Date: Thu Jul 25 15:20:05 EDT 2019
User: cochatt
Spectrometer: HR+D1059
Trigger mode: 1
Integration Time (sec): 1.000000E-1
Scans to average: 1
Electric dark correction enabled: true
Nonlinearity correction enabled: false
Boxcar width: 0
XAxis mode: Wavelengths
Number of Pixels in Spectrum: 2048
>>>>>Begin Spectral Data<<<<<
223.165	-12.5
223.4	-12.5
223.635	-12.5
223.869	-12.5
224.104	-15.5
224.338	-13.5
224.573	-25.5
224.808	-6.5
225.042	-7.5
225.277	-15.5
225.511	-9.5
225.746	-6.5
225.98	9.5
226.215	9.5
226.449	19.5
226.683	25.5
226.918	37.5
227.152	23.5
227.387	36.5
227.621	50.5
227.856	58.5
228.09	49.5
228.324	47.5
228.559	61.5
228.793	122.5
229.027	315.5
229.262	335.5
229.496	317.5
229.73	297.5
229.964	305.5
230.199	302.5
230.433	294.5
230.667	321.5
230.901	335.5
231.136	341.5
231.37	352.5
231.604	380.5
231.838	428.5
232.072	524.5
232.306	560.5
232.541	508.5
232.775	420.5
233.009	400.5
233.243	416.5
233.477	463.5
233.711	541.5
233.945	591.5
234.179	523.5
234.413	465.5
234.647	455.5
234.881	453.5
235.115	550.5
235.349	611.5
235.583	807.5
235.817	1014.5
236.051	975.5
236.285	641.5
236.519	533.5
236.753	499.5
236.987	511.5
237.221	537.5
237.455	513.5
237.689	475.5
237.922	461.5
238.156	496.5
238.39	487.5
238.624	499.5
238.858	489.5
239.091	490.5
239.325	491.5
239.559	483.5
239.793	509.5
240.027	526.5
240.26	548.5
240.494	535.5
240.728	570.5
240.961	599.5
241.195	645.5
241.429	684.5
241.662	692.5
241.896	783.5
242.13	944.5
242.363	1261.5
242.597	1597.5
242.83	1579.5
243.064	1553.5
243.298	1806.5
243.531	1503.5
243.765	991.5
243.998	795.5
244.232	711.5
244.465	673.5
244.699	650.5
244.932	649.5
245.166	671.5
245.399	664.5
245.633	682.5
245.866	686.5
246.099	676.5
246.333	637.5
246.566	628.5
246.8	619.5
247.033	651.5
247.266	629.5
247.5	622.5
247.733	667.5
247.966	667.5
248.2	765.5
248.433	839.5
248.666	971.5
248.899	951.5
249.133	872.5
249.366	872.5
249.599	969.5
249.832	1091.5
250.066	1087.5
250.299	870.5
250.532	772.5
250.765	737.5
250.998	733.5
251.231	727.5
251.465	717.5
251.698	745.5
251.931	742.5
252.164	748.5
252.397	747.5
252.63	789.5
252.863	808.5
253.096	771.5
253.329	773.5
253.562	781.5
253.795	790.5
254.028	785.5
254.261	785.5
254.494	884.5
254.727	1045.5
254.96	1260.5
255.193	1249.5
255.426	972.5
255.659	891.5
255.892	870.5
256.124	864.5
256.357	866.5
256.59	901.5
256.823	943.5
257.056	1107.5
257.289	1344.5
257.521	1498.5
257.754	1179.5
257.987	938.5
258.22	908.5
258.452	892.5
258.685	923.5
258.918	956.5
259.151	995.5
259.383	1100.5
259.616	1216.5
259.849	1289.5
260.081	1092.5
260.314	983.5
260.547	939.5
260.779	911.5
261.012	943.5
261.244	949.5
261.477	956.5
261.71	975.5
261.942	963.5
262.175	968.5
262.407	1004.5
262.64	1059.5
262.872	1095.5
263.105	1117.5
263.337	1190.5
263.57	1223.5
263.802	1258.5
264.035	1264.5
264.267	1328.5
264.499	1358.5
264.732	1351.5
264.964	1374.5
265.197	1397.5
265.429	1385.5
265.661	1457.5
265.894	1487.5
266.126	1735.5
266.358	1935.5
266.591	1861.5
266.823	1581.5
267.055	1418.5
267.287	1357.5
267.52	1279.5
267.752	1272.5
267.984	1275.5
268.216	1210.5
268.448	1223.5
268.681	1223.5
268.913	1236.5
269.145	1220.5
269.377	1207.5
269.609	1231.5
269.841	1283.5
270.073	1375.5
270.306	1579.5
270.538	2131.5
270.77	3264.5
271.002	3969.5
271.234	2809.5
271.466	1891.5
271.698	1501.5
271.93	1372.5
272.162	1319.5
272.394	1264.5
272.626	1219.5
272.858	1206.5
273.09	1186.5
273.322	1196.5
273.553	1189.5
273.785	1205.5
274.017	1173.5
274.249	1162.5
274.481	1200.5
274.713	1164.5
274.945	1188.5
275.176	1195.5
275.408	1170.5
275.64	1227.5
275.872	1235.5
276.104	1228.5
276.335	1251.5
276.567	1261.5
276.799	1249.5
277.031	1287.5
277.262	1323.5
277.494	1423.5
277.726	1558.5
277.957	1831.5
278.189	2102.5
278.421	1968.5
278.652	1764.5
278.884	1661.5
279.115	1476.5
279.347	1427.5
279.579	1361.5
279.81	1365.5
280.042	1387.5
280.273	1401.5
280.505	1441.5
280.736	1473.5
280.968	1569.5
281.199	1769.5
281.431	2025.5
281.662	2088.5
281.894	1815.5
282.125	1616.5
282.356	1648.5
282.588	1647.5
282.819	1674.5
283.051	1819.5
283.282	2030.5
283.513	2488.5
283.745	3593.5
283.976	5587.5
284.207	7988.5
284.439	7331.5
284.67	4681.5
284.901	3816.5
285.132	3791.5
285.364	3615.5
285.595	2709.5
285.826	2401.5
286.057	2885.5
286.288	3889.5
286.52	5187.5
286.751	4910.5
286.982	3117.5
287.213	2291.5
287.444	2033.5
287.675	1873.5
287.906	1742.5
288.138	1696.5
288.369	1689.5
288.6	1665.5
288.831	1645.5
289.062	1655.5
289.293	1653.5
289.524	1669.5
289.755	1656.5
289.986	1641.5
290.217	1669.5
290.448	1709.5
290.679	1696.5
290.91	1757.5
291.141	1831.5
291.371	2039.5
291.602	2115.5
291.833	1918.5
292.064	1723.5
292.295	1661.5
292.526	1642.5
292.757	1569.5
292.987	1585.5
293.218	1592.5
293.449	1583.5
293.68	1594.5
293.91	1579.5
294.141	1551.5
294.372	1533.5
294.603	1553.5
294.833	1559.5
295.064	1546.5
295.295	1531.5
295.525	1522.5
295.756	1530.5
295.987	1548.5
296.217	1524.5
296.448	1537.5
296.679	1519.5
296.909	1543.5
297.14	1543.5
297.37	1604.5
297.601	1600.5
297.831	1620.5
298.062	1606.5
298.292	1625.5
298.523	1671.5
298.753	1685.5
298.984	1659.5
299.214	1700.5
299.445	1693.5
299.675	1788.5
299.905	1823.5
300.136	1861.5
300.366	2179.5
300.597	2719.5
300.827	3857.5
301.057	5185.5
301.288	5297.5
301.518	3437.5
301.748	2607.5
301.979	2352.5
302.209	2268.5
302.439	2304.5
302.669	2437.5
302.9	2971.5
303.13	4088.5
303.36	6161.5
303.59	8214.5
303.82	7173.5
304.051	4286.5
304.281	3110.5
304.511	2560.5
304.741	2323.5
304.971	2191.5
305.201	2041.5
305.431	1958.5
305.661	1940.5
305.891	1905.5
306.121	1882.5
306.352	1837.5
306.582	1841.5
306.812	1843.5
307.042	1855.5
307.272	1829.5
307.502	1807.5
307.731	1802.5
307.961	1771.5
308.191	1784.5
308.421	1785.5
308.651	1776.5
308.881	1737.5
309.111	1792.5
309.341	1791.5
309.571	1824.5
309.8	1846.5
310.03	1840.5
310.26	1817.5
310.49	1799.5
310.72	1864.5
310.949	1830.5
311.179	1878.5
311.409	1847.5
311.639	1901.5
311.868	1879.5
312.098	1879.5
312.328	1909.5
312.557	1913.5
312.787	1934.5
313.017	1937.5
313.246	1974.5
313.476	1977.5
313.706	2077.5
313.935	2134.5
314.165	2310.5
314.394	2464.5
314.624	2346.5
314.853	2153.5
315.083	2078.5
315.312	2115.5
315.542	2131.5
315.771	2207.5
316.001	2216.5
316.23	2327.5
316.46	2428.5
316.689	2628.5
316.919	3199.5
317.148	4631.5
317.377	7099.5
317.607	10367.5
317.836	10878.5
318.065	6682.5
318.295	4317.5
318.524	3433.5
318.753	2955.5
318.983	2693.5
319.212	2577.5
319.441	2468.5
319.67	2436.5
319.9	2364.5
320.129	2368.5
320.358	2366.5
320.587	2316.5
320.816	2312.5
321.046	2337.5
321.275	2309.5
321.504	2415.5
321.733	2435.5
321.962	2467.5
322.191	2479.5
322.42	2516.5
322.649	2483.5
322.878	2475.5
323.108	2441.5
323.337	2484.5
323.566	2515.5
323.795	2547.5
324.024	2533.5
324.253	2651.5
324.482	2871.5
324.71	2975.5
324.939	3157.5
325.168	3255.5
325.397	3391.5
325.626	3969.5
325.855	5545.5
326.084	8597.5
326.313	12606.5
326.542	13365.5
326.77	9199.5
326.999	5971.5
327.228	5037.5
327.457	4795.5
327.686	4851.5
327.914	5116.5
328.143	5965.5
328.372	7111.5
328.6	7705.5
328.829	6987.5
329.058	5860.5
329.287	5086.5
329.515	4588.5
329.744	4208.5
329.972	3960.5
330.201	3838.5
330.43	3741.5
330.658	3598.5
330.887	3477.5
331.115	3457.5
331.344	3456.5
331.572	3399.5
331.801	3414.5
332.03	3434.5
332.258	3526.5
332.486	3701.5
332.715	4252.5
332.943	5275.5
333.172	6562.5
333.4	6541.5
333.629	4952.5
333.857	4482.5
334.085	4381.5
334.314	4622.5
334.542	5056.5
334.771	5874.5
334.999	7411.5
335.227	9241.5
335.455	10378.5
335.684	9388.5
335.912	7671.5
336.14	6447.5
336.369	5695.5
336.597	5178.5
336.825	4698.5
337.053	4439.5
337.281	4221.5
337.51	3985.5
337.738	3825.5
337.966	3671.5
338.194	3538.5
338.422	3372.5
338.65	3319.5
338.878	3253.5
339.106	3207.5
339.334	3163.5
339.562	3060.5
339.79	2995.5
340.018	3025.5
340.246	2981.5
340.474	2959.5
340.702	2951.5
340.93	2971.5
341.158	2980.5
341.386	2927.5
341.614	2937.5
341.842	2839.5
342.07	2749.5
342.298	2725.5
342.526	2679.5
342.754	2675.5
342.981	2613.5
343.209	2636.5
343.437	2692.5
343.665	2764.5
343.893	2729.5
344.12	2783.5
344.348	2719.5
344.576	2683.5
344.804	2629.5
345.031	2595.5
345.259	2587.5
345.487	2549.5
345.714	2543.5
345.942	2485.5
346.17	2517.5
346.397	2518.5
346.625	2510.5
346.853	2453.5
347.08	2442.5
347.308	2451.5
347.535	2463.5
347.763	2418.5
347.99	2435.5
348.218	2409.5
348.445	2428.5
348.673	2432.5
348.9	2455.5
349.128	2381.5
349.355	2390.5
349.583	2381.5
349.81	2349.5
350.037	2336.5
350.265	2348.5
350.492	2398.5
350.72	2388.5
350.947	2375.5
351.174	2297.5
351.402	2357.5
351.629	2327.5
351.856	2320.5
352.083	2296.5
352.311	2320.5
352.538	2331.5
352.765	2331.5
352.992	2332.5
353.22	2320.5
353.447	2293.5
353.674	2331.5
353.901	2364.5
354.128	2334.5
354.355	2310.5
354.583	2349.5
354.81	2349.5
355.037	2377.5
355.264	2377.5
355.491	2373.5
355.718	2426.5
355.945	2396.5
356.172	2404.5
356.399	2382.5
356.626	2383.5
356.853	2453.5
357.08	2437.5
357.307	2454.5
357.534	2532.5
357.761	2520.5
357.988	2572.5
358.215	2520.5
358.441	2568.5
358.668	2460.5
358.895	2448.5
359.122	2502.5
359.349	2489.5
359.576	2499.5
359.802	2471.5
360.029	2414.5
360.256	2476.5
360.483	2507.5
360.709	2502.5
360.936	2499.5
361.163	2506.5
361.39	2483.5
361.616	2503.5
361.843	2523.5
362.07	2497.5
362.296	2496.5
362.523	2516.5
362.749	2516.5
362.976	2455.5
363.203	2489.5
363.429	2433.5
363.656	2465.5
363.882	2440.5
364.109	2493.5
364.335	2468.5
364.562	2508.5
364.788	2503.5
365.015	2537.5
365.241	2592.5
365.468	2709.5
365.694	2928.5
365.92	2760.5
366.147	2550.5
366.373	2547.5
366.599	2540.5
366.826	2536.5
367.052	2519.5
367.278	2563.5
367.505	2602.5
367.731	2596.5
367.957	2559.5
368.184	2589.5
368.41	2571.5
368.636	2622.5
368.862	2614.5
369.089	2585.5
369.315	2563.5
369.541	2602.5
369.767	2533.5
369.993	2588.5
370.219	2548.5
370.445	2559.5
370.672	2589.5
370.898	2613.5
371.124	2664.5
371.35	2616.5
371.576	2697.5
371.802	2633.5
372.028	2637.5
372.254	2690.5
372.48	2655.5
372.706	2718.5
372.932	2707.5
373.158	2680.5
373.384	2704.5
373.61	2702.5
373.835	2690.5
374.061	2730.5
374.287	2776.5
374.513	2757.5
374.739	2780.5
374.965	2841.5
375.191	2830.5
375.416	2853.5
375.642	2776.5
375.868	2700.5
376.094	2724.5
376.319	2697.5
376.545	2667.5
376.771	2675.5
376.997	2623.5
377.222	2668.5
377.448	2680.5
377.674	2648.5
377.899	2647.5
378.125	2608.5
378.35	2660.5
378.576	2694.5
378.802	2686.5
379.027	2748.5
379.253	2842.5
379.478	2990.5
379.704	3501.5
379.929	5023.5
380.155	7882.5
380.38	8585.5
380.606	5291.5
380.831	3697.5
381.057	3170.5
381.282	2939.5
381.507	2780.5
381.733	2735.5
381.958	2677.5
382.184	2671.5
382.409	2650.5
382.634	2629.5
382.86	2628.5
383.085	2548.5
383.31	2619.5
383.535	2639.5
383.761	2638.5
383.986	2636.5
384.211	2684.5
384.436	2698.5
384.662	2651.5
384.887	2724.5
385.112	2680.5
385.337	2727.5
385.562	2701.5
385.787	2713.5
386.013	2749.5
386.238	2695.5
386.463	2724.5
386.688	2723.5
386.913	2732.5
387.138	2665.5
387.363	2679.5
387.588	2690.5
387.813	2649.5
388.038	2701.5
388.263	2731.5
388.488	2718.5
388.713	2675.5
388.938	2684.5
389.163	2657.5
389.387	2683.5
389.612	2673.5
389.837	2695.5
390.062	2751.5
390.287	2691.5
390.512	2686.5
390.736	2757.5
390.961	2865.5
391.186	2772.5
391.411	2807.5
391.636	2803.5
391.86	2868.5
392.085	2833.5
392.31	2790.5
392.534	2793.5
392.759	2756.5
392.984	2743.5
393.208	2705.5
393.433	2739.5
393.658	2788.5
393.882	2674.5
394.107	2724.5
394.331	2750.5
394.556	2720.5
394.78	2740.5
395.005	2773.5
395.229	2807.5
395.454	2847.5
395.678	2764.5
395.903	2811.5
396.127	2748.5
396.352	2781.5
396.576	2750.5
396.801	2795.5
397.025	2845.5
397.249	2781.5
397.474	2811.5
397.698	2825.5
397.922	2841.5
398.147	2885.5
398.371	2851.5
398.595	2885.5
398.82	2992.5
399.044	3125.5
399.268	3231.5
399.492	3417.5
399.717	3529.5
399.941	3472.5
400.165	3379.5
400.389	3296.5
400.613	3153.5
400.837	3043.5
401.062	3031.5
401.286	2956.5
401.51	2952.5
401.734	2929.5
401.958	2985.5
402.182	2951.5
402.406	2927.5
402.63	2958.5
402.854	2974.5
403.078	3030.5
403.302	3041.5
403.526	3026.5
403.75	3042.5
403.974	3080.5
404.198	3011.5
404.422	3083.5
404.645	3073.5
404.869	3031.5
405.093	3103.5
405.317	3046.5
405.541	3167.5
405.765	3183.5
405.988	3202.5
406.212	3158.5
406.436	3121.5
406.66	3227.5
406.883	3199.5
407.107	3251.5
407.331	3275.5
407.555	3420.5
407.778	3322.5
408.002	3315.5
408.226	3301.5
408.449	3249.5
408.673	3221.5
408.896	3118.5
409.12	3123.5
409.344	3166.5
409.567	3071.5
409.791	3151.5
410.014	3053.5
410.238	3093.5
410.461	3117.5
410.685	3051.5
410.908	3086.5
411.132	3039.5
411.355	2962.5
411.578	3013.5
411.802	2918.5
412.025	2977.5
412.249	2972.5
412.472	2973.5
412.695	2880.5
412.919	2879.5
413.142	2923.5
413.365	2894.5
413.589	2928.5
413.812	2911.5
414.035	2947.5
414.258	2923.5
414.482	2902.5
414.705	2935.5
414.928	2933.5
415.151	2888.5
415.374	2850.5
415.597	2855.5
415.821	2814.5
416.044	2791.5
416.267	2777.5
416.49	2776.5
416.713	2828.5
416.936	2807.5
417.159	2822.5
417.382	2731.5
417.605	2711.5
417.828	2747.5
418.051	2860.5
418.274	2824.5
418.497	2812.5
418.72	2944.5
418.943	2865.5
419.166	2959.5
419.389	3081.5
419.611	3070.5
419.834	2961.5
420.057	2933.5
420.28	2858.5
420.503	2796.5
420.726	2794.5
420.948	2756.5
421.171	2770.5
421.394	2803.5
421.617	2776.5
421.839	2803.5
422.062	2867.5
422.285	2796.5
422.507	2850.5
422.73	2855.5
422.953	2838.5
423.175	2918.5
423.398	2875.5
423.621	2807.5
423.843	2788.5
424.066	2740.5
424.288	2787.5
424.511	2778.5
424.733	2780.5
424.956	2760.5
425.178	2717.5
425.401	2730.5
425.623	2772.5
425.846	2720.5
426.068	2700.5
426.291	2679.5
426.513	2684.5
426.735	2689.5
426.958	2681.5
427.18	2620.5
427.402	2685.5
427.625	2670.5
427.847	2593.5
428.069	2581.5
428.292	2639.5
428.514	2593.5
428.736	2573.5
428.958	2631.5
429.181	2562.5
429.403	2530.5
429.625	2542.5
429.847	2604.5
430.069	2686.5
430.292	2725.5
430.514	2740.5
430.736	2759.5
430.958	2647.5
431.18	2611.5
431.402	2576.5
431.624	2575.5
431.846	2514.5
432.068	2517.5
432.29	2567.5
432.512	2515.5
432.734	2558.5
432.956	2535.5
433.178	2590.5
433.4	2592.5
433.622	2569.5
433.844	2628.5
434.066	2527.5
434.287	2579.5
434.509	2625.5
434.731	2640.5
434.953	2672.5
435.175	2729.5
435.397	2706.5
435.618	2618.5
435.84	2620.5
436.062	2577.5
436.284	2552.5
436.505	2547.5
436.727	2528.5
436.949	2560.5
437.17	2582.5
437.392	2499.5
437.614	2491.5
437.835	2436.5
438.057	2475.5
438.278	2454.5
438.5	2475.5
438.721	2554.5
438.943	2612.5
439.165	2666.5
439.386	2698.5
439.608	2645.5
439.829	2705.5
440.05	2727.5
440.272	2768.5
440.493	2698.5
440.715	2670.5
440.936	2623.5
441.158	2733.5
441.379	2721.5
441.6	2807.5
441.822	2867.5
442.043	3027.5
442.264	3157.5
442.486	2881.5
442.707	2864.5
442.928	2731.5
443.149	2701.5
443.371	2763.5
443.592	2758.5
443.813	2759.5
444.034	2741.5
444.255	2775.5
444.476	2897.5
444.698	2886.5
444.919	2916.5
445.14	2949.5
445.361	2875.5
445.582	2804.5
445.803	2739.5
446.024	2733.5
446.245	2721.5
446.466	2784.5
446.687	2695.5
446.908	2645.5
447.129	2654.5
447.35	2577.5
447.571	2615.5
447.792	2494.5
448.013	2571.5
448.234	2526.5
448.455	2554.5
448.675	2613.5
448.896	2645.5
449.117	2716.5
449.338	2956.5
449.559	3032.5
449.779	2745.5
450	2574.5
450.221	2542.5
450.442	2497.5
450.662	2542.5
450.883	2480.5
451.104	2507.5
451.324	2475.5
451.545	2444.5
451.766	2516.5
451.986	2561.5
452.207	2777.5
452.428	3543.5
452.648	5472.5
452.869	4620.5
453.089	3160.5
453.31	2917.5
453.53	2864.5
453.751	2985.5
453.971	3113.5
454.192	3076.5
454.412	2693.5
454.633	2469.5
454.853	2463.5
455.073	2395.5
455.294	2407.5
455.514	2368.5
455.734	2348.5
455.955	2336.5
456.175	2392.5
456.395	2353.5
456.616	2371.5
456.836	2419.5
457.056	2423.5
457.276	2468.5
457.497	2571.5
457.717	2611.5
457.937	2514.5
458.157	2493.5
458.377	2508.5
458.598	2548.5
458.818	2580.5
459.038	2543.5
459.258	2517.5
459.478	2556.5
459.698	2629.5
459.918	2608.5
460.138	2649.5
460.358	2676.5
460.578	2775.5
460.798	2744.5
461.018	2773.5
461.238	2779.5
461.458	2864.5
461.678	2833.5
461.898	2890.5
462.118	2931.5
462.338	2943.5
462.558	3019.5
462.777	3049.5
462.997	3148.5
463.217	3285.5
463.437	3357.5
463.657	3441.5
463.876	3461.5
464.096	3255.5
464.316	3136.5
464.536	3065.5
464.755	2971.5
464.975	2957.5
465.195	2830.5
465.414	2773.5
465.634	2654.5
465.854	2647.5
466.073	2603.5
466.293	2634.5
466.512	2575.5
466.732	2635.5
466.951	2760.5
467.171	2923.5
467.391	2858.5
467.61	2634.5
467.829	2524.5
468.049	2579.5
468.268	2503.5
468.488	2514.5
468.707	2521.5
468.927	2499.5
469.146	2517.5
469.365	2538.5
469.585	2581.5
469.804	2664.5
470.023	2669.5
470.243	2705.5
470.462	2792.5
470.681	2948.5
470.901	3240.5
471.12	3726.5
471.339	3658.5
471.558	3092.5
471.777	2855.5
471.997	2709.5
472.216	2659.5
472.435	2573.5
472.654	2556.5
472.873	2494.5
473.092	2523.5
473.311	2571.5
473.53	2592.5
473.749	2654.5
473.968	2705.5
474.187	2592.5
474.406	2527.5
474.625	2561.5
474.844	2584.5
475.063	2561.5
475.282	2596.5
475.501	2615.5
475.72	2591.5
475.939	2601.5
476.158	2644.5
476.377	2737.5
476.596	2687.5
476.814	2703.5
477.033	2670.5
477.252	2703.5
477.471	2776.5
477.69	2837.5
477.908	2869.5
478.127	2917.5
478.346	2906.5
478.564	2941.5
478.783	2950.5
479.002	2996.5
479.22	3025.5
479.439	3028.5
479.658	3075.5
479.876	3039.5
480.095	3082.5
480.313	3129.5
480.532	3140.5
480.751	3113.5
480.969	3095.5
481.188	3087.5
481.406	3043.5
481.624	3096.5
481.843	3123.5
482.061	3116.5
482.28	3089.5
482.498	3105.5
482.717	3093.5
482.935	3127.5
483.153	3143.5
483.372	3191.5
483.59	3232.5
483.808	3328.5
484.027	3368.5
484.245	3501.5
484.463	3950.5
484.681	4409.5
484.9	4035.5
485.118	3756.5
485.336	3639.5
485.554	3697.5
485.772	3979.5
485.99	4418.5
486.209	4738.5
486.427	4009.5
486.645	3571.5
486.863	3449.5
487.081	3370.5
487.299	3323.5
487.517	3287.5
487.735	3248.5
487.953	3309.5
488.171	3273.5
488.389	3232.5
488.607	3175.5
488.825	3189.5
489.043	3151.5
489.261	3163.5
489.479	3162.5
489.696	3166.5
489.914	3137.5
490.132	3176.5
490.35	3230.5
490.568	3236.5
490.786	3289.5
491.003	3308.5
491.221	3382.5
491.439	3305.5
491.657	3292.5
491.874	3296.5
492.092	3313.5
492.31	3403.5
492.527	3337.5
492.745	3356.5
492.963	3339.5
493.18	3331.5
493.398	3310.5
493.615	3344.5
493.833	3338.5
494.05	3370.5
494.268	3385.5
494.485	3375.5
494.703	3342.5
494.92	3353.5
495.138	3328.5
495.355	3334.5
495.573	3404.5
495.79	3349.5
496.008	3437.5
496.225	3428.5
496.442	3541.5
496.66	3624.5
496.877	3787.5
497.094	3775.5
497.312	3630.5
497.529	3636.5
497.746	3662.5
497.963	3719.5
498.181	3811.5
498.398	3899.5
498.615	4015.5
498.832	4154.5
499.049	4315.5
499.267	4661.5
499.484	4967.5
499.701	4920.5
499.918	5030.5
500.135	5268.5
500.352	5441.5
500.569	5506.5
500.786	5460.5
501.003	5345.5
501.22	5164.5
501.437	4924.5
501.654	4608.5
501.871	4406.5
502.088	4219.5
502.305	4097.5
502.522	3925.5
502.739	3909.5
502.956	3730.5
503.172	3694.5
503.389	3599.5
503.606	3555.5
503.823	3531.5
