Data from SnStandardFlinnAPT0064_LampEnergy5.5_LIBS07252019.E.O._I.C._HRD10591_15-14-35-491.txt Node
Date: Thu Jul 25 15:14:35 EDT 2019
User: cochatt
Spectrometer: HR+D1059
Trigger mode: 1
Integration Time (sec): 1.000000E-1
Scans to average: 1
Electric dark correction enabled: true
Nonlinearity correction enabled: false
Boxcar width: 0
XAxis mode: Wavelengths
Number of Pixels in Spectrum: 2048
>>>>>Begin Spectral Data<<<<<
223.165	-20.38
223.4	-20.38
223.635	-20.38
223.869	-26.38
224.104	-24.38
224.338	-13.38
224.573	-11.38
224.808	-17.38
225.042	-6.38
225.277	-2.38
225.511	-1.38
225.746	7.62
225.98	8.62
226.215	19.62
226.449	15.62
226.683	10.62
226.918	26.62
227.152	34.62
227.387	39.62
227.621	38.62
227.856	49.62
228.09	44.62
228.324	44.62
228.559	51.62
228.793	74.62
229.027	137.62
229.262	147.62
229.496	140.62
229.73	151.62
229.964	164.62
230.199	155.62
230.433	164.62
230.667	159.62
230.901	164.62
231.136	162.62
231.37	148.62
231.604	173.62
231.838	220.62
232.072	208.62
232.306	226.62
232.541	208.62
232.775	195.62
233.009	194.62
233.243	195.62
233.477	195.62
233.711	210.62
233.945	216.62
234.179	220.62
234.413	219.62
234.647	206.62
234.881	199.62
235.115	235.62
235.349	250.62
235.583	302.62
235.817	354.62
236.051	370.62
236.285	268.62
236.519	244.62
236.753	227.62
236.987	236.62
237.221	243.62
237.455	216.62
237.689	221.62
237.922	218.62
238.156	232.62
238.39	225.62
238.624	239.62
238.858	227.62
239.091	226.62
239.325	218.62
239.559	217.62
239.793	217.62
240.027	235.62
240.26	234.62
240.494	234.62
240.728	259.62
240.961	259.62
241.195	270.62
241.429	257.62
241.662	293.62
241.896	322.62
242.13	358.62
242.363	435.62
242.597	543.62
242.83	521.62
243.064	547.62
243.298	616.62
243.531	549.62
243.765	379.62
243.998	313.62
244.232	285.62
244.465	282.62
244.699	298.62
244.932	282.62
245.166	312.62
245.399	304.62
245.633	296.62
245.866	292.62
246.099	285.62
246.333	296.62
246.566	290.62
246.8	265.62
247.033	283.62
247.266	279.62
247.5	270.62
247.733	312.62
247.966	311.62
248.2	316.62
248.433	340.62
248.666	392.62
248.899	372.62
249.133	344.62
249.366	361.62
249.599	349.62
249.832	386.62
250.066	417.62
250.299	334.62
250.532	324.62
250.765	331.62
250.998	333.62
251.231	328.62
251.465	321.62
251.698	322.62
251.931	327.62
252.164	327.62
252.397	336.62
252.63	334.62
252.863	336.62
253.096	329.62
253.329	333.62
253.562	326.62
253.795	328.62
254.028	347.62
254.261	323.62
254.494	367.62
254.727	401.62
254.96	442.62
255.193	455.62
255.426	370.62
255.659	351.62
255.892	373.62
256.124	357.62
256.357	356.62
256.59	400.62
256.823	414.62
257.056	421.62
257.289	498.62
257.521	522.62
257.754	465.62
257.987	387.62
258.22	397.62
258.452	395.62
258.685	379.62
258.918	406.62
259.151	401.62
259.383	444.62
259.616	474.62
259.849	451.62
260.081	431.62
260.314	395.62
260.547	417.62
260.779	409.62
261.012	400.62
261.244	395.62
261.477	420.62
261.71	418.62
261.942	412.62
262.175	431.62
262.407	451.62
262.64	456.62
262.872	449.62
263.105	486.62
263.337	516.62
263.57	531.62
263.802	565.62
264.035	576.62
264.267	564.62
264.499	571.62
264.732	603.62
264.964	624.62
265.197	608.62
265.429	587.62
265.661	621.62
265.894	651.62
266.126	720.62
266.358	744.62
266.591	720.62
266.823	638.62
267.055	633.62
267.287	595.62
267.52	569.62
267.752	543.62
267.984	531.62
268.216	553.62
268.448	524.62
268.681	525.62
268.913	518.62
269.145	529.62
269.377	525.62
269.609	505.62
269.841	524.62
270.073	563.62
270.306	623.62
270.538	763.62
270.77	1078.62
271.002	1255.62
271.234	928.62
271.466	700.62
271.698	610.62
271.93	557.62
272.162	556.62
272.394	538.62
272.626	519.62
272.858	496.62
273.09	522.62
273.322	530.62
273.553	489.62
273.785	501.62
274.017	511.62
274.249	508.62
274.481	515.62
274.713	485.62
274.945	489.62
275.176	519.62
275.408	514.62
275.64	502.62
275.872	526.62
276.104	514.62
276.335	504.62
276.567	523.62
276.799	507.62
277.031	520.62
277.262	551.62
277.494	539.62
277.726	584.62
277.957	660.62
278.189	725.62
278.421	689.62
278.652	630.62
278.884	631.62
279.115	594.62
279.347	567.62
279.579	546.62
279.81	568.62
280.042	555.62
280.273	584.62
280.505	585.62
280.736	582.62
280.968	595.62
281.199	661.62
281.431	704.62
281.662	724.62
281.894	671.62
282.125	621.62
282.356	651.62
282.588	635.62
282.819	668.62
283.051	661.62
283.282	742.62
283.513	884.62
283.745	1230.62
283.976	1867.62
284.207	2562.62
284.439	2326.62
284.67	1491.62
284.901	1210.62
285.132	1190.62
285.364	1111.62
285.595	936.62
285.826	867.62
286.057	998.62
286.288	1301.62
286.52	1675.62
286.751	1593.62
286.982	1034.62
287.213	817.62
287.444	727.62
287.675	732.62
287.906	721.62
288.138	688.62
288.369	681.62
288.6	684.62
288.831	671.62
289.062	663.62
289.293	667.62
289.524	665.62
289.755	674.62
289.986	692.62
290.217	693.62
290.448	691.62
290.679	682.62
290.91	693.62
291.141	714.62
291.371	733.62
291.602	744.62
291.833	696.62
292.064	685.62
292.295	651.62
292.526	637.62
292.757	655.62
292.987	619.62
293.218	615.62
293.449	643.62
293.68	617.62
293.91	659.62
294.141	643.62
294.372	645.62
294.603	635.62
294.833	630.62
295.064	633.62
295.295	643.62
295.525	641.62
295.756	623.62
295.987	619.62
296.217	643.62
296.448	635.62
296.679	628.62
296.909	635.62
297.14	644.62
297.37	623.62
297.601	651.62
297.831	672.62
298.062	646.62
298.292	656.62
298.523	654.62
298.753	698.62
298.984	674.62
299.214	687.62
299.445	697.62
299.675	683.62
299.905	726.62
300.136	726.62
300.366	808.62
300.597	969.62
300.827	1247.62
301.057	1632.62
301.288	1665.62
301.518	1136.62
301.748	915.62
301.979	869.62
302.209	849.62
302.439	837.62
302.669	870.62
302.9	1008.62
303.13	1336.62
303.36	1904.62
303.59	2451.62
303.82	2185.62
304.051	1402.62
304.281	1054.62
304.511	931.62
304.741	864.62
304.971	843.62
305.201	798.62
305.431	760.62
305.661	760.62
305.891	771.62
306.121	729.62
306.352	757.62
306.582	756.62
306.812	732.62
307.042	737.62
307.272	712.62
307.502	749.62
307.731	738.62
307.961	745.62
308.191	743.62
308.421	739.62
308.651	755.62
308.881	744.62
309.111	737.62
309.341	728.62
309.571	733.62
309.8	751.62
310.03	748.62
310.26	753.62
310.49	752.62
310.72	756.62
310.949	741.62
311.179	771.62
311.409	759.62
311.639	781.62
311.868	769.62
312.098	777.62
312.328	782.62
312.557	789.62
312.787	761.62
313.017	791.62
313.246	792.62
313.476	774.62
313.706	811.62
313.935	844.62
314.165	909.62
314.394	936.62
314.624	861.62
314.853	856.62
315.083	832.62
315.312	822.62
315.542	843.62
315.771	842.62
316.001	845.62
316.23	882.62
316.46	919.62
316.689	974.62
316.919	1154.62
317.148	1535.62
317.377	2258.62
317.607	3321.62
317.836	3345.62
318.065	2095.62
318.295	1478.62
318.524	1223.62
318.753	1085.62
318.983	1035.62
319.212	979.62
319.441	943.62
319.67	970.62
319.9	941.62
320.129	928.62
320.358	917.62
320.587	892.62
320.816	919.62
321.046	930.62
321.275	913.62
321.504	920.62
321.733	910.62
321.962	940.62
322.191	954.62
322.42	951.62
322.649	950.62
322.878	1000.62
323.108	959.62
323.337	980.62
323.566	987.62
323.795	1016.62
324.024	1025.62
324.253	1064.62
324.482	1035.62
324.71	1117.62
324.939	1171.62
325.168	1194.62
325.397	1238.62
325.626	1405.62
325.855	1889.62
326.084	2798.62
326.313	4029.62
326.542	4260.62
326.77	2855.62
326.999	2039.62
327.228	1741.62
327.457	1657.62
327.686	1675.62
327.914	1798.62
328.143	2014.62
328.372	2300.62
328.6	2462.62
328.829	2385.62
329.058	2045.62
329.287	1853.62
329.515	1735.62
329.744	1609.62
329.972	1510.62
330.201	1425.62
330.43	1419.62
330.658	1386.62
330.887	1391.62
331.115	1333.62
331.344	1324.62
331.572	1333.62
331.801	1338.62
332.03	1356.62
332.258	1321.62
332.486	1418.62
332.715	1517.62
332.943	1803.62
333.172	2116.62
333.4	2123.62
333.629	1795.62
333.857	1612.62
334.085	1660.62
334.314	1737.62
334.542	1867.62
334.771	2125.62
334.999	2503.62
335.227	3009.62
335.455	3330.62
335.684	3135.62
335.912	2684.62
336.14	2381.62
336.369	2138.62
336.597	1966.62
336.825	1808.62
337.053	1717.62
337.281	1624.62
337.51	1539.62
337.738	1488.62
337.966	1425.62
338.194	1393.62
338.422	1343.62
338.65	1342.62
338.878	1316.62
339.106	1258.62
339.334	1249.62
339.562	1228.62
339.79	1203.62
340.018	1201.62
340.246	1201.62
340.474	1212.62
340.702	1179.62
340.93	1192.62
341.158	1197.62
341.386	1187.62
341.614	1165.62
341.842	1149.62
342.07	1130.62
342.298	1112.62
342.526	1087.62
342.754	1058.62
342.981	1081.62
343.209	1081.62
343.437	1085.62
343.665	1101.62
343.893	1154.62
344.12	1128.62
344.348	1109.62
344.576	1064.62
344.804	1081.62
345.031	1040.62
345.259	1063.62
345.487	1058.62
345.714	1043.62
345.942	973.62
346.17	1038.62
346.397	1005.62
346.625	1008.62
346.853	1004.62
347.08	994.62
347.308	1017.62
347.535	1002.62
347.763	1012.62
347.99	1020.62
348.218	988.62
348.445	962.62
348.673	991.62
348.9	988.62
349.128	956.62
349.355	993.62
349.583	981.62
349.81	947.62
350.037	959.62
350.265	957.62
350.492	969.62
350.72	952.62
350.947	955.62
351.174	973.62
351.402	957.62
351.629	964.62
351.856	959.62
352.083	972.62
352.311	940.62
352.538	992.62
352.765	999.62
352.992	965.62
353.22	963.62
353.447	950.62
353.674	931.62
353.901	967.62
354.128	941.62
354.355	950.62
354.583	975.62
354.81	970.62
355.037	973.62
355.264	984.62
355.491	960.62
355.718	989.62
355.945	987.62
356.172	976.62
356.399	1016.62
356.626	1007.62
356.853	988.62
357.08	1005.62
357.307	976.62
357.534	989.62
357.761	1030.62
357.988	1027.62
358.215	1022.62
358.441	1020.62
358.668	985.62
358.895	1010.62
359.122	1001.62
359.349	1022.62
359.576	1031.62
359.802	1049.62
360.029	1035.62
360.256	1025.62
360.483	1032.62
360.709	1046.62
360.936	1044.62
361.163	1035.62
361.39	1033.62
361.616	1046.62
361.843	1003.62
362.07	1044.62
362.296	1044.62
362.523	1037.62
362.749	1024.62
362.976	1000.62
363.203	1003.62
363.429	994.62
363.656	1015.62
363.882	1011.62
364.109	1024.62
364.335	1039.62
364.562	1069.62
364.788	1045.62
365.015	1027.62
365.241	1058.62
365.468	1073.62
365.694	1121.62
365.92	1065.62
366.147	1031.62
366.373	1031.62
366.599	1058.62
366.826	1051.62
367.052	1041.62
367.278	1053.62
367.505	1053.62
367.731	1075.62
367.957	1041.62
368.184	1053.62
368.41	1067.62
368.636	1092.62
368.862	1062.62
369.089	1047.62
369.315	1031.62
369.541	1041.62
369.767	1062.62
369.993	1092.62
370.219	1050.62
370.445	1050.62
370.672	1101.62
370.898	1096.62
371.124	1064.62
371.35	1112.62
371.576	1091.62
371.802	1074.62
372.028	1098.62
372.254	1098.62
372.48	1121.62
372.706	1111.62
372.932	1124.62
373.158	1116.62
373.384	1107.62
373.61	1145.62
373.835	1141.62
374.061	1121.62
374.287	1105.62
374.513	1119.62
374.739	1157.62
374.965	1167.62
375.191	1171.62
375.416	1191.62
375.642	1157.62
375.868	1128.62
376.094	1127.62
376.319	1129.62
376.545	1112.62
376.771	1142.62
376.997	1102.62
377.222	1108.62
377.448	1072.62
377.674	1127.62
377.899	1103.62
378.125	1095.62
378.35	1087.62
378.576	1095.62
378.802	1122.62
379.027	1110.62
379.253	1127.62
379.478	1192.62
379.704	1340.62
379.929	1744.62
380.155	2503.62
380.38	2561.62
380.606	1762.62
380.831	1360.62
381.057	1231.62
381.282	1176.62
381.507	1111.62
381.733	1108.62
381.958	1112.62
382.184	1090.62
382.409	1062.62
382.634	1096.62
382.86	1112.62
383.085	1091.62
383.31	1081.62
383.535	1140.62
383.761	1099.62
383.986	1087.62
384.211	1132.62
384.436	1132.62
384.662	1128.62
384.887	1140.62
385.112	1130.62
385.337	1111.62
385.562	1129.62
385.787	1125.62
386.013	1167.62
386.238	1154.62
386.463	1133.62
386.688	1137.62
386.913	1123.62
387.138	1157.62
387.363	1130.62
387.588	1105.62
387.813	1141.62
388.038	1109.62
388.263	1089.62
388.488	1145.62
388.713	1115.62
388.938	1144.62
389.163	1130.62
389.387	1173.62
389.612	1127.62
389.837	1132.62
390.062	1106.62
390.287	1134.62
390.512	1149.62
390.736	1144.62
390.961	1176.62
391.186	1149.62
391.411	1174.62
391.636	1184.62
391.86	1177.62
392.085	1163.62
392.31	1177.62
392.534	1169.62
392.759	1170.62
392.984	1147.62
393.208	1155.62
393.433	1135.62
393.658	1123.62
393.882	1130.62
394.107	1152.62
394.331	1144.62
394.556	1132.62
394.78	1148.62
395.005	1147.62
395.229	1155.62
395.454	1200.62
395.678	1205.62
395.903	1186.62
396.127	1173.62
396.352	1154.62
396.576	1147.62
396.801	1159.62
397.025	1187.62
397.249	1219.62
397.474	1198.62
397.698	1190.62
397.922	1196.62
398.147	1193.62
398.371	1188.62
398.595	1281.62
398.82	1294.62
399.044	1334.62
399.268	1381.62
399.492	1452.62
399.717	1483.62
399.941	1499.62
400.165	1446.62
400.389	1400.62
400.613	1306.62
400.837	1288.62
401.062	1240.62
401.286	1249.62
401.51	1266.62
401.734	1221.62
401.958	1271.62
402.182	1250.62
402.406	1267.62
402.63	1267.62
402.854	1268.62
403.078	1261.62
403.302	1299.62
403.526	1285.62
403.75	1332.62
403.974	1297.62
404.198	1307.62
404.422	1301.62
404.645	1279.62
404.869	1311.62
405.093	1299.62
405.317	1297.62
405.541	1332.62
405.765	1346.62
405.988	1320.62
406.212	1310.62
406.436	1311.62
406.66	1358.62
406.883	1343.62
407.107	1340.62
407.331	1383.62
407.555	1414.62
407.778	1433.62
408.002	1400.62
408.226	1384.62
408.449	1367.62
408.673	1367.62
408.896	1305.62
409.12	1328.62
409.344	1320.62
409.567	1269.62
409.791	1303.62
410.014	1309.62
410.238	1299.62
410.461	1337.62
410.685	1273.62
410.908	1250.62
411.132	1243.62
411.355	1246.62
411.578	1232.62
411.802	1233.62
412.025	1253.62
412.249	1235.62
412.472	1225.62
412.695	1221.62
412.919	1224.62
413.142	1261.62
413.365	1242.62
413.589	1255.62
413.812	1205.62
414.035	1191.62
414.258	1226.62
414.482	1234.62
414.705	1243.62
414.928	1273.62
415.151	1217.62
415.374	1227.62
415.597	1224.62
415.821	1212.62
416.044	1173.62
416.267	1193.62
416.49	1170.62
416.713	1196.62
416.936	1204.62
417.159	1157.62
417.382	1169.62
417.605	1170.62
417.828	1193.62
418.051	1164.62
418.274	1180.62
418.497	1206.62
418.72	1225.62
418.943	1174.62
419.166	1251.62
419.389	1303.62
419.611	1284.62
419.834	1257.62
420.057	1235.62
420.28	1191.62
420.503	1226.62
420.726	1171.62
420.948	1162.62
421.171	1201.62
421.394	1207.62
421.617	1199.62
421.839	1208.62
422.062	1215.62
422.285	1174.62
422.507	1195.62
422.73	1225.62
422.953	1199.62
423.175	1239.62
423.398	1227.62
423.621	1221.62
423.843	1209.62
424.066	1196.62
424.288	1203.62
424.511	1169.62
424.733	1183.62
424.956	1175.62
425.178	1187.62
425.401	1184.62
425.623	1180.62
425.846	1136.62
426.068	1131.62
426.291	1147.62
426.513	1147.62
426.735	1156.62
426.958	1140.62
427.18	1126.62
427.402	1108.62
427.625	1113.62
427.847	1117.62
428.069	1109.62
428.292	1151.62
428.514	1090.62
428.736	1106.62
428.958	1131.62
429.181	1100.62
429.403	1105.62
429.625	1095.62
429.847	1114.62
430.069	1088.62
430.292	1127.62
430.514	1136.62
430.736	1171.62
430.958	1110.62
431.18	1089.62
431.402	1065.62
431.624	1073.62
431.846	1076.62
432.068	1064.62
432.29	1082.62
432.512	1077.62
432.734	1102.62
432.956	1096.62
433.178	1113.62
433.4	1113.62
433.622	1135.62
433.844	1106.62
434.066	1121.62
434.287	1072.62
434.509	1108.62
434.731	1091.62
434.953	1103.62
435.175	1150.62
435.397	1146.62
435.618	1122.62
435.84	1112.62
436.062	1081.62
436.284	1105.62
436.505	1090.62
436.727	1086.62
436.949	1097.62
437.17	1075.62
437.392	1068.62
437.614	1063.62
437.835	1040.62
438.057	1072.62
438.278	1043.62
438.5	1047.62
438.721	1074.62
438.943	1107.62
439.165	1101.62
439.386	1124.62
439.608	1113.62
439.829	1111.62
440.05	1162.62
440.272	1177.62
440.493	1132.62
440.715	1108.62
440.936	1171.62
441.158	1167.62
441.379	1140.62
441.6	1192.62
441.822	1207.62
442.043	1234.62
442.264	1268.62
442.486	1215.62
442.707	1194.62
442.928	1171.62
443.149	1160.62
443.371	1159.62
443.592	1177.62
443.813	1211.62
444.034	1186.62
444.255	1233.62
444.476	1242.62
444.698	1254.62
444.919	1298.62
445.14	1348.62
445.361	1242.62
445.582	1228.62
445.803	1185.62
446.024	1160.62
446.245	1179.62
446.466	1155.62
446.687	1160.62
446.908	1146.62
447.129	1114.62
447.35	1111.62
447.571	1097.62
447.792	1116.62
448.013	1083.62
448.234	1097.62
448.455	1099.62
448.675	1072.62
448.896	1128.62
449.117	1141.62
449.338	1185.62
449.559	1213.62
449.779	1119.62
450	1092.62
450.221	1091.62
450.442	1081.62
450.662	1056.62
450.883	1037.62
451.104	1021.62
451.324	1061.62
451.545	1028.62
451.766	1047.62
451.986	1051.62
452.207	1099.62
452.428	1280.62
452.648	1677.62
452.869	1455.62
453.089	1177.62
453.31	1172.62
453.53	1148.62
453.751	1122.62
453.971	1185.62
454.192	1179.62
454.412	1083.62
454.633	1029.62
454.853	1007.62
455.073	1023.62
455.294	1003.62
455.514	998.62
455.734	1014.62
455.955	1015.62
456.175	1014.62
456.395	986.62
456.616	994.62
456.836	994.62
457.056	1027.62
457.276	1024.62
457.497	1068.62
457.717	1067.62
457.937	1083.62
458.157	1063.62
458.377	1059.62
458.598	1065.62
458.818	1068.62
459.038	1055.62
459.258	1097.62
459.478	1075.62
459.698	1122.62
459.918	1112.62
460.138	1150.62
460.358	1190.62
460.578	1182.62
460.798	1177.62
461.018	1188.62
461.238	1169.62
461.458	1186.62
461.678	1195.62
461.898	1235.62
462.118	1243.62
462.338	1232.62
462.558	1273.62
462.777	1273.62
462.997	1344.62
463.217	1391.62
463.437	1405.62
463.657	1376.62
463.876	1383.62
464.096	1329.62
464.316	1297.62
464.536	1266.62
464.755	1220.62
464.975	1211.62
465.195	1205.62
465.414	1174.62
465.634	1139.62
465.854	1123.62
466.073	1109.62
466.293	1107.62
466.512	1121.62
466.732	1109.62
466.951	1122.62
467.171	1172.62
467.391	1171.62
467.61	1108.62
467.829	1087.62
468.049	1103.62
468.268	1067.62
468.488	1093.62
468.707	1073.62
468.927	1053.62
469.146	1051.62
469.365	1053.62
469.585	1100.62
469.804	1103.62
470.023	1141.62
470.243	1146.62
470.462	1183.62
470.681	1172.62
470.901	1301.62
471.12	1413.62
471.339	1437.62
471.558	1249.62
471.777	1165.62
471.997	1120.62
472.216	1103.62
472.435	1100.62
472.654	1085.62
472.873	1057.62
473.092	1073.62
473.311	1092.62
473.53	1097.62
473.749	1140.62
473.968	1142.62
474.187	1098.62
474.406	1089.62
474.625	1114.62
474.844	1064.62
475.063	1099.62
475.282	1110.62
475.501	1074.62
475.72	1104.62
475.939	1141.62
476.158	1120.62
476.377	1130.62
476.596	1151.62
476.814	1130.62
477.033	1121.62
477.252	1165.62
477.471	1169.62
477.69	1207.62
477.908	1203.62
478.127	1252.62
478.346	1253.62
478.564	1237.62
478.783	1261.62
479.002	1293.62
479.22	1290.62
479.439	1296.62
479.658	1290.62
479.876	1281.62
480.095	1254.62
480.313	1315.62
480.532	1306.62
480.751	1286.62
480.969	1278.62
481.188	1255.62
481.406	1252.62
481.624	1267.62
481.843	1301.62
482.061	1286.62
482.28	1283.62
482.498	1279.62
482.717	1280.62
482.935	1295.62
483.153	1299.62
483.372	1329.62
483.59	1347.62
483.808	1355.62
484.027	1342.62
484.245	1407.62
484.463	1577.62
484.681	1720.62
484.9	1566.62
485.118	1483.62
485.336	1501.62
485.554	1515.62
485.772	1583.62
485.99	1712.62
486.209	1791.62
486.427	1549.62
486.645	1458.62
486.863	1447.62
487.081	1389.62
487.299	1347.62
487.517	1369.62
487.735	1411.62
487.953	1410.62
488.171	1429.62
488.389	1404.62
488.607	1369.62
488.825	1347.62
489.043	1329.62
489.261	1335.62
489.479	1355.62
489.696	1370.62
489.914	1372.62
490.132	1388.62
490.35	1378.62
490.568	1395.62
490.786	1391.62
491.003	1426.62
491.221	1393.62
491.439	1446.62
491.657	1437.62
