Data from SnStandardFlinnAPT0064_LampEnergy10_LIBS07252019.E.O._I.C._HRD10591_15-21-34-494.txt Node
Date: Thu Jul 25 15:21:34 EDT 2019
User: cochatt
Spectrometer: HR+D1059
Trigger mode: 1
Integration Time (sec): 1.000000E-1
Scans to average: 1
Electric dark correction enabled: true
Nonlinearity correction enabled: false
Boxcar width: 0
XAxis mode: Wavelengths
Number of Pixels in Spectrum: 2048
>>>>>Begin Spectral Data<<<<<
223.165	-16.81
223.4	-16.81
223.635	-16.81
223.869	-13.81
224.104	-18.81
224.338	-3.81
224.573	-0.81
224.808	-2.81
225.042	-9.81
225.277	-11.81
225.511	-11.81
225.746	8.19
225.98	8.19
226.215	18.19
226.449	0.19
226.683	16.19
226.918	18.19
227.152	21.19
227.387	28.19
227.621	39.19
227.856	35.19
228.09	39.19
228.324	37.19
228.559	59.19
228.793	132.19
229.027	312.19
229.262	345.19
229.496	278.19
229.73	288.19
229.964	327.19
230.199	296.19
230.433	288.19
230.667	306.19
230.901	326.19
231.136	322.19
231.37	347.19
231.604	376.19
231.838	441.19
232.072	519.19
232.306	578.19
232.541	487.19
232.775	422.19
233.009	413.19
233.243	424.19
233.477	455.19
233.711	521.19
233.945	612.19
234.179	518.19
234.413	456.19
234.647	451.19
234.881	463.19
235.115	490.19
235.349	616.19
235.583	771.19
235.817	960.19
236.051	985.19
236.285	660.19
236.519	518.19
236.753	508.19
236.987	500.19
237.221	513.19
237.455	500.19
237.689	462.19
237.922	450.19
238.156	462.19
238.39	494.19
238.624	482.19
238.858	490.19
239.091	478.19
239.325	497.19
239.559	490.19
239.793	510.19
240.027	517.19
240.26	513.19
240.494	556.19
240.728	568.19
240.961	599.19
241.195	634.19
241.429	652.19
241.662	711.19
241.896	751.19
242.13	972.19
242.363	1282.19
242.597	1631.19
242.83	1550.19
243.064	1530.19
243.298	1786.19
243.531	1457.19
243.765	956.19
243.998	753.19
244.232	704.19
244.465	660.19
244.699	649.19
244.932	634.19
245.166	660.19
245.399	685.19
245.633	663.19
245.866	687.19
246.099	673.19
246.333	651.19
246.566	630.19
246.8	640.19
247.033	645.19
247.266	651.19
247.5	647.19
247.733	658.19
247.966	702.19
248.2	778.19
248.433	880.19
248.666	1001.19
248.899	945.19
249.133	832.19
249.366	878.19
249.599	954.19
249.832	1083.19
250.066	1068.19
250.299	862.19
250.532	778.19
250.765	760.19
250.998	742.19
251.231	739.19
251.465	733.19
251.698	751.19
251.931	732.19
252.164	723.19
252.397	755.19
252.63	764.19
252.863	798.19
253.096	768.19
253.329	799.19
253.562	771.19
253.795	792.19
254.028	815.19
254.261	810.19
254.494	860.19
254.727	1029.19
254.96	1222.19
255.193	1217.19
255.426	965.19
255.659	882.19
255.892	880.19
256.124	868.19
256.357	858.19
256.59	896.19
256.823	996.19
257.056	1095.19
257.289	1366.19
257.521	1481.19
257.754	1220.19
257.987	983.19
258.22	912.19
258.452	927.19
258.685	904.19
258.918	950.19
259.151	1001.19
259.383	1122.19
259.616	1232.19
259.849	1278.19
260.081	1092.19
260.314	968.19
260.547	962.19
260.779	936.19
261.012	937.19
261.244	948.19
261.477	964.19
261.71	983.19
261.942	985.19
262.175	1028.19
262.407	1010.19
262.64	1038.19
262.872	1086.19
263.105	1141.19
263.337	1187.19
263.57	1291.19
263.802	1320.19
264.035	1342.19
264.267	1370.19
264.499	1366.19
264.732	1410.19
264.964	1434.19
265.197	1413.19
265.429	1432.19
265.661	1496.19
265.894	1577.19
266.126	1765.19
266.358	1951.19
266.591	1904.19
266.823	1636.19
267.055	1456.19
267.287	1419.19
267.52	1305.19
267.752	1310.19
267.984	1296.19
268.216	1237.19
268.448	1269.19
268.681	1254.19
268.913	1191.19
269.145	1209.19
269.377	1216.19
269.609	1231.19
269.841	1242.19
270.073	1351.19
270.306	1616.19
270.538	2132.19
270.77	3218.19
271.002	3890.19
271.234	2743.19
271.466	1871.19
271.698	1559.19
271.93	1405.19
272.162	1330.19
272.394	1278.19
272.626	1230.19
272.858	1241.19
273.09	1221.19
273.322	1225.19
273.553	1167.19
273.785	1204.19
274.017	1185.19
274.249	1193.19
274.481	1229.19
274.713	1201.19
274.945	1208.19
275.176	1190.19
275.408	1218.19
275.64	1219.19
275.872	1176.19
276.104	1240.19
276.335	1254.19
276.567	1287.19
276.799	1249.19
277.031	1313.19
277.262	1328.19
277.494	1393.19
277.726	1564.19
277.957	1869.19
278.189	2128.19
278.421	1948.19
278.652	1720.19
278.884	1694.19
279.115	1519.19
279.347	1435.19
279.579	1375.19
279.81	1389.19
280.042	1393.19
280.273	1412.19
280.505	1432.19
280.736	1502.19
280.968	1566.19
281.199	1788.19
281.431	2025.19
281.662	2122.19
281.894	1799.19
282.125	1598.19
282.356	1626.19
282.588	1633.19
282.819	1687.19
283.051	1815.19
283.282	2020.19
283.513	2453.19
283.745	3597.19
283.976	5608.19
284.207	7905.19
284.439	7246.19
284.67	4491.19
284.901	3740.19
285.132	3735.19
285.364	3592.19
285.595	2713.19
285.826	2432.19
286.057	2808.19
286.288	3868.19
286.52	5196.19
286.751	4850.19
286.982	3047.19
287.213	2234.19
287.444	2012.19
287.675	1827.19
287.906	1777.19
288.138	1776.19
288.369	1692.19
288.6	1684.19
288.831	1649.19
289.062	1685.19
289.293	1664.19
289.524	1665.19
289.755	1703.19
289.986	1720.19
290.217	1692.19
290.448	1661.19
290.679	1698.19
290.91	1729.19
291.141	1889.19
291.371	2008.19
291.602	2116.19
291.833	1920.19
292.064	1773.19
292.295	1656.19
292.526	1656.19
292.757	1614.19
292.987	1608.19
293.218	1557.19
293.449	1619.19
293.68	1584.19
293.91	1563.19
294.141	1566.19
294.372	1535.19
294.603	1554.19
294.833	1528.19
295.064	1545.19
295.295	1549.19
295.525	1521.19
295.756	1556.19
295.987	1538.19
296.217	1570.19
296.448	1559.19
296.679	1563.19
296.909	1576.19
297.14	1594.19
297.37	1592.19
297.601	1633.19
297.831	1619.19
298.062	1639.19
298.292	1628.19
298.523	1689.19
298.753	1715.19
298.984	1724.19
299.214	1713.19
299.445	1771.19
299.675	1746.19
299.905	1817.19
300.136	1915.19
300.366	2155.19
300.597	2780.19
300.827	3833.19
301.057	5161.19
301.288	5179.19
301.518	3404.19
301.748	2561.19
301.979	2382.19
302.209	2264.19
302.439	2302.19
302.669	2428.19
302.9	2910.19
303.13	4122.19
303.36	6096.19
303.59	8217.19
303.82	7076.19
304.051	4175.19
304.281	3038.19
304.511	2510.19
304.741	2334.19
304.971	2230.19
305.201	2079.19
305.431	1968.19
305.661	1932.19
305.891	1888.19
306.121	1840.19
306.352	1866.19
306.582	1836.19
306.812	1801.19
307.042	1794.19
307.272	1831.19
307.502	1831.19
307.731	1821.19
307.961	1784.19
308.191	1814.19
308.421	1795.19
308.651	1814.19
308.881	1773.19
309.111	1854.19
309.341	1836.19
309.571	1781.19
309.8	1834.19
310.03	1844.19
310.26	1864.19
310.49	1845.19
310.72	1815.19
310.949	1893.19
311.179	1894.19
311.409	1870.19
311.639	1958.19
311.868	1864.19
312.098	1915.19
312.328	1944.19
312.557	1980.19
312.787	1937.19
313.017	1977.19
313.246	1970.19
313.476	2007.19
313.706	2063.19
313.935	2216.19
314.165	2351.19
314.394	2470.19
314.624	2409.19
314.853	2149.19
315.083	2121.19
315.312	2121.19
315.542	2124.19
315.771	2188.19
316.001	2258.19
316.23	2316.19
316.46	2361.19
316.689	2673.19
316.919	3170.19
317.148	4508.19
317.377	7063.19
317.607	10316.19
317.836	10615.19
318.065	6555.19
318.295	4238.19
318.524	3342.19
318.753	2920.19
318.983	2734.19
319.212	2586.19
319.441	2478.19
319.67	2431.19
319.9	2431.19
320.129	2382.19
320.358	2312.19
320.587	2348.19
320.816	2306.19
321.046	2357.19
321.275	2399.19
321.504	2438.19
321.733	2436.19
321.962	2494.19
322.191	2550.19
322.42	2525.19
322.649	2536.19
322.878	2499.19
323.108	2515.19
323.337	2515.19
323.566	2530.19
323.795	2613.19
324.024	2602.19
324.253	2714.19
324.482	2839.19
324.71	2977.19
324.939	3220.19
325.168	3249.19
325.397	3378.19
325.626	4036.19
325.855	5616.19
326.084	8581.19
326.313	12499.19
326.542	13316.19
326.77	8951.19
326.999	5916.19
327.228	4924.19
327.457	4690.19
327.686	4745.19
327.914	5162.19
328.143	5995.19
328.372	7150.19
328.6	7822.19
328.829	6832.19
329.058	5797.19
329.287	5034.19
329.515	4591.19
329.744	4242.19
329.972	4018.19
330.201	3812.19
330.43	3687.19
330.658	3599.19
330.887	3562.19
331.115	3478.19
331.344	3478.19
331.572	3378.19
331.801	3472.19
332.03	3520.19
332.258	3542.19
332.486	3868.19
332.715	4306.19
332.943	5294.19
333.172	6612.19
333.4	6556.19
333.629	4969.19
333.857	4505.19
334.085	4496.19
334.314	4608.19
334.542	5072.19
334.771	5991.19
334.999	7459.19
335.227	9298.19
335.455	10392.19
335.684	9410.19
335.912	7536.19
336.14	6400.19
336.369	5652.19
336.597	5207.19
336.825	4766.19
337.053	4514.19
337.281	4233.19
337.51	4014.19
337.738	3873.19
337.966	3688.19
338.194	3588.19
338.422	3429.19
338.65	3350.19
338.878	3319.19
339.106	3247.19
339.334	3249.19
339.562	3107.19
339.79	3079.19
340.018	3110.19
340.246	3024.19
340.474	3011.19
340.702	2999.19
340.93	3026.19
341.158	2993.19
341.386	3008.19
341.614	2983.19
341.842	2844.19
342.07	2819.19
342.298	2902.19
342.526	2772.19
342.754	2737.19
342.981	2717.19
343.209	2739.19
343.437	2753.19
343.665	2782.19
343.893	2812.19
344.12	2832.19
344.348	2761.19
344.576	2718.19
344.804	2686.19
345.031	2628.19
345.259	2635.19
345.487	2638.19
345.714	2554.19
345.942	2534.19
346.17	2580.19
346.397	2548.19
346.625	2495.19
346.853	2538.19
347.08	2470.19
347.308	2509.19
347.535	2526.19
347.763	2517.19
347.99	2498.19
348.218	2470.19
348.445	2405.19
348.673	2405.19
348.9	2478.19
349.128	2446.19
349.355	2383.19
349.583	2440.19
349.81	2430.19
350.037	2384.19
350.265	2375.19
350.492	2465.19
350.72	2398.19
350.947	2410.19
351.174	2429.19
351.402	2400.19
351.629	2380.19
351.856	2341.19
352.083	2433.19
352.311	2396.19
352.538	2352.19
352.765	2413.19
352.992	2395.19
353.22	2357.19
353.447	2340.19
353.674	2348.19
353.901	2388.19
354.128	2368.19
354.355	2375.19
354.583	2394.19
354.81	2423.19
355.037	2437.19
355.264	2430.19
355.491	2440.19
355.718	2407.19
355.945	2412.19
356.172	2482.19
356.399	2449.19
356.626	2470.19
356.853	2499.19
357.08	2469.19
357.307	2516.19
357.534	2523.19
357.761	2573.19
357.988	2561.19
358.215	2555.19
358.441	2534.19
358.668	2560.19
358.895	2578.19
359.122	2518.19
359.349	2524.19
359.576	2508.19
359.802	2545.19
360.029	2496.19
360.256	2528.19
360.483	2517.19
360.709	2537.19
360.936	2529.19
361.163	2546.19
361.39	2544.19
361.616	2513.19
361.843	2532.19
362.07	2574.19
362.296	2596.19
362.523	2585.19
362.749	2542.19
362.976	2540.19
363.203	2563.19
363.429	2495.19
363.656	2518.19
363.882	2554.19
364.109	2520.19
364.335	2546.19
364.562	2528.19
364.788	2547.19
365.015	2602.19
365.241	2648.19
365.468	2810.19
365.694	2953.19
365.92	2847.19
366.147	2633.19
366.373	2556.19
366.599	2596.19
366.826	2585.19
367.052	2559.19
367.278	2616.19
367.505	2587.19
367.731	2604.19
367.957	2608.19
368.184	2611.19
368.41	2644.19
368.636	2641.19
368.862	2613.19
369.089	2662.19
369.315	2651.19
369.541	2656.19
369.767	2629.19
369.993	2663.19
370.219	2648.19
370.445	2646.19
370.672	2667.19
370.898	2674.19
371.124	2693.19
371.35	2713.19
371.576	2708.19
371.802	2712.19
372.028	2711.19
372.254	2779.19
372.48	2785.19
372.706	2794.19
372.932	2780.19
373.158	2739.19
373.384	2819.19
373.61	2755.19
373.835	2822.19
374.061	2799.19
374.287	2822.19
374.513	2817.19
374.739	2849.19
374.965	2920.19
375.191	2896.19
375.416	2914.19
375.642	2874.19
375.868	2833.19
376.094	2823.19
376.319	2847.19
376.545	2772.19
376.771	2739.19
376.997	2748.19
377.222	2702.19
377.448	2736.19
377.674	2713.19
377.899	2706.19
378.125	2762.19
378.35	2716.19
378.576	2736.19
378.802	2734.19
379.027	2814.19
379.253	2864.19
379.478	3062.19
379.704	3586.19
379.929	5122.19
380.155	7792.19
380.38	8540.19
380.606	5242.19
380.831	3716.19
381.057	3210.19
381.282	2986.19
381.507	2848.19
381.733	2836.19
381.958	2745.19
382.184	2738.19
382.409	2713.19
382.634	2671.19
382.86	2644.19
383.085	2635.19
383.31	2705.19
383.535	2668.19
383.761	2656.19
383.986	2713.19
384.211	2708.19
384.436	2718.19
384.662	2755.19
384.887	2777.19
385.112	2721.19
385.337	2804.19
385.562	2794.19
385.787	2781.19
386.013	2796.19
386.238	2756.19
386.463	2799.19
386.688	2817.19
386.913	2755.19
387.138	2742.19
387.363	2726.19
387.588	2760.19
387.813	2752.19
388.038	2751.19
388.263	2773.19
388.488	2740.19
388.713	2778.19
388.938	2747.19
389.163	2729.19
389.387	2809.19
389.612	2747.19
389.837	2733.19
390.062	2744.19
390.287	2791.19
390.512	2746.19
390.736	2800.19
390.961	2864.19
391.186	2873.19
391.411	2942.19
391.636	2948.19
391.86	2908.19
392.085	2938.19
392.31	2862.19
392.534	2834.19
392.759	2833.19
392.984	2799.19
393.208	2788.19
393.433	2854.19
393.658	2798.19
393.882	2835.19
394.107	2826.19
394.331	2784.19
394.556	2735.19
394.78	2788.19
395.005	2830.19
395.229	2844.19
395.454	2858.19
395.678	2889.19
395.903	2880.19
396.127	2916.19
396.352	2851.19
396.576	2850.19
396.801	2832.19
397.025	2895.19
397.249	2869.19
397.474	2928.19
397.698	2902.19
397.922	2959.19
398.147	2932.19
398.371	2961.19
398.595	3025.19
398.82	3096.19
399.044	3200.19
399.268	3310.19
399.492	3528.19
399.717	3664.19
399.941	3654.19
400.165	3486.19
400.389	3446.19
400.613	3268.19
400.837	3159.19
401.062	3084.19
401.286	3093.19
401.51	3098.19
401.734	3040.19
401.958	3064.19
402.182	3028.19
402.406	3029.19
402.63	3090.19
402.854	3109.19
403.078	3028.19
403.302	3116.19
403.526	3203.19
403.75	3153.19
403.974	3210.19
404.198	3109.19
404.422	3195.19
404.645	3161.19
404.869	3168.19
405.093	3185.19
405.317	3146.19
405.541	3210.19
405.765	3249.19
405.988	3276.19
406.212	3268.19
406.436	3245.19
406.66	3294.19
406.883	3245.19
407.107	3332.19
407.331	3382.19
407.555	3422.19
407.778	3421.19
408.002	3423.19
408.226	3368.19
408.449	3369.19
408.673	3305.19
408.896	3233.19
409.12	3204.19
409.344	3230.19
409.567	3152.19
409.791	3205.19
410.014	3129.19
410.238	3144.19
410.461	3139.19
410.685	3139.19
410.908	3081.19
411.132	3064.19
411.355	2992.19
411.578	3054.19
411.802	3024.19
412.025	3007.19
412.249	3046.19
412.472	3018.19
412.695	2998.19
412.919	2939.19
413.142	3000.19
413.365	2933.19
413.589	3023.19
413.812	2960.19
414.035	2980.19
414.258	2994.19
414.482	2982.19
414.705	3017.19
414.928	2988.19
415.151	2974.19
415.374	3008.19
415.597	2921.19
415.821	2893.19
416.044	2830.19
416.267	2857.19
416.49	2884.19
416.713	2838.19
416.936	2856.19
417.159	2842.19
417.382	2854.19
417.605	2826.19
417.828	2856.19
418.051	2855.19
418.274	2883.19
418.497	2829.19
418.72	2913.19
418.943	2884.19
419.166	3061.19
419.389	3163.19
419.611	3134.19
419.834	3031.19
420.057	2956.19
420.28	2928.19
420.503	2838.19
420.726	2836.19
420.948	2830.19
421.171	2840.19
421.394	2886.19
421.617	2828.19
421.839	2866.19
422.062	2840.19
422.285	2796.19
422.507	2976.19
422.73	2966.19
422.953	2978.19
423.175	2958.19
423.398	2965.19
423.621	2877.19
423.843	2881.19
424.066	2900.19
424.288	2830.19
424.511	2885.19
424.733	2891.19
424.956	2818.19
425.178	2825.19
425.401	2824.19
425.623	2787.19
425.846	2786.19
426.068	2769.19
426.291	2755.19
426.513	2752.19
426.735	2724.19
426.958	2783.19
427.18	2672.19
427.402	2734.19
427.625	2718.19
427.847	2716.19
428.069	2625.19
428.292	2684.19
428.514	2722.19
428.736	2669.19
428.958	2638.19
429.181	2600.19
429.403	2626.19
429.625	2628.19
429.847	2643.19
430.069	2712.19
430.292	2805.19
430.514	2834.19
430.736	2844.19
430.958	2675.19
431.18	2588.19
431.402	2652.19
431.624	2591.19
431.846	2591.19
432.068	2617.19
432.29	2594.19
432.512	2558.19
432.734	2621.19
432.956	2638.19
433.178	2645.19
433.4	2577.19
433.622	2629.19
433.844	2618.19
434.066	2637.19
434.287	2610.19
434.509	2726.19
434.731	2752.19
434.953	2727.19
435.175	2754.19
435.397	2724.19
435.618	2682.19
435.84	2638.19
436.062	2645.19
436.284	2645.19
436.505	2558.19
436.727	2632.19
436.949	2587.19
437.17	2579.19
437.392	2556.19
437.614	2554.19
437.835	2502.19
438.057	2513.19
438.278	2549.19
438.5	2578.19
438.721	2564.19
438.943	2695.19
439.165	2734.19
439.386	2718.19
439.608	2669.19
439.829	2725.19
440.05	2817.19
440.272	2857.19
440.493	2739.19
440.715	2723.19
440.936	2772.19
441.158	2732.19
441.379	2775.19
441.6	2866.19
441.822	2927.19
442.043	2998.19
442.264	3202.19
442.486	2975.19
442.707	2845.19
442.928	2822.19
443.149	2820.19
443.371	2754.19
443.592	2846.19
443.813	2864.19
444.034	2864.19
444.255	2918.19
444.476	2907.19
444.698	2961.19
444.919	3017.19
445.14	3110.19
445.361	2948.19
445.582	2875.19
445.803	2804.19
446.024	2833.19
446.245	2799.19
446.466	2817.19
446.687	2739.19
446.908	2737.19
447.129	2702.19
447.35	2668.19
447.571	2631.19
447.792	2590.19
448.013	2616.19
448.234	2556.19
448.455	2547.19
448.675	2613.19
448.896	2671.19
449.117	2772.19
449.338	2997.19
449.559	3102.19
449.779	2788.19
450	2608.19
450.221	2569.19
450.442	2577.19
450.662	2600.19
450.883	2488.19
451.104	2537.19
451.324	2503.19
451.545	2479.19
451.766	2514.19
451.986	2588.19
452.207	2840.19
452.428	3630.19
452.648	5507.19
452.869	4575.19
453.089	3122.19
453.31	2972.19
453.53	2924.19
453.751	2929.19
453.971	3132.19
454.192	3059.19
454.412	2728.19
454.633	2600.19
454.853	2506.19
455.073	2446.19
455.294	2437.19
455.514	2466.19
455.734	2468.19
455.955	2449.19
456.175	2425.19
456.395	2409.19
456.616	2471.19
456.836	2453.19
457.056	2475.19
457.276	2450.19
457.497	2633.19
457.717	2668.19
457.937	2545.19
458.157	2563.19
458.377	2606.19
458.598	2585.19
458.818	2561.19
459.038	2585.19
459.258	2622.19
459.478	2647.19
459.698	2672.19
459.918	2676.19
460.138	2772.19
460.358	2826.19
460.578	2806.19
460.798	2889.19
461.018	2922.19
461.238	2918.19
461.458	2911.19
461.678	2893.19
461.898	2976.19
462.118	2972.19
462.338	3043.19
462.558	3026.19
462.777	3154.19
462.997	3265.19
463.217	3312.19
463.437	3512.19
463.657	3580.19
463.876	3527.19
464.096	3386.19
464.316	3184.19
464.536	3148.19
464.755	3100.19
464.975	3017.19
465.195	2873.19
465.414	2803.19
465.634	2744.19
465.854	2760.19
466.073	2688.19
466.293	2740.19
466.512	2719.19
466.732	2671.19
466.951	2821.19
467.171	3031.19
467.391	2924.19
467.61	2706.19
467.829	2679.19
468.049	2620.19
468.268	2576.19
468.488	2548.19
468.707	2578.19
468.927	2582.19
469.146	2593.19
469.365	2588.19
469.585	2633.19
469.804	2670.19
470.023	2726.19
470.243	2771.19
470.462	2848.19
470.681	2978.19
470.901	3296.19
471.12	3696.19
471.339	3752.19
471.558	3120.19
471.777	2900.19
471.997	2735.19
472.216	2690.19
472.435	2674.19
472.654	2586.19
472.873	2559.19
473.092	2614.19
473.311	2573.19
473.53	2669.19
473.749	2670.19
473.968	2762.19
474.187	2637.19
474.406	2606.19
474.625	2620.19
474.844	2609.19
475.063	2583.19
475.282	2616.19
475.501	2641.19
475.72	2606.19
475.939	2690.19
476.158	2702.19
476.377	2776.19
476.596	2761.19
476.814	2742.19
477.033	2770.19
477.252	2739.19
477.471	2736.19
477.69	2865.19
477.908	2871.19
478.127	2938.19
478.346	2932.19
478.564	2996.19
478.783	3014.19
479.002	3034.19
479.22	3065.19
479.439	3103.19
479.658	3124.19
479.876	3090.19
480.095	3165.19
480.313	3188.19
480.532	3194.19
480.751	3250.19
480.969	3169.19
481.188	3154.19
481.406	3120.19
481.624	3169.19
481.843	3161.19
482.061	3114.19
482.28	3163.19
482.498	3129.19
482.717	3159.19
482.935	3195.19
483.153	3230.19
483.372	3207.19
483.59	3309.19
483.808	3291.19
484.027	3447.19
484.245	3649.19
484.463	4094.19
484.681	4465.19
484.9	4060.19
485.118	3812.19
485.336	3740.19
485.554	3745.19
485.772	3994.19
485.99	4472.19
486.209	4770.19
486.427	4117.19
486.645	3662.19
486.863	3513.19
487.081	3476.19
487.299	3326.19
487.517	3369.19
487.735	3376.19
