Data from SnStandardFlinnAPT0064_QswitchEnergy10_LIBS07252019.E.O._I.C._HRD10591_15-27-30-974.txt Node
Date: Thu Jul 25 15:27:30 EDT 2019
User: cochatt
Spectrometer: HR+D1059
Trigger mode: 1
Integration Time (sec): 1.000000E-1
Scans to average: 1
Electric dark correction enabled: true
Nonlinearity correction enabled: false
Boxcar width: 0
XAxis mode: Wavelengths
Number of Pixels in Spectrum: 2048
>>>>>Begin Spectral Data<<<<<
223.165	-34.56
223.4	-34.56
223.635	-34.56
223.869	-25.56
224.104	-12.56
224.338	-13.56
224.573	-14.56
224.808	-6.56
225.042	-11.56
225.277	-11.56
225.511	4.44
225.746	13.44
225.98	7.44
226.215	1.44
226.449	23.44
226.683	23.44
226.918	14.44
227.152	42.44
227.387	55.44
227.621	46.44
227.856	59.44
228.09	44.44
228.324	49.44
228.559	64.44
228.793	43.44
229.027	67.44
229.262	64.44
229.496	50.44
229.73	67.44
229.964	86.44
230.199	76.44
230.433	60.44
230.667	86.44
230.901	76.44
231.136	79.44
231.37	86.44
231.604	94.44
231.838	90.44
232.072	120.44
232.306	124.44
232.541	79.44
232.775	82.44
233.009	90.44
233.243	71.44
233.477	93.44
233.711	95.44
233.945	124.44
234.179	96.44
234.413	86.44
234.647	84.44
234.881	78.44
235.115	90.44
235.349	98.44
235.583	111.44
235.817	122.44
236.051	123.44
236.285	114.44
236.519	88.44
236.753	89.44
236.987	86.44
237.221	72.44
237.455	81.44
237.689	78.44
237.922	88.44
238.156	72.44
238.39	83.44
238.624	83.44
238.858	74.44
239.091	96.44
239.325	79.44
239.559	68.44
239.793	82.44
240.027	90.44
240.26	82.44
240.494	71.44
240.728	82.44
240.961	84.44
241.195	87.44
241.429	83.44
241.662	92.44
241.896	89.44
242.13	95.44
242.363	123.44
242.597	165.44
242.83	140.44
243.064	132.44
243.298	186.44
243.531	174.44
243.765	88.44
243.998	97.44
244.232	86.44
244.465	79.44
244.699	74.44
244.932	74.44
245.166	86.44
245.399	80.44
245.633	91.44
245.866	76.44
246.099	81.44
246.333	82.44
246.566	68.44
246.8	74.44
247.033	90.44
247.266	75.44
247.5	81.44
247.733	76.44
247.966	87.44
248.2	87.44
248.433	107.44
248.666	132.44
248.899	115.44
249.133	107.44
249.366	99.44
249.599	98.44
249.832	116.44
250.066	110.44
250.299	96.44
250.532	94.44
250.765	82.44
250.998	86.44
251.231	78.44
251.465	88.44
251.698	97.44
251.931	83.44
252.164	84.44
252.397	87.44
252.63	110.44
252.863	104.44
253.096	79.44
253.329	103.44
253.562	84.44
253.795	87.44
254.028	82.44
254.261	91.44
254.494	104.44
254.727	120.44
254.96	158.44
255.193	137.44
255.426	103.44
255.659	90.44
255.892	90.44
256.124	93.44
256.357	94.44
256.59	118.44
256.823	99.44
257.056	122.44
257.289	141.44
257.521	187.44
257.754	137.44
257.987	89.44
258.22	86.44
258.452	92.44
258.685	77.44
258.918	89.44
259.151	86.44
259.383	106.44
259.616	143.44
259.849	152.44
260.081	85.44
260.314	82.44
260.547	81.44
260.779	89.44
261.012	79.44
261.244	80.44
261.477	81.44
261.71	73.44
261.942	86.44
262.175	87.44
262.407	92.44
262.64	85.44
262.872	83.44
263.105	87.44
263.337	85.44
263.57	94.44
263.802	89.44
264.035	84.44
264.267	79.44
264.499	86.44
264.732	86.44
264.964	102.44
265.197	80.44
265.429	73.44
265.661	87.44
265.894	83.44
266.126	119.44
266.358	168.44
266.591	151.44
266.823	102.44
267.055	81.44
267.287	82.44
267.52	97.44
267.752	76.44
267.984	91.44
268.216	85.44
268.448	92.44
268.681	85.44
268.913	96.44
269.145	73.44
269.377	86.44
269.609	85.44
269.841	94.44
270.073	103.44
270.306	127.44
270.538	184.44
270.77	326.44
271.002	379.44
271.234	212.44
271.466	118.44
271.698	87.44
271.93	86.44
272.162	78.44
272.394	79.44
272.626	89.44
272.858	91.44
273.09	74.44
273.322	95.44
273.553	82.44
273.785	80.44
274.017	85.44
274.249	92.44
274.481	97.44
274.713	73.44
274.945	90.44
275.176	105.44
275.408	91.44
275.64	86.44
275.872	91.44
276.104	98.44
276.335	83.44
276.567	103.44
276.799	96.44
277.031	96.44
277.262	97.44
277.494	91.44
277.726	125.44
277.957	169.44
278.189	252.44
278.421	225.44
278.652	207.44
278.884	167.44
279.115	149.44
279.347	110.44
279.579	103.44
279.81	99.44
280.042	106.44
280.273	102.44
280.505	104.44
280.736	112.44
280.968	118.44
281.199	183.44
281.431	245.44
281.662	264.44
281.894	160.44
282.125	119.44
282.356	110.44
282.588	116.44
282.819	116.44
283.051	128.44
283.282	151.44
283.513	203.44
283.745	329.44
283.976	555.44
284.207	803.44
284.439	599.44
284.67	293.44
284.901	254.44
285.132	349.44
285.364	396.44
285.595	248.44
285.826	166.44
286.057	255.44
286.288	407.44
286.52	628.44
286.751	490.44
286.982	202.44
287.213	120.44
287.444	112.44
287.675	91.44
287.906	104.44
288.138	94.44
288.369	95.44
288.6	91.44
288.831	93.44
289.062	96.44
289.293	95.44
289.524	98.44
289.755	90.44
289.986	98.44
290.217	93.44
290.448	108.44
290.679	97.44
290.91	126.44
291.141	169.44
291.371	222.44
291.602	282.44
291.833	210.44
292.064	132.44
292.295	118.44
292.526	94.44
292.757	96.44
292.987	97.44
293.218	83.44
293.449	89.44
293.68	83.44
293.91	86.44
294.141	103.44
294.372	114.44
294.603	82.44
294.833	92.44
295.064	74.44
295.295	73.44
295.525	88.44
295.756	103.44
295.987	106.44
296.217	95.44
296.448	89.44
296.679	86.44
296.909	98.44
297.14	103.44
297.37	104.44
297.601	99.44
297.831	95.44
298.062	105.44
298.292	91.44
298.523	102.44
298.753	94.44
298.984	96.44
299.214	107.44
299.445	107.44
299.675	110.44
299.905	112.44
300.136	128.44
300.366	170.44
300.597	281.44
300.827	467.44
301.057	717.44
301.288	638.44
301.518	242.44
301.748	143.44
301.979	129.44
302.209	136.44
302.439	143.44
302.669	177.44
302.9	286.44
303.13	522.44
303.36	918.44
303.59	1240.44
303.82	837.44
304.051	295.44
304.281	157.44
304.511	128.44
304.741	98.44
304.971	100.44
305.201	113.44
305.431	100.44
305.661	101.44
305.891	96.44
306.121	112.44
306.352	122.44
306.582	115.44
306.812	99.44
307.042	118.44
307.272	117.44
307.502	103.44
307.731	108.44
307.961	106.44
308.191	107.44
308.421	108.44
308.651	102.44
308.881	98.44
309.111	111.44
309.341	97.44
309.571	110.44
309.8	113.44
310.03	113.44
310.26	97.44
310.49	113.44
310.72	108.44
310.949	102.44
311.179	101.44
311.409	101.44
311.639	112.44
311.868	121.44
312.098	112.44
312.328	112.44
312.557	114.44
312.787	116.44
313.017	121.44
313.246	111.44
313.476	111.44
313.706	118.44
313.935	142.44
314.165	194.44
314.394	235.44
314.624	196.44
314.853	139.44
315.083	121.44
315.312	134.44
315.542	137.44
315.771	145.44
316.001	142.44
316.23	148.44
316.46	142.44
316.689	169.44
316.919	274.44
317.148	513.44
317.377	928.44
317.607	1546.44
317.836	1411.44
318.065	536.44
318.295	243.44
318.524	177.44
318.753	147.44
318.983	133.44
319.212	118.44
319.441	118.44
319.67	130.44
319.9	125.44
320.129	112.44
320.358	128.44
320.587	117.44
320.816	120.44
321.046	122.44
321.275	137.44
321.504	129.44
321.733	143.44
321.962	165.44
322.191	162.44
322.42	133.44
322.649	132.44
322.878	107.44
323.108	127.44
323.337	132.44
323.566	126.44
323.795	134.44
324.024	124.44
324.253	144.44
324.482	177.44
324.71	231.44
324.939	289.44
325.168	237.44
325.397	185.44
325.626	255.44
325.855	497.44
326.084	965.44
326.313	1641.44
326.542	1622.44
326.77	632.44
326.999	257.44
327.228	203.44
327.457	213.44
327.686	244.44
327.914	166.44
328.143	141.44
328.372	128.44
328.6	129.44
328.829	132.44
329.058	117.44
329.287	118.44
329.515	128.44
329.744	118.44
329.972	121.44
330.201	114.44
330.43	120.44
330.658	98.44
330.887	113.44
331.115	105.44
331.344	116.44
331.572	122.44
331.801	124.44
332.03	123.44
332.258	129.44
332.486	164.44
332.715	295.44
332.943	497.44
333.172	766.44
333.4	685.44
333.629	241.44
333.857	146.44
334.085	122.44
334.314	109.44
334.542	122.44
334.771	126.44
334.999	133.44
335.227	133.44
335.455	124.44
335.684	119.44
335.912	120.44
336.14	125.44
336.369	118.44
336.597	102.44
336.825	95.44
337.053	113.44
337.281	115.44
337.51	92.44
337.738	111.44
337.966	103.44
338.194	103.44
338.422	114.44
338.65	121.44
338.878	111.44
339.106	111.44
339.334	119.44
339.562	122.44
339.79	106.44
340.018	110.44
340.246	110.44
340.474	114.44
340.702	106.44
340.93	101.44
341.158	105.44
341.386	121.44
341.614	116.44
341.842	114.44
342.07	115.44
342.298	113.44
342.526	111.44
342.754	110.44
342.981	112.44
343.209	104.44
343.437	118.44
343.665	114.44
343.893	104.44
344.12	119.44
344.348	112.44
344.576	118.44
344.804	104.44
345.031	100.44
345.259	107.44
345.487	107.44
345.714	118.44
345.942	118.44
346.17	104.44
346.397	107.44
346.625	103.44
346.853	79.44
347.08	88.44
347.308	116.44
347.535	110.44
347.763	102.44
347.99	102.44
348.218	88.44
348.445	100.44
348.673	122.44
348.9	115.44
349.128	107.44
349.355	118.44
349.583	116.44
349.81	111.44
350.037	113.44
350.265	129.44
350.492	102.44
350.72	119.44
350.947	112.44
351.174	122.44
351.402	112.44
351.629	122.44
351.856	110.44
352.083	98.44
352.311	105.44
352.538	106.44
352.765	107.44
352.992	102.44
353.22	98.44
353.447	102.44
353.674	114.44
353.901	91.44
354.128	110.44
354.355	101.44
354.583	100.44
354.81	82.44
355.037	104.44
355.264	121.44
355.491	91.44
355.718	95.44
355.945	101.44
356.172	113.44
356.399	99.44
356.626	112.44
356.853	102.44
357.08	116.44
357.307	116.44
357.534	106.44
357.761	115.44
357.988	118.44
358.215	110.44
358.441	113.44
358.668	103.44
358.895	118.44
359.122	120.44
359.349	120.44
359.576	114.44
359.802	108.44
360.029	102.44
360.256	107.44
360.483	102.44
360.709	98.44
360.936	117.44
361.163	102.44
361.39	97.44
361.616	124.44
361.843	122.44
362.07	115.44
362.296	110.44
362.523	104.44
362.749	88.44
362.976	105.44
363.203	98.44
363.429	102.44
363.656	97.44
363.882	110.44
364.109	107.44
364.335	108.44
364.562	104.44
364.788	111.44
365.015	108.44
365.241	139.44
365.468	190.44
365.694	268.44
365.92	208.44
366.147	115.44
366.373	90.44
366.599	97.44
366.826	90.44
367.052	98.44
367.278	91.44
367.505	103.44
367.731	114.44
367.957	119.44
368.184	114.44
368.41	115.44
368.636	125.44
368.862	104.44
369.089	101.44
369.315	110.44
369.541	114.44
369.767	106.44
369.993	123.44
370.219	123.44
370.445	105.44
370.672	118.44
370.898	112.44
371.124	87.44
371.35	114.44
371.576	99.44
371.802	114.44
372.028	118.44
372.254	99.44
372.48	130.44
372.706	101.44
372.932	106.44
373.158	112.44
373.384	118.44
373.61	120.44
373.835	105.44
374.061	108.44
374.287	95.44
374.513	98.44
374.739	119.44
374.965	118.44
375.191	98.44
375.416	107.44
375.642	110.44
375.868	106.44
376.094	105.44
376.319	99.44
376.545	105.44
376.771	106.44
376.997	96.44
377.222	95.44
377.448	93.44
377.674	107.44
377.899	105.44
378.125	103.44
378.35	107.44
378.576	117.44
378.802	126.44
379.027	124.44
379.253	134.44
379.478	177.44
379.704	304.44
379.929	765.44
380.155	1600.44
380.38	1682.44
380.606	515.44
380.831	176.44
381.057	138.44
381.282	99.44
381.507	106.44
381.733	116.44
381.958	98.44
382.184	109.44
382.409	115.44
382.634	101.44
382.86	102.44
383.085	107.44
383.31	110.44
383.535	105.44
383.761	94.44
383.986	100.44
384.211	112.44
384.436	99.44
384.662	97.44
384.887	94.44
385.112	113.44
385.337	102.44
385.562	101.44
385.787	102.44
386.013	96.44
386.238	107.44
386.463	97.44
386.688	113.44
386.913	110.44
387.138	104.44
387.363	103.44
387.588	107.44
387.813	113.44
388.038	107.44
388.263	90.44
388.488	95.44
388.713	103.44
388.938	105.44
389.163	110.44
389.387	88.44
389.612	99.44
389.837	103.44
390.062	85.44
390.287	115.44
390.512	105.44
390.736	107.44
390.961	96.44
391.186	92.44
391.411	103.44
391.636	99.44
391.86	91.44
392.085	105.44
392.31	99.44
392.534	105.44
392.759	89.44
392.984	96.44
393.208	118.44
393.433	140.44
393.658	129.44
393.882	103.44
394.107	86.44
394.331	91.44
394.556	92.44
394.78	92.44
395.005	113.44
395.229	107.44
395.454	85.44
395.678	95.44
395.903	89.44
396.127	96.44
396.352	97.44
396.576	116.44
396.801	130.44
397.025	114.44
397.249	103.44
397.474	103.44
397.698	75.44
397.922	105.44
398.147	95.44
398.371	98.44
398.595	105.44
398.82	98.44
399.044	93.44
399.268	104.44
399.492	98.44
399.717	91.44
399.941	110.44
400.165	82.44
400.389	89.44
400.613	99.44
400.837	101.44
401.062	88.44
401.286	95.44
401.51	85.44
401.734	91.44
401.958	96.44
402.182	103.44
402.406	87.44
402.63	113.44
402.854	100.44
403.078	100.44
403.302	101.44
403.526	90.44
403.75	108.44
403.974	107.44
404.198	106.44
404.422	98.44
404.645	92.44
404.869	93.44
405.093	86.44
405.317	95.44
405.541	109.44
405.765	134.44
405.988	142.44
406.212	121.44
406.436	108.44
406.66	115.44
406.883	112.44
407.107	101.44
407.331	97.44
407.555	96.44
407.778	95.44
408.002	104.44
408.226	83.44
408.449	91.44
408.673	118.44
408.896	98.44
409.12	88.44
409.344	105.44
409.567	96.44
409.791	103.44
410.014	97.44
410.238	116.44
410.461	111.44
410.685	107.44
410.908	114.44
411.132	95.44
411.355	86.44
411.578	97.44
411.802	105.44
412.025	106.44
412.249	99.44
412.472	93.44
412.695	123.44
412.919	108.44
413.142	100.44
413.365	95.44
413.589	89.44
413.812	97.44
414.035	102.44
414.258	100.44
414.482	94.44
414.705	107.44
414.928	125.44
415.151	116.44
415.374	82.44
415.597	95.44
415.821	74.44
416.044	88.44
416.267	88.44
416.49	104.44
416.713	102.44
416.936	88.44
417.159	87.44
417.382	101.44
417.605	89.44
417.828	102.44
418.051	92.44
418.274	104.44
418.497	104.44
418.72	107.44
418.943	95.44
419.166	111.44
419.389	105.44
419.611	103.44
419.834	106.44
420.057	99.44
420.28	95.44
420.503	105.44
420.726	108.44
420.948	115.44
421.171	84.44
421.394	85.44
421.617	93.44
421.839	83.44
422.062	91.44
422.285	95.44
422.507	107.44
422.73	135.44
422.953	143.44
423.175	115.44
423.398	105.44
423.621	101.44
423.843	99.44
424.066	94.44
424.288	97.44
424.511	107.44
424.733	89.44
424.956	103.44
425.178	94.44
425.401	83.44
425.623	86.44
425.846	104.44
426.068	89.44
426.291	91.44
426.513	101.44
426.735	97.44
426.958	93.44
427.18	81.44
427.402	110.44
427.625	88.44
427.847	100.44
428.069	92.44
428.292	84.44
428.514	99.44
428.736	86.44
428.958	93.44
429.181	99.44
429.403	99.44
429.625	102.44
429.847	113.44
430.069	103.44
430.292	91.44
430.514	96.44
430.736	106.44
430.958	92.44
431.18	83.44
431.402	105.44
431.624	110.44
431.846	87.44
432.068	89.44
432.29	91.44
432.512	96.44
432.734	92.44
432.956	101.44
433.178	103.44
433.4	95.44
433.622	83.44
433.844	73.44
434.066	104.44
434.287	84.44
434.509	103.44
434.731	94.44
434.953	100.44
435.175	95.44
435.397	103.44
435.618	87.44
435.84	83.44
436.062	92.44
436.284	99.44
436.505	97.44
436.727	86.44
436.949	95.44
437.17	91.44
437.392	76.44
437.614	90.44
437.835	88.44
438.057	81.44
438.278	95.44
438.5	105.44
438.721	92.44
438.943	110.44
439.165	110.44
439.386	107.44
439.608	105.44
439.829	105.44
440.05	119.44
440.272	135.44
440.493	104.44
440.715	102.44
440.936	86.44
441.158	86.44
441.379	90.44
441.6	94.44
441.822	99.44
442.043	126.44
442.264	124.44
442.486	130.44
442.707	96.44
442.928	85.44
443.149	86.44
443.371	88.44
443.592	99.44
443.813	95.44
444.034	86.44
444.255	105.44
444.476	88.44
444.698	91.44
444.919	97.44
445.14	180.44
445.361	121.44
445.582	104.44
445.803	92.44
446.024	92.44
446.245	98.44
446.466	107.44
446.687	123.44
446.908	96.44
447.129	103.44
447.35	85.44
447.571	89.44
447.792	98.44
448.013	86.44
448.234	97.44
448.455	98.44
448.675	110.44
448.896	97.44
449.117	107.44
449.338	130.44
449.559	160.44
449.779	116.44
450	118.44
450.221	103.44
450.442	115.44
450.662	116.44
450.883	91.44
451.104	101.44
451.324	126.44
451.545	110.44
451.766	109.44
451.986	133.44
452.207	191.44
452.428	562.44
452.648	1340.44
452.869	764.44
453.089	211.44
453.31	134.44
453.53	110.44
453.751	128.44
453.971	177.44
454.192	174.44
454.412	122.44
454.633	98.44
454.853	112.44
455.073	101.44
455.294	86.44
455.514	102.44
455.734	91.44
455.955	102.44
456.175	87.44
456.395	99.44
456.616	91.44
456.836	101.44
457.056	104.44
457.276	106.44
457.497	118.44
457.717	117.44
457.937	114.44
458.157	100.44
458.377	91.44
458.598	84.44
458.818	90.44
459.038	89.44
459.258	105.44
459.478	77.44
459.698	101.44
459.918	95.44
460.138	79.44
460.358	85.44
460.578	85.44
460.798	87.44
461.018	94.44
461.238	93.44
461.458	92.44
461.678	102.44
461.898	82.44
462.118	98.44
462.338	104.44
462.558	83.44
462.777	89.44
462.997	91.44
463.217	104.44
463.437	135.44
463.657	203.44
463.876	176.44
464.096	120.44
464.316	112.44
464.536	95.44
464.755	103.44
464.975	109.44
465.195	94.44
465.414	102.44
465.634	106.44
465.854	96.44
466.073	98.44
466.293	93.44
466.512	100.44
466.732	104.44
466.951	115.44
467.171	139.44
467.391	144.44
467.61	100.44
467.829	107.44
468.049	107.44
468.268	97.44
468.488	98.44
468.707	98.44
468.927	98.44
469.146	88.44
469.365	81.44
469.585	99.44
469.804	105.44
470.023	94.44
470.243	99.44
470.462	97.44
470.681	99.44
470.901	127.44
471.12	190.44
471.339	216.44
471.558	135.44
471.777	122.44
471.997	113.44
472.216	95.44
472.435	97.44
472.654	69.44
472.873	91.44
473.092	102.44
473.311	98.44
473.53	97.44
473.749	105.44
473.968	97.44
474.187	97.44
474.406	95.44
474.625	88.44
474.844	112.44
475.063	83.44
475.282	92.44
475.501	104.44
475.72	92.44
475.939	91.44
476.158	117.44
476.377	99.44
476.596	114.44
476.814	101.44
477.033	104.44
477.252	92.44
477.471	95.44
477.69	97.44
477.908	94.44
478.127	109.44
478.346	100.44
478.564	109.44
478.783	93.44
479.002	91.44
479.22	115.44
479.439	95.44
479.658	110.44
479.876	98.44
480.095	101.44
480.313	89.44
480.532	95.44
480.751	95.44
480.969	87.44
481.188	100.44
481.406	95.44
481.624	100.44
481.843	105.44
482.061	115.44
482.28	107.44
482.498	103.44
482.717	99.44
482.935	99.44
483.153	108.44
483.372	110.44
483.59	107.44
483.808	107.44
484.027	100.44
484.245	133.44
484.463	166.44
484.681	233.44
484.9	156.44
485.118	106.44
485.336	90.44
485.554	106.44
485.772	123.44
485.99	196.44
486.209	286.44
486.427	170.44
486.645	112.44
486.863	107.44
487.081	115.44
487.299	97.44
487.517	96.44
487.735	102.44
487.953	90.44
488.171	106.44
488.389	112.44
488.607	109.44
488.825	105.44
489.043	86.44
489.261	102.44
489.479	97.44
489.696	113.44
489.914	94.44
490.132	115.44
490.35	102.44
490.568	94.44
490.786	107.44
491.003	115.44
491.221	107.44
491.439	120.44
491.657	116.44
491.874	107.44
492.092	116.44
492.31	96.44
492.527	111.44
492.745	110.44
492.963	106.44
493.18	101.44
493.398	117.44
493.615	88.44
493.833	105.44
494.05	86.44
494.268	115.44
494.485	105.44
494.703	106.44
494.92	104.44
495.138	112.44
495.355	102.44
495.573	115.44
495.79	103.44
496.008	98.44
496.225	110.44
496.442	118.44
496.66	120.44
496.877	164.44
497.094	138.44
497.312	103.44
497.529	118.44
497.746	97.44
497.963	105.44
498.181	91.44
498.398	107.44
498.615	122.44
498.832	106.44
499.049	102.44
499.267	137.44
499.484	161.44
499.701	95.44
499.918	104.44
500.135	110.44
500.352	105.44
500.569	94.44
500.786	96.44
501.003	92.44
501.22	101.44
501.437	90.44
501.654	104.44
501.871	101.44
502.088	93.44
502.305	104.44
502.522	103.44
502.739	105.44
502.956	120.44
503.172	111.44
503.389	111.44
503.606	82.44
503.823	107.44
504.04	91.44
504.256	102.44
504.473	100.44
504.69	103.44
504.907	121.44
505.123	126.44
505.34	110.44
505.557	98.44
505.773	102.44
505.99	98.44
506.207	108.44
506.423	113.44
506.64	106.44
506.856	104.44
507.073	119.44
507.289	104.44
507.506	116.44
507.722	95.44
507.939	115.44
508.155	96.44
508.372	97.44
