Data from SnStandardFlinnAPT0064_LampEnergy5.5_LIBS07252019.E.O._I.C._HRD10591_15-17-34-492.txt Node
Date: Thu Jul 25 15:17:34 EDT 2019
User: cochatt
Spectrometer: HR+D1059
Trigger mode: 1
Integration Time (sec): 1.000000E-1
Scans to average: 1
Electric dark correction enabled: true
Nonlinearity correction enabled: false
Boxcar width: 0
XAxis mode: Wavelengths
Number of Pixels in Spectrum: 2048
>>>>>Begin Spectral Data<<<<<
223.165	-9.69
223.4	-9.69
223.635	-9.69
223.869	-12.69
224.104	-18.69
224.338	-13.69
224.573	0.31
224.808	-20.69
225.042	-9.69
225.277	2.31
225.511	-8.69
225.746	-2.69
225.98	-1.69
226.215	20.31
226.449	9.31
226.683	25.31
226.918	17.31
227.152	23.31
227.387	38.31
227.621	37.31
227.856	30.31
228.09	32.31
228.324	30.31
228.559	40.31
228.793	88.31
229.027	164.31
229.262	173.31
229.496	166.31
229.73	171.31
229.964	170.31
230.199	166.31
230.433	167.31
230.667	186.31
230.901	164.31
231.136	165.31
231.37	182.31
231.604	195.31
231.838	209.31
232.072	257.31
232.306	284.31
232.541	261.31
232.775	220.31
233.009	221.31
233.243	214.31
233.477	206.31
233.711	235.31
233.945	296.31
234.179	260.31
234.413	244.31
234.647	233.31
234.881	247.31
235.115	238.31
235.349	306.31
235.583	392.31
235.817	486.31
236.051	479.31
236.285	310.31
236.519	255.31
236.753	251.31
236.987	239.31
237.221	251.31
237.455	255.31
237.689	234.31
237.922	240.31
238.156	242.31
238.39	238.31
238.624	244.31
238.858	238.31
239.091	241.31
239.325	254.31
239.559	228.31
239.793	233.31
240.027	245.31
240.26	260.31
240.494	258.31
240.728	278.31
240.961	291.31
241.195	310.31
241.429	318.31
241.662	310.31
241.896	361.31
242.13	404.31
242.363	562.31
242.597	736.31
242.83	702.31
243.064	718.31
243.298	832.31
243.531	692.31
243.765	433.31
243.998	366.31
244.232	334.31
244.465	327.31
244.699	307.31
244.932	322.31
245.166	306.31
245.399	330.31
245.633	318.31
245.866	301.31
246.099	293.31
246.333	307.31
246.566	308.31
246.8	313.31
247.033	290.31
247.266	289.31
247.5	306.31
247.733	324.31
247.966	333.31
248.2	360.31
248.433	388.31
248.666	438.31
248.899	404.31
249.133	368.31
249.366	382.31
249.599	425.31
249.832	487.31
250.066	500.31
250.299	383.31
250.532	356.31
250.765	358.31
250.998	356.31
251.231	366.31
251.465	333.31
251.698	340.31
251.931	363.31
252.164	357.31
252.397	361.31
252.63	347.31
252.863	366.31
253.096	358.31
253.329	374.31
253.562	353.31
253.795	363.31
254.028	387.31
254.261	391.31
254.494	421.31
254.727	482.31
254.96	564.31
255.193	538.31
255.426	428.31
255.659	393.31
255.892	407.31
256.124	391.31
256.357	395.31
256.59	414.31
256.823	438.31
257.056	494.31
257.289	591.31
257.521	633.31
257.754	514.31
257.987	454.31
258.22	423.31
258.452	427.31
258.685	403.31
258.918	440.31
259.151	462.31
259.383	470.31
259.616	544.31
259.849	570.31
260.081	506.31
260.314	443.31
260.547	451.31
260.779	423.31
261.012	457.31
261.244	456.31
261.477	454.31
261.71	473.31
261.942	480.31
262.175	463.31
262.407	475.31
262.64	469.31
262.872	512.31
263.105	523.31
263.337	548.31
263.57	578.31
263.802	592.31
264.035	608.31
264.267	606.31
264.499	629.31
264.732	653.31
264.964	648.31
265.197	646.31
265.429	657.31
265.661	679.31
265.894	700.31
266.126	789.31
266.358	863.31
266.591	838.31
266.823	720.31
267.055	659.31
267.287	628.31
267.52	597.31
267.752	602.31
267.984	605.31
268.216	587.31
268.448	581.31
268.681	572.31
268.913	570.31
269.145	536.31
269.377	552.31
269.609	559.31
269.841	588.31
270.073	622.31
270.306	720.31
270.538	969.31
270.77	1435.31
271.002	1730.31
271.234	1227.31
271.466	820.31
271.698	661.31
271.93	618.31
272.162	615.31
272.394	571.31
272.626	562.31
272.858	530.31
273.09	565.31
273.322	561.31
273.553	534.31
273.785	566.31
274.017	531.31
274.249	550.31
274.481	539.31
274.713	555.31
274.945	559.31
275.176	580.31
275.408	560.31
275.64	562.31
275.872	586.31
276.104	589.31
276.335	543.31
276.567	562.31
276.799	560.31
277.031	582.31
277.262	598.31
277.494	626.31
277.726	682.31
277.957	782.31
278.189	891.31
278.421	834.31
278.652	763.31
278.884	714.31
279.115	642.31
279.347	630.31
279.579	639.31
279.81	628.31
280.042	618.31
280.273	642.31
280.505	626.31
280.736	649.31
280.968	666.31
281.199	760.31
281.431	847.31
281.662	870.31
281.894	767.31
282.125	726.31
282.356	704.31
282.588	735.31
282.819	740.31
283.051	770.31
283.282	876.31
283.513	1083.31
283.745	1568.31
283.976	2535.31
284.207	3590.31
284.439	3157.31
284.67	1832.31
284.901	1511.31
285.132	1488.31
285.364	1438.31
285.595	1119.31
285.826	1037.31
286.057	1209.31
286.288	1728.31
286.52	2291.31
286.751	2091.31
286.982	1232.31
287.213	969.31
287.444	803.31
287.675	788.31
287.906	772.31
288.138	774.31
288.369	747.31
288.6	738.31
288.831	765.31
289.062	747.31
289.293	738.31
289.524	773.31
289.755	747.31
289.986	755.31
290.217	761.31
290.448	756.31
290.679	770.31
290.91	749.31
291.141	790.31
291.371	851.31
291.602	871.31
291.833	839.31
292.064	753.31
292.295	729.31
292.526	715.31
292.757	707.31
292.987	706.31
293.218	722.31
293.449	724.31
293.68	703.31
293.91	703.31
294.141	676.31
294.372	715.31
294.603	718.31
294.833	706.31
295.064	706.31
295.295	684.31
295.525	713.31
295.756	690.31
295.987	652.31
296.217	720.31
296.448	702.31
296.679	706.31
296.909	712.31
297.14	696.31
297.37	724.31
297.601	735.31
297.831	696.31
298.062	727.31
298.292	747.31
298.523	727.31
298.753	762.31
298.984	737.31
299.214	782.31
299.445	778.31
299.675	787.31
299.905	778.31
300.136	806.31
300.366	938.31
300.597	1222.31
300.827	1639.31
301.057	2277.31
301.288	2263.31
301.518	1417.31
301.748	1076.31
301.979	995.31
302.209	984.31
302.439	967.31
302.669	1011.31
302.9	1245.31
303.13	1731.31
303.36	2620.31
303.59	3534.31
303.82	3060.31
304.051	1796.31
304.281	1218.31
304.511	1022.31
304.741	980.31
304.971	921.31
305.201	898.31
305.431	844.31
305.661	849.31
305.891	818.31
306.121	819.31
306.352	844.31
306.582	825.31
306.812	816.31
307.042	810.31
307.272	806.31
307.502	822.31
307.731	807.31
307.961	816.31
308.191	801.31
308.421	779.31
308.651	828.31
308.881	794.31
309.111	804.31
309.341	807.31
309.571	810.31
309.8	812.31
310.03	799.31
310.26	817.31
310.49	835.31
310.72	838.31
310.949	833.31
311.179	848.31
311.409	822.31
311.639	879.31
311.868	814.31
312.098	842.31
312.328	860.31
312.557	855.31
312.787	872.31
313.017	858.31
313.246	875.31
313.476	865.31
313.706	902.31
313.935	931.31
314.165	1000.31
314.394	1034.31
314.624	985.31
314.853	934.31
315.083	938.31
315.312	937.31
315.542	966.31
315.771	937.31
316.001	1006.31
316.23	1021.31
316.46	1027.31
316.689	1133.31
316.919	1384.31
317.148	1978.31
317.377	3088.31
317.607	4708.31
317.836	4787.31
318.065	2715.31
318.295	1683.31
318.524	1402.31
318.753	1254.31
318.983	1139.31
319.212	1095.31
319.441	1062.31
319.67	1039.31
319.9	1047.31
320.129	1027.31
320.358	1005.31
320.587	998.31
320.816	993.31
321.046	1000.31
321.275	1019.31
321.504	1026.31
321.733	1060.31
321.962	1056.31
322.191	1076.31
322.42	1074.31
322.649	1089.31
322.878	1067.31
323.108	1070.31
323.337	1109.31
323.566	1094.31
323.795	1120.31
324.024	1139.31
324.253	1171.31
324.482	1207.31
324.71	1255.31
324.939	1310.31
325.168	1346.31
325.397	1446.31
325.626	1694.31
325.855	2354.31
326.084	3869.31
326.313	5666.31
326.542	6006.31
326.77	3719.31
326.999	2345.31
327.228	2008.31
327.457	1921.31
327.686	1910.31
327.914	2005.31
328.143	2316.31
328.372	2682.31
328.6	2891.31
328.829	2663.31
329.058	2277.31
329.287	2082.31
329.515	1916.31
329.744	1796.31
329.972	1678.31
330.201	1592.31
330.43	1544.31
330.658	1507.31
330.887	1468.31
331.115	1480.31
331.344	1473.31
331.572	1459.31
331.801	1457.31
332.03	1470.31
332.258	1497.31
332.486	1579.31
332.715	1800.31
332.943	2225.31
333.172	2730.31
333.4	2707.31
333.629	2007.31
333.857	1822.31
334.085	1838.31
334.314	1921.31
334.542	2108.31
334.771	2383.31
334.999	2854.31
335.227	3500.31
335.455	3961.31
335.684	3589.31
335.912	3069.31
336.14	2600.31
336.369	2311.31
336.597	2186.31
336.825	1949.31
337.053	1878.31
337.281	1779.31
337.51	1689.31
337.738	1655.31
337.966	1564.31
338.194	1538.31
338.422	1450.31
338.65	1444.31
338.878	1434.31
339.106	1430.31
339.334	1373.31
339.562	1350.31
339.79	1312.31
340.018	1365.31
340.246	1301.31
340.474	1304.31
340.702	1299.31
340.93	1271.31
341.158	1274.31
341.386	1268.31
341.614	1268.31
341.842	1250.31
342.07	1225.31
342.298	1214.31
342.526	1208.31
342.754	1207.31
342.981	1208.31
343.209	1201.31
343.437	1162.31
343.665	1226.31
343.893	1223.31
344.12	1253.31
344.348	1186.31
344.576	1181.31
344.804	1178.31
345.031	1112.31
345.259	1161.31
345.487	1128.31
345.714	1156.31
345.942	1129.31
346.17	1124.31
346.397	1109.31
346.625	1116.31
346.853	1104.31
347.08	1107.31
347.308	1094.31
347.535	1110.31
347.763	1119.31
347.99	1087.31
348.218	1082.31
348.445	1054.31
348.673	1112.31
348.9	1087.31
349.128	1072.31
349.355	1095.31
349.583	1076.31
349.81	1086.31
350.037	1074.31
350.265	1074.31
350.492	1079.31
350.72	1034.31
350.947	1031.31
351.174	1056.31
351.402	1051.31
351.629	1054.31
351.856	1052.31
352.083	1059.31
352.311	1061.31
352.538	1057.31
352.765	1062.31
352.992	1070.31
353.22	1024.31
353.447	1044.31
353.674	1050.31
353.901	1063.31
354.128	1058.31
354.355	1045.31
354.583	1060.31
354.81	1064.31
355.037	1083.31
355.264	1082.31
355.491	1057.31
355.718	1062.31
355.945	1079.31
356.172	1067.31
356.399	1076.31
356.626	1071.31
356.853	1098.31
357.08	1104.31
357.307	1100.31
357.534	1137.31
357.761	1108.31
357.988	1118.31
358.215	1105.31
358.441	1121.31
358.668	1103.31
358.895	1140.31
359.122	1128.31
359.349	1140.31
359.576	1095.31
359.802	1110.31
360.029	1100.31
360.256	1122.31
360.483	1145.31
360.709	1126.31
360.936	1115.31
361.163	1143.31
361.39	1147.31
361.616	1125.31
361.843	1123.31
362.07	1137.31
362.296	1136.31
362.523	1122.31
362.749	1113.31
362.976	1132.31
363.203	1115.31
363.429	1120.31
363.656	1110.31
363.882	1144.31
364.109	1139.31
364.335	1106.31
364.562	1131.31
364.788	1114.31
365.015	1136.31
365.241	1168.31
365.468	1220.31
365.694	1239.31
365.92	1225.31
366.147	1164.31
366.373	1135.31
366.599	1154.31
366.826	1163.31
367.052	1138.31
367.278	1147.31
367.505	1152.31
367.731	1155.31
367.957	1165.31
368.184	1185.31
368.41	1160.31
368.636	1192.31
368.862	1180.31
369.089	1137.31
369.315	1159.31
369.541	1158.31
369.767	1189.31
369.993	1174.31
370.219	1154.31
370.445	1144.31
370.672	1185.31
370.898	1201.31
371.124	1219.31
371.35	1193.31
371.576	1224.31
371.802	1220.31
372.028	1211.31
372.254	1207.31
372.48	1229.31
372.706	1251.31
372.932	1230.31
373.158	1226.31
373.384	1225.31
373.61	1231.31
373.835	1198.31
374.061	1222.31
374.287	1242.31
374.513	1255.31
374.739	1283.31
374.965	1269.31
375.191	1267.31
375.416	1281.31
375.642	1259.31
375.868	1255.31
376.094	1263.31
376.319	1230.31
376.545	1206.31
376.771	1227.31
376.997	1215.31
377.222	1214.31
377.448	1196.31
377.674	1236.31
377.899	1191.31
378.125	1181.31
378.35	1232.31
378.576	1242.31
378.802	1222.31
379.027	1233.31
379.253	1257.31
379.478	1341.31
379.704	1563.31
379.929	2196.31
380.155	3335.31
380.38	3655.31
380.606	2190.31
380.831	1570.31
381.057	1393.31
381.282	1316.31
381.507	1220.31
381.733	1219.31
381.958	1207.31
382.184	1200.31
382.409	1209.31
382.634	1189.31
382.86	1204.31
383.085	1197.31
383.31	1167.31
383.535	1215.31
383.761	1190.31
383.986	1214.31
384.211	1256.31
384.436	1254.31
384.662	1210.31
384.887	1224.31
385.112	1223.31
385.337	1244.31
385.562	1243.31
385.787	1228.31
386.013	1229.31
386.238	1226.31
386.463	1225.31
386.688	1221.31
386.913	1252.31
387.138	1229.31
387.363	1263.31
387.588	1233.31
387.813	1215.31
388.038	1225.31
388.263	1222.31
388.488	1258.31
388.713	1214.31
388.938	1235.31
389.163	1231.31
389.387	1268.31
389.612	1228.31
389.837	1220.31
390.062	1227.31
390.287	1261.31
390.512	1257.31
390.736	1220.31
390.961	1259.31
391.186	1266.31
391.411	1294.31
391.636	1298.31
391.86	1320.31
392.085	1297.31
392.31	1283.31
392.534	1290.31
392.759	1286.31
392.984	1254.31
393.208	1264.31
393.433	1278.31
393.658	1237.31
393.882	1245.31
394.107	1212.31
394.331	1242.31
394.556	1248.31
394.78	1231.31
395.005	1301.31
395.229	1261.31
395.454	1268.31
395.678	1266.31
395.903	1318.31
396.127	1319.31
396.352	1287.31
396.576	1306.31
396.801	1292.31
397.025	1301.31
397.249	1300.31
397.474	1310.31
397.698	1298.31
397.922	1306.31
398.147	1287.31
398.371	1298.31
398.595	1378.31
398.82	1368.31
399.044	1456.31
399.268	1491.31
399.492	1562.31
399.717	1634.31
399.941	1654.31
400.165	1581.31
400.389	1504.31
400.613	1438.31
400.837	1384.31
401.062	1414.31
401.286	1387.31
401.51	1388.31
401.734	1355.31
401.958	1337.31
402.182	1369.31
402.406	1371.31
402.63	1387.31
402.854	1367.31
403.078	1387.31
403.302	1416.31
403.526	1424.31
403.75	1404.31
403.974	1424.31
404.198	1392.31
404.422	1478.31
404.645	1401.31
404.869	1413.31
405.093	1425.31
405.317	1418.31
405.541	1430.31
405.765	1425.31
405.988	1445.31
406.212	1454.31
406.436	1450.31
406.66	1476.31
406.883	1467.31
407.107	1488.31
407.331	1510.31
407.555	1524.31
407.778	1541.31
408.002	1504.31
408.226	1515.31
408.449	1532.31
408.673	1467.31
408.896	1452.31
409.12	1425.31
409.344	1438.31
409.567	1390.31
409.791	1433.31
410.014	1413.31
410.238	1398.31
410.461	1423.31
410.685	1405.31
410.908	1348.31
411.132	1402.31
411.355	1358.31
411.578	1373.31
411.802	1342.31
412.025	1361.31
412.249	1350.31
412.472	1385.31
412.695	1350.31
412.919	1352.31
413.142	1369.31
413.365	1356.31
413.589	1336.31
413.812	1329.31
414.035	1356.31
414.258	1322.31
414.482	1353.31
414.705	1357.31
414.928	1360.31
415.151	1331.31
415.374	1326.31
415.597	1294.31
415.821	1265.31
416.044	1266.31
416.267	1271.31
416.49	1278.31
416.713	1289.31
416.936	1282.31
417.159	1278.31
417.382	1272.31
417.605	1267.31
417.828	1281.31
418.051	1284.31
418.274	1258.31
418.497	1306.31
418.72	1339.31
418.943	1319.31
419.166	1386.31
419.389	1446.31
419.611	1399.31
419.834	1377.31
420.057	1381.31
420.28	1328.31
420.503	1289.31
420.726	1270.31
420.948	1308.31
421.171	1278.31
421.394	1314.31
421.617	1305.31
421.839	1314.31
422.062	1316.31
422.285	1322.31
422.507	1345.31
422.73	1321.31
422.953	1328.31
423.175	1309.31
423.398	1320.31
423.621	1257.31
423.843	1290.31
424.066	1311.31
424.288	1304.31
424.511	1310.31
424.733	1280.31
424.956	1282.31
425.178	1266.31
425.401	1259.31
425.623	1292.31
425.846	1268.31
426.068	1274.31
426.291	1231.31
426.513	1241.31
426.735	1250.31
426.958	1226.31
427.18	1244.31
427.402	1247.31
427.625	1178.31
427.847	1236.31
428.069	1204.31
428.292	1204.31
428.514	1194.31
428.736	1206.31
428.958	1200.31
429.181	1194.31
429.403	1165.31
429.625	1205.31
429.847	1198.31
430.069	1231.31
430.292	1253.31
430.514	1283.31
430.736	1268.31
430.958	1225.31
431.18	1181.31
431.402	1202.31
431.624	1214.31
431.846	1178.31
432.068	1168.31
432.29	1171.31
432.512	1142.31
432.734	1189.31
432.956	1199.31
433.178	1200.31
433.4	1211.31
433.622	1220.31
433.844	1199.31
434.066	1192.31
434.287	1189.31
434.509	1204.31
434.731	1223.31
434.953	1234.31
435.175	1264.31
435.397	1221.31
435.618	1214.31
435.84	1202.31
436.062	1144.31
436.284	1185.31
436.505	1170.31
436.727	1173.31
436.949	1202.31
437.17	1189.31
437.392	1145.31
437.614	1136.31
437.835	1125.31
438.057	1142.31
438.278	1129.31
438.5	1162.31
438.721	1158.31
438.943	1232.31
439.165	1255.31
439.386	1225.31
439.608	1223.31
439.829	1241.31
440.05	1249.31
440.272	1284.31
440.493	1250.31
440.715	1230.31
440.936	1222.31
441.158	1255.31
441.379	1259.31
441.6	1308.31
441.822	1302.31
442.043	1398.31
442.264	1424.31
442.486	1347.31
442.707	1305.31
442.928	1264.31
443.149	1252.31
443.371	1270.31
443.592	1255.31
443.813	1302.31
444.034	1292.31
444.255	1273.31
444.476	1330.31
444.698	1330.31
444.919	1366.31
445.14	1450.31
445.361	1394.31
445.582	1315.31
445.803	1296.31
446.024	1273.31
446.245	1251.31
446.466	1296.31
446.687	1260.31
446.908	1234.31
447.129	1196.31
447.35	1219.31
447.571	1175.31
447.792	1185.31
448.013	1171.31
448.234	1192.31
448.455	1183.31
448.675	1216.31
448.896	1216.31
449.117	1273.31
449.338	1350.31
449.559	1387.31
449.779	1262.31
450	1168.31
450.221	1162.31
450.442	1146.31
450.662	1155.31
450.883	1118.31
451.104	1125.31
451.324	1095.31
451.545	1150.31
451.766	1145.31
451.986	1144.31
452.207	1232.31
452.428	1543.31
452.648	2195.31
452.869	1849.31
453.089	1359.31
453.31	1257.31
453.53	1278.31
453.751	1322.31
453.971	1394.31
454.192	1399.31
454.412	1210.31
454.633	1154.31
454.853	1144.31
455.073	1092.31
455.294	1148.31
455.514	1090.31
455.734	1103.31
455.955	1094.31
456.175	1101.31
456.395	1094.31
456.616	1115.31
456.836	1114.31
457.056	1096.31
457.276	1112.31
457.497	1173.31
457.717	1164.31
457.937	1156.31
458.157	1149.31
458.377	1132.31
458.598	1152.31
458.818	1157.31
459.038	1158.31
459.258	1151.31
459.478	1167.31
459.698	1162.31
459.918	1224.31
460.138	1206.31
460.358	1257.31
460.578	1264.31
460.798	1276.31
461.018	1292.31
461.238	1292.31
461.458	1271.31
461.678	1320.31
461.898	1344.31
462.118	1320.31
462.338	1328.31
462.558	1352.31
462.777	1391.31
462.997	1426.31
463.217	1481.31
463.437	1532.31
463.657	1564.31
463.876	1540.31
464.096	1502.31
464.316	1426.31
464.536	1390.31
464.755	1399.31
464.975	1333.31
465.195	1285.31
465.414	1266.31
465.634	1239.31
465.854	1218.31
466.073	1187.31
466.293	1200.31
466.512	1209.31
466.732	1195.31
466.951	1272.31
467.171	1329.31
467.391	1339.31
467.61	1231.31
467.829	1202.31
468.049	1163.31
468.268	1143.31
468.488	1170.31
468.707	1170.31
468.927	1164.31
469.146	1145.31
469.365	1182.31
469.585	1194.31
469.804	1220.31
470.023	1256.31
470.243	1254.31
470.462	1300.31
470.681	1299.31
470.901	1488.31
471.12	1690.31
471.339	1722.31
471.558	1433.31
471.777	1264.31
471.997	1230.31
472.216	1216.31
472.435	1170.31
472.654	1162.31
472.873	1139.31
473.092	1174.31
473.311	1162.31
473.53	1182.31
473.749	1189.31
473.968	1234.31
474.187	1194.31
474.406	1160.31
474.625	1163.31
474.844	1177.31
475.063	1167.31
475.282	1188.31
475.501	1176.31
475.72	1178.31
475.939	1223.31
476.158	1222.31
476.377	1225.31
476.596	1194.31
476.814	1208.31
477.033	1235.31
477.252	1287.31
477.471	1264.31
477.69	1283.31
477.908	1310.31
478.127	1302.31
478.346	1319.31
478.564	1341.31
478.783	1384.31
479.002	1376.31
479.22	1376.31
479.439	1403.31
479.658	1370.31
479.876	1367.31
480.095	1396.31
480.313	1450.31
480.532	1444.31
480.751	1394.31
480.969	1396.31
481.188	1368.31
481.406	1402.31
481.624	1381.31
481.843	1376.31
482.061	1395.31
482.28	1391.31
482.498	1395.31
482.717	1404.31
482.935	1403.31
483.153	1414.31
483.372	1431.31
483.59	1482.31
483.808	1449.31
484.027	1495.31
484.245	1598.31
484.463	1771.31
484.681	2004.31
484.9	1809.31
485.118	1630.31
485.336	1624.31
485.554	1667.31
485.772	1738.31
485.99	2021.31
486.209	2180.31
486.427	1862.31
486.645	1632.31
486.863	1548.31
487.081	1558.31
487.299	1502.31
487.517	1524.31
487.735	1535.31
487.953	1538.31
488.171	1503.31
488.389	1499.31
488.607	1497.31
488.825	1448.31
489.043	1413.31
489.261	1440.31
489.479	1466.31
489.696	1456.31
489.914	1458.31
490.132	1487.31
490.35	1494.31
490.568	1453.31
490.786	1476.31
