Data from SnStandardFlinnAPT0064_LampEnergy10_LIBS07252019.E.O._I.C._HRD10591_15-21-08-493.txt Node
Date: Thu Jul 25 15:21:08 EDT 2019
User: cochatt
Spectrometer: HR+D1059
Trigger mode: 1
Integration Time (sec): 1.000000E-1
Scans to average: 1
Electric dark correction enabled: true
Nonlinearity correction enabled: false
Boxcar width: 0
XAxis mode: Wavelengths
Number of Pixels in Spectrum: 2048
>>>>>Begin Spectral Data<<<<<
223.165	-26.38
223.4	-26.38
223.635	-26.38
223.869	-19.38
224.104	-16.38
224.338	-21.38
224.573	-20.38
224.808	-13.38
225.042	-11.38
225.277	1.62
225.511	7.62
225.746	-0.38
225.98	3.62
226.215	21.62
226.449	11.62
226.683	19.62
226.918	28.62
227.152	34.62
227.387	21.62
227.621	42.62
227.856	43.62
228.09	46.62
228.324	53.62
228.559	52.62
228.793	122.62
229.027	328.62
229.262	333.62
229.496	303.62
229.73	291.62
229.964	293.62
230.199	285.62
230.433	293.62
230.667	323.62
230.901	318.62
231.136	323.62
231.37	329.62
231.604	375.62
231.838	439.62
232.072	523.62
232.306	563.62
232.541	469.62
232.775	420.62
233.009	400.62
233.243	417.62
233.477	460.62
233.711	522.62
233.945	585.62
234.179	516.62
234.413	446.62
234.647	443.62
234.881	462.62
235.115	500.62
235.349	620.62
235.583	745.62
235.817	992.62
236.051	984.62
236.285	655.62
236.519	563.62
236.753	485.62
236.987	494.62
237.221	536.62
237.455	502.62
237.689	470.62
237.922	477.62
238.156	470.62
238.39	491.62
238.624	497.62
238.858	495.62
239.091	483.62
239.325	504.62
239.559	497.62
239.793	513.62
240.027	520.62
240.26	538.62
240.494	564.62
240.728	598.62
240.961	612.62
241.195	661.62
241.429	666.62
241.662	692.62
241.896	762.62
242.13	944.62
242.363	1243.62
242.597	1598.62
242.83	1545.62
243.064	1506.62
243.298	1787.62
243.531	1521.62
243.765	938.62
243.998	801.62
244.232	709.62
244.465	666.62
244.699	660.62
244.932	648.62
245.166	677.62
245.399	674.62
245.633	666.62
245.866	676.62
246.099	658.62
246.333	663.62
246.566	650.62
246.8	626.62
247.033	640.62
247.266	655.62
247.5	638.62
247.733	665.62
247.966	702.62
248.2	787.62
248.433	881.62
248.666	986.62
248.899	923.62
249.133	853.62
249.366	895.62
249.599	936.62
249.832	1065.62
250.066	1074.62
250.299	865.62
250.532	799.62
250.765	740.62
250.998	760.62
251.231	728.62
251.465	725.62
251.698	751.62
251.931	759.62
252.164	728.62
252.397	774.62
252.63	779.62
252.863	788.62
253.096	778.62
253.329	784.62
253.562	787.62
253.795	808.62
254.028	819.62
254.261	829.62
254.494	889.62
254.727	1013.62
254.96	1214.62
255.193	1215.62
255.426	970.62
255.659	880.62
255.892	846.62
256.124	838.62
256.357	855.62
256.59	901.62
256.823	992.62
257.056	1119.62
257.289	1320.62
257.521	1465.62
257.754	1166.62
257.987	963.62
258.22	892.62
258.452	912.62
258.685	932.62
258.918	968.62
259.151	1018.62
259.383	1092.62
259.616	1200.62
259.849	1263.62
260.081	1100.62
260.314	966.62
260.547	964.62
260.779	964.62
261.012	975.62
261.244	965.62
261.477	964.62
261.71	981.62
261.942	995.62
262.175	1024.62
262.407	1026.62
262.64	1027.62
262.872	1091.62
263.105	1148.62
263.337	1198.62
263.57	1241.62
263.802	1291.62
264.035	1328.62
264.267	1375.62
264.499	1379.62
264.732	1421.62
264.964	1438.62
265.197	1414.62
265.429	1450.62
265.661	1487.62
265.894	1602.62
266.126	1778.62
266.358	1947.62
266.591	1944.62
266.823	1652.62
267.055	1435.62
267.287	1371.62
267.52	1321.62
267.752	1316.62
267.984	1269.62
268.216	1277.62
268.448	1252.62
268.681	1224.62
268.913	1231.62
269.145	1248.62
269.377	1201.62
269.609	1230.62
269.841	1269.62
270.073	1390.62
270.306	1600.62
270.538	2103.62
270.77	3153.62
271.002	3903.62
271.234	2755.62
271.466	1911.62
271.698	1514.62
271.93	1387.62
272.162	1348.62
272.394	1257.62
272.626	1262.62
272.858	1234.62
273.09	1211.62
273.322	1218.62
273.553	1202.62
273.785	1231.62
274.017	1194.62
274.249	1182.62
274.481	1196.62
274.713	1184.62
274.945	1214.62
275.176	1211.62
275.408	1200.62
275.64	1209.62
275.872	1226.62
276.104	1234.62
276.335	1282.62
276.567	1259.62
276.799	1259.62
277.031	1291.62
277.262	1334.62
277.494	1376.62
277.726	1550.62
277.957	1810.62
278.189	2108.62
278.421	1979.62
278.652	1750.62
278.884	1702.62
279.115	1485.62
279.347	1431.62
279.579	1395.62
279.81	1371.62
280.042	1392.62
280.273	1419.62
280.505	1445.62
280.736	1484.62
280.968	1600.62
281.199	1780.62
281.431	2037.62
281.662	2106.62
281.894	1787.62
282.125	1619.62
282.356	1634.62
282.588	1671.62
282.819	1715.62
283.051	1795.62
283.282	1994.62
283.513	2473.62
283.745	3544.62
283.976	5564.62
284.207	7918.62
284.439	7251.62
284.67	4482.62
284.901	3693.62
285.132	3768.62
285.364	3554.62
285.595	2755.62
285.826	2435.62
286.057	2831.62
286.288	3804.62
286.52	5188.62
286.751	4756.62
286.982	3018.62
287.213	2256.62
287.444	1976.62
287.675	1873.62
287.906	1782.62
288.138	1741.62
288.369	1664.62
288.6	1655.62
288.831	1667.62
289.062	1639.62
289.293	1676.62
289.524	1670.62
289.755	1694.62
289.986	1737.62
290.217	1710.62
290.448	1722.62
290.679	1726.62
290.91	1780.62
291.141	1893.62
291.371	2028.62
291.602	2139.62
291.833	1909.62
292.064	1747.62
292.295	1702.62
292.526	1687.62
292.757	1613.62
292.987	1613.62
293.218	1570.62
293.449	1583.62
293.68	1552.62
293.91	1540.62
294.141	1534.62
294.372	1563.62
294.603	1587.62
294.833	1513.62
295.064	1540.62
295.295	1548.62
295.525	1541.62
295.756	1580.62
295.987	1547.62
296.217	1571.62
296.448	1578.62
296.679	1597.62
296.909	1590.62
297.14	1631.62
297.37	1631.62
297.601	1632.62
297.831	1636.62
298.062	1612.62
298.292	1628.62
298.523	1667.62
298.753	1731.62
298.984	1686.62
299.214	1698.62
299.445	1736.62
299.675	1773.62
299.905	1831.62
300.136	1928.62
300.366	2161.62
300.597	2702.62
300.827	3784.62
301.057	5154.62
301.288	5171.62
301.518	3395.62
301.748	2580.62
301.979	2375.62
302.209	2264.62
302.439	2274.62
302.669	2429.62
302.9	2972.62
303.13	4142.62
303.36	6140.62
303.59	8169.62
303.82	7047.62
304.051	4167.62
304.281	2997.62
304.511	2524.62
304.741	2340.62
304.971	2159.62
305.201	2082.62
305.431	2006.62
305.661	1941.62
305.891	1938.62
306.121	1865.62
306.352	1908.62
306.582	1866.62
306.812	1819.62
307.042	1833.62
307.272	1815.62
307.502	1814.62
307.731	1826.62
307.961	1792.62
308.191	1775.62
308.421	1809.62
308.651	1835.62
308.881	1857.62
309.111	1846.62
309.341	1808.62
309.571	1826.62
309.8	1871.62
310.03	1860.62
310.26	1832.62
310.49	1854.62
310.72	1846.62
310.949	1878.62
311.179	1870.62
311.409	1891.62
311.639	1906.62
311.868	1939.62
312.098	1922.62
312.328	1959.62
312.557	2007.62
312.787	1966.62
313.017	1987.62
313.246	2023.62
313.476	1956.62
313.706	2082.62
313.935	2176.62
314.165	2362.62
314.394	2439.62
314.624	2314.62
314.853	2124.62
315.083	2177.62
315.312	2194.62
315.542	2173.62
315.771	2202.62
316.001	2218.62
316.23	2316.62
316.46	2426.62
316.689	2640.62
316.919	3210.62
317.148	4594.62
317.377	7062.62
317.607	10359.62
317.836	10712.62
318.065	6552.62
318.295	4203.62
318.524	3360.62
318.753	2928.62
318.983	2750.62
319.212	2571.62
319.441	2459.62
319.67	2440.62
319.9	2376.62
320.129	2397.62
320.358	2330.62
320.587	2355.62
320.816	2336.62
321.046	2326.62
321.275	2321.62
321.504	2377.62
321.733	2404.62
321.962	2491.62
322.191	2508.62
322.42	2485.62
322.649	2534.62
322.878	2485.62
323.108	2480.62
323.337	2490.62
323.566	2543.62
323.795	2608.62
324.024	2670.62
324.253	2679.62
324.482	2795.62
324.71	3041.62
324.939	3151.62
325.168	3221.62
325.397	3383.62
325.626	3976.62
325.855	5568.62
326.084	8679.62
326.313	12524.62
326.542	13266.62
326.77	9054.62
326.999	5874.62
327.228	4932.62
327.457	4724.62
327.686	4831.62
327.914	5107.62
328.143	5999.62
328.372	7168.62
328.6	7762.62
328.829	6983.62
329.058	5792.62
329.287	5096.62
329.515	4609.62
329.744	4288.62
329.972	4066.62
330.201	3905.62
330.43	3721.62
330.658	3594.62
330.887	3528.62
331.115	3514.62
331.344	3550.62
331.572	3472.62
331.801	3489.62
332.03	3509.62
332.258	3522.62
332.486	3714.62
332.715	4286.62
332.943	5248.62
333.172	6542.62
333.4	6446.62
333.629	4976.62
333.857	4570.62
334.085	4454.62
334.314	4673.62
334.542	5165.62
334.771	6053.62
334.999	7411.62
335.227	9339.62
335.455	10467.62
335.684	9368.62
335.912	7792.62
336.14	6520.62
336.369	5652.62
336.597	5246.62
336.825	4790.62
337.053	4522.62
337.281	4277.62
337.51	4038.62
337.738	3917.62
337.966	3683.62
338.194	3564.62
338.422	3514.62
338.65	3350.62
338.878	3330.62
339.106	3193.62
339.334	3220.62
339.562	3176.62
339.79	3056.62
340.018	3034.62
340.246	3014.62
340.474	3072.62
340.702	3022.62
340.93	2994.62
341.158	3016.62
341.386	3030.62
341.614	2964.62
341.842	2960.62
342.07	2869.62
342.298	2783.62
342.526	2787.62
342.754	2764.62
342.981	2748.62
343.209	2704.62
343.437	2783.62
343.665	2831.62
343.893	2844.62
344.12	2856.62
344.348	2779.62
344.576	2722.62
344.804	2722.62
345.031	2631.62
345.259	2621.62
345.487	2579.62
345.714	2602.62
345.942	2598.62
346.17	2527.62
346.397	2553.62
346.625	2562.62
346.853	2540.62
347.08	2518.62
347.308	2583.62
347.535	2536.62
347.763	2522.62
347.99	2492.62
348.218	2426.62
348.445	2438.62
348.673	2478.62
348.9	2476.62
349.128	2435.62
349.355	2437.62
349.583	2500.62
349.81	2423.62
350.037	2363.62
350.265	2372.62
350.492	2421.62
350.72	2418.62
350.947	2409.62
351.174	2419.62
351.402	2419.62
351.629	2363.62
351.856	2380.62
352.083	2369.62
352.311	2390.62
352.538	2380.62
352.765	2370.62
352.992	2358.62
353.22	2391.62
353.447	2392.62
353.674	2358.62
353.901	2405.62
354.128	2371.62
354.355	2420.62
354.583	2394.62
354.81	2436.62
355.037	2404.62
355.264	2420.62
355.491	2467.62
355.718	2425.62
355.945	2502.62
356.172	2483.62
356.399	2458.62
356.626	2455.62
356.853	2454.62
357.08	2491.62
357.307	2494.62
357.534	2552.62
357.761	2578.62
357.988	2610.62
358.215	2596.62
358.441	2517.62
358.668	2553.62
358.895	2561.62
359.122	2569.62
359.349	2546.62
359.576	2526.62
359.802	2579.62
360.029	2542.62
360.256	2512.62
360.483	2560.62
360.709	2551.62
360.936	2532.62
361.163	2536.62
361.39	2582.62
361.616	2521.62
361.843	2563.62
362.07	2587.62
362.296	2543.62
362.523	2535.62
362.749	2596.62
362.976	2585.62
363.203	2515.62
363.429	2516.62
363.656	2525.62
363.882	2525.62
364.109	2552.62
364.335	2512.62
364.562	2537.62
364.788	2568.62
365.015	2592.62
365.241	2626.62
365.468	2760.62
365.694	2897.62
365.92	2823.62
366.147	2626.62
366.373	2596.62
366.599	2608.62
366.826	2594.62
367.052	2602.62
367.278	2632.62
367.505	2615.62
367.731	2603.62
367.957	2592.62
368.184	2606.62
368.41	2640.62
368.636	2693.62
368.862	2692.62
369.089	2674.62
369.315	2634.62
369.541	2612.62
369.767	2654.62
369.993	2631.62
370.219	2626.62
370.445	2679.62
370.672	2696.62
370.898	2704.62
371.124	2722.62
371.35	2742.62
371.576	2663.62
371.802	2757.62
372.028	2755.62
372.254	2745.62
372.48	2787.62
372.706	2793.62
372.932	2751.62
373.158	2763.62
373.384	2798.62
373.61	2772.62
373.835	2789.62
374.061	2757.62
374.287	2828.62
374.513	2834.62
374.739	2908.62
374.965	2888.62
375.191	2913.62
375.416	2875.62
375.642	2885.62
375.868	2800.62
376.094	2793.62
376.319	2768.62
376.545	2782.62
376.771	2782.62
376.997	2712.62
377.222	2707.62
377.448	2667.62
377.674	2738.62
377.899	2713.62
378.125	2707.62
378.35	2754.62
378.576	2760.62
378.802	2756.62
379.027	2754.62
379.253	2863.62
379.478	3029.62
379.704	3556.62
379.929	5146.62
380.155	7952.62
380.38	8417.62
380.606	5227.62
380.831	3722.62
381.057	3243.62
381.282	2992.62
381.507	2856.62
381.733	2734.62
381.958	2750.62
382.184	2731.62
382.409	2671.62
382.634	2724.62
382.86	2659.62
383.085	2693.62
383.31	2710.62
383.535	2690.62
383.761	2698.62
383.986	2756.62
384.211	2726.62
384.436	2768.62
384.662	2772.62
384.887	2755.62
385.112	2744.62
385.337	2800.62
385.562	2761.62
385.787	2712.62
386.013	2740.62
386.238	2713.62
386.463	2743.62
386.688	2774.62
386.913	2738.62
387.138	2793.62
387.363	2777.62
387.588	2690.62
387.813	2746.62
388.038	2804.62
388.263	2754.62
388.488	2746.62
388.713	2787.62
388.938	2729.62
389.163	2740.62
389.387	2770.62
389.612	2730.62
389.837	2776.62
390.062	2743.62
390.287	2787.62
390.512	2781.62
390.736	2847.62
390.961	2870.62
391.186	2858.62
391.411	2874.62
391.636	2924.62
391.86	2940.62
392.085	2942.62
392.31	2898.62
392.534	2880.62
392.759	2854.62
392.984	2813.62
393.208	2781.62
393.433	2859.62
393.658	2826.62
393.882	2806.62
394.107	2816.62
394.331	2821.62
394.556	2817.62
394.78	2822.62
395.005	2794.62
395.229	2854.62
395.454	2878.62
395.678	2916.62
395.903	2890.62
396.127	2913.62
396.352	2859.62
396.576	2822.62
396.801	2880.62
397.025	2882.62
397.249	2857.62
397.474	2848.62
397.698	2939.62
397.922	2942.62
398.147	2920.62
398.371	2980.62
398.595	3003.62
398.82	3088.62
399.044	3282.62
399.268	3358.62
399.492	3459.62
399.717	3689.62
399.941	3674.62
400.165	3482.62
400.389	3387.62
400.613	3297.62
400.837	3158.62
401.062	3058.62
401.286	3107.62
401.51	3035.62
401.734	2970.62
401.958	3058.62
402.182	3090.62
402.406	3018.62
402.63	3118.62
402.854	3110.62
403.078	3116.62
403.302	3125.62
403.526	3097.62
403.75	3131.62
403.974	3206.62
404.198	3110.62
404.422	3152.62
404.645	3161.62
404.869	3209.62
405.093	3176.62
405.317	3233.62
405.541	3250.62
405.765	3242.62
405.988	3302.62
406.212	3279.62
406.436	3225.62
406.66	3306.62
406.883	3279.62
407.107	3361.62
407.331	3387.62
407.555	3464.62
407.778	3444.62
408.002	3394.62
408.226	3374.62
408.449	3452.62
408.673	3318.62
408.896	3315.62
409.12	3211.62
409.344	3281.62
409.567	3190.62
409.791	3199.62
410.014	3134.62
410.238	3115.62
410.461	3181.62
410.685	3122.62
410.908	3171.62
411.132	3093.62
411.355	3019.62
411.578	3029.62
411.802	3032.62
412.025	3026.62
412.249	3036.62
412.472	3062.62
412.695	3013.62
412.919	2982.62
413.142	2936.62
413.365	2975.62
413.589	2978.62
413.812	2972.62
414.035	2958.62
414.258	3045.62
414.482	2996.62
414.705	3020.62
414.928	2960.62
415.151	2994.62
415.374	2972.62
415.597	2948.62
415.821	2883.62
416.044	2871.62
416.267	2838.62
416.49	2852.62
416.713	2886.62
416.936	2887.62
417.159	2821.62
417.382	2862.62
417.605	2839.62
417.828	2857.62
418.051	2876.62
418.274	2872.62
418.497	2892.62
418.72	2935.62
418.943	2894.62
419.166	3038.62
419.389	3230.62
419.611	3146.62
419.834	3054.62
420.057	3041.62
420.28	2946.62
420.503	2891.62
420.726	2802.62
420.948	2891.62
421.171	2862.62
421.394	2838.62
421.617	2856.62
421.839	2904.62
422.062	2898.62
422.285	2804.62
422.507	2919.62
422.73	2941.62
422.953	2942.62
423.175	3000.62
423.398	2939.62
423.621	2937.62
423.843	2897.62
424.066	2882.62
424.288	2874.62
424.511	2895.62
424.733	2855.62
424.956	2893.62
425.178	2792.62
425.401	2830.62
425.623	2858.62
425.846	2779.62
426.068	2799.62
426.291	2773.62
426.513	2751.62
426.735	2725.62
426.958	2737.62
427.18	2683.62
427.402	2758.62
427.625	2719.62
427.847	2652.62
428.069	2679.62
428.292	2688.62
428.514	2638.62
428.736	2629.62
428.958	2678.62
429.181	2620.62
429.403	2639.62
429.625	2604.62
429.847	2633.62
430.069	2694.62
430.292	2776.62
430.514	2848.62
430.736	2839.62
430.958	2694.62
431.18	2677.62
431.402	2635.62
431.624	2610.62
431.846	2617.62
432.068	2640.62
432.29	2606.62
432.512	2607.62
432.734	2728.62
432.956	2590.62
433.178	2650.62
433.4	2632.62
433.622	2666.62
433.844	2656.62
434.066	2649.62
434.287	2633.62
434.509	2696.62
434.731	2718.62
434.953	2774.62
435.175	2762.62
435.397	2755.62
435.618	2690.62
435.84	2665.62
436.062	2612.62
436.284	2654.62
436.505	2616.62
436.727	2633.62
436.949	2555.62
437.17	2658.62
437.392	2589.62
437.614	2499.62
437.835	2482.62
438.057	2539.62
438.278	2545.62
438.5	2558.62
438.721	2593.62
438.943	2663.62
439.165	2734.62
439.386	2694.62
439.608	2696.62
439.829	2694.62
440.05	2792.62
440.272	2864.62
440.493	2718.62
440.715	2718.62
440.936	2720.62
441.158	2726.62
441.379	2748.62
441.6	2807.62
441.822	2916.62
442.043	3077.62
442.264	3160.62
442.486	2976.62
442.707	2852.62
442.928	2755.62
443.149	2782.62
443.371	2853.62
443.592	2796.62
443.813	2822.62
444.034	2828.62
444.255	2866.62
444.476	2929.62
444.698	2978.62
444.919	3037.62
445.14	3084.62
445.361	2922.62
445.582	2887.62
445.803	2814.62
446.024	2782.62
446.245	2789.62
446.466	2806.62
446.687	2738.62
446.908	2748.62
447.129	2681.62
447.35	2638.62
447.571	2624.62
447.792	2602.62
448.013	2613.62
448.234	2591.62
448.455	2550.62
448.675	2654.62
448.896	2736.62
449.117	2728.62
449.338	3007.62
449.559	3120.62
449.779	2790.62
450	2636.62
450.221	2546.62
450.442	2535.62
450.662	2570.62
450.883	2564.62
451.104	2489.62
451.324	2560.62
451.545	2522.62
451.766	2520.62
451.986	2588.62
452.207	2779.62
452.428	3602.62
452.648	5416.62
452.869	4503.62
453.089	3114.62
453.31	2946.62
453.53	2947.62
453.751	2938.62
453.971	3169.62
454.192	3077.62
454.412	2684.62
454.633	2544.62
454.853	2553.62
455.073	2432.62
455.294	2420.62
455.514	2435.62
455.734	2407.62
455.955	2406.62
456.175	2409.62
456.395	2419.62
456.616	2419.62
456.836	2515.62
457.056	2463.62
457.276	2491.62
457.497	2622.62
457.717	2648.62
457.937	2507.62
458.157	2614.62
458.377	2546.62
458.598	2658.62
458.818	2591.62
459.038	2558.62
459.258	2561.62
459.478	2680.62
459.698	2626.62
459.918	2690.62
460.138	2768.62
460.358	2796.62
460.578	2879.62
460.798	2858.62
461.018	2928.62
461.238	2842.62
461.458	2951.62
461.678	2875.62
461.898	2994.62
462.118	3030.62
462.338	3038.62
462.558	3059.62
462.777	3062.62
462.997	3266.62
463.217	3378.62
463.437	3487.62
463.657	3512.62
463.876	3506.62
464.096	3376.62
464.316	3211.62
464.536	3183.62
464.755	3103.62
464.975	2992.62
465.195	2886.62
465.414	2846.62
465.634	2729.62
465.854	2763.62
466.073	2700.62
466.293	2681.62
466.512	2661.62
466.732	2723.62
466.951	2759.62
467.171	2979.62
467.391	2969.62
467.61	2724.62
467.829	2647.62
468.049	2564.62
468.268	2554.62
468.488	2580.62
468.707	2564.62
468.927	2583.62
469.146	2534.62
469.365	2624.62
469.585	2633.62
469.804	2656.62
470.023	2644.62
470.243	2762.62
470.462	2822.62
470.681	2968.62
470.901	3277.62
471.12	3753.62
471.339	3788.62
471.558	3124.62
471.777	2879.62
471.997	2762.62
472.216	2698.62
472.435	2660.62
472.654	2600.62
472.873	2550.62
473.092	2585.62
473.311	2613.62
473.53	2583.62
473.749	2652.62
473.968	2776.62
474.187	2650.62
474.406	2582.62
474.625	2603.62
474.844	2575.62
475.063	2608.62
475.282	2612.62
475.501	2613.62
475.72	2610.62
475.939	2701.62
476.158	2728.62
476.377	2730.62
476.596	2743.62
476.814	2745.62
477.033	2737.62
477.252	2817.62
477.471	2804.62
477.69	2891.62
477.908	2858.62
478.127	2930.62
478.346	2951.62
478.564	3004.62
478.783	3044.62
479.002	3110.62
479.22	3112.62
479.439	3090.62
479.658	3086.62
479.876	3115.62
480.095	3133.62
480.313	3195.62
480.532	3273.62
480.751	3200.62
480.969	3186.62
481.188	3110.62
481.406	3157.62
481.624	3156.62
481.843	3195.62
482.061	3145.62
482.28	3185.62
482.498	3149.62
482.717	3132.62
482.935	3169.62
483.153	3198.62
483.372	3238.62
483.59	3339.62
483.808	3394.62
484.027	3420.62
484.245	3586.62
484.463	4073.62
484.681	4526.62
484.9	4102.62
485.118	3778.62
485.336	3714.62
485.554	3810.62
485.772	4051.62
485.99	4532.62
486.209	4882.62
486.427	4118.62
486.645	3770.62
486.863	3531.62
487.081	3470.62
487.299	3317.62
487.517	3354.62
487.735	3381.62
