Data from SnStandardFlinnAPT0064_QswitchEnergy10_LIBS07252019.E.O._I.C._HRD10591_15-28-50-974.txt Node
Date: Thu Jul 25 15:28:50 EDT 2019
User: cochatt
Spectrometer: HR+D1059
Trigger mode: 1
Integration Time (sec): 1.000000E-1
Scans to average: 1
Electric dark correction enabled: true
Nonlinearity correction enabled: false
Boxcar width: 0
XAxis mode: Wavelengths
Number of Pixels in Spectrum: 2048
>>>>>Begin Spectral Data<<<<<
223.165	-19.81
223.4	-19.81
223.635	-19.81
223.869	-22.81
224.104	-12.81
224.338	-4.81
224.573	-20.81
224.808	-13.81
225.042	8.19
225.277	-10.81
225.511	0.19
225.746	2.19
225.98	2.19
226.215	13.19
226.449	17.19
226.683	10.19
226.918	19.19
227.152	33.19
227.387	39.19
227.621	44.19
227.856	36.19
228.09	50.19
228.324	55.19
228.559	61.19
228.793	67.19
229.027	79.19
229.262	66.19
229.496	67.19
229.73	67.19
229.964	71.19
230.199	87.19
230.433	69.19
230.667	79.19
230.901	78.19
231.136	78.19
231.37	100.19
231.604	95.19
231.838	109.19
232.072	124.19
232.306	127.19
232.541	97.19
232.775	94.19
233.009	68.19
233.243	80.19
233.477	79.19
233.711	97.19
233.945	106.19
234.179	91.19
234.413	94.19
234.647	91.19
234.881	76.19
235.115	96.19
235.349	105.19
235.583	106.19
235.817	140.19
236.051	131.19
236.285	100.19
236.519	82.19
236.753	85.19
236.987	91.19
237.221	73.19
237.455	83.19
237.689	75.19
237.922	64.19
238.156	96.19
238.39	97.19
238.624	96.19
238.858	80.19
239.091	91.19
239.325	73.19
239.559	72.19
239.793	82.19
240.027	83.19
240.26	80.19
240.494	81.19
240.728	95.19
240.961	87.19
241.195	92.19
241.429	89.19
241.662	78.19
241.896	96.19
242.13	108.19
242.363	140.19
242.597	191.19
242.83	153.19
243.064	147.19
243.298	203.19
243.531	169.19
243.765	113.19
243.998	92.19
244.232	91.19
244.465	84.19
244.699	98.19
244.932	77.19
245.166	83.19
245.399	86.19
245.633	89.19
245.866	96.19
246.099	93.19
246.333	69.19
246.566	89.19
246.8	73.19
247.033	95.19
247.266	75.19
247.5	77.19
247.733	83.19
247.966	91.19
248.2	99.19
248.433	126.19
248.666	135.19
248.899	124.19
249.133	104.19
249.366	115.19
249.599	111.19
249.832	136.19
250.066	148.19
250.299	96.19
250.532	99.19
250.765	83.19
250.998	72.19
251.231	80.19
251.465	79.19
251.698	76.19
251.931	101.19
252.164	84.19
252.397	93.19
252.63	106.19
252.863	93.19
253.096	98.19
253.329	101.19
253.562	114.19
253.795	107.19
254.028	98.19
254.261	83.19
254.494	90.19
254.727	122.19
254.96	166.19
255.193	153.19
255.426	103.19
255.659	88.19
255.892	101.19
256.124	94.19
256.357	110.19
256.59	110.19
256.823	96.19
257.056	132.19
257.289	167.19
257.521	198.19
257.754	130.19
257.987	103.19
258.22	102.19
258.452	89.19
258.685	100.19
258.918	81.19
259.151	100.19
259.383	115.19
259.616	149.19
259.849	144.19
260.081	108.19
260.314	97.19
260.547	80.19
260.779	93.19
261.012	86.19
261.244	87.19
261.477	94.19
261.71	85.19
261.942	78.19
262.175	79.19
262.407	76.19
262.64	91.19
262.872	93.19
263.105	84.19
263.337	79.19
263.57	86.19
263.802	91.19
264.035	87.19
264.267	81.19
264.499	99.19
264.732	85.19
264.964	89.19
265.197	100.19
265.429	91.19
265.661	100.19
265.894	95.19
266.126	137.19
266.358	184.19
266.591	153.19
266.823	118.19
267.055	86.19
267.287	91.19
267.52	80.19
267.752	77.19
267.984	84.19
268.216	90.19
268.448	90.19
268.681	75.19
268.913	93.19
269.145	97.19
269.377	98.19
269.609	121.19
269.841	83.19
270.073	105.19
270.306	141.19
270.538	217.19
270.77	355.19
271.002	447.19
271.234	224.19
271.466	133.19
271.698	98.19
271.93	87.19
272.162	95.19
272.394	85.19
272.626	101.19
272.858	99.19
273.09	88.19
273.322	89.19
273.553	93.19
273.785	94.19
274.017	92.19
274.249	88.19
274.481	93.19
274.713	71.19
274.945	85.19
275.176	93.19
275.408	95.19
275.64	99.19
275.872	105.19
276.104	111.19
276.335	115.19
276.567	107.19
276.799	97.19
277.031	103.19
277.262	101.19
277.494	109.19
277.726	140.19
277.957	209.19
278.189	281.19
278.421	275.19
278.652	216.19
278.884	215.19
279.115	159.19
279.347	128.19
279.579	103.19
279.81	88.19
280.042	88.19
280.273	111.19
280.505	111.19
280.736	118.19
280.968	141.19
281.199	192.19
281.431	298.19
281.662	320.19
281.894	183.19
282.125	125.19
282.356	108.19
282.588	105.19
282.819	124.19
283.051	135.19
283.282	142.19
283.513	222.19
283.745	372.19
283.976	640.19
284.207	983.19
284.439	707.19
284.67	323.19
284.901	291.19
285.132	411.19
285.364	455.19
285.595	264.19
285.826	199.19
286.057	289.19
286.288	505.19
286.52	751.19
286.751	604.19
286.982	226.19
287.213	124.19
287.444	120.19
287.675	109.19
287.906	113.19
288.138	108.19
288.369	103.19
288.6	101.19
288.831	95.19
289.062	112.19
289.293	101.19
289.524	97.19
289.755	102.19
289.986	105.19
290.217	104.19
290.448	115.19
290.679	116.19
290.91	141.19
291.141	185.19
291.371	291.19
291.602	341.19
291.833	240.19
292.064	122.19
292.295	104.19
292.526	119.19
292.757	100.19
292.987	99.19
293.218	106.19
293.449	109.19
293.68	102.19
293.91	97.19
294.141	111.19
294.372	93.19
294.603	97.19
294.833	97.19
295.064	95.19
295.295	103.19
295.525	87.19
295.756	93.19
295.987	99.19
296.217	92.19
296.448	85.19
296.679	100.19
296.909	95.19
297.14	96.19
297.37	93.19
297.601	99.19
297.831	115.19
298.062	101.19
298.292	105.19
298.523	120.19
298.753	112.19
298.984	108.19
299.214	101.19
299.445	102.19
299.675	103.19
299.905	140.19
300.136	133.19
300.366	188.19
300.597	312.19
300.827	548.19
301.057	823.19
301.288	755.19
301.518	304.19
301.748	153.19
301.979	135.19
302.209	156.19
302.439	162.19
302.669	210.19
302.9	300.19
303.13	593.19
303.36	1089.19
303.59	1514.19
303.82	1034.19
304.051	335.19
304.281	193.19
304.511	133.19
304.741	130.19
304.971	123.19
305.201	115.19
305.431	109.19
305.661	119.19
305.891	107.19
306.121	113.19
306.352	102.19
306.582	117.19
306.812	121.19
307.042	111.19
307.272	104.19
307.502	106.19
307.731	96.19
307.961	107.19
308.191	97.19
308.421	122.19
308.651	103.19
308.881	113.19
309.111	101.19
309.341	105.19
309.571	108.19
309.8	108.19
310.03	116.19
310.26	118.19
310.49	111.19
310.72	115.19
310.949	102.19
311.179	108.19
311.409	111.19
311.639	98.19
311.868	115.19
312.098	108.19
312.328	133.19
312.557	130.19
312.787	122.19
313.017	123.19
313.246	97.19
313.476	117.19
313.706	127.19
313.935	147.19
314.165	226.19
314.394	259.19
314.624	213.19
314.853	148.19
315.083	123.19
315.312	126.19
315.542	121.19
315.771	135.19
316.001	151.19
316.23	169.19
316.46	159.19
316.689	192.19
316.919	303.19
317.148	585.19
317.377	1072.19
317.607	1794.19
317.836	1703.19
318.065	648.19
318.295	263.19
318.524	175.19
318.753	154.19
318.983	138.19
319.212	130.19
319.441	139.19
319.67	112.19
319.9	124.19
320.129	125.19
320.358	120.19
320.587	131.19
320.816	139.19
321.046	137.19
321.275	122.19
321.504	128.19
321.733	167.19
321.962	182.19
322.191	191.19
322.42	151.19
322.649	141.19
322.878	145.19
323.108	115.19
323.337	134.19
323.566	136.19
323.795	135.19
324.024	139.19
324.253	173.19
324.482	201.19
324.71	258.19
324.939	333.19
325.168	258.19
325.397	202.19
325.626	307.19
325.855	574.19
326.084	1182.19
326.313	1926.19
326.542	1883.19
326.77	730.19
326.999	307.19
327.228	243.19
327.457	263.19
327.686	275.19
327.914	174.19
328.143	161.19
328.372	151.19
328.6	123.19
328.829	123.19
329.058	140.19
329.287	133.19
329.515	123.19
329.744	124.19
329.972	123.19
330.201	116.19
330.43	125.19
330.658	116.19
330.887	108.19
331.115	127.19
331.344	116.19
331.572	129.19
331.801	126.19
332.03	125.19
332.258	149.19
332.486	184.19
332.715	328.19
332.943	594.19
333.172	938.19
333.4	821.19
333.629	293.19
333.857	156.19
334.085	148.19
334.314	129.19
334.542	132.19
334.771	144.19
334.999	145.19
335.227	130.19
335.455	133.19
335.684	120.19
335.912	129.19
336.14	125.19
336.369	118.19
336.597	121.19
336.825	119.19
337.053	108.19
337.281	111.19
337.51	122.19
337.738	119.19
337.966	113.19
338.194	100.19
338.422	127.19
338.65	123.19
338.878	122.19
339.106	123.19
339.334	129.19
339.562	115.19
339.79	127.19
340.018	106.19
340.246	115.19
340.474	127.19
340.702	119.19
340.93	130.19
341.158	116.19
341.386	125.19
341.614	133.19
341.842	139.19
342.07	107.19
342.298	126.19
342.526	130.19
342.754	118.19
342.981	124.19
343.209	115.19
343.437	114.19
343.665	122.19
343.893	109.19
344.12	122.19
344.348	119.19
344.576	127.19
344.804	120.19
345.031	125.19
345.259	121.19
345.487	127.19
345.714	125.19
345.942	121.19
346.17	130.19
346.397	113.19
346.625	105.19
346.853	111.19
347.08	105.19
347.308	109.19
347.535	94.19
347.763	104.19
347.99	103.19
348.218	129.19
348.445	111.19
348.673	117.19
348.9	115.19
349.128	120.19
349.355	133.19
349.583	138.19
349.81	126.19
350.037	127.19
350.265	104.19
350.492	117.19
350.72	113.19
350.947	116.19
351.174	118.19
351.402	125.19
351.629	121.19
351.856	103.19
352.083	105.19
352.311	117.19
352.538	108.19
352.765	141.19
352.992	107.19
353.22	115.19
353.447	108.19
353.674	99.19
353.901	106.19
354.128	105.19
354.355	104.19
354.583	92.19
354.81	116.19
355.037	112.19
355.264	118.19
355.491	108.19
355.718	105.19
355.945	102.19
356.172	102.19
356.399	113.19
356.626	116.19
356.853	122.19
357.08	129.19
357.307	120.19
357.534	116.19
357.761	112.19
357.988	115.19
358.215	112.19
358.441	120.19
358.668	108.19
358.895	119.19
359.122	122.19
359.349	111.19
359.576	111.19
359.802	121.19
360.029	114.19
360.256	111.19
360.483	124.19
360.709	129.19
360.936	129.19
361.163	120.19
361.39	113.19
361.616	120.19
361.843	117.19
362.07	136.19
362.296	137.19
362.523	107.19
362.749	109.19
362.976	109.19
363.203	118.19
363.429	105.19
363.656	106.19
363.882	120.19
364.109	121.19
364.335	133.19
364.562	109.19
364.788	115.19
365.015	125.19
365.241	149.19
365.468	221.19
365.694	282.19
365.92	245.19
366.147	135.19
366.373	116.19
366.599	117.19
366.826	107.19
367.052	102.19
367.278	98.19
367.505	108.19
367.731	102.19
367.957	111.19
368.184	123.19
368.41	136.19
368.636	127.19
368.862	124.19
369.089	93.19
369.315	103.19
369.541	114.19
369.767	115.19
369.993	119.19
370.219	98.19
370.445	107.19
370.672	123.19
370.898	109.19
371.124	118.19
371.35	116.19
371.576	105.19
371.802	117.19
372.028	115.19
372.254	113.19
372.48	117.19
372.706	124.19
372.932	124.19
373.158	135.19
373.384	120.19
373.61	151.19
373.835	125.19
374.061	118.19
374.287	127.19
374.513	128.19
374.739	127.19
374.965	114.19
375.191	113.19
375.416	120.19
375.642	114.19
375.868	125.19
376.094	120.19
376.319	123.19
376.545	118.19
376.771	117.19
376.997	104.19
377.222	116.19
377.448	117.19
377.674	114.19
377.899	116.19
378.125	123.19
378.35	106.19
378.576	121.19
378.802	137.19
379.027	148.19
379.253	159.19
379.478	201.19
379.704	335.19
379.929	935.19
380.155	1924.19
380.38	1964.19
380.606	614.19
380.831	204.19
381.057	157.19
381.282	127.19
381.507	121.19
381.733	108.19
381.958	114.19
382.184	111.19
382.409	112.19
382.634	107.19
382.86	121.19
383.085	124.19
383.31	113.19
383.535	106.19
383.761	101.19
383.986	125.19
384.211	111.19
384.436	100.19
384.662	110.19
384.887	103.19
385.112	99.19
385.337	123.19
385.562	117.19
385.787	116.19
386.013	117.19
386.238	117.19
386.463	115.19
386.688	116.19
386.913	109.19
387.138	104.19
387.363	114.19
387.588	122.19
387.813	117.19
388.038	114.19
388.263	105.19
388.488	105.19
388.713	115.19
388.938	125.19
389.163	107.19
389.387	117.19
389.612	98.19
389.837	101.19
390.062	97.19
390.287	115.19
390.512	120.19
390.736	109.19
390.961	116.19
391.186	102.19
391.411	94.19
391.636	106.19
391.86	112.19
392.085	103.19
392.31	114.19
392.534	95.19
392.759	111.19
392.984	99.19
393.208	139.19
393.433	161.19
393.658	171.19
393.882	107.19
394.107	97.19
394.331	119.19
394.556	100.19
394.78	84.19
395.005	88.19
395.229	114.19
395.454	104.19
395.678	99.19
395.903	116.19
396.127	119.19
396.352	115.19
396.576	114.19
396.801	132.19
397.025	148.19
397.249	139.19
397.474	118.19
397.698	103.19
397.922	112.19
398.147	106.19
398.371	107.19
398.595	106.19
398.82	121.19
399.044	99.19
399.268	102.19
399.492	94.19
399.717	92.19
399.941	103.19
400.165	107.19
400.389	109.19
400.613	94.19
400.837	114.19
401.062	100.19
401.286	108.19
401.51	113.19
401.734	111.19
401.958	106.19
402.182	102.19
402.406	111.19
402.63	103.19
402.854	106.19
403.078	94.19
403.302	111.19
403.526	96.19
403.75	107.19
403.974	99.19
404.198	104.19
404.422	119.19
404.645	98.19
404.869	117.19
405.093	106.19
405.317	104.19
405.541	126.19
405.765	140.19
405.988	174.19
406.212	131.19
406.436	105.19
406.66	104.19
406.883	102.19
407.107	104.19
407.331	98.19
407.555	104.19
407.778	94.19
408.002	121.19
408.226	100.19
408.449	103.19
408.673	104.19
408.896	95.19
409.12	127.19
409.344	103.19
409.567	92.19
409.791	97.19
410.014	101.19
410.238	112.19
410.461	105.19
410.685	119.19
410.908	89.19
411.132	121.19
411.355	112.19
411.578	97.19
411.802	111.19
412.025	97.19
412.249	99.19
412.472	104.19
412.695	113.19
412.919	97.19
413.142	90.19
413.365	104.19
413.589	119.19
413.812	117.19
414.035	111.19
414.258	112.19
414.482	108.19
414.705	116.19
414.928	115.19
415.151	105.19
415.374	121.19
415.597	113.19
415.821	106.19
416.044	95.19
416.267	95.19
416.49	112.19
416.713	98.19
416.936	104.19
417.159	104.19
417.382	111.19
417.605	95.19
417.828	114.19
418.051	113.19
418.274	101.19
418.497	93.19
418.72	136.19
418.943	108.19
419.166	104.19
419.389	107.19
419.611	112.19
419.834	120.19
420.057	101.19
420.28	115.19
420.503	111.19
420.726	103.19
420.948	101.19
421.171	96.19
421.394	106.19
421.617	93.19
421.839	107.19
422.062	102.19
422.285	111.19
422.507	119.19
422.73	146.19
422.953	164.19
423.175	113.19
423.398	105.19
423.621	116.19
423.843	108.19
424.066	93.19
424.288	121.19
424.511	115.19
424.733	108.19
424.956	102.19
425.178	83.19
425.401	99.19
425.623	95.19
425.846	89.19
426.068	100.19
426.291	111.19
426.513	101.19
426.735	105.19
426.958	112.19
427.18	101.19
427.402	93.19
427.625	103.19
427.847	112.19
428.069	109.19
428.292	128.19
428.514	112.19
428.736	101.19
428.958	85.19
429.181	98.19
429.403	97.19
429.625	98.19
429.847	112.19
430.069	105.19
430.292	120.19
430.514	115.19
430.736	98.19
430.958	112.19
431.18	87.19
431.402	97.19
431.624	89.19
431.846	91.19
432.068	101.19
432.29	94.19
432.512	104.19
432.734	112.19
432.956	105.19
433.178	107.19
433.4	91.19
433.622	95.19
433.844	90.19
434.066	95.19
434.287	92.19
434.509	106.19
434.731	114.19
434.953	98.19
435.175	107.19
435.397	94.19
435.618	99.19
435.84	108.19
436.062	100.19
436.284	88.19
436.505	88.19
436.727	100.19
436.949	96.19
437.17	92.19
437.392	97.19
437.614	100.19
437.835	99.19
438.057	94.19
438.278	88.19
438.5	93.19
438.721	88.19
438.943	126.19
439.165	121.19
439.386	134.19
439.608	117.19
439.829	112.19
440.05	126.19
440.272	134.19
440.493	122.19
440.715	91.19
440.936	113.19
441.158	110.19
441.379	90.19
441.6	87.19
441.822	99.19
442.043	117.19
442.264	147.19
442.486	124.19
442.707	97.19
442.928	95.19
443.149	104.19
443.371	100.19
443.592	99.19
443.813	94.19
444.034	95.19
444.255	105.19
444.476	88.19
444.698	103.19
444.919	100.19
445.14	200.19
445.361	137.19
445.582	107.19
445.803	98.19
446.024	109.19
446.245	96.19
446.466	113.19
446.687	123.19
446.908	102.19
447.129	106.19
447.35	98.19
447.571	105.19
447.792	103.19
448.013	97.19
448.234	96.19
448.455	109.19
448.675	95.19
448.896	111.19
449.117	115.19
449.338	142.19
449.559	183.19
449.779	137.19
450	125.19
450.221	120.19
450.442	127.19
450.662	123.19
450.883	125.19
451.104	120.19
451.324	124.19
451.545	106.19
451.766	124.19
451.986	145.19
452.207	267.19
452.428	650.19
452.648	1665.19
452.869	923.19
453.089	225.19
453.31	131.19
453.53	131.19
453.751	161.19
453.971	183.19
454.192	175.19
454.412	123.19
454.633	90.19
454.853	101.19
455.073	98.19
455.294	91.19
455.514	104.19
455.734	93.19
455.955	99.19
456.175	102.19
456.395	92.19
456.616	96.19
456.836	106.19
457.056	106.19
457.276	109.19
457.497	130.19
457.717	138.19
457.937	102.19
458.157	102.19
458.377	102.19
458.598	80.19
458.818	90.19
459.038	94.19
459.258	98.19
459.478	93.19
459.698	102.19
459.918	98.19
460.138	97.19
460.358	95.19
460.578	92.19
460.798	91.19
461.018	89.19
461.238	107.19
461.458	106.19
461.678	107.19
461.898	107.19
462.118	102.19
462.338	88.19
462.558	116.19
462.777	106.19
462.997	105.19
463.217	114.19
463.437	140.19
463.657	223.19
463.876	221.19
464.096	137.19
464.316	117.19
464.536	93.19
464.755	106.19
464.975	107.19
465.195	101.19
465.414	105.19
465.634	98.19
465.854	98.19
466.073	94.19
466.293	97.19
466.512	80.19
466.732	109.19
466.951	123.19
467.171	163.19
467.391	157.19
467.61	118.19
467.829	95.19
468.049	121.19
468.268	89.19
468.488	94.19
468.707	106.19
468.927	102.19
469.146	87.19
469.365	111.19
469.585	104.19
469.804	105.19
470.023	101.19
470.243	116.19
470.462	103.19
470.681	124.19
470.901	153.19
471.12	219.19
471.339	229.19
471.558	147.19
471.777	122.19
471.997	120.19
472.216	105.19
472.435	94.19
472.654	93.19
472.873	94.19
473.092	95.19
473.311	97.19
473.53	88.19
473.749	101.19
473.968	94.19
474.187	122.19
474.406	99.19
474.625	98.19
474.844	107.19
475.063	102.19
475.282	99.19
475.501	90.19
475.72	107.19
475.939	93.19
476.158	87.19
476.377	124.19
476.596	117.19
476.814	102.19
477.033	91.19
477.252	100.19
477.471	108.19
477.69	106.19
477.908	89.19
478.127	98.19
478.346	104.19
478.564	102.19
478.783	100.19
479.002	107.19
479.22	114.19
479.439	97.19
479.658	97.19
479.876	101.19
480.095	100.19
480.313	100.19
480.532	105.19
480.751	110.19
480.969	92.19
481.188	101.19
481.406	102.19
481.624	113.19
481.843	117.19
482.061	126.19
482.28	93.19
482.498	109.19
482.717	108.19
482.935	103.19
483.153	107.19
483.372	105.19
483.59	106.19
483.808	99.19
484.027	108.19
484.245	130.19
484.463	201.19
484.681	291.19
484.9	149.19
485.118	137.19
485.336	117.19
485.554	103.19
485.772	151.19
485.99	217.19
486.209	287.19
486.427	184.19
486.645	129.19
486.863	111.19
487.081	105.19
487.299	113.19
487.517	111.19
487.735	109.19
487.953	120.19
488.171	106.19
488.389	119.19
488.607	109.19
488.825	99.19
489.043	92.19
489.261	96.19
489.479	106.19
489.696	115.19
489.914	96.19
490.132	101.19
490.35	116.19
490.568	115.19
490.786	109.19
491.003	107.19
491.221	123.19
491.439	121.19
491.657	107.19
491.874	116.19
492.092	90.19
492.31	112.19
492.527	116.19
492.745	102.19
492.963	117.19
493.18	123.19
493.398	127.19
493.615	105.19
493.833	105.19
494.05	112.19
494.268	92.19
494.485	107.19
494.703	97.19
494.92	101.19
495.138	110.19
495.355	104.19
495.573	99.19
495.79	98.19
496.008	110.19
496.225	103.19
496.442	107.19
496.66	130.19
496.877	179.19
497.094	168.19
497.312	130.19
497.529	96.19
497.746	105.19
497.963	102.19
498.181	119.19
498.398	90.19
498.615	106.19
498.832	122.19
499.049	108.19
499.267	150.19
499.484	180.19
499.701	130.19
499.918	100.19
500.135	111.19
500.352	106.19
500.569	115.19
500.786	99.19
501.003	112.19
501.22	103.19
501.437	101.19
501.654	108.19
501.871	101.19
502.088	95.19
502.305	96.19
502.522	93.19
502.739	97.19
502.956	95.19
503.172	103.19
503.389	91.19
503.606	92.19
503.823	98.19
504.04	106.19
504.256	98.19
504.473	111.19
504.69	111.19
504.907	116.19
505.123	141.19
505.34	106.19
505.557	115.19
505.773	103.19
505.99	100.19
506.207	98.19
