Data from SnStandardFlinnAPT0064_LampEnergy10_LIBS07252019.E.O._I.C._HRD10591_15-21-42-494.txt Node
Date: Thu Jul 25 15:21:42 EDT 2019
User: cochatt
Spectrometer: HR+D1059
Trigger mode: 1
Integration Time (sec): 1.000000E-1
Scans to average: 1
Electric dark correction enabled: true
Nonlinearity correction enabled: false
Boxcar width: 0
XAxis mode: Wavelengths
Number of Pixels in Spectrum: 2048
>>>>>Begin Spectral Data<<<<<
223.165	-27.12
223.4	-27.12
223.635	-27.12
223.869	-19.12
224.104	-21.12
224.338	-1.12
224.573	-5.12
224.808	-6.12
225.042	-8.12
225.277	-5.12
225.511	-3.12
225.746	-3.12
225.98	-0.12
226.215	9.88
226.449	12.88
226.683	18.88
226.918	30.88
227.152	26.88
227.387	27.88
227.621	23.88
227.856	35.88
228.09	44.88
228.324	48.88
228.559	49.88
228.793	115.88
229.027	312.88
229.262	332.88
229.496	295.88
229.73	293.88
229.964	302.88
230.199	291.88
230.433	306.88
230.667	312.88
230.901	313.88
231.136	325.88
231.37	358.88
231.604	381.88
231.838	450.88
232.072	487.88
232.306	532.88
232.541	472.88
232.775	402.88
233.009	406.88
233.243	390.88
233.477	449.88
233.711	499.88
233.945	573.88
234.179	476.88
234.413	430.88
234.647	468.88
234.881	462.88
235.115	481.88
235.349	591.88
235.583	737.88
235.817	934.88
236.051	902.88
236.285	629.88
236.519	518.88
236.753	490.88
236.987	488.88
237.221	504.88
237.455	509.88
237.689	466.88
237.922	468.88
238.156	467.88
238.39	446.88
238.624	500.88
238.858	460.88
239.091	500.88
239.325	481.88
239.559	485.88
239.793	495.88
240.027	500.88
240.26	521.88
240.494	547.88
240.728	605.88
240.961	600.88
241.195	637.88
241.429	656.88
241.662	684.88
241.896	764.88
242.13	904.88
242.363	1171.88
242.597	1509.88
242.83	1477.88
243.064	1446.88
243.298	1671.88
243.531	1368.88
243.765	916.88
243.998	744.88
244.232	695.88
244.465	641.88
244.699	630.88
244.932	632.88
245.166	641.88
245.399	678.88
245.633	679.88
245.866	672.88
246.099	643.88
246.333	645.88
246.566	641.88
246.8	628.88
247.033	630.88
247.266	627.88
247.5	615.88
247.733	666.88
247.966	693.88
248.2	752.88
248.433	850.88
248.666	956.88
248.899	921.88
249.133	825.88
249.366	854.88
249.599	972.88
249.832	1030.88
250.066	1069.88
250.299	839.88
250.532	782.88
250.765	760.88
250.998	723.88
251.231	724.88
251.465	726.88
251.698	721.88
251.931	742.88
252.164	730.88
252.397	765.88
252.63	803.88
252.863	778.88
253.096	785.88
253.329	770.88
253.562	743.88
253.795	755.88
254.028	791.88
254.261	822.88
254.494	848.88
254.727	970.88
254.96	1140.88
255.193	1184.88
255.426	950.88
255.659	861.88
255.892	870.88
256.124	846.88
256.357	885.88
256.59	910.88
256.823	971.88
257.056	1096.88
257.289	1332.88
257.521	1470.88
257.754	1154.88
257.987	942.88
258.22	904.88
258.452	894.88
258.685	901.88
258.918	912.88
259.151	985.88
259.383	1030.88
259.616	1157.88
259.849	1236.88
260.081	1077.88
260.314	984.88
260.547	938.88
260.779	934.88
261.012	914.88
261.244	983.88
261.477	942.88
261.71	948.88
261.942	989.88
262.175	988.88
262.407	1060.88
262.64	1049.88
262.872	1082.88
263.105	1111.88
263.337	1190.88
263.57	1249.88
263.802	1285.88
264.035	1313.88
264.267	1343.88
264.499	1355.88
264.732	1448.88
264.964	1404.88
265.197	1441.88
265.429	1422.88
265.661	1492.88
265.894	1515.88
266.126	1738.88
266.358	1928.88
266.591	1855.88
266.823	1589.88
267.055	1414.88
267.287	1380.88
267.52	1340.88
267.752	1309.88
267.984	1264.88
268.216	1257.88
268.448	1200.88
268.681	1198.88
268.913	1247.88
269.145	1235.88
269.377	1224.88
269.609	1204.88
269.841	1267.88
270.073	1326.88
270.306	1539.88
270.538	2084.88
270.77	3015.88
271.002	3652.88
271.234	2665.88
271.466	1817.88
271.698	1503.88
271.93	1361.88
272.162	1297.88
272.394	1278.88
272.626	1256.88
272.858	1203.88
273.09	1214.88
273.322	1207.88
273.553	1186.88
273.785	1166.88
274.017	1213.88
274.249	1188.88
274.481	1149.88
274.713	1180.88
274.945	1218.88
275.176	1208.88
275.408	1196.88
275.64	1230.88
275.872	1222.88
276.104	1226.88
276.335	1232.88
276.567	1260.88
276.799	1231.88
277.031	1285.88
277.262	1309.88
277.494	1397.88
277.726	1530.88
277.957	1799.88
278.189	2058.88
278.421	1904.88
278.652	1736.88
278.884	1684.88
279.115	1507.88
279.347	1389.88
279.579	1393.88
279.81	1363.88
280.042	1378.88
280.273	1385.88
280.505	1408.88
280.736	1481.88
280.968	1522.88
281.199	1729.88
281.431	1985.88
281.662	2066.88
281.894	1775.88
282.125	1612.88
282.356	1617.88
282.588	1648.88
282.819	1709.88
283.051	1777.88
283.282	1980.88
283.513	2388.88
283.745	3412.88
283.976	5211.88
284.207	7392.88
284.439	6804.88
284.67	4352.88
284.901	3554.88
285.132	3662.88
285.364	3446.88
285.595	2667.88
285.826	2353.88
286.057	2717.88
286.288	3702.88
286.52	4988.88
286.751	4569.88
286.982	2956.88
287.213	2189.88
287.444	1925.88
287.675	1811.88
287.906	1729.88
288.138	1721.88
288.369	1677.88
288.6	1667.88
288.831	1634.88
289.062	1639.88
289.293	1684.88
289.524	1664.88
289.755	1684.88
289.986	1694.88
290.217	1670.88
290.448	1690.88
290.679	1706.88
290.91	1734.88
291.141	1843.88
291.371	2016.88
291.602	2137.88
291.833	1929.88
292.064	1746.88
292.295	1671.88
292.526	1633.88
292.757	1616.88
292.987	1607.88
293.218	1588.88
293.449	1588.88
293.68	1592.88
293.91	1522.88
294.141	1580.88
294.372	1506.88
294.603	1546.88
294.833	1564.88
295.064	1542.88
295.295	1565.88
295.525	1531.88
295.756	1532.88
295.987	1519.88
296.217	1551.88
296.448	1559.88
296.679	1556.88
296.909	1605.88
297.14	1614.88
297.37	1630.88
297.601	1627.88
297.831	1577.88
298.062	1606.88
298.292	1650.88
298.523	1638.88
298.753	1662.88
298.984	1694.88
299.214	1721.88
299.445	1728.88
299.675	1727.88
299.905	1798.88
300.136	1870.88
300.366	2109.88
300.597	2660.88
300.827	3671.88
301.057	4980.88
301.288	5042.88
301.518	3238.88
301.748	2526.88
301.979	2304.88
302.209	2212.88
302.439	2263.88
302.669	2422.88
302.9	2883.88
303.13	3937.88
303.36	5848.88
303.59	7698.88
303.82	6676.88
304.051	4106.88
304.281	2966.88
304.511	2453.88
304.741	2262.88
304.971	2142.88
305.201	2052.88
305.431	1945.88
305.661	1931.88
305.891	1858.88
306.121	1867.88
306.352	1892.88
306.582	1808.88
306.812	1775.88
307.042	1841.88
307.272	1794.88
307.502	1809.88
307.731	1809.88
307.961	1780.88
308.191	1828.88
308.421	1820.88
308.651	1793.88
308.881	1824.88
309.111	1775.88
309.341	1811.88
309.571	1831.88
309.8	1825.88
310.03	1841.88
310.26	1836.88
310.49	1842.88
310.72	1872.88
310.949	1838.88
311.179	1850.88
311.409	1889.88
311.639	1902.88
311.868	1912.88
312.098	1918.88
312.328	1927.88
312.557	1961.88
312.787	1928.88
313.017	1954.88
313.246	1939.88
313.476	1999.88
313.706	2085.88
313.935	2129.88
314.165	2312.88
314.394	2468.88
314.624	2338.88
314.853	2141.88
315.083	2145.88
315.312	2170.88
315.542	2136.88
315.771	2215.88
316.001	2221.88
316.23	2318.88
316.46	2388.88
316.689	2641.88
316.919	3113.88
317.148	4454.88
317.377	6695.88
317.607	9751.88
317.836	10116.88
318.065	6332.88
318.295	4129.88
318.524	3348.88
318.753	2959.88
318.983	2651.88
319.212	2544.88
319.441	2471.88
319.67	2392.88
319.9	2432.88
320.129	2352.88
320.358	2295.88
320.587	2311.88
320.816	2300.88
321.046	2340.88
321.275	2364.88
321.504	2362.88
321.733	2370.88
321.962	2491.88
322.191	2456.88
322.42	2463.88
322.649	2463.88
322.878	2450.88
323.108	2416.88
323.337	2488.88
323.566	2503.88
323.795	2586.88
324.024	2590.88
324.253	2698.88
324.482	2756.88
324.71	2970.88
324.939	3112.88
325.168	3189.88
325.397	3370.88
325.626	3924.88
325.855	5329.88
326.084	8208.88
326.313	11866.88
326.542	12719.88
326.77	8694.88
326.999	5728.88
327.228	4808.88
327.457	4650.88
327.686	4702.88
327.914	4938.88
328.143	5659.88
328.372	6638.88
328.6	7236.88
328.829	6515.88
329.058	5497.88
329.287	4954.88
329.515	4544.88
329.744	4153.88
329.972	4015.88
330.201	3815.88
330.43	3670.88
330.658	3541.88
330.887	3557.88
331.115	3411.88
331.344	3462.88
331.572	3441.88
331.801	3498.88
332.03	3496.88
332.258	3485.88
332.486	3669.88
332.715	4244.88
332.943	5139.88
333.172	6408.88
333.4	6329.88
333.629	4878.88
333.857	4412.88
334.085	4372.88
334.314	4616.88
334.542	4958.88
334.771	5776.88
334.999	7091.88
335.227	8679.88
335.455	9612.88
335.684	8839.88
335.912	7397.88
336.14	6266.88
336.369	5527.88
336.597	5089.88
336.825	4703.88
337.053	4463.88
337.281	4128.88
337.51	3980.88
337.738	3854.88
337.966	3669.88
338.194	3580.88
338.422	3456.88
338.65	3342.88
338.878	3293.88
339.106	3204.88
339.334	3200.88
339.562	3114.88
339.79	3033.88
340.018	3012.88
340.246	2974.88
340.474	3022.88
340.702	2980.88
340.93	3007.88
341.158	3020.88
341.386	2993.88
341.614	2955.88
341.842	2855.88
342.07	2865.88
342.298	2854.88
342.526	2701.88
342.754	2712.88
342.981	2719.88
343.209	2702.88
343.437	2711.88
343.665	2758.88
343.893	2830.88
344.12	2772.88
344.348	2729.88
344.576	2724.88
344.804	2683.88
345.031	2609.88
345.259	2606.88
345.487	2625.88
345.714	2584.88
345.942	2524.88
346.17	2562.88
346.397	2535.88
346.625	2510.88
346.853	2530.88
347.08	2501.88
347.308	2483.88
347.535	2494.88
347.763	2511.88
347.99	2469.88
348.218	2452.88
348.445	2427.88
348.673	2433.88
348.9	2449.88
349.128	2473.88
349.355	2460.88
349.583	2412.88
349.81	2434.88
350.037	2433.88
350.265	2417.88
350.492	2405.88
350.72	2395.88
350.947	2416.88
351.174	2362.88
351.402	2394.88
351.629	2406.88
351.856	2372.88
352.083	2406.88
352.311	2381.88
352.538	2372.88
352.765	2404.88
352.992	2333.88
353.22	2325.88
353.447	2360.88
353.674	2351.88
353.901	2377.88
354.128	2390.88
354.355	2384.88
354.583	2388.88
354.81	2396.88
355.037	2439.88
355.264	2377.88
355.491	2424.88
355.718	2437.88
355.945	2435.88
356.172	2448.88
356.399	2389.88
356.626	2474.88
356.853	2453.88
357.08	2465.88
357.307	2521.88
357.534	2535.88
357.761	2524.88
357.988	2569.88
358.215	2512.88
358.441	2541.88
358.668	2521.88
358.895	2493.88
359.122	2460.88
359.349	2521.88
359.576	2482.88
359.802	2531.88
360.029	2484.88
360.256	2544.88
360.483	2480.88
360.709	2528.88
360.936	2576.88
361.163	2558.88
361.39	2542.88
361.616	2575.88
361.843	2497.88
362.07	2552.88
362.296	2576.88
362.523	2543.88
362.749	2548.88
362.976	2487.88
363.203	2560.88
363.429	2460.88
363.656	2513.88
363.882	2520.88
364.109	2548.88
364.335	2547.88
364.562	2509.88
364.788	2520.88
365.015	2558.88
365.241	2627.88
365.468	2789.88
365.694	2889.88
365.92	2834.88
366.147	2612.88
366.373	2574.88
366.599	2580.88
366.826	2601.88
367.052	2591.88
367.278	2638.88
367.505	2587.88
367.731	2612.88
367.957	2578.88
368.184	2618.88
368.41	2683.88
368.636	2632.88
368.862	2710.88
369.089	2590.88
369.315	2626.88
369.541	2642.88
369.767	2634.88
369.993	2608.88
370.219	2626.88
370.445	2631.88
370.672	2669.88
370.898	2641.88
371.124	2689.88
371.35	2706.88
371.576	2732.88
371.802	2736.88
372.028	2677.88
372.254	2736.88
372.48	2723.88
372.706	2785.88
372.932	2768.88
373.158	2706.88
373.384	2781.88
373.61	2785.88
373.835	2757.88
374.061	2770.88
374.287	2845.88
374.513	2856.88
374.739	2864.88
374.965	2892.88
375.191	2889.88
375.416	2908.88
375.642	2831.88
375.868	2845.88
376.094	2800.88
376.319	2776.88
376.545	2734.88
376.771	2756.88
376.997	2748.88
377.222	2707.88
377.448	2714.88
377.674	2729.88
377.899	2701.88
378.125	2737.88
378.35	2728.88
378.576	2712.88
378.802	2696.88
379.027	2761.88
379.253	2886.88
379.478	2995.88
379.704	3462.88
379.929	4976.88
380.155	7658.88
380.38	8336.88
380.606	5132.88
380.831	3624.88
381.057	3181.88
381.282	2939.88
381.507	2871.88
381.733	2772.88
381.958	2703.88
382.184	2718.88
382.409	2696.88
382.634	2684.88
382.86	2699.88
383.085	2683.88
383.31	2670.88
383.535	2653.88
383.761	2693.88
383.986	2709.88
384.211	2703.88
384.436	2748.88
384.662	2760.88
384.887	2693.88
385.112	2740.88
385.337	2777.88
385.562	2741.88
385.787	2748.88
386.013	2804.88
386.238	2729.88
386.463	2794.88
386.688	2788.88
386.913	2707.88
387.138	2723.88
387.363	2754.88
387.588	2790.88
387.813	2729.88
388.038	2734.88
388.263	2802.88
388.488	2770.88
388.713	2757.88
388.938	2735.88
389.163	2728.88
389.387	2808.88
389.612	2767.88
389.837	2727.88
390.062	2760.88
390.287	2757.88
390.512	2800.88
390.736	2792.88
390.961	2836.88
391.186	2816.88
391.411	2861.88
391.636	2905.88
391.86	2836.88
392.085	2901.88
392.31	2913.88
392.534	2881.88
392.759	2864.88
392.984	2863.88
393.208	2946.88
393.433	3031.88
393.658	3013.88
393.882	2784.88
394.107	2776.88
394.331	2755.88
394.556	2805.88
394.78	2804.88
395.005	2793.88
395.229	2803.88
395.454	2820.88
395.678	2908.88
395.903	2880.88
396.127	2850.88
396.352	2858.88
396.576	2911.88
396.801	2928.88
397.025	3036.88
397.249	2994.88
397.474	2889.88
397.698	2884.88
397.922	2950.88
398.147	2890.88
398.371	2965.88
398.595	2998.88
398.82	3098.88
399.044	3195.88
399.268	3402.88
399.492	3502.88
399.717	3687.88
399.941	3654.88
400.165	3502.88
400.389	3383.88
400.613	3244.88
400.837	3160.88
401.062	3060.88
401.286	3082.88
401.51	3056.88
401.734	3015.88
401.958	3030.88
402.182	3044.88
402.406	3062.88
402.63	3076.88
402.854	3050.88
403.078	3088.88
403.302	3117.88
403.526	3125.88
403.75	3129.88
403.974	3172.88
404.198	3170.88
404.422	3220.88
404.645	3158.88
404.869	3142.88
405.093	3170.88
405.317	3157.88
405.541	3189.88
405.765	3258.88
405.988	3246.88
406.212	3239.88
406.436	3225.88
406.66	3311.88
406.883	3204.88
407.107	3387.88
407.331	3422.88
407.555	3481.88
407.778	3497.88
408.002	3384.88
408.226	3422.88
408.449	3416.88
408.673	3291.88
408.896	3204.88
409.12	3196.88
409.344	3229.88
409.567	3168.88
409.791	3178.88
410.014	3148.88
410.238	3119.88
410.461	3164.88
410.685	3141.88
410.908	3122.88
411.132	3046.88
411.355	2986.88
411.578	3060.88
411.802	3091.88
412.025	3044.88
412.249	2999.88
412.472	3068.88
412.695	2991.88
412.919	2931.88
413.142	3015.88
413.365	2968.88
413.589	2988.88
413.812	2970.88
414.035	3007.88
414.258	2980.88
414.482	3009.88
414.705	2995.88
414.928	2945.88
415.151	2958.88
415.374	2966.88
415.597	2953.88
415.821	2839.88
416.044	2886.88
416.267	2900.88
416.49	2858.88
416.713	2864.88
416.936	2894.88
417.159	2835.88
417.382	2830.88
417.605	2797.88
417.828	2818.88
418.051	2884.88
418.274	2841.88
418.497	2860.88
418.72	2942.88
418.943	2940.88
419.166	3000.88
419.389	3195.88
419.611	3167.88
419.834	3096.88
420.057	3014.88
420.28	2928.88
420.503	2850.88
420.726	2851.88
420.948	2836.88
421.171	2877.88
421.394	2880.88
421.617	2883.88
421.839	2936.88
422.062	2908.88
422.285	2818.88
422.507	2931.88
422.73	2958.88
422.953	2976.88
423.175	2992.88
423.398	2967.88
423.621	2861.88
423.843	2857.88
424.066	2848.88
424.288	2914.88
424.511	2811.88
424.733	2838.88
424.956	2826.88
425.178	2845.88
425.401	2838.88
425.623	2830.88
425.846	2715.88
426.068	2789.88
426.291	2757.88
426.513	2743.88
426.735	2705.88
426.958	2707.88
427.18	2684.88
427.402	2703.88
427.625	2695.88
427.847	2631.88
428.069	2680.88
428.292	2653.88
428.514	2626.88
428.736	2614.88
428.958	2717.88
429.181	2611.88
429.403	2620.88
429.625	2612.88
429.847	2606.88
430.069	2709.88
430.292	2766.88
430.514	2844.88
430.736	2778.88
430.958	2692.88
431.18	2583.88
431.402	2622.88
431.624	2649.88
431.846	2612.88
432.068	2583.88
432.29	2632.88
432.512	2609.88
432.734	2650.88
432.956	2649.88
433.178	2625.88
433.4	2629.88
433.622	2656.88
433.844	2653.88
434.066	2625.88
434.287	2640.88
434.509	2703.88
434.731	2757.88
434.953	2718.88
435.175	2697.88
435.397	2687.88
435.618	2686.88
435.84	2640.88
436.062	2608.88
436.284	2630.88
436.505	2626.88
436.727	2614.88
436.949	2557.88
437.17	2559.88
437.392	2573.88
437.614	2552.88
437.835	2484.88
438.057	2514.88
438.278	2490.88
438.5	2548.88
438.721	2579.88
438.943	2649.88
439.165	2668.88
439.386	2647.88
439.608	2683.88
439.829	2687.88
440.05	2800.88
440.272	2841.88
440.493	2704.88
440.715	2690.88
440.936	2729.88
441.158	2764.88
441.379	2738.88
441.6	2913.88
441.822	2906.88
442.043	3054.88
442.264	3188.88
442.486	2892.88
442.707	2805.88
442.928	2848.88
443.149	2790.88
443.371	2783.88
443.592	2824.88
443.813	2815.88
444.034	2804.88
444.255	2876.88
444.476	2921.88
444.698	2970.88
444.919	3026.88
445.14	3092.88
445.361	2969.88
445.582	2865.88
445.803	2836.88
446.024	2781.88
446.245	2802.88
446.466	2806.88
446.687	2735.88
446.908	2734.88
447.129	2659.88
447.35	2689.88
447.571	2612.88
447.792	2564.88
448.013	2596.88
448.234	2585.88
448.455	2583.88
448.675	2587.88
448.896	2666.88
449.117	2742.88
449.338	2936.88
449.559	3036.88
449.779	2773.88
450	2610.88
450.221	2575.88
450.442	2533.88
450.662	2535.88
450.883	2513.88
451.104	2536.88
451.324	2498.88
451.545	2568.88
451.766	2556.88
451.986	2598.88
452.207	2764.88
452.428	3573.88
452.648	5426.88
452.869	4525.88
453.089	3099.88
453.31	2912.88
453.53	2965.88
453.751	2994.88
453.971	3118.88
454.192	3003.88
454.412	2684.88
454.633	2537.88
454.853	2518.88
455.073	2459.88
455.294	2424.88
455.514	2397.88
455.734	2397.88
455.955	2377.88
456.175	2447.88
456.395	2396.88
456.616	2433.88
456.836	2449.88
457.056	2507.88
457.276	2464.88
457.497	2622.88
457.717	2606.88
457.937	2561.88
458.157	2552.88
458.377	2568.88
458.598	2568.88
458.818	2628.88
459.038	2621.88
459.258	2593.88
459.478	2613.88
459.698	2710.88
459.918	2698.88
460.138	2698.88
460.358	2751.88
460.578	2767.88
460.798	2838.88
461.018	2878.88
461.238	2845.88
461.458	2845.88
461.678	2911.88
461.898	3026.88
462.118	2964.88
462.338	3049.88
462.558	3069.88
462.777	3121.88
462.997	3253.88
463.217	3361.88
463.437	3431.88
463.657	3573.88
463.876	3477.88
464.096	3301.88
464.316	3194.88
464.536	3192.88
464.755	3098.88
464.975	2978.88
465.195	2905.88
465.414	2841.88
465.634	2716.88
465.854	2762.88
466.073	2656.88
466.293	2662.88
466.512	2660.88
466.732	2670.88
466.951	2774.88
467.171	2932.88
467.391	2936.88
467.61	2670.88
467.829	2587.88
468.049	2612.88
468.268	2522.88
468.488	2546.88
468.707	2508.88
468.927	2502.88
469.146	2554.88
469.365	2585.88
469.585	2569.88
469.804	2654.88
470.023	2710.88
470.243	2745.88
470.462	2791.88
470.681	2997.88
470.901	3218.88
471.12	3640.88
471.339	3640.88
471.558	3151.88
471.777	2811.88
471.997	2712.88
472.216	2669.88
472.435	2616.88
472.654	2617.88
472.873	2565.88
473.092	2606.88
473.311	2607.88
473.53	2606.88
473.749	2637.88
473.968	2732.88
474.187	2642.88
474.406	2555.88
474.625	2593.88
474.844	2620.88
475.063	2607.88
475.282	2630.88
475.501	2563.88
475.72	2666.88
475.939	2645.88
476.158	2727.88
476.377	2722.88
476.596	2698.88
476.814	2720.88
477.033	2734.88
477.252	2753.88
477.471	2847.88
477.69	2910.88
477.908	2909.88
478.127	2961.88
478.346	2970.88
478.564	2988.88
478.783	3041.88
479.002	3105.88
479.22	3110.88
479.439	3069.88
479.658	3116.88
479.876	3150.88
480.095	3140.88
480.313	3156.88
480.532	3194.88
480.751	3218.88
480.969	3176.88
481.188	3097.88
481.406	3135.88
481.624	3113.88
481.843	3161.88
482.061	3140.88
482.28	3148.88
482.498	3132.88
482.717	3077.88
482.935	3199.88
483.153	3162.88
483.372	3272.88
483.59	3284.88
483.808	3300.88
484.027	3389.88
484.245	3621.88
484.463	3985.88
484.681	4332.88
484.9	3958.88
485.118	3761.88
485.336	3758.88
485.554	3802.88
485.772	3903.88
485.99	4382.88
486.209	4612.88
486.427	4045.88
486.645	3645.88
486.863	3517.88
487.081	3417.88
487.299	3380.88
487.517	3358.88
487.735	3304.88
487.953	3379.88
