Data from SnStandardFlinnAPT0064_LampEnergy10_LIBS07252019.E.O._I.C._HRD10591_15-21-11-493.txt Node
Date: Thu Jul 25 15:21:11 EDT 2019
User: cochatt
Spectrometer: HR+D1059
Trigger mode: 1
Integration Time (sec): 1.000000E-1
Scans to average: 1
Electric dark correction enabled: true
Nonlinearity correction enabled: false
Boxcar width: 0
XAxis mode: Wavelengths
Number of Pixels in Spectrum: 2048
>>>>>Begin Spectral Data<<<<<
223.165	-19.38
223.4	-19.38
223.635	-19.38
223.869	-21.38
224.104	-17.38
224.338	-6.38
224.573	-7.38
224.808	-13.38
225.042	-14.38
225.277	0.62
225.511	-9.38
225.746	6.62
225.98	5.62
226.215	-4.38
226.449	19.62
226.683	26.62
226.918	24.62
227.152	29.62
227.387	37.62
227.621	37.62
227.856	42.62
228.09	43.62
228.324	46.62
228.559	54.62
228.793	113.62
229.027	305.62
229.262	340.62
229.496	290.62
229.73	279.62
229.964	307.62
230.199	289.62
230.433	301.62
230.667	292.62
230.901	332.62
231.136	315.62
231.37	352.62
231.604	415.62
231.838	453.62
232.072	515.62
232.306	533.62
232.541	481.62
232.775	409.62
233.009	424.62
233.243	427.62
233.477	450.62
233.711	524.62
233.945	585.62
234.179	503.62
234.413	450.62
234.647	463.62
234.881	459.62
235.115	524.62
235.349	615.62
235.583	777.62
235.817	979.62
236.051	964.62
236.285	624.62
236.519	535.62
236.753	468.62
236.987	497.62
237.221	510.62
237.455	515.62
237.689	467.62
237.922	453.62
238.156	459.62
238.39	491.62
238.624	481.62
238.858	480.62
239.091	486.62
239.325	507.62
239.559	505.62
239.793	501.62
240.027	511.62
240.26	546.62
240.494	531.62
240.728	559.62
240.961	601.62
241.195	637.62
241.429	695.62
241.662	680.62
241.896	799.62
242.13	932.62
242.363	1254.62
242.597	1617.62
242.83	1537.62
243.064	1544.62
243.298	1819.62
243.531	1518.62
243.765	943.62
243.998	772.62
244.232	683.62
244.465	666.62
244.699	630.62
244.932	647.62
245.166	654.62
245.399	673.62
245.633	689.62
245.866	687.62
246.099	669.62
246.333	647.62
246.566	653.62
246.8	645.62
247.033	643.62
247.266	628.62
247.5	676.62
247.733	667.62
247.966	708.62
248.2	734.62
248.433	861.62
248.666	992.62
248.899	936.62
249.133	826.62
249.366	866.62
249.599	927.62
249.832	1067.62
250.066	1054.62
250.299	846.62
250.532	775.62
250.765	727.62
250.998	727.62
251.231	727.62
251.465	771.62
251.698	734.62
251.931	737.62
252.164	726.62
252.397	750.62
252.63	771.62
252.863	802.62
253.096	768.62
253.329	760.62
253.562	750.62
253.795	788.62
254.028	763.62
254.261	791.62
254.494	849.62
254.727	999.62
254.96	1218.62
255.193	1237.62
255.426	951.62
255.659	874.62
255.892	847.62
256.124	846.62
256.357	868.62
256.59	914.62
256.823	961.62
257.056	1085.62
257.289	1327.62
257.521	1503.62
257.754	1165.62
257.987	980.62
258.22	925.62
258.452	890.62
258.685	905.62
258.918	932.62
259.151	975.62
259.383	1069.62
259.616	1197.62
259.849	1269.62
260.081	1077.62
260.314	951.62
260.547	937.62
260.779	936.62
261.012	929.62
261.244	963.62
261.477	938.62
261.71	957.62
261.942	970.62
262.175	1037.62
262.407	1027.62
262.64	1055.62
262.872	1069.62
263.105	1126.62
263.337	1203.62
263.57	1233.62
263.802	1328.62
264.035	1298.62
264.267	1327.62
264.499	1350.62
264.732	1403.62
264.964	1447.62
265.197	1422.62
265.429	1441.62
265.661	1424.62
265.894	1536.62
266.126	1767.62
266.358	1965.62
266.591	1880.62
266.823	1578.62
267.055	1427.62
267.287	1407.62
267.52	1319.62
267.752	1289.62
267.984	1287.62
268.216	1253.62
268.448	1224.62
268.681	1218.62
268.913	1233.62
269.145	1200.62
269.377	1219.62
269.609	1218.62
269.841	1252.62
270.073	1374.62
270.306	1603.62
270.538	2118.62
270.77	3079.62
271.002	3893.62
271.234	2770.62
271.466	1822.62
271.698	1517.62
271.93	1393.62
272.162	1329.62
272.394	1266.62
272.626	1231.62
272.858	1208.62
273.09	1205.62
273.322	1227.62
273.553	1202.62
273.785	1179.62
274.017	1158.62
274.249	1217.62
274.481	1197.62
274.713	1189.62
274.945	1221.62
275.176	1243.62
275.408	1227.62
275.64	1185.62
275.872	1224.62
276.104	1254.62
276.335	1258.62
276.567	1279.62
276.799	1285.62
277.031	1289.62
277.262	1301.62
277.494	1394.62
277.726	1547.62
277.957	1828.62
278.189	2119.62
278.421	1956.62
278.652	1727.62
278.884	1650.62
279.115	1481.62
279.347	1403.62
279.579	1384.62
279.81	1376.62
280.042	1368.62
280.273	1384.62
280.505	1457.62
280.736	1482.62
280.968	1581.62
281.199	1744.62
281.431	2042.62
281.662	2097.62
281.894	1778.62
282.125	1603.62
282.356	1607.62
282.588	1636.62
282.819	1665.62
283.051	1778.62
283.282	1944.62
283.513	2420.62
283.745	3558.62
283.976	5579.62
284.207	7990.62
284.439	7245.62
284.67	4482.62
284.901	3699.62
285.132	3780.62
285.364	3527.62
285.595	2650.62
285.826	2400.62
286.057	2843.62
286.288	3874.62
286.52	5157.62
286.751	4874.62
286.982	2982.62
287.213	2266.62
287.444	1977.62
287.675	1805.62
287.906	1753.62
288.138	1729.62
288.369	1658.62
288.6	1673.62
288.831	1654.62
289.062	1652.62
289.293	1673.62
289.524	1696.62
289.755	1709.62
289.986	1727.62
290.217	1683.62
290.448	1696.62
290.679	1721.62
290.91	1756.62
291.141	1882.62
291.371	1995.62
291.602	2076.62
291.833	1878.62
292.064	1728.62
292.295	1666.62
292.526	1639.62
292.757	1610.62
292.987	1594.62
293.218	1585.62
293.449	1584.62
293.68	1574.62
293.91	1543.62
294.141	1556.62
294.372	1542.62
294.603	1520.62
294.833	1563.62
295.064	1531.62
295.295	1536.62
295.525	1534.62
295.756	1574.62
295.987	1523.62
296.217	1574.62
296.448	1562.62
296.679	1578.62
296.909	1567.62
297.14	1568.62
297.37	1629.62
297.601	1618.62
297.831	1625.62
298.062	1609.62
298.292	1657.62
298.523	1666.62
298.753	1669.62
298.984	1685.62
299.214	1738.62
299.445	1731.62
299.675	1748.62
299.905	1799.62
300.136	1903.62
300.366	2160.62
300.597	2710.62
300.827	3799.62
301.057	5216.62
301.288	5267.62
301.518	3317.62
301.748	2568.62
301.979	2362.62
302.209	2234.62
302.439	2270.62
302.669	2433.62
302.9	2924.62
303.13	4113.62
303.36	6195.62
303.59	8206.62
303.82	7117.62
304.051	4158.62
304.281	3040.62
304.511	2485.62
304.741	2293.62
304.971	2184.62
305.201	2077.62
305.431	1985.62
305.661	1948.62
305.891	1886.62
306.121	1847.62
306.352	1835.62
306.582	1807.62
306.812	1782.62
307.042	1870.62
307.272	1760.62
307.502	1791.62
307.731	1810.62
307.961	1773.62
308.191	1805.62
308.421	1750.62
308.651	1797.62
308.881	1765.62
309.111	1822.62
309.341	1837.62
309.571	1872.62
309.8	1889.62
310.03	1821.62
310.26	1866.62
310.49	1866.62
310.72	1829.62
310.949	1878.62
311.179	1883.62
311.409	1855.62
311.639	1929.62
311.868	1951.62
312.098	1940.62
312.328	1942.62
312.557	1963.62
312.787	1987.62
313.017	1965.62
313.246	1987.62
313.476	2027.62
313.706	2093.62
313.935	2183.62
314.165	2374.62
314.394	2411.62
314.624	2341.62
314.853	2128.62
315.083	2117.62
315.312	2154.62
315.542	2141.62
315.771	2163.62
316.001	2210.62
316.23	2316.62
316.46	2442.62
316.689	2601.62
316.919	3187.62
317.148	4605.62
317.377	7091.62
317.607	10407.62
317.836	10764.62
318.065	6446.62
318.295	4183.62
318.524	3362.62
318.753	2992.62
318.983	2673.62
319.212	2518.62
319.441	2491.62
319.67	2409.62
319.9	2364.62
320.129	2363.62
320.358	2333.62
320.587	2294.62
320.816	2314.62
321.046	2304.62
321.275	2311.62
321.504	2318.62
321.733	2406.62
321.962	2494.62
322.191	2513.62
322.42	2497.62
322.649	2496.62
322.878	2485.62
323.108	2487.62
323.337	2569.62
323.566	2527.62
323.795	2557.62
324.024	2636.62
324.253	2705.62
324.482	2772.62
324.71	2935.62
324.939	3202.62
325.168	3226.62
325.397	3362.62
325.626	3953.62
325.855	5585.62
326.084	8717.62
326.313	12612.62
326.542	13291.62
326.77	8973.62
326.999	5856.62
327.228	4914.62
327.457	4713.62
327.686	4695.62
327.914	5048.62
328.143	5883.62
328.372	7191.62
328.6	7703.62
328.829	6870.62
329.058	5703.62
329.287	5003.62
329.515	4570.62
329.744	4285.62
329.972	3993.62
330.201	3829.62
330.43	3724.62
330.658	3594.62
330.887	3555.62
331.115	3520.62
331.344	3436.62
331.572	3428.62
331.801	3514.62
332.03	3432.62
332.258	3469.62
332.486	3697.62
332.715	4289.62
332.943	5248.62
333.172	6538.62
333.4	6491.62
333.629	4917.62
333.857	4407.62
334.085	4408.62
334.314	4626.62
334.542	5086.62
334.771	5933.62
334.999	7473.62
335.227	9323.62
335.455	10398.62
335.684	9247.62
335.912	7663.62
336.14	6421.62
336.369	5715.62
336.597	5181.62
336.825	4801.62
337.053	4474.62
337.281	4161.62
337.51	3967.62
337.738	3832.62
337.966	3707.62
338.194	3586.62
338.422	3440.62
338.65	3277.62
338.878	3305.62
339.106	3289.62
339.334	3237.62
339.562	3114.62
339.79	3089.62
340.018	3039.62
340.246	3065.62
340.474	3014.62
340.702	2997.62
340.93	3015.62
341.158	2999.62
341.386	2970.62
341.614	2927.62
341.842	2884.62
342.07	2841.62
342.298	2794.62
342.526	2791.62
342.754	2745.62
342.981	2700.62
343.209	2713.62
343.437	2746.62
343.665	2775.62
343.893	2823.62
344.12	2776.62
344.348	2778.62
344.576	2692.62
344.804	2667.62
345.031	2574.62
345.259	2600.62
345.487	2600.62
345.714	2531.62
345.942	2507.62
346.17	2536.62
346.397	2528.62
346.625	2528.62
346.853	2507.62
347.08	2463.62
347.308	2486.62
347.535	2557.62
347.763	2467.62
347.99	2462.62
348.218	2478.62
348.445	2480.62
348.673	2448.62
348.9	2436.62
349.128	2441.62
349.355	2415.62
349.583	2465.62
349.81	2447.62
350.037	2375.62
350.265	2408.62
350.492	2387.62
350.72	2444.62
350.947	2373.62
351.174	2400.62
351.402	2400.62
351.629	2422.62
351.856	2413.62
352.083	2359.62
352.311	2400.62
352.538	2339.62
352.765	2369.62
352.992	2311.62
353.22	2381.62
353.447	2362.62
353.674	2373.62
353.901	2353.62
354.128	2432.62
354.355	2379.62
354.583	2385.62
354.81	2396.62
355.037	2435.62
355.264	2394.62
355.491	2407.62
355.718	2415.62
355.945	2463.62
356.172	2431.62
356.399	2420.62
356.626	2446.62
356.853	2485.62
357.08	2481.62
357.307	2506.62
357.534	2527.62
357.761	2537.62
357.988	2570.62
358.215	2567.62
358.441	2545.62
358.668	2510.62
358.895	2491.62
359.122	2487.62
359.349	2516.62
359.576	2505.62
359.802	2530.62
360.029	2502.62
360.256	2529.62
360.483	2514.62
360.709	2553.62
360.936	2590.62
361.163	2573.62
361.39	2576.62
361.616	2541.62
361.843	2549.62
362.07	2575.62
362.296	2549.62
362.523	2565.62
362.749	2536.62
362.976	2521.62
363.203	2507.62
363.429	2526.62
363.656	2510.62
363.882	2567.62
364.109	2491.62
364.335	2510.62
364.562	2535.62
364.788	2541.62
365.015	2557.62
365.241	2658.62
365.468	2757.62
365.694	2864.62
365.92	2818.62
366.147	2616.62
366.373	2612.62
366.599	2591.62
366.826	2603.62
367.052	2583.62
367.278	2576.62
367.505	2592.62
367.731	2587.62
367.957	2564.62
368.184	2629.62
368.41	2671.62
368.636	2652.62
368.862	2666.62
369.089	2634.62
369.315	2626.62
369.541	2671.62
369.767	2624.62
369.993	2635.62
370.219	2635.62
370.445	2611.62
370.672	2693.62
370.898	2669.62
371.124	2662.62
371.35	2701.62
371.576	2650.62
371.802	2720.62
372.028	2745.62
372.254	2691.62
372.48	2762.62
372.706	2724.62
372.932	2767.62
373.158	2768.62
373.384	2801.62
373.61	2771.62
373.835	2795.62
374.061	2781.62
374.287	2817.62
374.513	2788.62
374.739	2848.62
374.965	2917.62
375.191	2917.62
375.416	2848.62
375.642	2823.62
375.868	2826.62
376.094	2775.62
376.319	2788.62
376.545	2721.62
376.771	2735.62
376.997	2717.62
377.222	2685.62
377.448	2701.62
377.674	2783.62
377.899	2702.62
378.125	2682.62
378.35	2694.62
378.576	2737.62
378.802	2777.62
379.027	2803.62
379.253	2895.62
379.478	2979.62
379.704	3567.62
379.929	5093.62
380.155	7910.62
380.38	8493.62
380.606	5169.62
380.831	3629.62
381.057	3170.62
381.282	2919.62
381.507	2758.62
381.733	2747.62
381.958	2770.62
382.184	2685.62
382.409	2669.62
382.634	2719.62
382.86	2654.62
383.085	2611.62
383.31	2683.62
383.535	2691.62
383.761	2660.62
383.986	2647.62
384.211	2712.62
384.436	2739.62
384.662	2716.62
384.887	2759.62
385.112	2764.62
385.337	2747.62
385.562	2779.62
385.787	2736.62
386.013	2794.62
386.238	2786.62
386.463	2761.62
386.688	2757.62
386.913	2744.62
387.138	2741.62
387.363	2729.62
387.588	2678.62
387.813	2755.62
388.038	2762.62
388.263	2776.62
388.488	2745.62
388.713	2749.62
388.938	2750.62
389.163	2735.62
389.387	2768.62
389.612	2759.62
389.837	2717.62
390.062	2758.62
390.287	2747.62
390.512	2758.62
390.736	2818.62
390.961	2848.62
391.186	2836.62
391.411	2852.62
391.636	2892.62
391.86	2931.62
392.085	2909.62
392.31	2823.62
392.534	2838.62
392.759	2849.62
392.984	2807.62
393.208	2790.62
393.433	2774.62
393.658	2789.62
393.882	2804.62
394.107	2796.62
394.331	2769.62
394.556	2817.62
394.78	2788.62
395.005	2849.62
395.229	2831.62
395.454	2886.62
395.678	2927.62
395.903	2867.62
396.127	2867.62
396.352	2842.62
396.576	2826.62
396.801	2788.62
397.025	2883.62
397.249	2896.62
397.474	2894.62
397.698	2895.62
397.922	2969.62
398.147	2915.62
398.371	2964.62
398.595	3035.62
398.82	3081.62
399.044	3209.62
399.268	3341.62
399.492	3493.62
399.717	3675.62
399.941	3675.62
400.165	3533.62
400.389	3402.62
400.613	3218.62
400.837	3131.62
401.062	3150.62
401.286	3077.62
401.51	3043.62
401.734	2951.62
401.958	3081.62
402.182	2993.62
402.406	3018.62
402.63	3154.62
402.854	3066.62
403.078	3066.62
403.302	3113.62
403.526	3162.62
403.75	3152.62
403.974	3185.62
404.198	3113.62
404.422	3193.62
404.645	3215.62
404.869	3148.62
405.093	3188.62
405.317	3164.62
405.541	3184.62
405.765	3204.62
405.988	3285.62
406.212	3267.62
406.436	3258.62
406.66	3281.62
406.883	3234.62
407.107	3445.62
407.331	3432.62
407.555	3471.62
407.778	3449.62
408.002	3411.62
408.226	3393.62
408.449	3427.62
408.673	3297.62
408.896	3271.62
409.12	3159.62
409.344	3225.62
409.567	3145.62
409.791	3146.62
410.014	3162.62
410.238	3155.62
410.461	3147.62
410.685	3156.62
410.908	3090.62
411.132	3094.62
411.355	3035.62
411.578	3064.62
411.802	3037.62
412.025	3047.62
412.249	3032.62
412.472	3046.62
412.695	3004.62
412.919	3003.62
413.142	2997.62
413.365	2974.62
413.589	3005.62
413.812	2970.62
414.035	2972.62
414.258	2951.62
414.482	2971.62
414.705	2987.62
414.928	2984.62
415.151	2952.62
415.374	2942.62
415.597	2916.62
415.821	2917.62
416.044	2855.62
416.267	2867.62
416.49	2895.62
416.713	2833.62
416.936	2897.62
417.159	2821.62
417.382	2806.62
417.605	2784.62
417.828	2844.62
418.051	2907.62
418.274	2921.62
418.497	2858.62
418.72	2947.62
418.943	2858.62
419.166	3030.62
419.389	3165.62
419.611	3199.62
419.834	3025.62
420.057	2979.62
420.28	2914.62
420.503	2863.62
420.726	2803.62
420.948	2847.62
421.171	2805.62
421.394	2866.62
421.617	2821.62
421.839	2887.62
422.062	2905.62
422.285	2833.62
422.507	2903.62
422.73	2867.62
422.953	2958.62
423.175	2933.62
423.398	2913.62
423.621	2835.62
423.843	2869.62
424.066	2858.62
424.288	2884.62
424.511	2857.62
424.733	2882.62
424.956	2806.62
425.178	2790.62
425.401	2823.62
425.623	2861.62
425.846	2774.62
426.068	2788.62
426.291	2677.62
426.513	2754.62
426.735	2731.62
426.958	2773.62
427.18	2666.62
427.402	2677.62
427.625	2664.62
427.847	2640.62
428.069	2660.62
428.292	2698.62
428.514	2649.62
428.736	2697.62
428.958	2687.62
429.181	2609.62
429.403	2587.62
429.625	2609.62
429.847	2629.62
430.069	2661.62
430.292	2786.62
430.514	2854.62
430.736	2798.62
430.958	2679.62
431.18	2635.62
431.402	2613.62
431.624	2577.62
431.846	2641.62
432.068	2627.62
432.29	2638.62
432.512	2603.62
432.734	2687.62
432.956	2621.62
433.178	2623.62
433.4	2634.62
433.622	2612.62
433.844	2657.62
434.066	2661.62
434.287	2679.62
434.509	2677.62
434.731	2700.62
434.953	2725.62
435.175	2717.62
435.397	2734.62
435.618	2679.62
435.84	2683.62
436.062	2617.62
436.284	2550.62
436.505	2575.62
436.727	2600.62
436.949	2613.62
437.17	2642.62
437.392	2563.62
437.614	2566.62
437.835	2487.62
438.057	2497.62
438.278	2516.62
438.5	2569.62
438.721	2580.62
438.943	2657.62
439.165	2677.62
439.386	2711.62
439.608	2693.62
439.829	2700.62
440.05	2813.62
440.272	2807.62
440.493	2715.62
440.715	2675.62
440.936	2703.62
441.158	2708.62
441.379	2742.62
441.6	2835.62
441.822	2921.62
442.043	3017.62
442.264	3208.62
442.486	2962.62
442.707	2801.62
442.928	2781.62
443.149	2832.62
443.371	2746.62
443.592	2841.62
443.813	2813.62
444.034	2817.62
444.255	2871.62
444.476	2897.62
444.698	3009.62
444.919	3001.62
445.14	3083.62
445.361	2971.62
445.582	2877.62
445.803	2849.62
446.024	2763.62
446.245	2818.62
446.466	2763.62
446.687	2754.62
446.908	2756.62
447.129	2662.62
447.35	2646.62
447.571	2607.62
447.792	2562.62
448.013	2599.62
448.234	2574.62
448.455	2585.62
448.675	2605.62
448.896	2713.62
449.117	2725.62
449.338	3016.62
449.559	3090.62
449.779	2792.62
450	2613.62
450.221	2583.62
450.442	2564.62
450.662	2506.62
450.883	2489.62
451.104	2517.62
451.324	2544.62
451.545	2553.62
451.766	2533.62
451.986	2558.62
452.207	2789.62
452.428	3549.62
452.648	5361.62
452.869	4522.62
453.089	3097.62
453.31	2913.62
453.53	2904.62
453.751	3029.62
453.971	3140.62
454.192	3059.62
454.412	2670.62
454.633	2515.62
454.853	2501.62
455.073	2443.62
455.294	2402.62
455.514	2404.62
455.734	2390.62
455.955	2363.62
456.175	2385.62
456.395	2395.62
456.616	2419.62
456.836	2413.62
457.056	2465.62
457.276	2481.62
457.497	2627.62
457.717	2606.62
457.937	2522.62
458.157	2574.62
458.377	2539.62
458.598	2575.62
458.818	2600.62
459.038	2589.62
459.258	2636.62
459.478	2655.62
459.698	2642.62
459.918	2632.62
460.138	2707.62
460.358	2789.62
460.578	2797.62
460.798	2810.62
461.018	2859.62
461.238	2816.62
461.458	2910.62
461.678	2912.62
461.898	3008.62
462.118	2999.62
462.338	3000.62
462.558	3079.62
462.777	3104.62
462.997	3255.62
463.217	3340.62
463.437	3463.62
463.657	3557.62
463.876	3532.62
464.096	3351.62
464.316	3197.62
464.536	3142.62
464.755	3042.62
464.975	2993.62
465.195	2902.62
465.414	2841.62
465.634	2740.62
465.854	2701.62
466.073	2698.62
466.293	2705.62
466.512	2674.62
466.732	2666.62
466.951	2789.62
467.171	2993.62
467.391	2900.62
467.61	2650.62
467.829	2641.62
468.049	2596.62
468.268	2513.62
468.488	2585.62
468.707	2504.62
468.927	2610.62
469.146	2554.62
469.365	2609.62
469.585	2549.62
469.804	2674.62
470.023	2711.62
470.243	2702.62
470.462	2857.62
470.681	2977.62
470.901	3287.62
471.12	3765.62
471.339	3814.62
471.558	3122.62
471.777	2863.62
471.997	2790.62
472.216	2675.62
472.435	2642.62
472.654	2634.62
472.873	2589.62
473.092	2581.62
473.311	2570.62
473.53	2628.62
473.749	2629.62
473.968	2801.62
474.187	2597.62
474.406	2573.62
474.625	2583.62
474.844	2587.62
475.063	2617.62
475.282	2607.62
475.501	2589.62
475.72	2631.62
475.939	2665.62
476.158	2705.62
476.377	2763.62
476.596	2731.62
476.814	2773.62
477.033	2751.62
477.252	2726.62
477.471	2786.62
477.69	2890.62
477.908	2894.62
478.127	2963.62
478.346	2949.62
478.564	2975.62
478.783	3008.62
479.002	3093.62
479.22	3082.62
479.439	3116.62
479.658	3135.62
479.876	3126.62
480.095	3139.62
480.313	3233.62
480.532	3258.62
480.751	3199.62
480.969	3160.62
481.188	3165.62
481.406	3116.62
481.624	3157.62
481.843	3183.62
482.061	3157.62
482.28	3180.62
482.498	3113.62
482.717	3132.62
482.935	3159.62
483.153	3229.62
483.372	3227.62
483.59	3285.62
483.808	3309.62
484.027	3377.62
484.245	3633.62
484.463	3988.62
484.681	4576.62
484.9	4079.62
485.118	3807.62
485.336	3742.62
485.554	3754.62
485.772	4077.62
485.99	4495.62
486.209	4857.62
486.427	4108.62
486.645	3649.62
486.863	3560.62
487.081	3469.62
487.299	3387.62
487.517	3378.62
487.735	3329.62
