Data from SnStandardFlinnAPT0064_LampEnergy10_LIBS07252019.E.O._I.C._HRD10591_15-19-37-493.txt Node
Date: Thu Jul 25 15:19:37 EDT 2019
User: cochatt
Spectrometer: HR+D1059
Trigger mode: 1
Integration Time (sec): 1.000000E-1
Scans to average: 1
Electric dark correction enabled: true
Nonlinearity correction enabled: false
Boxcar width: 0
XAxis mode: Wavelengths
Number of Pixels in Spectrum: 2048
>>>>>Begin Spectral Data<<<<<
223.165	-16.88
223.4	-16.88
223.635	-16.88
223.869	-14.88
224.104	-21.88
224.338	1.12
224.573	-18.88
224.808	-11.88
225.042	-2.88
225.277	-5.88
225.511	-14.88
225.746	10.12
225.98	5.12
226.215	8.12
226.449	17.12
226.683	28.12
226.918	13.12
227.152	25.12
227.387	36.12
227.621	40.12
227.856	25.12
228.09	42.12
228.324	57.12
228.559	50.12
228.793	121.12
229.027	306.12
229.262	364.12
229.496	309.12
229.73	322.12
229.964	294.12
230.199	329.12
230.433	307.12
230.667	334.12
230.901	339.12
231.136	325.12
231.37	360.12
231.604	393.12
231.838	453.12
232.072	532.12
232.306	595.12
232.541	490.12
232.775	432.12
233.009	421.12
233.243	445.12
233.477	479.12
233.711	535.12
233.945	599.12
234.179	519.12
234.413	469.12
234.647	487.12
234.881	500.12
235.115	551.12
235.349	673.12
235.583	813.12
235.817	1027.12
236.051	1024.12
236.285	706.12
236.519	548.12
236.753	531.12
236.987	529.12
237.221	562.12
237.455	533.12
237.689	491.12
237.922	482.12
238.156	487.12
238.39	520.12
238.624	513.12
238.858	518.12
239.091	486.12
239.325	509.12
239.559	525.12
239.793	522.12
240.027	541.12
240.26	573.12
240.494	595.12
240.728	623.12
240.961	627.12
241.195	679.12
241.429	701.12
241.662	746.12
241.896	833.12
242.13	991.12
242.363	1291.12
242.597	1732.12
242.83	1642.12
243.064	1641.12
243.298	1895.12
243.531	1612.12
243.765	1018.12
243.998	842.12
244.232	732.12
244.465	684.12
244.699	672.12
244.932	677.12
245.166	706.12
245.399	707.12
245.633	709.12
245.866	701.12
246.099	688.12
246.333	669.12
246.566	671.12
246.8	628.12
247.033	683.12
247.266	657.12
247.5	693.12
247.733	707.12
247.966	740.12
248.2	824.12
248.433	909.12
248.666	1044.12
248.899	1003.12
249.133	895.12
249.366	883.12
249.599	998.12
249.832	1135.12
250.066	1129.12
250.299	905.12
250.532	828.12
250.765	789.12
250.998	760.12
251.231	762.12
251.465	737.12
251.698	747.12
251.931	762.12
252.164	774.12
252.397	767.12
252.63	827.12
252.863	807.12
253.096	804.12
253.329	789.12
253.562	801.12
253.795	814.12
254.028	822.12
254.261	851.12
254.494	927.12
254.727	1045.12
254.96	1283.12
255.193	1300.12
255.426	1014.12
255.659	913.12
255.892	887.12
256.124	910.12
256.357	916.12
256.59	929.12
256.823	1023.12
257.056	1165.12
257.289	1401.12
257.521	1568.12
257.754	1237.12
257.987	1026.12
258.22	981.12
258.452	937.12
258.685	964.12
258.918	979.12
259.151	1021.12
259.383	1141.12
259.616	1302.12
259.849	1327.12
260.081	1132.12
260.314	1004.12
260.547	981.12
260.779	941.12
261.012	977.12
261.244	1002.12
261.477	1001.12
261.71	1012.12
261.942	1009.12
262.175	1034.12
262.407	1043.12
262.64	1046.12
262.872	1125.12
263.105	1153.12
263.337	1214.12
263.57	1276.12
263.802	1298.12
264.035	1305.12
264.267	1357.12
264.499	1382.12
264.732	1429.12
264.964	1432.12
265.197	1468.12
265.429	1427.12
265.661	1450.12
265.894	1569.12
266.126	1793.12
266.358	1992.12
266.591	1955.12
266.823	1639.12
267.055	1492.12
267.287	1421.12
267.52	1362.12
267.752	1297.12
267.984	1299.12
268.216	1290.12
268.448	1250.12
268.681	1233.12
268.913	1267.12
269.145	1247.12
269.377	1270.12
269.609	1276.12
269.841	1307.12
270.073	1404.12
270.306	1639.12
270.538	2256.12
270.77	3379.12
271.002	4170.12
271.234	2986.12
271.466	1987.12
271.698	1588.12
271.93	1451.12
272.162	1375.12
272.394	1329.12
272.626	1317.12
272.858	1304.12
273.09	1236.12
273.322	1245.12
273.553	1228.12
273.785	1228.12
274.017	1249.12
274.249	1215.12
274.481	1245.12
274.713	1237.12
274.945	1275.12
275.176	1282.12
275.408	1255.12
275.64	1258.12
275.872	1277.12
276.104	1291.12
276.335	1315.12
276.567	1301.12
276.799	1300.12
277.031	1332.12
277.262	1337.12
277.494	1451.12
277.726	1625.12
277.957	1892.12
278.189	2211.12
278.421	2050.12
278.652	1818.12
278.884	1733.12
279.115	1554.12
279.347	1459.12
279.579	1431.12
279.81	1401.12
280.042	1439.12
280.273	1484.12
280.505	1496.12
280.736	1551.12
280.968	1635.12
281.199	1830.12
281.431	2123.12
281.662	2139.12
281.894	1843.12
282.125	1692.12
282.356	1681.12
282.588	1697.12
282.819	1797.12
283.051	1893.12
283.282	2118.12
283.513	2587.12
283.745	3767.12
283.976	5983.12
284.207	8425.12
284.439	7729.12
284.67	4952.12
284.901	4023.12
285.132	4013.12
285.364	3797.12
285.595	2868.12
285.826	2568.12
286.057	2995.12
286.288	4065.12
286.52	5469.12
286.751	5133.12
286.982	3263.12
287.213	2428.12
287.444	2108.12
287.675	1976.12
287.906	1905.12
288.138	1814.12
288.369	1751.12
288.6	1745.12
288.831	1708.12
289.062	1693.12
289.293	1710.12
289.524	1695.12
289.755	1729.12
289.986	1713.12
290.217	1767.12
290.448	1737.12
290.679	1783.12
290.91	1788.12
291.141	1894.12
291.371	2068.12
291.602	2189.12
291.833	1980.12
292.064	1820.12
292.295	1736.12
292.526	1717.12
292.757	1671.12
292.987	1593.12
293.218	1608.12
293.449	1628.12
293.68	1658.12
293.91	1606.12
294.141	1593.12
294.372	1612.12
294.603	1628.12
294.833	1626.12
295.064	1612.12
295.295	1594.12
295.525	1597.12
295.756	1573.12
295.987	1584.12
296.217	1601.12
296.448	1580.12
296.679	1593.12
296.909	1620.12
297.14	1632.12
297.37	1649.12
297.601	1637.12
297.831	1682.12
298.062	1630.12
298.292	1698.12
298.523	1709.12
298.753	1713.12
298.984	1723.12
299.214	1762.12
299.445	1791.12
299.675	1831.12
299.905	1877.12
300.136	1983.12
300.366	2257.12
300.597	2877.12
300.827	4059.12
301.057	5515.12
301.288	5600.12
301.518	3631.12
301.748	2749.12
301.979	2479.12
302.209	2406.12
302.439	2415.12
302.669	2583.12
302.9	3070.12
303.13	4342.12
303.36	6408.12
303.59	8588.12
303.82	7578.12
304.051	4515.12
304.281	3252.12
304.511	2719.12
304.741	2464.12
304.971	2239.12
305.201	2169.12
305.431	2101.12
305.661	2056.12
305.891	2003.12
306.121	1934.12
306.352	1932.12
306.582	1894.12
306.812	1867.12
307.042	1879.12
307.272	1848.12
307.502	1874.12
307.731	1861.12
307.961	1846.12
308.191	1810.12
308.421	1850.12
308.651	1856.12
308.881	1796.12
309.111	1881.12
309.341	1866.12
309.571	1887.12
309.8	1872.12
310.03	1922.12
310.26	1874.12
310.49	1919.12
310.72	1915.12
310.949	1916.12
311.179	1906.12
311.409	1933.12
311.639	1942.12
311.868	1931.12
312.098	1977.12
312.328	1990.12
312.557	2002.12
312.787	2020.12
313.017	2011.12
313.246	2067.12
313.476	2070.12
313.706	2101.12
313.935	2274.12
314.165	2468.12
314.394	2583.12
314.624	2431.12
314.853	2242.12
315.083	2209.12
315.312	2186.12
315.542	2225.12
315.771	2298.12
316.001	2283.12
316.23	2389.12
316.46	2490.12
316.689	2776.12
316.919	3409.12
317.148	4791.12
317.377	7464.12
317.607	10911.12
317.836	11401.12
318.065	7126.12
318.295	4596.12
318.524	3633.12
318.753	3144.12
318.983	2904.12
319.212	2699.12
319.441	2601.12
319.67	2536.12
319.9	2485.12
320.129	2450.12
320.358	2389.12
320.587	2359.12
320.816	2395.12
321.046	2359.12
321.275	2378.12
321.504	2486.12
321.733	2492.12
321.962	2565.12
322.191	2593.12
322.42	2597.12
322.649	2562.12
322.878	2524.12
323.108	2521.12
323.337	2608.12
323.566	2601.12
323.795	2664.12
324.024	2740.12
324.253	2767.12
324.482	2955.12
324.71	3119.12
324.939	3283.12
325.168	3356.12
325.397	3529.12
325.626	4151.12
325.855	5928.12
326.084	9183.12
326.313	13160.12
326.542	13892.12
326.77	9712.12
326.999	6341.12
327.228	5308.12
327.457	5049.12
327.686	5056.12
327.914	5365.12
328.143	6296.12
328.372	7452.12
328.6	8112.12
328.829	7276.12
329.058	6090.12
329.287	5319.12
329.515	4820.12
329.744	4453.12
329.972	4265.12
330.201	3989.12
330.43	3846.12
330.658	3760.12
330.887	3666.12
331.115	3613.12
331.344	3588.12
331.572	3567.12
331.801	3498.12
332.03	3595.12
332.258	3686.12
332.486	3820.12
332.715	4473.12
332.943	5459.12
333.172	6875.12
333.4	6849.12
333.629	5215.12
333.857	4680.12
334.085	4692.12
334.314	4920.12
334.542	5287.12
334.771	6293.12
334.999	7679.12
335.227	9648.12
335.455	10765.12
335.684	9798.12
335.912	8065.12
336.14	6798.12
336.369	5992.12
336.597	5446.12
336.825	4965.12
337.053	4654.12
337.281	4392.12
337.51	4144.12
337.738	3997.12
337.966	3787.12
338.194	3664.12
338.422	3507.12
338.65	3409.12
338.878	3388.12
339.106	3331.12
339.334	3286.12
339.562	3212.12
339.79	3142.12
340.018	3138.12
340.246	3108.12
340.474	3079.12
340.702	3061.12
340.93	3050.12
341.158	3063.12
341.386	3041.12
341.614	2988.12
341.842	2919.12
342.07	2861.12
342.298	2840.12
342.526	2762.12
342.754	2712.12
342.981	2777.12
343.209	2735.12
343.437	2783.12
343.665	2794.12
343.893	2840.12
344.12	2829.12
344.348	2795.12
344.576	2747.12
344.804	2755.12
345.031	2636.12
345.259	2628.12
345.487	2604.12
345.714	2550.12
345.942	2579.12
346.17	2637.12
346.397	2569.12
346.625	2544.12
346.853	2559.12
347.08	2557.12
347.308	2591.12
347.535	2560.12
347.763	2511.12
347.99	2527.12
348.218	2493.12
348.445	2488.12
348.673	2497.12
348.9	2506.12
349.128	2473.12
349.355	2488.12
349.583	2507.12
349.81	2407.12
350.037	2431.12
350.265	2396.12
350.492	2426.12
350.72	2421.12
350.947	2439.12
351.174	2407.12
351.402	2419.12
351.629	2444.12
351.856	2430.12
352.083	2411.12
352.311	2373.12
352.538	2391.12
352.765	2388.12
352.992	2407.12
353.22	2417.12
353.447	2406.12
353.674	2412.12
353.901	2433.12
354.128	2428.12
354.355	2408.12
354.583	2431.12
354.81	2459.12
355.037	2418.12
355.264	2445.12
355.491	2493.12
355.718	2463.12
355.945	2473.12
356.172	2497.12
356.399	2497.12
356.626	2515.12
356.853	2548.12
357.08	2536.12
357.307	2558.12
357.534	2641.12
357.761	2641.12
357.988	2656.12
358.215	2589.12
358.441	2582.12
358.668	2594.12
358.895	2548.12
359.122	2541.12
359.349	2587.12
359.576	2593.12
359.802	2600.12
360.029	2586.12
360.256	2577.12
360.483	2585.12
360.709	2578.12
360.936	2575.12
361.163	2589.12
361.39	2563.12
361.616	2618.12
361.843	2580.12
362.07	2619.12
362.296	2565.12
362.523	2574.12
362.749	2572.12
362.976	2587.12
363.203	2537.12
363.429	2561.12
363.656	2573.12
363.882	2521.12
364.109	2523.12
364.335	2543.12
364.562	2518.12
364.788	2599.12
365.015	2573.12
365.241	2724.12
365.468	2813.12
365.694	3010.12
365.92	2858.12
366.147	2638.12
366.373	2644.12
366.599	2644.12
366.826	2604.12
367.052	2593.12
367.278	2649.12
367.505	2666.12
367.731	2687.12
367.957	2651.12
368.184	2621.12
368.41	2687.12
368.636	2687.12
368.862	2697.12
369.089	2663.12
369.315	2679.12
369.541	2595.12
369.767	2629.12
369.993	2647.12
370.219	2632.12
370.445	2683.12
370.672	2699.12
370.898	2663.12
371.124	2682.12
371.35	2737.12
371.576	2741.12
371.802	2744.12
372.028	2756.12
372.254	2713.12
372.48	2750.12
372.706	2787.12
372.932	2797.12
373.158	2824.12
373.384	2794.12
373.61	2796.12
373.835	2804.12
374.061	2765.12
374.287	2841.12
374.513	2866.12
374.739	2853.12
374.965	2922.12
375.191	2870.12
375.416	2898.12
375.642	2845.12
375.868	2811.12
376.094	2820.12
376.319	2770.12
376.545	2773.12
376.771	2774.12
376.997	2769.12
377.222	2744.12
377.448	2672.12
377.674	2725.12
377.899	2725.12
378.125	2708.12
378.35	2687.12
378.576	2802.12
378.802	2747.12
379.027	2848.12
379.253	2966.12
379.478	3073.12
379.704	3656.12
379.929	5249.12
380.155	8197.12
380.38	9100.12
380.606	5568.12
380.831	3914.12
381.057	3302.12
381.282	3050.12
381.507	2897.12
381.733	2843.12
381.958	2827.12
382.184	2743.12
382.409	2713.12
382.634	2736.12
382.86	2695.12
383.085	2717.12
383.31	2708.12
383.535	2700.12
383.761	2730.12
383.986	2708.12
384.211	2774.12
384.436	2736.12
384.662	2759.12
384.887	2784.12
385.112	2748.12
385.337	2826.12
385.562	2800.12
385.787	2819.12
386.013	2841.12
386.238	2804.12
386.463	2785.12
386.688	2789.12
386.913	2740.12
387.138	2799.12
387.363	2749.12
387.588	2745.12
387.813	2770.12
388.038	2747.12
388.263	2726.12
388.488	2725.12
388.713	2727.12
388.938	2795.12
389.163	2743.12
389.387	2813.12
389.612	2764.12
389.837	2757.12
390.062	2737.12
390.287	2806.12
390.512	2863.12
390.736	2801.12
390.961	2904.12
391.186	2893.12
391.411	2901.12
391.636	2969.12
391.86	2953.12
392.085	2915.12
392.31	2888.12
392.534	2851.12
392.759	2901.12
392.984	2866.12
393.208	2881.12
393.433	2970.12
393.658	2840.12
393.882	2785.12
394.107	2821.12
394.331	2822.12
394.556	2837.12
394.78	2850.12
395.005	2843.12
395.229	2815.12
395.454	2877.12
395.678	2880.12
395.903	2868.12
396.127	2878.12
396.352	2897.12
396.576	2873.12
396.801	2835.12
397.025	2940.12
397.249	2905.12
397.474	2896.12
397.698	2895.12
397.922	2966.12
398.147	2878.12
398.371	3008.12
398.595	3061.12
398.82	3059.12
399.044	3176.12
399.268	3353.12
399.492	3548.12
399.717	3693.12
399.941	3617.12
400.165	3513.12
400.389	3343.12
400.613	3168.12
400.837	3124.12
401.062	3134.12
401.286	3058.12
401.51	3084.12
401.734	3046.12
401.958	3052.12
402.182	3029.12
402.406	3003.12
402.63	3086.12
402.854	3051.12
403.078	3055.12
403.302	3097.12
403.526	3158.12
403.75	3055.12
403.974	3174.12
404.198	3123.12
404.422	3206.12
404.645	3128.12
404.869	3127.12
405.093	3188.12
405.317	3116.12
405.541	3167.12
405.765	3256.12
405.988	3313.12
406.212	3226.12
406.436	3269.12
406.66	3284.12
406.883	3264.12
407.107	3411.12
407.331	3411.12
407.555	3421.12
407.778	3471.12
408.002	3431.12
408.226	3349.12
408.449	3359.12
408.673	3349.12
408.896	3274.12
409.12	3213.12
409.344	3220.12
409.567	3146.12
409.791	3187.12
410.014	3183.12
410.238	3107.12
410.461	3179.12
410.685	3109.12
410.908	3158.12
411.132	3121.12
411.355	3042.12
411.578	3059.12
411.802	3016.12
412.025	3067.12
412.249	3045.12
412.472	3040.12
412.695	2997.12
412.919	2976.12
413.142	2963.12
413.365	2999.12
413.589	3020.12
413.812	2947.12
414.035	3011.12
414.258	2957.12
414.482	2959.12
414.705	3008.12
414.928	3003.12
415.151	2959.12
415.374	3007.12
415.597	2996.12
415.821	2888.12
416.044	2837.12
416.267	2885.12
416.49	2897.12
416.713	2876.12
416.936	2892.12
417.159	2836.12
417.382	2828.12
417.605	2784.12
417.828	2891.12
418.051	2884.12
418.274	2910.12
418.497	2893.12
418.72	2950.12
418.943	2927.12
419.166	3032.12
419.389	3191.12
419.611	3111.12
419.834	3088.12
420.057	2987.12
420.28	2898.12
420.503	2881.12
420.726	2866.12
420.948	2877.12
421.171	2909.12
421.394	2875.12
421.617	2860.12
421.839	2854.12
422.062	2890.12
422.285	2860.12
422.507	2971.12
422.73	2911.12
422.953	3011.12
423.175	3005.12
423.398	2944.12
423.621	2932.12
423.843	2922.12
424.066	2841.12
424.288	2871.12
424.511	2849.12
424.733	2880.12
424.956	2861.12
425.178	2814.12
425.401	2849.12
425.623	2823.12
425.846	2765.12
426.068	2813.12
426.291	2808.12
426.513	2719.12
426.735	2752.12
426.958	2776.12
427.18	2748.12
427.402	2766.12
427.625	2739.12
427.847	2683.12
428.069	2689.12
428.292	2696.12
428.514	2640.12
428.736	2652.12
428.958	2733.12
429.181	2647.12
429.403	2654.12
429.625	2689.12
429.847	2635.12
430.069	2675.12
430.292	2779.12
430.514	2875.12
430.736	2888.12
430.958	2725.12
431.18	2653.12
431.402	2635.12
431.624	2612.12
431.846	2637.12
432.068	2622.12
432.29	2631.12
432.512	2596.12
432.734	2656.12
432.956	2635.12
433.178	2625.12
433.4	2613.12
433.622	2659.12
433.844	2663.12
434.066	2697.12
434.287	2706.12
434.509	2728.12
434.731	2735.12
434.953	2707.12
435.175	2722.12
435.397	2758.12
435.618	2709.12
435.84	2619.12
436.062	2611.12
436.284	2655.12
436.505	2549.12
436.727	2591.12
436.949	2647.12
437.17	2598.12
437.392	2537.12
437.614	2549.12
437.835	2520.12
438.057	2573.12
438.278	2537.12
438.5	2608.12
438.721	2645.12
438.943	2725.12
439.165	2750.12
439.386	2759.12
439.608	2764.12
439.829	2773.12
440.05	2823.12
440.272	2871.12
440.493	2744.12
440.715	2715.12
440.936	2724.12
441.158	2767.12
441.379	2812.12
441.6	2865.12
441.822	2970.12
442.043	3129.12
442.264	3203.12
442.486	3045.12
442.707	2913.12
442.928	2873.12
443.149	2855.12
443.371	2817.12
443.592	2843.12
443.813	2834.12
444.034	2861.12
444.255	2873.12
444.476	2981.12
444.698	3028.12
444.919	2967.12
445.14	3067.12
445.361	2941.12
445.582	2891.12
445.803	2785.12
446.024	2787.12
446.245	2803.12
446.466	2806.12
446.687	2740.12
446.908	2779.12
447.129	2660.12
447.35	2673.12
447.571	2725.12
447.792	2608.12
448.013	2577.12
448.234	2664.12
448.455	2596.12
448.675	2661.12
448.896	2724.12
449.117	2818.12
449.338	3027.12
449.559	3143.12
449.779	2871.12
450	2651.12
450.221	2596.12
450.442	2547.12
450.662	2563.12
450.883	2513.12
451.104	2571.12
451.324	2577.12
451.545	2573.12
451.766	2588.12
451.986	2641.12
452.207	2847.12
452.428	3712.12
452.648	5671.12
452.869	4791.12
453.089	3281.12
453.31	3041.12
453.53	3002.12
453.751	3125.12
453.971	3228.12
454.192	3187.12
454.412	2754.12
454.633	2609.12
454.853	2540.12
455.073	2492.12
455.294	2499.12
455.514	2427.12
455.734	2464.12
455.955	2395.12
456.175	2423.12
456.395	2451.12
456.616	2435.12
456.836	2505.12
457.056	2486.12
457.276	2490.12
457.497	2650.12
457.717	2678.12
457.937	2587.12
458.157	2581.12
458.377	2604.12
458.598	2615.12
458.818	2577.12
459.038	2595.12
459.258	2616.12
459.478	2648.12
459.698	2693.12
459.918	2693.12
460.138	2762.12
460.358	2804.12
460.578	2823.12
460.798	2898.12
461.018	2883.12
461.238	2831.12
461.458	2887.12
461.678	2887.12
461.898	3023.12
462.118	3042.12
462.338	3105.12
462.558	3122.12
462.777	3157.12
462.997	3279.12
463.217	3391.12
463.437	3499.12
463.657	3635.12
463.876	3587.12
464.096	3387.12
464.316	3245.12
464.536	3149.12
464.755	3109.12
464.975	3019.12
465.195	2941.12
465.414	2877.12
465.634	2725.12
465.854	2757.12
466.073	2706.12
466.293	2721.12
466.512	2658.12
466.732	2725.12
466.951	2859.12
467.171	3096.12
467.391	2994.12
467.61	2761.12
467.829	2655.12
468.049	2653.12
468.268	2585.12
468.488	2584.12
468.707	2583.12
468.927	2615.12
469.146	2604.12
469.365	2640.12
469.585	2681.12
469.804	2725.12
470.023	2785.12
470.243	2854.12
470.462	2903.12
470.681	3052.12
470.901	3338.12
471.12	3871.12
471.339	3790.12
471.558	3271.12
471.777	2929.12
471.997	2794.12
472.216	2751.12
472.435	2660.12
472.654	2620.12
472.873	2635.12
473.092	2616.12
473.311	2609.12
473.53	2658.12
473.749	2754.12
473.968	2801.12
474.187	2672.12
474.406	2600.12
474.625	2636.12
474.844	2636.12
475.063	2629.12
475.282	2629.12
475.501	2627.12
475.72	2681.12
475.939	2709.12
476.158	2721.12
476.377	2763.12
476.596	2786.12
476.814	2796.12
477.033	2756.12
477.252	2829.12
477.471	2824.12
477.69	2931.12
477.908	2967.12
478.127	2969.12
478.346	2985.12
478.564	3034.12
478.783	3041.12
479.002	3107.12
479.22	3125.12
479.439	3157.12
479.658	3178.12
479.876	3172.12
480.095	3176.12
480.313	3268.12
480.532	3272.12
480.751	3267.12
480.969	3136.12
481.188	3135.12
481.406	3193.12
481.624	3188.12
481.843	3183.12
482.061	3269.12
482.28	3209.12
482.498	3146.12
482.717	3178.12
482.935	3223.12
483.153	3249.12
483.372	3305.12
483.59	3330.12
483.808	3448.12
484.027	3497.12
484.245	3715.12
484.463	4099.12
484.681	4620.12
484.9	4286.12
485.118	3936.12
485.336	3850.12
485.554	3889.12
485.772	4177.12
485.99	4616.12
486.209	4934.12
486.427	4168.12
486.645	3771.12
486.863	3585.12
487.081	3475.12
487.299	3482.12
487.517	3384.12
487.735	3447.12
