Data from SnStandardFlinnAPT0064_QswitchEnergy10_LIBS07252019.E.O._I.C._HRD10591_15-28-36-974.txt Node
Date: Thu Jul 25 15:28:36 EDT 2019
User: cochatt
Spectrometer: HR+D1059
Trigger mode: 1
Integration Time (sec): 1.000000E-1
Scans to average: 1
Electric dark correction enabled: true
Nonlinearity correction enabled: false
Boxcar width: 0
XAxis mode: Wavelengths
Number of Pixels in Spectrum: 2048
>>>>>Begin Spectral Data<<<<<
223.165	-16.06
223.4	-16.06
223.635	-16.06
223.869	-11.06
224.104	-20.06
224.338	-6.06
224.573	-19.06
224.808	-15.06
225.042	-17.06
225.277	-23.06
225.511	5.94
225.746	6.94
225.98	3.94
226.215	13.94
226.449	30.94
226.683	16.94
226.918	16.94
227.152	31.94
227.387	44.94
227.621	24.94
227.856	45.94
228.09	49.94
228.324	59.94
228.559	47.94
228.793	52.94
229.027	50.94
229.262	71.94
229.496	64.94
229.73	79.94
229.964	64.94
230.199	84.94
230.433	83.94
230.667	78.94
230.901	81.94
231.136	70.94
231.37	89.94
231.604	95.94
231.838	102.94
232.072	106.94
232.306	114.94
232.541	90.94
232.775	93.94
233.009	88.94
233.243	72.94
233.477	92.94
233.711	86.94
233.945	101.94
234.179	94.94
234.413	94.94
234.647	87.94
234.881	86.94
235.115	79.94
235.349	93.94
235.583	96.94
235.817	110.94
236.051	118.94
236.285	87.94
236.519	89.94
236.753	82.94
236.987	82.94
237.221	82.94
237.455	68.94
237.689	63.94
237.922	79.94
238.156	77.94
238.39	83.94
238.624	67.94
238.858	80.94
239.091	80.94
239.325	75.94
239.559	79.94
239.793	94.94
240.027	79.94
240.26	70.94
240.494	92.94
240.728	95.94
240.961	72.94
241.195	84.94
241.429	91.94
241.662	86.94
241.896	82.94
242.13	92.94
242.363	118.94
242.597	131.94
242.83	121.94
243.064	122.94
243.298	152.94
243.531	131.94
243.765	87.94
243.998	73.94
244.232	70.94
244.465	80.94
244.699	70.94
244.932	73.94
245.166	88.94
245.399	77.94
245.633	79.94
245.866	80.94
246.099	82.94
246.333	83.94
246.566	65.94
246.8	88.94
247.033	82.94
247.266	82.94
247.5	75.94
247.733	96.94
247.966	80.94
248.2	88.94
248.433	103.94
248.666	122.94
248.899	103.94
249.133	91.94
249.366	82.94
249.599	84.94
249.832	111.94
250.066	123.94
250.299	91.94
250.532	69.94
250.765	75.94
250.998	86.94
251.231	77.94
251.465	74.94
251.698	75.94
251.931	81.94
252.164	89.94
252.397	90.94
252.63	110.94
252.863	100.94
253.096	103.94
253.329	96.94
253.562	100.94
253.795	90.94
254.028	83.94
254.261	72.94
254.494	90.94
254.727	108.94
254.96	139.94
255.193	114.94
255.426	86.94
255.659	96.94
255.892	98.94
256.124	84.94
256.357	86.94
256.59	91.94
256.823	86.94
257.056	109.94
257.289	130.94
257.521	140.94
257.754	122.94
257.987	88.94
258.22	72.94
258.452	94.94
258.685	94.94
258.918	95.94
259.151	92.94
259.383	103.94
259.616	119.94
259.849	128.94
260.081	91.94
260.314	86.94
260.547	73.94
260.779	87.94
261.012	89.94
261.244	72.94
261.477	90.94
261.71	86.94
261.942	69.94
262.175	98.94
262.407	87.94
262.64	97.94
262.872	96.94
263.105	102.94
263.337	87.94
263.57	96.94
263.802	79.94
264.035	79.94
264.267	71.94
264.499	97.94
264.732	88.94
264.964	90.94
265.197	80.94
265.429	91.94
265.661	89.94
265.894	113.94
266.126	100.94
266.358	137.94
266.591	141.94
266.823	86.94
267.055	79.94
267.287	80.94
267.52	88.94
267.752	95.94
267.984	83.94
268.216	100.94
268.448	89.94
268.681	89.94
268.913	83.94
269.145	92.94
269.377	96.94
269.609	89.94
269.841	70.94
270.073	102.94
270.306	122.94
270.538	162.94
270.77	273.94
271.002	311.94
271.234	166.94
271.466	97.94
271.698	89.94
271.93	102.94
272.162	84.94
272.394	80.94
272.626	72.94
272.858	90.94
273.09	84.94
273.322	83.94
273.553	84.94
273.785	91.94
274.017	91.94
274.249	83.94
274.481	91.94
274.713	91.94
274.945	85.94
275.176	97.94
275.408	91.94
275.64	96.94
275.872	95.94
276.104	97.94
276.335	101.94
276.567	101.94
276.799	88.94
277.031	96.94
277.262	84.94
277.494	83.94
277.726	112.94
277.957	162.94
278.189	227.94
278.421	199.94
278.652	174.94
278.884	167.94
279.115	137.94
279.347	92.94
279.579	95.94
279.81	94.94
280.042	111.94
280.273	97.94
280.505	95.94
280.736	104.94
280.968	114.94
281.199	154.94
281.431	227.94
281.662	233.94
281.894	137.94
282.125	113.94
282.356	110.94
282.588	99.94
282.819	95.94
283.051	107.94
283.282	128.94
283.513	178.94
283.745	264.94
283.976	444.94
284.207	629.94
284.439	476.94
284.67	232.94
284.901	234.94
285.132	304.94
285.364	319.94
285.595	196.94
285.826	167.94
286.057	220.94
286.288	343.94
286.52	513.94
286.751	411.94
286.982	164.94
287.213	126.94
287.444	98.94
287.675	98.94
287.906	94.94
288.138	98.94
288.369	92.94
288.6	94.94
288.831	97.94
289.062	92.94
289.293	95.94
289.524	92.94
289.755	93.94
289.986	82.94
290.217	99.94
290.448	102.94
290.679	94.94
290.91	107.94
291.141	160.94
291.371	214.94
291.602	258.94
291.833	151.94
292.064	118.94
292.295	82.94
292.526	88.94
292.757	78.94
292.987	81.94
293.218	86.94
293.449	89.94
293.68	85.94
293.91	87.94
294.141	78.94
294.372	95.94
294.603	97.94
294.833	102.94
295.064	92.94
295.295	94.94
295.525	84.94
295.756	109.94
295.987	94.94
296.217	93.94
296.448	82.94
296.679	102.94
296.909	103.94
297.14	103.94
297.37	92.94
297.601	103.94
297.831	110.94
298.062	120.94
298.292	90.94
298.523	98.94
298.753	101.94
298.984	94.94
299.214	97.94
299.445	102.94
299.675	100.94
299.905	95.94
300.136	118.94
300.366	143.94
300.597	231.94
300.827	375.94
301.057	568.94
301.288	510.94
301.518	226.94
301.748	136.94
301.979	134.94
302.209	135.94
302.439	136.94
302.669	164.94
302.9	214.94
303.13	420.94
303.36	737.94
303.59	978.94
303.82	693.94
304.051	272.94
304.281	133.94
304.511	136.94
304.741	116.94
304.971	107.94
305.201	120.94
305.431	96.94
305.661	112.94
305.891	96.94
306.121	110.94
306.352	115.94
306.582	107.94
306.812	101.94
307.042	102.94
307.272	98.94
307.502	94.94
307.731	91.94
307.961	121.94
308.191	118.94
308.421	99.94
308.651	105.94
308.881	105.94
309.111	102.94
309.341	110.94
309.571	109.94
309.8	107.94
310.03	96.94
310.26	107.94
310.49	99.94
310.72	104.94
310.949	118.94
311.179	96.94
311.409	113.94
311.639	104.94
311.868	104.94
312.098	92.94
312.328	98.94
312.557	108.94
312.787	115.94
313.017	118.94
313.246	104.94
313.476	128.94
313.706	124.94
313.935	146.94
314.165	179.94
314.394	214.94
314.624	155.94
314.853	136.94
315.083	127.94
315.312	115.94
315.542	127.94
315.771	128.94
316.001	129.94
316.23	148.94
316.46	146.94
316.689	161.94
316.919	238.94
317.148	397.94
317.377	735.94
317.607	1203.94
317.836	1093.94
318.065	427.94
318.295	195.94
318.524	144.94
318.753	126.94
318.983	127.94
319.212	122.94
319.441	112.94
319.67	114.94
319.9	123.94
320.129	110.94
320.358	110.94
320.587	123.94
320.816	113.94
321.046	119.94
321.275	105.94
321.504	132.94
321.733	135.94
321.962	141.94
322.191	149.94
322.42	131.94
322.649	114.94
322.878	113.94
323.108	122.94
323.337	125.94
323.566	134.94
323.795	120.94
324.024	125.94
324.253	132.94
324.482	164.94
324.71	191.94
324.939	254.94
325.168	211.94
325.397	169.94
325.626	222.94
325.855	400.94
326.084	745.94
326.313	1303.94
326.542	1293.94
326.77	528.94
326.999	229.94
327.228	188.94
327.457	219.94
327.686	208.94
327.914	150.94
328.143	137.94
328.372	126.94
328.6	126.94
328.829	131.94
329.058	128.94
329.287	119.94
329.515	125.94
329.744	114.94
329.972	102.94
330.201	111.94
330.43	114.94
330.658	120.94
330.887	111.94
331.115	118.94
331.344	111.94
331.572	112.94
331.801	105.94
332.03	119.94
332.258	112.94
332.486	169.94
332.715	249.94
332.943	412.94
333.172	652.94
333.4	567.94
333.629	222.94
333.857	134.94
334.085	123.94
334.314	119.94
334.542	136.94
334.771	126.94
334.999	119.94
335.227	121.94
335.455	119.94
335.684	120.94
335.912	119.94
336.14	123.94
336.369	110.94
336.597	110.94
336.825	113.94
337.053	105.94
337.281	122.94
337.51	118.94
337.738	125.94
337.966	120.94
338.194	114.94
338.422	117.94
338.65	110.94
338.878	124.94
339.106	117.94
339.334	119.94
339.562	117.94
339.79	123.94
340.018	119.94
340.246	105.94
340.474	102.94
340.702	117.94
340.93	112.94
341.158	127.94
341.386	121.94
341.614	112.94
341.842	112.94
342.07	113.94
342.298	124.94
342.526	118.94
342.754	107.94
342.981	118.94
343.209	116.94
343.437	105.94
343.665	118.94
343.893	105.94
344.12	112.94
344.348	105.94
344.576	125.94
344.804	112.94
345.031	115.94
345.259	116.94
345.487	118.94
345.714	131.94
345.942	102.94
346.17	112.94
346.397	106.94
346.625	120.94
346.853	121.94
347.08	107.94
347.308	103.94
347.535	107.94
347.763	77.94
347.99	102.94
348.218	102.94
348.445	102.94
348.673	135.94
348.9	122.94
349.128	126.94
349.355	135.94
349.583	121.94
349.81	108.94
350.037	111.94
350.265	112.94
350.492	112.94
350.72	107.94
350.947	118.94
351.174	113.94
351.402	89.94
351.629	105.94
351.856	120.94
352.083	114.94
352.311	106.94
352.538	116.94
352.765	106.94
352.992	106.94
353.22	117.94
353.447	113.94
353.674	85.94
353.901	95.94
354.128	108.94
354.355	108.94
354.583	106.94
354.81	103.94
355.037	114.94
355.264	108.94
355.491	111.94
355.718	111.94
355.945	103.94
356.172	112.94
356.399	103.94
356.626	106.94
356.853	122.94
357.08	119.94
357.307	108.94
357.534	102.94
357.761	102.94
357.988	95.94
358.215	94.94
358.441	113.94
358.668	107.94
358.895	105.94
359.122	112.94
359.349	114.94
359.576	132.94
359.802	113.94
360.029	112.94
360.256	105.94
360.483	112.94
360.709	105.94
360.936	116.94
361.163	111.94
361.39	120.94
361.616	100.94
361.843	109.94
362.07	111.94
362.296	124.94
362.523	114.94
362.749	120.94
362.976	111.94
363.203	106.94
363.429	105.94
363.656	115.94
363.882	101.94
364.109	102.94
364.335	91.94
364.562	94.94
364.788	112.94
365.015	118.94
365.241	119.94
365.468	164.94
365.694	224.94
365.92	193.94
366.147	114.94
366.373	108.94
366.599	103.94
366.826	97.94
367.052	98.94
367.278	87.94
367.505	97.94
367.731	96.94
367.957	110.94
368.184	114.94
368.41	114.94
368.636	105.94
368.862	114.94
369.089	110.94
369.315	110.94
369.541	112.94
369.767	102.94
369.993	112.94
370.219	106.94
370.445	98.94
370.672	115.94
370.898	108.94
371.124	110.94
371.35	100.94
371.576	105.94
371.802	106.94
372.028	115.94
372.254	130.94
372.48	99.94
372.706	117.94
372.932	116.94
373.158	110.94
373.384	120.94
373.61	109.94
373.835	107.94
374.061	120.94
374.287	115.94
374.513	104.94
374.739	119.94
374.965	102.94
375.191	114.94
375.416	104.94
375.642	103.94
375.868	117.94
376.094	103.94
376.319	116.94
376.545	113.94
376.771	110.94
376.997	113.94
377.222	112.94
377.448	109.94
377.674	109.94
377.899	97.94
378.125	108.94
378.35	121.94
378.576	112.94
378.802	99.94
379.027	106.94
379.253	121.94
379.478	148.94
379.704	253.94
379.929	624.94
380.155	1322.94
380.38	1319.94
380.606	464.94
380.831	178.94
381.057	137.94
381.282	115.94
381.507	115.94
381.733	83.94
381.958	100.94
382.184	82.94
382.409	98.94
382.634	103.94
382.86	103.94
383.085	113.94
383.31	106.94
383.535	110.94
383.761	94.94
383.986	96.94
384.211	103.94
384.436	106.94
384.662	105.94
384.887	95.94
385.112	100.94
385.337	89.94
385.562	99.94
385.787	107.94
386.013	96.94
386.238	97.94
386.463	104.94
386.688	108.94
386.913	116.94
387.138	104.94
387.363	112.94
387.588	111.94
387.813	103.94
388.038	96.94
388.263	99.94
388.488	115.94
388.713	116.94
388.938	115.94
389.163	97.94
389.387	101.94
389.612	94.94
389.837	97.94
390.062	89.94
390.287	97.94
390.512	99.94
390.736	100.94
390.961	104.94
391.186	117.94
391.411	91.94
391.636	101.94
391.86	101.94
392.085	89.94
392.31	105.94
392.534	94.94
392.759	105.94
392.984	96.94
393.208	97.94
393.433	140.94
393.658	124.94
393.882	104.94
394.107	96.94
394.331	95.94
394.556	95.94
394.78	90.94
395.005	105.94
395.229	100.94
395.454	100.94
395.678	105.94
395.903	105.94
396.127	105.94
396.352	110.94
396.576	99.94
396.801	110.94
397.025	122.94
397.249	112.94
397.474	99.94
397.698	99.94
397.922	105.94
398.147	88.94
398.371	101.94
398.595	102.94
398.82	92.94
399.044	87.94
399.268	99.94
399.492	110.94
399.717	97.94
399.941	98.94
400.165	103.94
400.389	96.94
400.613	97.94
400.837	100.94
401.062	91.94
401.286	106.94
401.51	98.94
401.734	85.94
401.958	90.94
402.182	104.94
402.406	91.94
402.63	93.94
402.854	96.94
403.078	96.94
403.302	96.94
403.526	103.94
403.75	94.94
403.974	86.94
404.198	81.94
404.422	99.94
404.645	83.94
404.869	102.94
405.093	106.94
405.317	112.94
405.541	98.94
405.765	107.94
405.988	129.94
406.212	114.94
406.436	105.94
406.66	108.94
406.883	98.94
407.107	100.94
407.331	93.94
407.555	107.94
407.778	90.94
408.002	108.94
408.226	98.94
408.449	106.94
408.673	100.94
408.896	102.94
409.12	88.94
409.344	85.94
409.567	92.94
409.791	87.94
410.014	106.94
410.238	86.94
410.461	107.94
410.685	91.94
410.908	99.94
411.132	98.94
411.355	101.94
411.578	103.94
411.802	99.94
412.025	109.94
412.249	114.94
412.472	95.94
412.695	105.94
412.919	105.94
413.142	95.94
413.365	81.94
413.589	97.94
413.812	116.94
414.035	99.94
414.258	103.94
414.482	98.94
414.705	102.94
414.928	111.94
415.151	96.94
415.374	108.94
415.597	96.94
415.821	87.94
416.044	99.94
416.267	99.94
416.49	104.94
416.713	108.94
416.936	106.94
417.159	93.94
417.382	86.94
417.605	104.94
417.828	103.94
418.051	90.94
418.274	103.94
418.497	114.94
418.72	113.94
418.943	102.94
419.166	100.94
419.389	113.94
419.611	104.94
419.834	94.94
420.057	104.94
420.28	106.94
420.503	107.94
420.726	104.94
420.948	99.94
421.171	90.94
421.394	101.94
421.617	93.94
421.839	110.94
422.062	99.94
422.285	95.94
422.507	105.94
422.73	128.94
422.953	132.94
423.175	110.94
423.398	101.94
423.621	92.94
423.843	89.94
424.066	82.94
424.288	88.94
424.511	90.94
424.733	91.94
424.956	112.94
425.178	103.94
425.401	91.94
425.623	94.94
425.846	95.94
426.068	91.94
426.291	107.94
426.513	93.94
426.735	89.94
426.958	99.94
427.18	98.94
427.402	104.94
427.625	106.94
427.847	82.94
428.069	112.94
428.292	113.94
428.514	98.94
428.736	102.94
428.958	99.94
429.181	105.94
429.403	77.94
429.625	104.94
429.847	110.94
430.069	112.94
430.292	107.94
430.514	112.94
430.736	91.94
430.958	97.94
431.18	103.94
431.402	82.94
431.624	81.94
431.846	92.94
432.068	103.94
432.29	103.94
432.512	96.94
432.734	92.94
432.956	104.94
433.178	108.94
433.4	97.94
433.622	106.94
433.844	96.94
434.066	104.94
434.287	111.94
434.509	92.94
434.731	94.94
434.953	113.94
435.175	87.94
435.397	87.94
435.618	94.94
435.84	99.94
436.062	90.94
436.284	91.94
436.505	91.94
436.727	99.94
436.949	97.94
437.17	89.94
437.392	86.94
437.614	87.94
437.835	91.94
438.057	86.94
438.278	101.94
438.5	97.94
438.721	96.94
438.943	93.94
439.165	112.94
439.386	107.94
439.608	99.94
439.829	98.94
440.05	110.94
440.272	118.94
440.493	88.94
440.715	113.94
440.936	90.94
441.158	91.94
441.379	79.94
441.6	96.94
441.822	95.94
442.043	120.94
442.264	111.94
442.486	110.94
442.707	101.94
442.928	103.94
443.149	98.94
443.371	88.94
443.592	77.94
443.813	92.94
444.034	102.94
444.255	102.94
444.476	96.94
444.698	93.94
444.919	91.94
445.14	152.94
445.361	132.94
445.582	97.94
445.803	102.94
446.024	95.94
446.245	97.94
446.466	92.94
446.687	110.94
446.908	105.94
447.129	107.94
447.35	83.94
447.571	92.94
447.792	94.94
448.013	92.94
448.234	100.94
448.455	90.94
448.675	94.94
448.896	86.94
449.117	111.94
449.338	126.94
449.559	139.94
449.779	118.94
450	110.94
450.221	109.94
450.442	105.94
450.662	114.94
450.883	104.94
451.104	100.94
451.324	120.94
451.545	124.94
451.766	129.94
451.986	135.94
452.207	195.94
452.428	469.94
452.648	1158.94
452.869	650.94
453.089	178.94
453.31	118.94
453.53	116.94
453.751	119.94
453.971	147.94
454.192	150.94
454.412	116.94
454.633	103.94
454.853	82.94
455.073	90.94
455.294	86.94
455.514	106.94
455.734	67.94
455.955	109.94
456.175	91.94
456.395	91.94
456.616	89.94
456.836	100.94
457.056	102.94
457.276	104.94
457.497	109.94
457.717	130.94
457.937	116.94
458.157	104.94
458.377	84.94
458.598	94.94
458.818	80.94
459.038	97.94
459.258	82.94
459.478	106.94
459.698	86.94
459.918	80.94
460.138	91.94
460.358	96.94
460.578	102.94
460.798	94.94
461.018	85.94
461.238	86.94
461.458	98.94
461.678	107.94
461.898	105.94
462.118	87.94
462.338	109.94
462.558	90.94
462.777	91.94
462.997	87.94
463.217	98.94
463.437	124.94
463.657	159.94
463.876	164.94
464.096	108.94
464.316	99.94
464.536	94.94
464.755	108.94
464.975	98.94
465.195	97.94
465.414	88.94
465.634	82.94
465.854	88.94
466.073	87.94
466.293	94.94
466.512	91.94
466.732	97.94
466.951	107.94
467.171	137.94
467.391	126.94
467.61	89.94
467.829	102.94
468.049	100.94
468.268	102.94
468.488	102.94
468.707	85.94
468.927	83.94
469.146	83.94
469.365	99.94
469.585	99.94
469.804	113.94
470.023	106.94
470.243	98.94
470.462	112.94
470.681	94.94
470.901	126.94
471.12	170.94
471.339	172.94
471.558	124.94
471.777	107.94
471.997	102.94
472.216	110.94
472.435	96.94
472.654	94.94
472.873	86.94
473.092	98.94
473.311	85.94
473.53	97.94
473.749	96.94
473.968	87.94
474.187	99.94
474.406	95.94
474.625	91.94
474.844	90.94
475.063	97.94
475.282	99.94
475.501	98.94
475.72	103.94
475.939	88.94
476.158	91.94
476.377	103.94
476.596	105.94
476.814	90.94
477.033	101.94
477.252	91.94
477.471	103.94
477.69	105.94
477.908	114.94
478.127	103.94
478.346	94.94
478.564	93.94
478.783	81.94
479.002	94.94
479.22	97.94
479.439	98.94
479.658	91.94
479.876	91.94
480.095	74.94
480.313	91.94
480.532	95.94
480.751	95.94
480.969	86.94
481.188	94.94
481.406	89.94
481.624	104.94
481.843	106.94
482.061	109.94
482.28	96.94
482.498	87.94
482.717	105.94
482.935	97.94
483.153	96.94
483.372	95.94
483.59	113.94
483.808	100.94
484.027	97.94
484.245	123.94
484.463	161.94
484.681	206.94
484.9	127.94
485.118	112.94
485.336	95.94
485.554	93.94
485.772	118.94
485.99	152.94
486.209	204.94
486.427	145.94
486.645	116.94
486.863	111.94
487.081	101.94
487.299	97.94
487.517	100.94
487.735	91.94
487.953	98.94
488.171	112.94
488.389	94.94
488.607	92.94
488.825	91.94
489.043	88.94
489.261	104.94
489.479	95.94
489.696	99.94
489.914	111.94
490.132	104.94
490.35	114.94
490.568	82.94
490.786	107.94
491.003	96.94
491.221	90.94
491.439	103.94
491.657	94.94
491.874	87.94
492.092	92.94
492.31	99.94
492.527	111.94
492.745	111.94
492.963	107.94
493.18	86.94
493.398	102.94
493.615	111.94
493.833	110.94
494.05	94.94
494.268	102.94
494.485	91.94
494.703	88.94
494.92	92.94
495.138	98.94
495.355	105.94
495.573	102.94
495.79	90.94
496.008	89.94
496.225	90.94
496.442	111.94
496.66	118.94
496.877	144.94
497.094	135.94
497.312	100.94
497.529	104.94
497.746	88.94
497.963	91.94
498.181	105.94
498.398	108.94
498.615	113.94
498.832	91.94
499.049	102.94
499.267	128.94
499.484	141.94
499.701	101.94
499.918	108.94
500.135	98.94
500.352	99.94
500.569	87.94
500.786	100.94
501.003	89.94
501.22	108.94
501.437	105.94
501.654	88.94
501.871	92.94
502.088	89.94
502.305	110.94
502.522	87.94
502.739	96.94
502.956	103.94
503.172	99.94
503.389	107.94
503.606	94.94
503.823	87.94
504.04	94.94
504.256	100.94
504.473	89.94
504.69	105.94
504.907	99.94
505.123	110.94
505.34	98.94
505.557	102.94
505.773	105.94
505.99	103.94
506.207	97.94
506.423	84.94
506.64	106.94
506.856	95.94
507.073	96.94
507.289	88.94
507.506	95.94
507.722	91.94
507.939	100.94
508.155	106.94
508.372	99.94
508.588	92.94
508.805	76.94
509.021	88.94
