Data from SnStandardFlinnAPT0064_LampEnergy5.5_LIBS07252019.E.O._I.C._HRD10591_15-17-37-492.txt Node
Date: Thu Jul 25 15:17:37 EDT 2019
User: cochatt
Spectrometer: HR+D1059
Trigger mode: 1
Integration Time (sec): 1.000000E-1
Scans to average: 1
Electric dark correction enabled: true
Nonlinearity correction enabled: false
Boxcar width: 0
XAxis mode: Wavelengths
Number of Pixels in Spectrum: 2048
>>>>>Begin Spectral Data<<<<<
223.165	-11
223.4	-11
223.635	-11
223.869	-9
224.104	-23
224.338	-32
224.573	0
224.808	-15
225.042	2
225.277	-9
225.511	-1
225.746	-8
225.98	11
226.215	11
226.449	14
226.683	19
226.918	20
227.152	31
227.387	45
227.621	27
227.856	52
228.09	42
228.324	34
228.559	43
228.793	78
229.027	169
229.262	170
229.496	170
229.73	150
229.964	165
230.199	156
230.433	163
230.667	156
230.901	180
231.136	192
231.37	202
231.604	201
231.838	214
232.072	264
232.306	279
232.541	232
232.775	216
233.009	213
233.243	228
233.477	240
233.711	260
233.945	291
234.179	239
234.413	228
234.647	232
234.881	239
235.115	260
235.349	303
235.583	364
235.817	451
236.051	457
236.285	290
236.519	229
236.753	236
236.987	233
237.221	245
237.455	254
237.689	229
237.922	223
238.156	231
238.39	227
238.624	226
238.858	245
239.091	237
239.325	231
239.559	236
239.793	246
240.027	243
240.26	266
240.494	247
240.728	260
240.961	283
241.195	309
241.429	299
241.662	309
241.896	347
242.13	419
242.363	553
242.597	692
242.83	676
243.064	669
243.298	821
243.531	675
243.765	424
243.998	333
244.232	321
244.465	324
244.699	299
244.932	312
245.166	311
245.399	306
245.633	329
245.866	332
246.099	321
246.333	307
246.566	308
246.8	304
247.033	291
247.266	318
247.5	315
247.733	317
247.966	323
248.2	341
248.433	382
248.666	455
248.899	401
249.133	369
249.366	389
249.599	428
249.832	464
250.066	471
250.299	373
250.532	349
250.765	362
250.998	341
251.231	339
251.465	369
251.698	337
251.931	348
252.164	342
252.397	343
252.63	355
252.863	363
253.096	363
253.329	342
253.562	352
253.795	364
254.028	371
254.261	387
254.494	401
254.727	465
254.96	540
255.193	554
255.426	437
255.659	413
255.892	404
256.124	372
256.357	374
256.59	413
256.823	451
257.056	491
257.289	578
257.521	639
257.754	517
257.987	426
258.22	416
258.452	400
258.685	434
258.918	426
259.151	457
259.383	483
259.616	514
259.849	553
260.081	458
260.314	453
260.547	443
260.779	439
261.012	427
261.244	447
261.477	427
261.71	446
261.942	467
262.175	474
262.407	475
262.64	476
262.872	507
263.105	497
263.337	540
263.57	567
263.802	584
264.035	619
264.267	605
264.499	608
264.732	652
264.964	629
265.197	631
265.429	634
265.661	648
265.894	725
266.126	775
266.358	855
266.591	811
266.823	687
267.055	641
267.287	614
267.52	589
267.752	589
267.984	600
268.216	566
268.448	561
268.681	575
268.913	562
269.145	557
269.377	556
269.609	571
269.841	593
270.073	627
270.306	714
270.538	924
270.77	1394
271.002	1687
271.234	1164
271.466	787
271.698	639
271.93	591
272.162	579
272.394	583
272.626	572
272.858	533
273.09	559
273.322	540
273.553	523
273.785	543
274.017	539
274.249	536
274.481	526
274.713	563
274.945	548
275.176	538
275.408	561
275.64	537
275.872	551
276.104	560
276.335	563
276.567	569
276.799	565
277.031	584
277.262	563
277.494	610
277.726	671
277.957	771
278.189	864
278.421	835
278.652	735
278.884	722
279.115	639
279.347	623
279.579	619
279.81	598
280.042	598
280.273	629
280.505	648
280.736	663
280.968	674
281.199	747
281.431	843
281.662	858
281.894	753
282.125	725
282.356	709
282.588	698
282.819	723
283.051	770
283.282	852
283.513	1032
283.745	1577
283.976	2467
284.207	3560
284.439	3080
284.67	1837
284.901	1445
285.132	1494
285.364	1412
285.595	1125
285.826	1018
286.057	1204
286.288	1624
286.52	2285
286.751	2083
286.982	1228
287.213	953
287.444	829
287.675	817
287.906	756
288.138	735
288.369	724
288.6	705
288.831	721
289.062	722
289.293	730
289.524	730
289.755	724
289.986	729
290.217	740
290.448	730
290.679	741
290.91	753
291.141	784
291.371	835
291.602	853
291.833	809
292.064	736
292.295	723
292.526	728
292.757	707
292.987	706
293.218	711
293.449	708
293.68	707
293.91	706
294.141	679
294.372	684
294.603	695
294.833	697
295.064	674
295.295	681
295.525	687
295.756	685
295.987	691
296.217	679
296.448	712
296.679	671
296.909	680
297.14	719
297.37	689
297.601	721
297.831	730
298.062	703
298.292	707
298.523	740
298.753	760
298.984	727
299.214	755
299.445	768
299.675	771
299.905	791
300.136	819
300.366	890
300.597	1186
300.827	1681
301.057	2216
301.288	2187
301.518	1438
301.748	1045
301.979	951
302.209	945
302.439	951
302.669	1022
302.9	1235
303.13	1706
303.36	2519
303.59	3463
303.82	2945
304.051	1673
304.281	1218
304.511	1019
304.741	953
304.971	903
305.201	843
305.431	855
305.661	848
305.891	812
306.121	820
306.352	812
306.582	771
306.812	803
307.042	824
307.272	797
307.502	804
307.731	804
307.961	810
308.191	785
308.421	789
308.651	791
308.881	780
309.111	813
309.341	780
309.571	799
309.8	821
310.03	777
310.26	795
310.49	821
310.72	806
310.949	804
311.179	817
311.409	824
311.639	828
311.868	834
312.098	833
312.328	835
312.557	838
312.787	854
313.017	855
313.246	867
313.476	867
313.706	906
313.935	940
314.165	977
314.394	1035
314.624	977
314.853	911
315.083	914
315.312	944
315.542	929
315.771	949
316.001	958
316.23	986
316.46	1009
316.689	1139
316.919	1363
317.148	1951
317.377	3085
317.607	4573
317.836	4645
318.065	2699
318.295	1665
318.524	1363
318.753	1205
318.983	1135
319.212	1061
319.441	1030
319.67	1017
319.9	1019
320.129	1003
320.358	1010
320.587	1011
320.816	1002
321.046	994
321.275	1012
321.504	1009
321.733	1012
321.962	1079
322.191	1071
322.42	1028
322.649	1060
322.878	1061
323.108	1060
323.337	1081
323.566	1073
323.795	1109
324.024	1116
324.253	1157
324.482	1180
324.71	1244
324.939	1324
325.168	1352
325.397	1362
325.626	1684
325.855	2363
326.084	3711
326.313	5571
326.542	5923
326.77	3639
326.999	2343
327.228	1951
327.457	1823
327.686	1856
327.914	1980
328.143	2238
328.372	2622
328.6	2811
328.829	2616
329.058	2228
329.287	1957
329.515	1820
329.744	1726
329.972	1639
330.201	1611
330.43	1575
330.658	1484
330.887	1435
331.115	1464
331.344	1446
331.572	1436
331.801	1416
332.03	1448
332.258	1477
332.486	1553
332.715	1758
332.943	2179
333.172	2662
333.4	2629
333.629	1978
333.857	1819
334.085	1831
334.314	1875
334.542	2065
334.771	2324
334.999	2791
335.227	3348
335.455	3697
335.684	3451
335.912	2917
336.14	2567
336.369	2278
336.597	2090
336.825	1957
337.053	1816
337.281	1697
337.51	1651
337.738	1615
337.966	1552
338.194	1468
338.422	1431
338.65	1403
338.878	1380
339.106	1399
339.334	1359
339.562	1356
339.79	1301
340.018	1305
340.246	1277
340.474	1257
340.702	1291
340.93	1256
341.158	1291
341.386	1273
341.614	1249
341.842	1251
342.07	1222
342.298	1193
342.526	1178
342.754	1145
342.981	1148
343.209	1192
343.437	1177
343.665	1193
343.893	1183
344.12	1171
344.348	1171
344.576	1172
344.804	1170
345.031	1135
345.259	1151
345.487	1115
345.714	1123
345.942	1078
346.17	1101
346.397	1116
346.625	1109
346.853	1077
347.08	1063
347.308	1085
347.535	1107
347.763	1081
347.99	1107
348.218	1102
348.445	1097
348.673	1106
348.9	1090
349.128	1061
349.355	1068
349.583	1064
349.81	1078
350.037	1045
350.265	1044
350.492	1049
350.72	1048
350.947	1036
351.174	1048
351.402	1015
351.629	1049
351.856	1028
352.083	1035
352.311	1033
352.538	1043
352.765	1047
352.992	1041
353.22	1029
353.447	1015
353.674	1025
353.901	1035
354.128	1042
354.355	1044
354.583	1032
354.81	1074
355.037	1059
355.264	1049
355.491	1065
355.718	1058
355.945	1072
356.172	1065
356.399	1081
356.626	1057
356.853	1066
357.08	1075
357.307	1097
357.534	1090
357.761	1076
357.988	1112
358.215	1102
358.441	1108
358.668	1090
358.895	1097
359.122	1120
359.349	1107
359.576	1079
359.802	1089
360.029	1115
360.256	1111
360.483	1107
360.709	1081
360.936	1117
361.163	1122
361.39	1098
361.616	1096
361.843	1085
362.07	1128
362.296	1125
362.523	1087
362.749	1117
362.976	1101
363.203	1090
363.429	1099
363.656	1069
363.882	1115
364.109	1127
364.335	1111
364.562	1114
364.788	1099
365.015	1131
365.241	1125
365.468	1206
365.694	1209
365.92	1201
366.147	1142
366.373	1117
366.599	1116
366.826	1115
367.052	1152
367.278	1138
367.505	1152
367.731	1131
367.957	1141
368.184	1129
368.41	1137
368.636	1167
368.862	1155
369.089	1144
369.315	1116
369.541	1127
369.767	1151
369.993	1140
370.219	1131
370.445	1151
370.672	1172
370.898	1191
371.124	1159
371.35	1217
371.576	1171
371.802	1194
372.028	1212
372.254	1205
372.48	1189
372.706	1199
372.932	1195
373.158	1211
373.384	1261
373.61	1174
373.835	1193
374.061	1215
374.287	1225
374.513	1211
374.739	1252
374.965	1209
375.191	1264
375.416	1260
375.642	1224
375.868	1239
376.094	1242
376.319	1224
376.545	1223
376.771	1206
376.997	1235
377.222	1198
377.448	1205
377.674	1209
377.899	1187
378.125	1191
378.35	1168
378.576	1184
378.802	1215
379.027	1233
379.253	1250
379.478	1305
379.704	1559
379.929	2202
380.155	3331
380.38	3561
380.606	2126
380.831	1575
381.057	1335
381.282	1231
381.507	1241
381.733	1219
381.958	1162
382.184	1169
382.409	1196
382.634	1179
382.86	1156
383.085	1191
383.31	1171
383.535	1179
383.761	1212
383.986	1190
384.211	1196
384.436	1213
384.662	1214
384.887	1236
385.112	1212
385.337	1203
385.562	1202
385.787	1220
386.013	1219
386.238	1225
386.463	1226
386.688	1215
386.913	1225
387.138	1214
387.363	1208
387.588	1192
387.813	1226
388.038	1224
388.263	1225
388.488	1229
388.713	1192
388.938	1215
389.163	1205
389.387	1222
389.612	1222
389.837	1195
390.062	1198
390.287	1239
390.512	1209
390.736	1221
390.961	1220
391.186	1211
391.411	1254
391.636	1285
391.86	1289
392.085	1266
392.31	1275
392.534	1259
392.759	1242
392.984	1240
393.208	1252
393.433	1278
393.658	1269
393.882	1255
394.107	1201
394.331	1221
394.556	1250
394.78	1239
395.005	1273
395.229	1272
395.454	1247
395.678	1250
395.903	1263
396.127	1269
396.352	1240
396.576	1237
396.801	1271
397.025	1281
397.249	1299
397.474	1281
397.698	1256
397.922	1283
398.147	1279
398.371	1314
398.595	1329
398.82	1374
399.044	1408
399.268	1487
399.492	1538
399.717	1606
399.941	1644
400.165	1550
400.389	1489
400.613	1433
400.837	1356
401.062	1380
401.286	1367
401.51	1336
401.734	1321
401.958	1332
402.182	1339
402.406	1313
402.63	1331
402.854	1397
403.078	1389
403.302	1415
403.526	1388
403.75	1403
403.974	1416
404.198	1403
404.422	1369
404.645	1383
404.869	1372
405.093	1366
405.317	1357
405.541	1425
405.765	1417
405.988	1420
406.212	1405
406.436	1407
406.66	1439
406.883	1428
407.107	1510
407.331	1474
407.555	1531
407.778	1529
408.002	1460
408.226	1470
408.449	1511
408.673	1451
408.896	1416
409.12	1397
409.344	1407
409.567	1389
409.791	1398
410.014	1419
410.238	1421
410.461	1429
410.685	1396
410.908	1378
411.132	1370
411.355	1335
411.578	1317
411.802	1353
412.025	1327
412.249	1363
412.472	1362
412.695	1330
412.919	1316
413.142	1318
413.365	1308
413.589	1354
413.812	1325
414.035	1325
414.258	1356
414.482	1299
414.705	1315
414.928	1306
415.151	1343
415.374	1299
415.597	1303
415.821	1256
416.044	1280
416.267	1265
416.49	1247
416.713	1295
416.936	1282
417.159	1260
417.382	1288
417.605	1248
417.828	1275
418.051	1275
418.274	1302
418.497	1290
418.72	1273
418.943	1277
419.166	1313
419.389	1442
419.611	1359
419.834	1349
420.057	1346
420.28	1327
420.503	1274
420.726	1270
420.948	1231
421.171	1252
421.394	1271
421.617	1268
421.839	1334
422.062	1268
422.285	1256
422.507	1259
422.73	1275
422.953	1307
423.175	1340
423.398	1321
423.621	1273
423.843	1310
424.066	1293
424.288	1299
424.511	1268
424.733	1310
424.956	1223
425.178	1285
425.401	1263
425.623	1273
425.846	1224
426.068	1260
426.291	1242
426.513	1236
426.735	1209
426.958	1212
427.18	1229
427.402	1199
427.625	1211
427.847	1208
428.069	1169
428.292	1221
428.514	1164
428.736	1188
428.958	1216
429.181	1171
429.403	1139
429.625	1169
429.847	1156
430.069	1203
430.292	1221
430.514	1257
430.736	1246
430.958	1181
431.18	1194
431.402	1184
431.624	1179
431.846	1155
432.068	1140
432.29	1169
432.512	1164
432.734	1177
432.956	1192
433.178	1196
433.4	1215
433.622	1184
433.844	1199
434.066	1184
434.287	1207
434.509	1192
434.731	1224
434.953	1216
435.175	1205
435.397	1213
435.618	1209
435.84	1194
436.062	1176
436.284	1181
436.505	1183
436.727	1181
436.949	1171
437.17	1164
437.392	1168
437.614	1127
437.835	1167
438.057	1135
438.278	1123
438.5	1130
438.721	1156
438.943	1211
439.165	1248
439.386	1250
439.608	1235
439.829	1233
440.05	1204
440.272	1281
440.493	1259
440.715	1207
440.936	1197
441.158	1235
441.379	1244
441.6	1289
441.822	1286
442.043	1357
442.264	1407
442.486	1291
442.707	1256
442.928	1252
443.149	1264
443.371	1229
443.592	1282
443.813	1256
444.034	1249
444.255	1282
444.476	1298
444.698	1350
444.919	1357
445.14	1444
445.361	1364
445.582	1281
445.803	1248
446.024	1223
446.245	1259
446.466	1227
446.687	1266
446.908	1257
447.129	1188
447.35	1223
447.571	1206
447.792	1157
448.013	1151
448.234	1166
448.455	1153
448.675	1161
448.896	1198
449.117	1229
449.338	1342
449.559	1417
449.779	1265
450	1170
450.221	1138
450.442	1148
450.662	1128
450.883	1108
451.104	1139
451.324	1163
451.545	1130
451.766	1151
451.986	1161
452.207	1209
452.428	1521
452.648	2173
452.869	1847
453.089	1281
453.31	1254
453.53	1257
453.751	1313
453.971	1366
454.192	1366
454.412	1159
454.633	1112
454.853	1075
455.073	1078
455.294	1081
455.514	1110
455.734	1058
455.955	1068
456.175	1045
456.395	1045
456.616	1100
456.836	1079
457.056	1098
457.276	1075
457.497	1132
457.717	1171
457.937	1135
458.157	1121
458.377	1119
458.598	1133
458.818	1135
459.038	1132
459.258	1155
459.478	1179
459.698	1182
459.918	1184
460.138	1194
460.358	1219
460.578	1273
460.798	1266
461.018	1287
461.238	1267
461.458	1281
461.678	1263
461.898	1285
462.118	1350
462.338	1331
462.558	1360
462.777	1388
462.997	1444
463.217	1479
463.437	1525
463.657	1539
463.876	1540
464.096	1393
464.316	1375
464.536	1389
464.755	1369
464.975	1313
465.195	1279
465.414	1253
465.634	1211
465.854	1268
466.073	1195
466.293	1183
466.512	1179
466.732	1203
466.951	1224
467.171	1308
467.391	1314
467.61	1228
467.829	1167
468.049	1175
468.268	1153
468.488	1157
468.707	1145
468.927	1162
469.146	1179
469.365	1155
469.585	1164
469.804	1185
470.023	1218
470.243	1236
470.462	1296
470.681	1292
470.901	1423
471.12	1640
471.339	1677
471.558	1362
471.777	1248
471.997	1225
472.216	1205
472.435	1198
472.654	1179
472.873	1131
473.092	1141
473.311	1140
473.53	1156
473.749	1178
473.968	1216
474.187	1190
474.406	1146
474.625	1167
474.844	1153
475.063	1140
475.282	1153
475.501	1179
475.72	1131
475.939	1161
476.158	1240
476.377	1243
476.596	1224
476.814	1196
477.033	1199
477.252	1207
477.471	1224
477.69	1264
477.908	1288
478.127	1304
478.346	1311
478.564	1354
478.783	1323
479.002	1392
479.22	1363
479.439	1351
479.658	1394
479.876	1370
480.095	1378
480.313	1430
480.532	1415
480.751	1423
480.969	1361
481.188	1380
481.406	1368
481.624	1391
481.843	1379
482.061	1366
482.28	1372
482.498	1339
482.717	1324
482.935	1366
483.153	1374
483.372	1432
483.59	1456
483.808	1458
484.027	1485
484.245	1556
484.463	1784
484.681	1939
484.9	1733
485.118	1639
485.336	1595
485.554	1589
485.772	1690
485.99	1984
486.209	2155
486.427	1757
486.645	1596
486.863	1547
487.081	1541
487.299	1492
487.517	1498
487.735	1489
487.953	1533
488.171	1533
488.389	1477
488.607	1483
488.825	1422
489.043	1417
489.261	1399
489.479	1434
489.696	1443
489.914	1420
490.132	1457
490.35	1433
490.568	1470
490.786	1443
491.003	1459
491.221	1487
491.439	1537
491.657	1508
491.874	1571
492.092	1548
492.31	1605
492.527	1557
492.745	1543
492.963	1548
493.18	1517
493.398	1523
493.615	1515
493.833	1503
494.05	1544
494.268	1536
494.485	1511
494.703	1556
494.92	1518
495.138	1509
495.355	1557
495.573	1514
495.79	1533
496.008	1533
496.225	1557
496.442	1606
496.66	1601
496.877	1715
497.094	1704
497.312	1653
497.529	1626
497.746	1658
497.963	1692
498.181	1698
498.398	1720
498.615	1809
498.832	1822
499.049	1939
499.267	2036
499.484	2203
499.701	2185
499.918	2250
500.135	2441
500.352	2536
500.569	2574
500.786	2535
501.003	2451
501.22	2357
501.437	2229
501.654	2070
501.871	1982
502.088	1916
502.305	1862
502.522	1809
502.739	1738
502.956	1663
503.172	1681
503.389	1597
503.606	1560
503.823	1566
504.04	1566
504.256	1581
504.473	1563
504.69	1525
504.907	1574
505.123	1470
505.34	1452
505.557	1456
505.773	1453
505.99	1423
506.207	1375
506.423	1405
506.64	1392
506.856	1376
507.073	1343
507.289	1363
507.506	1357
507.722	1328
507.939	1313
508.155	1311
508.372	1278
508.588	1296
508.805	1301
509.021	1308
509.238	1299
509.454	1363
509.67	1443
509.887	1379
510.103	1299
510.319	1271
510.536	1281
510.752	1240
510.968	1267
511.184	1259
511.401	1224
511.617	1224
511.833	1249
512.049	1245
512.265	1224
512.481	1212
512.698	1232
512.914	1224
513.13	1212
513.346	1226
513.562	1222
513.778	1278
513.994	1235
514.21	1279
514.426	1352
514.642	1389
514.858	1307
515.074	1279
515.29	1282
515.506	1278
515.721	1268
515.937	1285
516.153	1272
516.369	1293
516.585	1318
516.801	1363
517.016	1350
517.232	1385
517.448	1363
517.664	1422
517.879	1407
518.095	1405
518.311	1407
518.527	1375
518.742	1386
518.958	1384
519.173	1396
519.389	1351
519.605	1310
519.82	1304
520.036	1292
520.251	1256
520.467	1248
520.682	1243
520.898	1218
521.113	1216
521.329	1227
521.544	1197
521.76	1232
521.975	1230
522.19	1204
522.406	1205
522.621	1201
522.836	1191
523.052	1207
523.267	1183
523.482	1205
523.698	1191
523.913	1236
524.128	1201
524.343	1220
524.559	1187
524.774	1197
524.989	1185
525.204	1208
525.419	1201
525.634	1221
525.849	1211
526.064	1216
526.28	1211
526.495	1179
526.71	1175
526.925	1178
527.14	1155
527.355	1176
527.57	1218
527.785	1160
527.999	1223
528.214	1220
528.429	1223
528.644	1233
528.859	1240
529.074	1291
529.289	1299
529.503	1266
529.718	1287
529.933	1256
530.148	1245
530.363	1265
530.577	1246
530.792	1266
531.007	1268
531.221	1276
531.436	1274
531.651	1308
531.865	1301
532.08	1305
532.295	1363
532.509	1396
532.724	1438
532.938	1398
533.153	1411
533.367	1528
533.582	1586
533.796	1572
534.011	1545
534.225	1471
534.44	1466
534.654	1420
534.868	1382
535.083	1366
535.297	1372
535.511	1351
535.726	1341
535.94	1305
536.154	1309
536.369	1299
536.583	1222
536.797	1297
537.011	1230
537.225	1206
537.44	1216
537.654	1212
537.868	1218
538.082	1188
538.296	1196
538.51	1178
538.724	1199
538.938	1186
539.153	1179
539.367	1191
539.581	1161
539.795	1157
540.009	1149
540.222	1134
540.436	1118
540.65	1171
540.864	1174
541.078	1163
541.292	1263
541.506	1522
541.72	1575
541.934	1355
542.147	1307
542.361	1244
542.575	1184
542.789	1159
543.002	1135
543.216	1105
543.43	1127
543.644	1146
543.857	1132
544.071	1141
544.285	1181
544.498	1139
544.712	1153
544.925	1171
545.139	1127
545.352	1159
545.566	1155
545.779	1150
