Data from SnStandardFlinnAPT0064_LampEnergy5.5_LIBS07252019.E.O._I.C._HRD10591_15-17-21-492.txt Node
Date: Thu Jul 25 15:17:21 EDT 2019
User: cochatt
Spectrometer: HR+D1059
Trigger mode: 1
Integration Time (sec): 1.000000E-1
Scans to average: 1
Electric dark correction enabled: true
Nonlinearity correction enabled: false
Boxcar width: 0
XAxis mode: Wavelengths
Number of Pixels in Spectrum: 2048
>>>>>Begin Spectral Data<<<<<
223.165	-16.31
223.4	-16.31
223.635	-16.31
223.869	-11.31
224.104	-12.31
224.338	0.69
224.573	-14.31
224.808	-17.31
225.042	-8.31
225.277	-0.31
225.511	-1.31
225.746	-10.31
225.98	6.69
226.215	7.69
226.449	11.69
226.683	22.69
226.918	20.69
227.152	21.69
227.387	25.69
227.621	50.69
227.856	40.69
228.09	55.69
228.324	45.69
228.559	50.69
228.793	91.69
229.027	160.69
229.262	171.69
229.496	180.69
229.73	160.69
229.964	157.69
230.199	163.69
230.433	186.69
230.667	170.69
230.901	188.69
231.136	166.69
231.37	195.69
231.604	208.69
231.838	222.69
232.072	254.69
232.306	271.69
232.541	232.69
232.775	220.69
233.009	220.69
233.243	220.69
233.477	241.69
233.711	266.69
233.945	285.69
234.179	247.69
234.413	232.69
234.647	231.69
234.881	245.69
235.115	258.69
235.349	307.69
235.583	365.69
235.817	474.69
236.051	473.69
236.285	327.69
236.519	271.69
236.753	231.69
236.987	244.69
237.221	250.69
237.455	246.69
237.689	241.69
237.922	229.69
238.156	219.69
238.39	235.69
238.624	256.69
238.858	253.69
239.091	276.69
239.325	240.69
239.559	236.69
239.793	249.69
240.027	256.69
240.26	258.69
240.494	267.69
240.728	271.69
240.961	309.69
241.195	308.69
241.429	295.69
241.662	324.69
241.896	356.69
242.13	428.69
242.363	584.69
242.597	716.69
242.83	654.69
243.064	689.69
243.298	818.69
243.531	703.69
243.765	429.69
243.998	349.69
244.232	342.69
244.465	316.69
244.699	304.69
244.932	316.69
245.166	317.69
245.399	330.69
245.633	334.69
245.866	317.69
246.099	324.69
246.333	316.69
246.566	317.69
246.8	314.69
247.033	322.69
247.266	321.69
247.5	320.69
247.733	312.69
247.966	341.69
248.2	346.69
248.433	392.69
248.666	452.69
248.899	427.69
249.133	408.69
249.366	409.69
249.599	424.69
249.832	503.69
250.066	490.69
250.299	401.69
250.532	358.69
250.765	364.69
250.998	358.69
251.231	352.69
251.465	365.69
251.698	361.69
251.931	364.69
252.164	354.69
252.397	353.69
252.63	365.69
252.863	365.69
253.096	368.69
253.329	356.69
253.562	372.69
253.795	374.69
254.028	381.69
254.261	382.69
254.494	387.69
254.727	473.69
254.96	572.69
255.193	533.69
255.426	442.69
255.659	412.69
255.892	414.69
256.124	416.69
256.357	386.69
256.59	417.69
256.823	438.69
257.056	501.69
257.289	588.69
257.521	628.69
257.754	510.69
257.987	442.69
258.22	447.69
258.452	422.69
258.685	434.69
258.918	426.69
259.151	457.69
259.383	486.69
259.616	546.69
259.849	559.69
260.081	485.69
260.314	451.69
260.547	439.69
260.779	441.69
261.012	448.69
261.244	459.69
261.477	460.69
261.71	464.69
261.942	478.69
262.175	490.69
262.407	504.69
262.64	491.69
262.872	521.69
263.105	520.69
263.337	566.69
263.57	603.69
263.802	590.69
264.035	601.69
264.267	614.69
264.499	630.69
264.732	660.69
264.964	674.69
265.197	650.69
265.429	665.69
265.661	664.69
265.894	714.69
266.126	786.69
266.358	900.69
266.591	884.69
266.823	764.69
267.055	661.69
267.287	653.69
267.52	614.69
267.752	612.69
267.984	622.69
268.216	596.69
268.448	569.69
268.681	563.69
268.913	585.69
269.145	563.69
269.377	573.69
269.609	576.69
269.841	590.69
270.073	624.69
270.306	734.69
270.538	957.69
270.77	1414.69
271.002	1736.69
271.234	1186.69
271.466	809.69
271.698	696.69
271.93	608.69
272.162	599.69
272.394	589.69
272.626	560.69
272.858	549.69
273.09	584.69
273.322	564.69
273.553	569.69
273.785	553.69
274.017	566.69
274.249	562.69
274.481	551.69
274.713	568.69
274.945	559.69
275.176	580.69
275.408	565.69
275.64	588.69
275.872	599.69
276.104	589.69
276.335	590.69
276.567	589.69
276.799	612.69
277.031	604.69
277.262	591.69
277.494	605.69
277.726	695.69
277.957	784.69
278.189	860.69
278.421	816.69
278.652	740.69
278.884	728.69
279.115	655.69
279.347	626.69
279.579	624.69
279.81	628.69
280.042	617.69
280.273	636.69
280.505	652.69
280.736	661.69
280.968	725.69
281.199	780.69
281.431	863.69
281.662	873.69
281.894	775.69
282.125	736.69
282.356	729.69
282.588	743.69
282.819	763.69
283.051	816.69
283.282	850.69
283.513	1098.69
283.745	1596.69
283.976	2562.69
284.207	3680.69
284.439	3207.69
284.67	1844.69
284.901	1498.69
285.132	1524.69
285.364	1424.69
285.595	1135.69
285.826	1064.69
286.057	1216.69
286.288	1678.69
286.52	2284.69
286.751	2103.69
286.982	1269.69
287.213	953.69
287.444	854.69
287.675	796.69
287.906	767.69
288.138	776.69
288.369	771.69
288.6	766.69
288.831	738.69
289.062	743.69
289.293	746.69
289.524	730.69
289.755	757.69
289.986	746.69
290.217	766.69
290.448	744.69
290.679	805.69
290.91	747.69
291.141	808.69
291.371	844.69
291.602	883.69
291.833	803.69
292.064	782.69
292.295	727.69
292.526	735.69
292.757	700.69
292.987	738.69
293.218	700.69
293.449	706.69
293.68	710.69
293.91	708.69
294.141	690.69
294.372	714.69
294.603	702.69
294.833	697.69
295.064	675.69
295.295	697.69
295.525	682.69
295.756	683.69
295.987	683.69
296.217	695.69
296.448	692.69
296.679	690.69
296.909	702.69
297.14	723.69
297.37	719.69
297.601	716.69
297.831	719.69
298.062	717.69
298.292	750.69
298.523	743.69
298.753	762.69
298.984	747.69
299.214	760.69
299.445	757.69
299.675	792.69
299.905	791.69
300.136	840.69
300.366	956.69
300.597	1196.69
300.827	1729.69
301.057	2285.69
301.288	2249.69
301.518	1402.69
301.748	1077.69
301.979	982.69
302.209	974.69
302.439	973.69
302.669	1037.69
302.9	1252.69
303.13	1748.69
303.36	2633.69
303.59	3543.69
303.82	3022.69
304.051	1731.69
304.281	1244.69
304.511	1046.69
304.741	980.69
304.971	904.69
305.201	870.69
305.431	862.69
305.661	849.69
305.891	833.69
306.121	843.69
306.352	838.69
306.582	818.69
306.812	844.69
307.042	827.69
307.272	803.69
307.502	830.69
307.731	815.69
307.961	811.69
308.191	798.69
308.421	775.69
308.651	816.69
308.881	799.69
309.111	818.69
309.341	803.69
309.571	830.69
309.8	829.69
310.03	822.69
310.26	804.69
310.49	830.69
310.72	866.69
310.949	840.69
311.179	832.69
311.409	836.69
311.639	884.69
311.868	842.69
312.098	865.69
312.328	893.69
312.557	876.69
312.787	873.69
313.017	843.69
313.246	865.69
313.476	880.69
313.706	910.69
313.935	941.69
314.165	992.69
314.394	1069.69
314.624	1020.69
314.853	944.69
315.083	923.69
315.312	942.69
315.542	954.69
315.771	958.69
316.001	992.69
316.23	1024.69
316.46	1044.69
316.689	1161.69
316.919	1369.69
317.148	2047.69
317.377	3144.69
317.607	4678.69
317.836	4830.69
318.065	2722.69
318.295	1720.69
318.524	1360.69
318.753	1226.69
318.983	1144.69
319.212	1065.69
319.441	1077.69
319.67	1066.69
319.9	1044.69
320.129	1052.69
320.358	1034.69
320.587	1038.69
320.816	1037.69
321.046	1026.69
321.275	1006.69
321.504	1049.69
321.733	1051.69
321.962	1070.69
322.191	1088.69
322.42	1061.69
322.649	1073.69
322.878	1061.69
323.108	1084.69
323.337	1092.69
323.566	1096.69
323.795	1125.69
324.024	1172.69
324.253	1170.69
324.482	1179.69
324.71	1254.69
324.939	1348.69
325.168	1352.69
325.397	1427.69
325.626	1678.69
325.855	2379.69
326.084	3782.69
326.313	5742.69
326.542	6104.69
326.77	3760.69
326.999	2397.69
327.228	2006.69
327.457	1882.69
327.686	1856.69
327.914	2024.69
328.143	2339.69
328.372	2734.69
328.6	2889.69
328.829	2667.69
329.058	2369.69
329.287	2094.69
329.515	1932.69
329.744	1814.69
329.972	1703.69
330.201	1604.69
330.43	1569.69
330.658	1498.69
330.887	1470.69
331.115	1487.69
331.344	1476.69
331.572	1463.69
331.801	1481.69
332.03	1508.69
332.258	1510.69
332.486	1565.69
332.715	1813.69
332.943	2175.69
333.172	2759.69
333.4	2662.69
333.629	2085.69
333.857	1869.69
334.085	1867.69
334.314	1945.69
334.542	2105.69
334.771	2402.69
334.999	2881.69
335.227	3531.69
335.455	3920.69
335.684	3634.69
335.912	3096.69
336.14	2681.69
336.369	2352.69
336.597	2139.69
336.825	1990.69
337.053	1862.69
337.281	1755.69
337.51	1721.69
337.738	1640.69
337.966	1594.69
338.194	1484.69
338.422	1472.69
338.65	1474.69
338.878	1392.69
339.106	1385.69
339.334	1400.69
339.562	1366.69
339.79	1314.69
340.018	1313.69
340.246	1308.69
340.474	1310.69
340.702	1314.69
340.93	1320.69
341.158	1331.69
341.386	1296.69
341.614	1287.69
341.842	1284.69
342.07	1272.69
342.298	1235.69
342.526	1208.69
342.754	1198.69
342.981	1164.69
343.209	1183.69
343.437	1213.69
343.665	1224.69
343.893	1220.69
344.12	1231.69
344.348	1236.69
344.576	1205.69
344.804	1194.69
345.031	1166.69
345.259	1158.69
345.487	1110.69
345.714	1124.69
345.942	1114.69
346.17	1148.69
346.397	1111.69
346.625	1121.69
346.853	1116.69
347.08	1100.69
347.308	1099.69
347.535	1105.69
347.763	1104.69
347.99	1113.69
348.218	1079.69
348.445	1088.69
348.673	1082.69
348.9	1061.69
349.128	1091.69
349.355	1050.69
349.583	1081.69
349.81	1082.69
350.037	1062.69
350.265	1059.69
350.492	1066.69
350.72	1062.69
350.947	1075.69
351.174	1059.69
351.402	1069.69
351.629	1107.69
351.856	1088.69
352.083	1036.69
352.311	1046.69
352.538	1063.69
352.765	1068.69
352.992	1047.69
353.22	1035.69
353.447	1048.69
353.674	1060.69
353.901	1065.69
354.128	1045.69
354.355	1037.69
354.583	1044.69
354.81	1092.69
355.037	1100.69
355.264	1101.69
355.491	1080.69
355.718	1074.69
355.945	1111.69
356.172	1052.69
356.399	1084.69
356.626	1099.69
356.853	1106.69
357.08	1111.69
357.307	1109.69
357.534	1155.69
357.761	1145.69
357.988	1133.69
358.215	1144.69
358.441	1132.69
358.668	1098.69
358.895	1129.69
359.122	1141.69
359.349	1120.69
359.576	1120.69
359.802	1121.69
360.029	1103.69
360.256	1130.69
360.483	1119.69
360.709	1137.69
360.936	1112.69
361.163	1089.69
361.39	1108.69
361.616	1123.69
361.843	1125.69
362.07	1105.69
362.296	1160.69
362.523	1109.69
362.749	1124.69
362.976	1108.69
363.203	1126.69
363.429	1123.69
363.656	1110.69
363.882	1151.69
364.109	1098.69
364.335	1104.69
364.562	1123.69
364.788	1159.69
365.015	1146.69
365.241	1178.69
365.468	1204.69
365.694	1230.69
365.92	1238.69
366.147	1171.69
366.373	1159.69
366.599	1162.69
366.826	1164.69
367.052	1142.69
367.278	1163.69
367.505	1176.69
367.731	1204.69
367.957	1163.69
368.184	1155.69
368.41	1199.69
368.636	1178.69
368.862	1181.69
369.089	1152.69
369.315	1203.69
369.541	1148.69
369.767	1150.69
369.993	1178.69
370.219	1156.69
370.445	1152.69
370.672	1174.69
370.898	1197.69
371.124	1174.69
371.35	1203.69
371.576	1170.69
371.802	1225.69
372.028	1206.69
372.254	1228.69
372.48	1239.69
372.706	1242.69
372.932	1257.69
373.158	1242.69
373.384	1241.69
373.61	1266.69
373.835	1225.69
374.061	1233.69
374.287	1241.69
374.513	1260.69
374.739	1259.69
374.965	1288.69
375.191	1277.69
375.416	1251.69
375.642	1284.69
375.868	1294.69
376.094	1243.69
376.319	1259.69
376.545	1237.69
376.771	1210.69
376.997	1206.69
377.222	1232.69
377.448	1213.69
377.674	1225.69
377.899	1177.69
378.125	1213.69
378.35	1239.69
378.576	1221.69
378.802	1212.69
379.027	1244.69
379.253	1275.69
379.478	1340.69
379.704	1522.69
379.929	2240.69
380.155	3404.69
380.38	3628.69
380.606	2200.69
380.831	1592.69
381.057	1396.69
381.282	1289.69
381.507	1251.69
381.733	1221.69
381.958	1222.69
382.184	1158.69
382.409	1209.69
382.634	1203.69
382.86	1172.69
383.085	1210.69
383.31	1212.69
383.535	1238.69
383.761	1208.69
383.986	1202.69
384.211	1227.69
384.436	1228.69
384.662	1241.69
384.887	1212.69
385.112	1258.69
385.337	1267.69
385.562	1241.69
385.787	1226.69
386.013	1250.69
386.238	1238.69
386.463	1234.69
386.688	1262.69
386.913	1254.69
387.138	1264.69
387.363	1246.69
387.588	1234.69
387.813	1234.69
388.038	1247.69
388.263	1233.69
388.488	1237.69
388.713	1246.69
388.938	1229.69
389.163	1256.69
389.387	1254.69
389.612	1242.69
389.837	1250.69
390.062	1251.69
390.287	1255.69
390.512	1234.69
390.736	1266.69
390.961	1260.69
391.186	1244.69
391.411	1277.69
391.636	1294.69
391.86	1309.69
392.085	1307.69
392.31	1289.69
392.534	1287.69
392.759	1296.69
392.984	1264.69
393.208	1303.69
393.433	1305.69
393.658	1298.69
393.882	1254.69
394.107	1246.69
394.331	1259.69
394.556	1241.69
394.78	1254.69
395.005	1316.69
395.229	1252.69
395.454	1266.69
395.678	1322.69
395.903	1269.69
396.127	1290.69
396.352	1246.69
396.576	1256.69
396.801	1303.69
397.025	1280.69
397.249	1329.69
397.474	1338.69
397.698	1316.69
397.922	1323.69
398.147	1346.69
398.371	1336.69
398.595	1346.69
398.82	1364.69
399.044	1466.69
399.268	1483.69
399.492	1574.69
399.717	1654.69
399.941	1609.69
400.165	1549.69
400.389	1524.69
400.613	1428.69
400.837	1398.69
401.062	1367.69
401.286	1368.69
401.51	1375.69
401.734	1351.69
401.958	1385.69
402.182	1401.69
402.406	1351.69
402.63	1381.69
402.854	1419.69
403.078	1387.69
403.302	1413.69
403.526	1412.69
403.75	1445.69
403.974	1394.69
404.198	1395.69
404.422	1447.69
404.645	1446.69
404.869	1436.69
405.093	1431.69
405.317	1400.69
405.541	1449.69
405.765	1432.69
405.988	1451.69
406.212	1476.69
406.436	1412.69
406.66	1476.69
406.883	1416.69
407.107	1496.69
407.331	1538.69
407.555	1530.69
407.778	1543.69
408.002	1510.69
408.226	1490.69
408.449	1492.69
408.673	1462.69
408.896	1464.69
409.12	1443.69
409.344	1456.69
409.567	1415.69
409.791	1413.69
410.014	1444.69
410.238	1395.69
410.461	1417.69
410.685	1413.69
410.908	1377.69
411.132	1422.69
411.355	1385.69
411.578	1343.69
411.802	1343.69
412.025	1326.69
412.249	1367.69
412.472	1375.69
412.695	1365.69
412.919	1384.69
413.142	1326.69
413.365	1362.69
413.589	1389.69
413.812	1325.69
414.035	1369.69
414.258	1344.69
414.482	1383.69
414.705	1348.69
414.928	1358.69
415.151	1361.69
415.374	1358.69
415.597	1319.69
415.821	1319.69
416.044	1318.69
416.267	1277.69
416.49	1294.69
416.713	1285.69
416.936	1307.69
417.159	1270.69
417.382	1275.69
417.605	1278.69
417.828	1284.69
418.051	1301.69
418.274	1316.69
418.497	1326.69
418.72	1348.69
418.943	1305.69
419.166	1400.69
419.389	1429.69
419.611	1434.69
419.834	1392.69
420.057	1361.69
420.28	1320.69
420.503	1321.69
420.726	1315.69
420.948	1303.69
421.171	1314.69
421.394	1302.69
421.617	1312.69
421.839	1288.69
422.062	1314.69
422.285	1318.69
422.507	1305.69
422.73	1316.69
422.953	1345.69
423.175	1342.69
423.398	1330.69
423.621	1288.69
423.843	1324.69
424.066	1324.69
424.288	1323.69
424.511	1321.69
424.733	1298.69
424.956	1329.69
425.178	1284.69
425.401	1246.69
425.623	1302.69
425.846	1285.69
426.068	1266.69
426.291	1259.69
426.513	1268.69
426.735	1246.69
426.958	1258.69
427.18	1221.69
427.402	1270.69
427.625	1243.69
427.847	1198.69
428.069	1193.69
428.292	1224.69
428.514	1208.69
428.736	1234.69
428.958	1220.69
429.181	1216.69
429.403	1211.69
429.625	1197.69
429.847	1212.69
430.069	1223.69
430.292	1224.69
430.514	1288.69
430.736	1328.69
430.958	1248.69
431.18	1156.69
431.402	1192.69
431.624	1184.69
431.846	1184.69
432.068	1180.69
432.29	1184.69
432.512	1165.69
432.734	1195.69
432.956	1195.69
433.178	1225.69
433.4	1206.69
433.622	1180.69
433.844	1221.69
434.066	1220.69
434.287	1169.69
434.509	1194.69
434.731	1206.69
434.953	1219.69
435.175	1228.69
435.397	1252.69
435.618	1209.69
435.84	1210.69
436.062	1212.69
436.284	1215.69
436.505	1188.69
436.727	1207.69
436.949	1232.69
437.17	1216.69
437.392	1164.69
437.614	1164.69
437.835	1114.69
438.057	1166.69
438.278	1152.69
438.5	1172.69
438.721	1164.69
438.943	1223.69
439.165	1230.69
439.386	1237.69
439.608	1244.69
439.829	1253.69
440.05	1305.69
440.272	1309.69
440.493	1248.69
440.715	1251.69
440.936	1230.69
441.158	1247.69
441.379	1276.69
441.6	1315.69
441.822	1336.69
442.043	1406.69
442.264	1442.69
442.486	1317.69
442.707	1294.69
442.928	1273.69
443.149	1301.69
443.371	1236.69
443.592	1312.69
443.813	1282.69
444.034	1284.69
444.255	1300.69
444.476	1361.69
444.698	1355.69
444.919	1406.69
445.14	1484.69
445.361	1383.69
445.582	1332.69
445.803	1284.69
446.024	1286.69
446.245	1289.69
446.466	1300.69
446.687	1275.69
446.908	1245.69
447.129	1225.69
447.35	1225.69
447.571	1232.69
447.792	1175.69
448.013	1210.69
448.234	1178.69
448.455	1179.69
448.675	1202.69
448.896	1197.69
449.117	1251.69
449.338	1357.69
449.559	1418.69
449.779	1286.69
450	1184.69
450.221	1147.69
450.442	1167.69
450.662	1163.69
450.883	1128.69
451.104	1134.69
451.324	1148.69
451.545	1138.69
451.766	1184.69
451.986	1161.69
452.207	1263.69
452.428	1523.69
452.648	2192.69
452.869	1878.69
453.089	1353.69
453.31	1254.69
453.53	1279.69
453.751	1320.69
453.971	1393.69
454.192	1435.69
454.412	1206.69
454.633	1188.69
454.853	1144.69
455.073	1081.69
455.294	1097.69
455.514	1088.69
455.734	1068.69
455.955	1090.69
456.175	1113.69
456.395	1086.69
456.616	1106.69
456.836	1118.69
457.056	1102.69
457.276	1102.69
457.497	1170.69
457.717	1180.69
457.937	1149.69
458.157	1180.69
458.377	1137.69
458.598	1176.69
458.818	1183.69
459.038	1201.69
459.258	1185.69
459.478	1202.69
459.698	1213.69
459.918	1225.69
460.138	1223.69
460.358	1237.69
460.578	1286.69
460.798	1271.69
461.018	1297.69
461.238	1306.69
461.458	1296.69
461.678	1289.69
461.898	1324.69
462.118	1363.69
462.338	1399.69
462.558	1362.69
462.777	1384.69
462.997	1450.69
463.217	1482.69
463.437	1558.69
463.657	1569.69
463.876	1565.69
464.096	1492.69
464.316	1432.69
464.536	1404.69
464.755	1382.69
464.975	1356.69
465.195	1333.69
465.414	1270.69
465.634	1255.69
465.854	1267.69
466.073	1226.69
466.293	1182.69
466.512	1180.69
466.732	1220.69
466.951	1292.69
467.171	1355.69
467.391	1330.69
467.61	1204.69
467.829	1172.69
468.049	1154.69
468.268	1190.69
468.488	1159.69
468.707	1152.69
468.927	1153.69
469.146	1176.69
469.365	1190.69
469.585	1204.69
469.804	1243.69
470.023	1240.69
470.243	1249.69
470.462	1305.69
470.681	1338.69
470.901	1472.69
471.12	1718.69
471.339	1746.69
471.558	1429.69
471.777	1278.69
471.997	1234.69
472.216	1206.69
472.435	1227.69
472.654	1164.69
472.873	1168.69
473.092	1147.69
473.311	1177.69
473.53	1183.69
473.749	1230.69
473.968	1229.69
474.187	1176.69
474.406	1184.69
474.625	1172.69
474.844	1202.69
475.063	1174.69
475.282	1164.69
475.501	1185.69
475.72	1200.69
475.939	1212.69
476.158	1237.69
476.377	1297.69
476.596	1213.69
476.814	1222.69
477.033	1251.69
477.252	1251.69
477.471	1299.69
477.69	1308.69
477.908	1330.69
478.127	1373.69
478.346	1347.69
478.564	1316.69
478.783	1372.69
479.002	1384.69
479.22	1399.69
479.439	1414.69
479.658	1402.69
479.876	1393.69
480.095	1392.69
480.313	1433.69
480.532	1438.69
480.751	1440.69
480.969	1419.69
481.188	1406.69
481.406	1400.69
481.624	1387.69
481.843	1394.69
482.061	1372.69
482.28	1428.69
482.498	1390.69
482.717	1378.69
482.935	1415.69
483.153	1460.69
483.372	1467.69
483.59	1501.69
483.808	1503.69
484.027	1510.69
484.245	1580.69
484.463	1806.69
484.681	2032.69
484.9	1800.69
485.118	1698.69
485.336	1628.69
485.554	1673.69
485.772	1758.69
485.99	2012.69
486.209	2222.69
486.427	1831.69
486.645	1620.69
486.863	1570.69
487.081	1518.69
487.299	1511.69
487.517	1521.69
487.735	1524.69
487.953	1535.69
488.171	1523.69
488.389	1457.69
488.607	1477.69
488.825	1478.69
489.043	1428.69
489.261	1475.69
489.479	1441.69
489.696	1480.69
489.914	1470.69
490.132	1479.69
490.35	1512.69
490.568	1481.69
