Data from SnStandardFlinnAPT0064_LampEnergy10_LIBS07252019.E.O._I.C._HRD10591_15-20-56-494.txt Node
Date: Thu Jul 25 15:20:56 EDT 2019
User: cochatt
Spectrometer: HR+D1059
Trigger mode: 1
Integration Time (sec): 1.000000E-1
Scans to average: 1
Electric dark correction enabled: true
Nonlinearity correction enabled: false
Boxcar width: 0
XAxis mode: Wavelengths
Number of Pixels in Spectrum: 2048
>>>>>Begin Spectral Data<<<<<
223.165	-14.69
223.4	-14.69
223.635	-14.69
223.869	-21.69
224.104	-14.69
224.338	-25.69
224.573	-17.69
224.808	-3.69
225.042	-21.69
225.277	-3.69
225.511	2.31
225.746	12.31
225.98	6.31
226.215	19.31
226.449	12.31
226.683	10.31
226.918	18.31
227.152	42.31
227.387	36.31
227.621	45.31
227.856	40.31
228.09	40.31
228.324	63.31
228.559	49.31
228.793	110.31
229.027	317.31
229.262	328.31
229.496	307.31
229.73	308.31
229.964	291.31
230.199	318.31
230.433	308.31
230.667	306.31
230.901	333.31
231.136	324.31
231.37	353.31
231.604	388.31
231.838	455.31
232.072	516.31
232.306	561.31
232.541	469.31
232.775	429.31
233.009	412.31
233.243	434.31
233.477	462.31
233.711	517.31
233.945	562.31
234.179	517.31
234.413	456.31
234.647	450.31
234.881	468.31
235.115	532.31
235.349	632.31
235.583	798.31
235.817	997.31
236.051	975.31
236.285	664.31
236.519	537.31
236.753	505.31
236.987	520.31
237.221	531.31
237.455	520.31
237.689	470.31
237.922	463.31
238.156	488.31
238.39	484.31
238.624	481.31
238.858	467.31
239.091	484.31
239.325	511.31
239.559	489.31
239.793	523.31
240.027	514.31
240.26	541.31
240.494	558.31
240.728	579.31
240.961	586.31
241.195	639.31
241.429	688.31
241.662	696.31
241.896	804.31
242.13	943.31
242.363	1230.31
242.597	1631.31
242.83	1547.31
243.064	1514.31
243.298	1811.31
243.531	1494.31
243.765	965.31
243.998	783.31
244.232	713.31
244.465	662.31
244.699	648.31
244.932	659.31
245.166	642.31
245.399	666.31
245.633	694.31
245.866	711.31
246.099	632.31
246.333	650.31
246.566	652.31
246.8	648.31
247.033	644.31
247.266	629.31
247.5	650.31
247.733	668.31
247.966	707.31
248.2	752.31
248.433	873.31
248.666	1008.31
248.899	966.31
249.133	854.31
249.366	869.31
249.599	973.31
249.832	1090.31
250.066	1117.31
250.299	849.31
250.532	791.31
250.765	749.31
250.998	734.31
251.231	716.31
251.465	728.31
251.698	734.31
251.931	723.31
252.164	772.31
252.397	758.31
252.63	769.31
252.863	800.31
253.096	798.31
253.329	817.31
253.562	801.31
253.795	768.31
254.028	795.31
254.261	804.31
254.494	877.31
254.727	1025.31
254.96	1239.31
255.193	1204.31
255.426	964.31
255.659	900.31
255.892	865.31
256.124	890.31
256.357	860.31
256.59	914.31
256.823	990.31
257.056	1137.31
257.289	1350.31
257.521	1496.31
257.754	1206.31
257.987	972.31
258.22	946.31
258.452	933.31
258.685	940.31
258.918	960.31
259.151	983.31
259.383	1092.31
259.616	1227.31
259.849	1270.31
260.081	1086.31
260.314	1004.31
260.547	970.31
260.779	964.31
261.012	951.31
261.244	978.31
261.477	980.31
261.71	973.31
261.942	1012.31
262.175	1028.31
262.407	1046.31
262.64	1069.31
262.872	1144.31
263.105	1133.31
263.337	1205.31
263.57	1278.31
263.802	1309.31
264.035	1336.31
264.267	1360.31
264.499	1373.31
264.732	1463.31
264.964	1450.31
265.197	1457.31
265.429	1425.31
265.661	1466.31
265.894	1588.31
266.126	1796.31
266.358	1956.31
266.591	1910.31
266.823	1647.31
267.055	1454.31
267.287	1396.31
267.52	1348.31
267.752	1287.31
267.984	1300.31
268.216	1274.31
268.448	1246.31
268.681	1233.31
268.913	1225.31
269.145	1236.31
269.377	1228.31
269.609	1255.31
269.841	1321.31
270.073	1423.31
270.306	1665.31
270.538	2164.31
270.77	3182.31
271.002	3940.31
271.234	2830.31
271.466	1873.31
271.698	1564.31
271.93	1413.31
272.162	1328.31
272.394	1290.31
272.626	1261.31
272.858	1233.31
273.09	1221.31
273.322	1229.31
273.553	1204.31
273.785	1204.31
274.017	1192.31
274.249	1248.31
274.481	1194.31
274.713	1223.31
274.945	1180.31
275.176	1233.31
275.408	1202.31
275.64	1232.31
275.872	1230.31
276.104	1256.31
276.335	1317.31
276.567	1280.31
276.799	1278.31
277.031	1299.31
277.262	1324.31
277.494	1410.31
277.726	1596.31
277.957	1836.31
278.189	2136.31
278.421	1967.31
278.652	1736.31
278.884	1689.31
279.115	1496.31
279.347	1414.31
279.579	1401.31
279.81	1384.31
280.042	1397.31
280.273	1446.31
280.505	1473.31
280.736	1505.31
280.968	1586.31
281.199	1788.31
281.431	2059.31
281.662	2119.31
281.894	1801.31
282.125	1624.31
282.356	1610.31
282.588	1684.31
282.819	1755.31
283.051	1817.31
283.282	2001.31
283.513	2508.31
283.745	3631.31
283.976	5656.31
284.207	8022.31
284.439	7353.31
284.67	4576.31
284.901	3734.31
285.132	3789.31
285.364	3526.31
285.595	2693.31
285.826	2422.31
286.057	2861.31
286.288	3866.31
286.52	5196.31
286.751	4863.31
286.982	3064.31
287.213	2329.31
287.444	2018.31
287.675	1863.31
287.906	1795.31
288.138	1734.31
288.369	1715.31
288.6	1693.31
288.831	1696.31
289.062	1712.31
289.293	1660.31
289.524	1666.31
289.755	1728.31
289.986	1705.31
290.217	1682.31
290.448	1716.31
290.679	1755.31
290.91	1815.31
291.141	1886.31
291.371	1990.31
291.602	2115.31
291.833	1922.31
292.064	1795.31
292.295	1716.31
292.526	1684.31
292.757	1621.31
292.987	1629.31
293.218	1603.31
293.449	1627.31
293.68	1594.31
293.91	1567.31
294.141	1608.31
294.372	1541.31
294.603	1582.31
294.833	1584.31
295.064	1563.31
295.295	1600.31
295.525	1582.31
295.756	1583.31
295.987	1562.31
296.217	1582.31
296.448	1595.31
296.679	1565.31
296.909	1586.31
297.14	1610.31
297.37	1638.31
297.601	1632.31
297.831	1656.31
298.062	1591.31
298.292	1630.31
298.523	1652.31
298.753	1727.31
298.984	1700.31
299.214	1713.31
299.445	1743.31
299.675	1768.31
299.905	1831.31
300.136	1924.31
300.366	2122.31
300.597	2766.31
300.827	3785.31
301.057	5176.31
301.288	5251.31
301.518	3392.31
301.748	2593.31
301.979	2368.31
302.209	2290.31
302.439	2311.31
302.669	2486.31
302.9	2960.31
303.13	4148.31
303.36	6136.31
303.59	8255.31
303.82	7133.31
304.051	4297.31
304.281	3058.31
304.511	2538.31
304.741	2326.31
304.971	2203.31
305.201	2070.31
305.431	2044.31
305.661	1982.31
305.891	1917.31
306.121	1891.31
306.352	1862.31
306.582	1838.31
306.812	1807.31
307.042	1866.31
307.272	1888.31
307.502	1853.31
307.731	1817.31
307.961	1821.31
308.191	1810.31
308.421	1810.31
308.651	1813.31
308.881	1769.31
309.111	1820.31
309.341	1822.31
309.571	1872.31
309.8	1884.31
310.03	1852.31
310.26	1871.31
310.49	1876.31
310.72	1830.31
310.949	1903.31
311.179	1912.31
311.409	1916.31
311.639	1945.31
311.868	1891.31
312.098	1922.31
312.328	1978.31
312.557	1968.31
312.787	1961.31
313.017	1975.31
313.246	2009.31
313.476	1965.31
313.706	2056.31
313.935	2234.31
314.165	2334.31
314.394	2470.31
314.624	2350.31
314.853	2172.31
315.083	2144.31
315.312	2170.31
315.542	2238.31
315.771	2168.31
316.001	2257.31
316.23	2326.31
316.46	2418.31
316.689	2663.31
316.919	3240.31
317.148	4598.31
317.377	7110.31
317.607	10553.31
317.836	10843.31
318.065	6544.31
318.295	4272.31
318.524	3465.31
318.753	2999.31
318.983	2732.31
319.212	2641.31
319.441	2541.31
319.67	2521.31
319.9	2369.31
320.129	2388.31
320.358	2315.31
320.587	2324.31
320.816	2348.31
321.046	2385.31
321.275	2354.31
321.504	2395.31
321.733	2482.31
321.962	2514.31
322.191	2562.31
322.42	2554.31
322.649	2510.31
322.878	2519.31
323.108	2556.31
323.337	2574.31
323.566	2578.31
323.795	2646.31
324.024	2685.31
324.253	2774.31
324.482	2856.31
324.71	3045.31
324.939	3256.31
325.168	3263.31
325.397	3396.31
325.626	4102.31
325.855	5626.31
326.084	8744.31
326.313	12686.31
326.542	13439.31
326.77	9046.31
326.999	5988.31
327.228	4978.31
327.457	4811.31
327.686	4895.31
327.914	5207.31
328.143	6043.31
328.372	7313.31
328.6	7955.31
328.829	7056.31
329.058	5849.31
329.287	5148.31
329.515	4732.31
329.744	4320.31
329.972	4183.31
330.201	3908.31
330.43	3738.31
330.658	3630.31
330.887	3627.31
331.115	3571.31
331.344	3573.31
331.572	3461.31
331.801	3448.31
332.03	3513.31
332.258	3604.31
332.486	3758.31
332.715	4383.31
332.943	5323.31
333.172	6594.31
333.4	6557.31
333.629	4987.31
333.857	4553.31
334.085	4512.31
334.314	4773.31
334.542	5203.31
334.771	6125.31
334.999	7548.31
335.227	9560.31
335.455	10541.31
335.684	9556.31
335.912	7786.31
336.14	6622.31
336.369	5725.31
336.597	5270.31
336.825	4860.31
337.053	4558.31
337.281	4288.31
337.51	4094.31
337.738	3924.31
337.966	3740.31
338.194	3635.31
338.422	3485.31
338.65	3389.31
338.878	3369.31
339.106	3261.31
339.334	3235.31
339.562	3179.31
339.79	3052.31
340.018	3052.31
340.246	3057.31
340.474	3016.31
340.702	3082.31
340.93	3072.31
341.158	3046.31
341.386	3032.31
341.614	2981.31
341.842	2917.31
342.07	2890.31
342.298	2848.31
342.526	2797.31
342.754	2800.31
342.981	2685.31
343.209	2708.31
343.437	2777.31
343.665	2786.31
343.893	2792.31
344.12	2835.31
344.348	2800.31
344.576	2725.31
344.804	2746.31
345.031	2691.31
345.259	2608.31
345.487	2598.31
345.714	2616.31
345.942	2585.31
346.17	2568.31
346.397	2494.31
346.625	2561.31
346.853	2504.31
347.08	2512.31
347.308	2537.31
347.535	2552.31
347.763	2537.31
347.99	2471.31
348.218	2516.31
348.445	2514.31
348.673	2507.31
348.9	2472.31
349.128	2496.31
349.355	2465.31
349.583	2460.31
349.81	2430.31
350.037	2439.31
350.265	2400.31
350.492	2457.31
350.72	2408.31
350.947	2391.31
351.174	2454.31
351.402	2418.31
351.629	2399.31
351.856	2384.31
352.083	2422.31
352.311	2381.31
352.538	2351.31
352.765	2392.31
352.992	2352.31
353.22	2362.31
353.447	2392.31
353.674	2350.31
353.901	2425.31
354.128	2375.31
354.355	2444.31
354.583	2420.31
354.81	2443.31
355.037	2438.31
355.264	2410.31
355.491	2428.31
355.718	2460.31
355.945	2456.31
356.172	2470.31
356.399	2477.31
356.626	2500.31
356.853	2517.31
357.08	2498.31
357.307	2567.31
357.534	2566.31
357.761	2590.31
357.988	2637.31
358.215	2578.31
358.441	2568.31
358.668	2549.31
358.895	2574.31
359.122	2559.31
359.349	2519.31
359.576	2577.31
359.802	2558.31
360.029	2564.31
360.256	2576.31
360.483	2575.31
360.709	2553.31
360.936	2583.31
361.163	2601.31
361.39	2585.31
361.616	2568.31
361.843	2609.31
362.07	2570.31
362.296	2584.31
362.523	2590.31
362.749	2580.31
362.976	2549.31
363.203	2532.31
363.429	2586.31
363.656	2548.31
363.882	2542.31
364.109	2529.31
364.335	2544.31
364.562	2514.31
364.788	2585.31
365.015	2595.31
365.241	2690.31
365.468	2806.31
365.694	2910.31
365.92	2854.31
366.147	2641.31
366.373	2675.31
366.599	2584.31
366.826	2602.31
367.052	2610.31
367.278	2605.31
367.505	2659.31
367.731	2618.31
367.957	2617.31
368.184	2632.31
368.41	2646.31
368.636	2681.31
368.862	2726.31
369.089	2640.31
369.315	2644.31
369.541	2676.31
369.767	2647.31
369.993	2696.31
370.219	2610.31
370.445	2698.31
370.672	2668.31
370.898	2694.31
371.124	2686.31
371.35	2738.31
371.576	2680.31
371.802	2761.31
372.028	2776.31
372.254	2783.31
372.48	2734.31
372.706	2808.31
372.932	2777.31
373.158	2773.31
373.384	2815.31
373.61	2780.31
373.835	2840.31
374.061	2789.31
374.287	2818.31
374.513	2845.31
374.739	2886.31
374.965	2913.31
375.191	2914.31
375.416	2908.31
375.642	2799.31
375.868	2841.31
376.094	2835.31
376.319	2802.31
376.545	2787.31
376.771	2769.31
376.997	2738.31
377.222	2748.31
377.448	2735.31
377.674	2770.31
377.899	2689.31
378.125	2792.31
378.35	2740.31
378.576	2740.31
378.802	2786.31
379.027	2852.31
379.253	2884.31
379.478	3068.31
379.704	3558.31
379.929	5175.31
380.155	7897.31
380.38	8563.31
380.606	5211.31
380.831	3760.31
381.057	3240.31
381.282	2921.31
381.507	2940.31
381.733	2806.31
381.958	2816.31
382.184	2738.31
382.409	2723.31
382.634	2724.31
382.86	2708.31
383.085	2668.31
383.31	2652.31
383.535	2668.31
383.761	2685.31
383.986	2718.31
384.211	2750.31
384.436	2768.31
384.662	2791.31
384.887	2749.31
385.112	2809.31
385.337	2822.31
385.562	2774.31
385.787	2793.31
386.013	2839.31
386.238	2763.31
386.463	2757.31
386.688	2820.31
386.913	2759.31
387.138	2710.31
387.363	2779.31
387.588	2757.31
387.813	2789.31
388.038	2748.31
388.263	2750.31
388.488	2786.31
388.713	2769.31
388.938	2750.31
389.163	2739.31
389.387	2792.31
389.612	2810.31
389.837	2770.31
390.062	2796.31
390.287	2778.31
390.512	2805.31
390.736	2871.31
390.961	2911.31
391.186	2870.31
391.411	2909.31
391.636	2934.31
391.86	2896.31
392.085	2940.31
392.31	2891.31
392.534	2880.31
392.759	2872.31
392.984	2811.31
393.208	2829.31
393.433	2835.31
393.658	2752.31
393.882	2815.31
394.107	2801.31
394.331	2863.31
394.556	2803.31
394.78	2820.31
395.005	2884.31
395.229	2854.31
395.454	2914.31
395.678	2917.31
395.903	2880.31
396.127	2845.31
396.352	2901.31
396.576	2846.31
396.801	2882.31
397.025	2895.31
397.249	2958.31
397.474	2920.31
397.698	2954.31
397.922	2958.31
398.147	2931.31
398.371	2956.31
398.595	3037.31
398.82	3138.31
399.044	3214.31
399.268	3412.31
399.492	3591.31
399.717	3646.31
399.941	3690.31
400.165	3560.31
400.389	3427.31
400.613	3282.31
400.837	3132.31
401.062	3124.31
401.286	3076.31
401.51	3022.31
401.734	3086.31
401.958	3123.31
402.182	3077.31
402.406	3072.31
402.63	3098.31
402.854	3123.31
403.078	3121.31
403.302	3123.31
403.526	3192.31
403.75	3181.31
403.974	3231.31
404.198	3155.31
404.422	3165.31
404.645	3173.31
404.869	3170.31
405.093	3218.31
405.317	3228.31
405.541	3271.31
405.765	3284.31
405.988	3359.31
406.212	3248.31
406.436	3262.31
406.66	3270.31
406.883	3302.31
407.107	3459.31
407.331	3437.31
407.555	3525.31
407.778	3491.31
408.002	3470.31
408.226	3397.31
408.449	3388.31
408.673	3309.31
408.896	3211.31
409.12	3239.31
409.344	3224.31
409.567	3202.31
409.791	3141.31
410.014	3204.31
410.238	3160.31
410.461	3126.31
410.685	3171.31
410.908	3162.31
411.132	3106.31
411.355	3023.31
411.578	3001.31
411.802	3136.31
412.025	3074.31
412.249	3032.31
412.472	3066.31
412.695	2960.31
412.919	3037.31
413.142	3011.31
413.365	2984.31
413.589	3011.31
413.812	2980.31
414.035	2993.31
414.258	3032.31
414.482	2954.31
414.705	3016.31
414.928	2947.31
415.151	2996.31
415.374	2961.31
415.597	2953.31
415.821	2890.31
416.044	2858.31
416.267	2912.31
416.49	2851.31
416.713	2888.31
416.936	2892.31
417.159	2846.31
417.382	2869.31
417.605	2876.31
417.828	2873.31
418.051	2919.31
418.274	2930.31
418.497	2942.31
418.72	2979.31
418.943	2872.31
419.166	3018.31
419.389	3232.31
419.611	3196.31
419.834	3093.31
420.057	2990.31
420.28	2943.31
420.503	2928.31
420.726	2831.31
420.948	2880.31
421.171	2925.31
421.394	2898.31
421.617	2855.31
421.839	2907.31
422.062	2937.31
422.285	2830.31
422.507	2928.31
422.73	2952.31
422.953	2966.31
423.175	3014.31
423.398	2996.31
423.621	2869.31
423.843	2916.31
424.066	2920.31
424.288	2863.31
424.511	2848.31
424.733	2868.31
424.956	2890.31
425.178	2846.31
425.401	2853.31
425.623	2836.31
425.846	2781.31
426.068	2769.31
426.291	2798.31
426.513	2815.31
426.735	2725.31
426.958	2767.31
427.18	2710.31
427.402	2746.31
427.625	2776.31
427.847	2692.31
428.069	2677.31
428.292	2723.31
428.514	2698.31
428.736	2633.31
428.958	2684.31
429.181	2648.31
429.403	2626.31
429.625	2665.31
429.847	2622.31
430.069	2708.31
430.292	2748.31
430.514	2904.31
430.736	2898.31
430.958	2733.31
431.18	2659.31
431.402	2698.31
431.624	2639.31
431.846	2592.31
432.068	2596.31
432.29	2606.31
432.512	2569.31
432.734	2672.31
432.956	2592.31
433.178	2647.31
433.4	2620.31
433.622	2655.31
433.844	2665.31
434.066	2667.31
434.287	2672.31
434.509	2680.31
434.731	2758.31
434.953	2772.31
435.175	2771.31
435.397	2726.31
435.618	2708.31
435.84	2639.31
436.062	2658.31
436.284	2604.31
436.505	2577.31
436.727	2653.31
436.949	2629.31
437.17	2617.31
437.392	2543.31
437.614	2572.31
437.835	2503.31
438.057	2570.31
438.278	2518.31
438.5	2569.31
438.721	2643.31
438.943	2690.31
439.165	2752.31
439.386	2744.31
439.608	2751.31
439.829	2798.31
440.05	2843.31
440.272	2908.31
440.493	2796.31
440.715	2721.31
440.936	2767.31
441.158	2782.31
441.379	2851.31
441.6	2877.31
441.822	2954.31
442.043	3142.31
442.264	3206.31
442.486	2993.31
442.707	2846.31
442.928	2832.31
443.149	2835.31
443.371	2768.31
443.592	2828.31
443.813	2876.31
444.034	2902.31
444.255	2879.31
444.476	2966.31
444.698	3030.31
444.919	3056.31
445.14	3084.31
445.361	2923.31
445.582	2920.31
445.803	2834.31
446.024	2781.31
446.245	2871.31
446.466	2824.31
446.687	2794.31
446.908	2737.31
447.129	2725.31
447.35	2701.31
447.571	2622.31
447.792	2596.31
448.013	2631.31
448.234	2606.31
448.455	2614.31
448.675	2607.31
448.896	2712.31
449.117	2757.31
449.338	2982.31
449.559	3185.31
449.779	2861.31
450	2623.31
450.221	2574.31
450.442	2632.31
450.662	2544.31
450.883	2572.31
451.104	2498.31
451.324	2509.31
451.545	2531.31
451.766	2550.31
451.986	2619.31
452.207	2794.31
452.428	3608.31
452.648	5454.31
452.869	4581.31
453.089	3194.31
453.31	2972.31
453.53	2965.31
453.751	2997.31
453.971	3213.31
454.192	3144.31
454.412	2692.31
454.633	2573.31
454.853	2516.31
455.073	2456.31
455.294	2478.31
455.514	2430.31
455.734	2452.31
455.955	2420.31
456.175	2427.31
456.395	2453.31
456.616	2456.31
456.836	2468.31
457.056	2498.31
457.276	2492.31
457.497	2684.31
457.717	2723.31
457.937	2620.31
458.157	2602.31
458.377	2604.31
458.598	2645.31
458.818	2569.31
459.038	2608.31
459.258	2634.31
459.478	2695.31
459.698	2658.31
459.918	2742.31
460.138	2742.31
460.358	2800.31
460.578	2818.31
460.798	2870.31
461.018	2944.31
461.238	2893.31
461.458	2979.31
461.678	2932.31
461.898	2940.31
462.118	2980.31
462.338	3085.31
462.558	3057.31
462.777	3139.31
462.997	3297.31
463.217	3437.31
463.437	3526.31
463.657	3663.31
463.876	3583.31
464.096	3369.31
464.316	3233.31
464.536	3154.31
464.755	3118.31
464.975	3006.31
465.195	2916.31
465.414	2852.31
465.634	2733.31
465.854	2710.31
466.073	2687.31
466.293	2678.31
466.512	2669.31
466.732	2697.31
466.951	2877.31
467.171	2995.31
467.391	2939.31
467.61	2746.31
467.829	2620.31
468.049	2624.31
468.268	2562.31
468.488	2545.31
468.707	2588.31
468.927	2571.31
469.146	2570.31
469.365	2586.31
469.585	2622.31
469.804	2650.31
470.023	2724.31
470.243	2792.31
470.462	2885.31
470.681	3028.31
470.901	3344.31
471.12	3776.31
471.339	3778.31
471.558	3227.31
471.777	2884.31
471.997	2751.31
472.216	2691.31
472.435	2651.31
472.654	2614.31
472.873	2582.31
473.092	2642.31
473.311	2576.31
473.53	2606.31
473.749	2688.31
473.968	2812.31
474.187	2609.31
474.406	2618.31
474.625	2669.31
474.844	2616.31
475.063	2666.31
475.282	2616.31
475.501	2634.31
475.72	2682.31
475.939	2694.31
476.158	2660.31
476.377	2766.31
476.596	2771.31
476.814	2772.31
477.033	2777.31
477.252	2831.31
477.471	2866.31
477.69	2936.31
477.908	2927.31
478.127	2918.31
478.346	2968.31
478.564	2960.31
478.783	3050.31
479.002	3083.31
479.22	3132.31
479.439	3103.31
479.658	3080.31
479.876	3114.31
480.095	3229.31
480.313	3217.31
480.532	3272.31
480.751	3193.31
480.969	3197.31
481.188	3160.31
481.406	3192.31
481.624	3096.31
481.843	3216.31
482.061	3209.31
482.28	3153.31
482.498	3150.31
482.717	3171.31
482.935	3198.31
483.153	3250.31
483.372	3223.31
483.59	3317.31
483.808	3381.31
484.027	3432.31
484.245	3622.31
484.463	4096.31
484.681	4498.31
484.9	4093.31
485.118	3843.31
485.336	3762.31
485.554	3790.31
485.772	4021.31
485.99	4620.31
486.209	4869.31
486.427	4182.31
486.645	3697.31
486.863	3552.31
487.081	3435.31
487.299	3418.31
487.517	3378.31
487.735	3370.31
