Data from SnStandardFlinnAPT0064_QswitchEnergy10_LIBS07252019.E.O._I.C._HRD10591_15-28-23-974.txt Node
Date: Thu Jul 25 15:28:23 EDT 2019
User: cochatt
Spectrometer: HR+D1059
Trigger mode: 1
Integration Time (sec): 1.000000E-1
Scans to average: 1
Electric dark correction enabled: true
Nonlinearity correction enabled: false
Boxcar width: 0
XAxis mode: Wavelengths
Number of Pixels in Spectrum: 2048
>>>>>Begin Spectral Data<<<<<
223.165	-13.75
223.4	-13.75
223.635	-13.75
223.869	-3.75
224.104	-15.75
224.338	-25.75
224.573	-8.75
224.808	-13.75
225.042	-10.75
225.277	-14.75
225.511	-10.75
225.746	0.25
225.98	17.25
226.215	18.25
226.449	13.25
226.683	9.25
226.918	20.25
227.152	39.25
227.387	33.25
227.621	43.25
227.856	36.25
228.09	51.25
228.324	59.25
228.559	52.25
228.793	65.25
229.027	79.25
229.262	77.25
229.496	68.25
229.73	87.25
229.964	79.25
230.199	83.25
230.433	69.25
230.667	66.25
230.901	74.25
231.136	78.25
231.37	94.25
231.604	86.25
231.838	97.25
232.072	103.25
232.306	116.25
232.541	95.25
232.775	82.25
233.009	84.25
233.243	105.25
233.477	84.25
233.711	91.25
233.945	110.25
234.179	99.25
234.413	85.25
234.647	91.25
234.881	92.25
235.115	86.25
235.349	92.25
235.583	109.25
235.817	122.25
236.051	127.25
236.285	91.25
236.519	84.25
236.753	82.25
236.987	68.25
237.221	88.25
237.455	80.25
237.689	71.25
237.922	92.25
238.156	84.25
238.39	86.25
238.624	83.25
238.858	95.25
239.091	83.25
239.325	70.25
239.559	72.25
239.793	75.25
240.027	90.25
240.26	95.25
240.494	74.25
240.728	81.25
240.961	81.25
241.195	89.25
241.429	87.25
241.662	89.25
241.896	78.25
242.13	112.25
242.363	118.25
242.597	172.25
242.83	145.25
243.064	134.25
243.298	185.25
243.531	171.25
243.765	104.25
243.998	68.25
244.232	93.25
244.465	76.25
244.699	87.25
244.932	80.25
245.166	99.25
245.399	84.25
245.633	80.25
245.866	83.25
246.099	94.25
246.333	81.25
246.566	86.25
246.8	80.25
247.033	84.25
247.266	87.25
247.5	75.25
247.733	96.25
247.966	91.25
248.2	105.25
248.433	117.25
248.666	117.25
248.899	123.25
249.133	101.25
249.366	104.25
249.599	104.25
249.832	127.25
250.066	131.25
250.299	89.25
250.532	88.25
250.765	87.25
250.998	88.25
251.231	78.25
251.465	79.25
251.698	75.25
251.931	88.25
252.164	86.25
252.397	95.25
252.63	107.25
252.863	100.25
253.096	86.25
253.329	80.25
253.562	101.25
253.795	97.25
254.028	96.25
254.261	74.25
254.494	94.25
254.727	122.25
254.96	147.25
255.193	124.25
255.426	87.25
255.659	98.25
255.892	99.25
256.124	79.25
256.357	98.25
256.59	103.25
256.823	100.25
257.056	104.25
257.289	150.25
257.521	172.25
257.754	137.25
257.987	93.25
258.22	79.25
258.452	91.25
258.685	82.25
258.918	86.25
259.151	80.25
259.383	116.25
259.616	147.25
259.849	149.25
260.081	93.25
260.314	95.25
260.547	92.25
260.779	88.25
261.012	89.25
261.244	85.25
261.477	101.25
261.71	84.25
261.942	81.25
262.175	84.25
262.407	84.25
262.64	95.25
262.872	92.25
263.105	73.25
263.337	86.25
263.57	82.25
263.802	90.25
264.035	83.25
264.267	91.25
264.499	90.25
264.732	86.25
264.964	82.25
265.197	94.25
265.429	80.25
265.661	100.25
265.894	97.25
266.126	128.25
266.358	163.25
266.591	146.25
266.823	91.25
267.055	90.25
267.287	104.25
267.52	102.25
267.752	81.25
267.984	89.25
268.216	82.25
268.448	103.25
268.681	73.25
268.913	75.25
269.145	90.25
269.377	95.25
269.609	99.25
269.841	102.25
270.073	102.25
270.306	129.25
270.538	192.25
270.77	326.25
271.002	378.25
271.234	207.25
271.466	116.25
271.698	91.25
271.93	83.25
272.162	85.25
272.394	93.25
272.626	90.25
272.858	81.25
273.09	98.25
273.322	79.25
273.553	93.25
273.785	76.25
274.017	107.25
274.249	93.25
274.481	81.25
274.713	81.25
274.945	96.25
275.176	93.25
275.408	90.25
275.64	79.25
275.872	83.25
276.104	100.25
276.335	97.25
276.567	95.25
276.799	95.25
277.031	76.25
277.262	92.25
277.494	104.25
277.726	129.25
277.957	171.25
278.189	259.25
278.421	245.25
278.652	188.25
278.884	169.25
279.115	147.25
279.347	108.25
279.579	89.25
279.81	102.25
280.042	108.25
280.273	88.25
280.505	97.25
280.736	114.25
280.968	132.25
281.199	167.25
281.431	240.25
281.662	277.25
281.894	162.25
282.125	102.25
282.356	123.25
282.588	99.25
282.819	97.25
283.051	120.25
283.282	141.25
283.513	190.25
283.745	316.25
283.976	551.25
284.207	817.25
284.439	623.25
284.67	283.25
284.901	259.25
285.132	381.25
285.364	387.25
285.595	251.25
285.826	183.25
286.057	258.25
286.288	421.25
286.52	626.25
286.751	499.25
286.982	211.25
287.213	145.25
287.444	117.25
287.675	111.25
287.906	117.25
288.138	101.25
288.369	104.25
288.6	92.25
288.831	97.25
289.062	88.25
289.293	89.25
289.524	91.25
289.755	111.25
289.986	103.25
290.217	103.25
290.448	113.25
290.679	111.25
290.91	146.25
291.141	175.25
291.371	269.25
291.602	298.25
291.833	197.25
292.064	115.25
292.295	97.25
292.526	81.25
292.757	105.25
292.987	96.25
293.218	96.25
293.449	117.25
293.68	95.25
293.91	99.25
294.141	98.25
294.372	100.25
294.603	104.25
294.833	95.25
295.064	96.25
295.295	99.25
295.525	84.25
295.756	97.25
295.987	105.25
296.217	104.25
296.448	95.25
296.679	84.25
296.909	102.25
297.14	90.25
297.37	107.25
297.601	109.25
297.831	106.25
298.062	95.25
298.292	94.25
298.523	98.25
298.753	107.25
298.984	97.25
299.214	101.25
299.445	105.25
299.675	123.25
299.905	119.25
300.136	129.25
300.366	179.25
300.597	262.25
300.827	451.25
301.057	696.25
301.288	642.25
301.518	255.25
301.748	143.25
301.979	157.25
302.209	122.25
302.439	151.25
302.669	168.25
302.9	286.25
303.13	504.25
303.36	868.25
303.59	1251.25
303.82	867.25
304.051	300.25
304.281	162.25
304.511	142.25
304.741	117.25
304.971	114.25
305.201	109.25
305.431	113.25
305.661	111.25
305.891	104.25
306.121	101.25
306.352	107.25
306.582	107.25
306.812	106.25
307.042	127.25
307.272	109.25
307.502	108.25
307.731	119.25
307.961	114.25
308.191	98.25
308.421	114.25
308.651	121.25
308.881	104.25
309.111	111.25
309.341	117.25
309.571	118.25
309.8	111.25
310.03	104.25
310.26	111.25
310.49	114.25
310.72	103.25
310.949	105.25
311.179	114.25
311.409	105.25
311.639	103.25
311.868	106.25
312.098	105.25
312.328	111.25
312.557	118.25
312.787	121.25
313.017	114.25
313.246	114.25
313.476	122.25
313.706	149.25
313.935	157.25
314.165	222.25
314.394	255.25
314.624	194.25
314.853	135.25
315.083	126.25
315.312	128.25
315.542	141.25
315.771	141.25
316.001	167.25
316.23	156.25
316.46	166.25
316.689	198.25
316.919	283.25
317.148	511.25
317.377	955.25
317.607	1494.25
317.836	1423.25
318.065	557.25
318.295	242.25
318.524	163.25
318.753	155.25
318.983	129.25
319.212	118.25
319.441	123.25
319.67	116.25
319.9	124.25
320.129	122.25
320.358	122.25
320.587	124.25
320.816	128.25
321.046	130.25
321.275	140.25
321.504	135.25
321.733	154.25
321.962	181.25
322.191	173.25
322.42	132.25
322.649	144.25
322.878	140.25
323.108	121.25
323.337	129.25
323.566	129.25
323.795	134.25
324.024	133.25
324.253	149.25
324.482	172.25
324.71	234.25
324.939	282.25
325.168	232.25
325.397	197.25
325.626	273.25
325.855	507.25
326.084	997.25
326.313	1660.25
326.542	1629.25
326.77	621.25
326.999	274.25
327.228	207.25
327.457	235.25
327.686	248.25
327.914	169.25
328.143	151.25
328.372	137.25
328.6	121.25
328.829	136.25
329.058	123.25
329.287	114.25
329.515	117.25
329.744	113.25
329.972	109.25
330.201	124.25
330.43	119.25
330.658	120.25
330.887	102.25
331.115	136.25
331.344	113.25
331.572	119.25
331.801	123.25
332.03	127.25
332.258	159.25
332.486	183.25
332.715	297.25
332.943	517.25
333.172	799.25
333.4	695.25
333.629	251.25
333.857	159.25
334.085	138.25
334.314	139.25
334.542	123.25
334.771	119.25
334.999	129.25
335.227	125.25
335.455	132.25
335.684	131.25
335.912	121.25
336.14	113.25
336.369	122.25
336.597	121.25
336.825	118.25
337.053	120.25
337.281	116.25
337.51	104.25
337.738	129.25
337.966	125.25
338.194	113.25
338.422	119.25
338.65	123.25
338.878	134.25
339.106	122.25
339.334	125.25
339.562	128.25
339.79	116.25
340.018	118.25
340.246	121.25
340.474	124.25
340.702	127.25
340.93	115.25
341.158	121.25
341.386	119.25
341.614	128.25
341.842	122.25
342.07	139.25
342.298	125.25
342.526	138.25
342.754	115.25
342.981	122.25
343.209	123.25
343.437	120.25
343.665	114.25
343.893	116.25
344.12	124.25
344.348	113.25
344.576	111.25
344.804	121.25
345.031	121.25
345.259	131.25
345.487	131.25
345.714	111.25
345.942	111.25
346.17	119.25
346.397	105.25
346.625	96.25
346.853	118.25
347.08	111.25
347.308	103.25
347.535	108.25
347.763	115.25
347.99	106.25
348.218	117.25
348.445	125.25
348.673	109.25
348.9	131.25
349.128	127.25
349.355	126.25
349.583	118.25
349.81	115.25
350.037	114.25
350.265	114.25
350.492	123.25
350.72	122.25
350.947	123.25
351.174	118.25
351.402	123.25
351.629	127.25
351.856	123.25
352.083	108.25
352.311	118.25
352.538	123.25
352.765	128.25
352.992	107.25
353.22	120.25
353.447	105.25
353.674	111.25
353.901	106.25
354.128	119.25
354.355	117.25
354.583	123.25
354.81	98.25
355.037	102.25
355.264	116.25
355.491	116.25
355.718	111.25
355.945	107.25
356.172	107.25
356.399	108.25
356.626	129.25
356.853	121.25
357.08	103.25
357.307	104.25
357.534	109.25
357.761	116.25
357.988	117.25
358.215	133.25
358.441	118.25
358.668	105.25
358.895	129.25
359.122	122.25
359.349	122.25
359.576	122.25
359.802	118.25
360.029	124.25
360.256	106.25
360.483	128.25
360.709	111.25
360.936	128.25
361.163	129.25
361.39	117.25
361.616	109.25
361.843	109.25
362.07	114.25
362.296	112.25
362.523	115.25
362.749	121.25
362.976	116.25
363.203	107.25
363.429	123.25
363.656	97.25
363.882	119.25
364.109	139.25
364.335	103.25
364.562	125.25
364.788	97.25
365.015	121.25
365.241	140.25
365.468	204.25
365.694	271.25
365.92	217.25
366.147	144.25
366.373	116.25
366.599	104.25
366.826	101.25
367.052	105.25
367.278	104.25
367.505	111.25
367.731	111.25
367.957	100.25
368.184	129.25
368.41	130.25
368.636	135.25
368.862	116.25
369.089	112.25
369.315	101.25
369.541	106.25
369.767	116.25
369.993	115.25
370.219	115.25
370.445	123.25
370.672	109.25
370.898	123.25
371.124	112.25
371.35	109.25
371.576	120.25
371.802	113.25
372.028	119.25
372.254	126.25
372.48	117.25
372.706	108.25
372.932	125.25
373.158	113.25
373.384	116.25
373.61	119.25
373.835	115.25
374.061	97.25
374.287	111.25
374.513	118.25
374.739	115.25
374.965	113.25
375.191	122.25
375.416	113.25
375.642	103.25
375.868	113.25
376.094	109.25
376.319	116.25
376.545	119.25
376.771	107.25
376.997	105.25
377.222	117.25
377.448	109.25
377.674	111.25
377.899	111.25
378.125	114.25
378.35	123.25
378.576	114.25
378.802	117.25
379.027	136.25
379.253	149.25
379.478	184.25
379.704	318.25
379.929	787.25
380.155	1671.25
380.38	1692.25
380.606	565.25
380.831	197.25
381.057	139.25
381.282	125.25
381.507	115.25
381.733	111.25
381.958	115.25
382.184	104.25
382.409	114.25
382.634	124.25
382.86	117.25
383.085	107.25
383.31	104.25
383.535	106.25
383.761	101.25
383.986	111.25
384.211	125.25
384.436	108.25
384.662	101.25
384.887	81.25
385.112	106.25
385.337	104.25
385.562	112.25
385.787	108.25
386.013	118.25
386.238	98.25
386.463	116.25
386.688	118.25
386.913	106.25
387.138	105.25
387.363	99.25
387.588	84.25
387.813	117.25
388.038	107.25
388.263	119.25
388.488	112.25
388.713	99.25
388.938	105.25
389.163	105.25
389.387	98.25
389.612	107.25
389.837	106.25
390.062	96.25
390.287	103.25
390.512	113.25
390.736	108.25
390.961	99.25
391.186	111.25
391.411	95.25
391.636	109.25
391.86	86.25
392.085	103.25
392.31	115.25
392.534	101.25
392.759	93.25
392.984	124.25
393.208	117.25
393.433	165.25
393.658	149.25
393.882	105.25
394.107	107.25
394.331	102.25
394.556	101.25
394.78	100.25
395.005	96.25
395.229	106.25
395.454	91.25
395.678	98.25
395.903	109.25
396.127	118.25
396.352	111.25
396.576	105.25
396.801	133.25
397.025	124.25
397.249	120.25
397.474	119.25
397.698	113.25
397.922	99.25
398.147	113.25
398.371	102.25
398.595	103.25
398.82	103.25
399.044	100.25
399.268	96.25
399.492	105.25
399.717	99.25
399.941	96.25
400.165	109.25
400.389	98.25
400.613	101.25
400.837	104.25
401.062	117.25
401.286	104.25
401.51	94.25
401.734	99.25
401.958	89.25
402.182	105.25
402.406	99.25
402.63	104.25
402.854	108.25
403.078	106.25
403.302	105.25
403.526	105.25
403.75	109.25
403.974	92.25
404.198	97.25
404.422	98.25
404.645	113.25
404.869	101.25
405.093	96.25
405.317	85.25
405.541	105.25
405.765	138.25
405.988	143.25
406.212	124.25
406.436	97.25
406.66	107.25
406.883	106.25
407.107	95.25
407.331	97.25
407.555	97.25
407.778	110.25
408.002	96.25
408.226	98.25
408.449	104.25
408.673	117.25
408.896	98.25
409.12	101.25
409.344	102.25
409.567	97.25
409.791	102.25
410.014	101.25
410.238	104.25
410.461	124.25
410.685	108.25
410.908	103.25
411.132	88.25
411.355	100.25
411.578	105.25
411.802	104.25
412.025	110.25
412.249	103.25
412.472	105.25
412.695	95.25
412.919	98.25
413.142	83.25
413.365	95.25
413.589	114.25
413.812	97.25
414.035	104.25
414.258	104.25
414.482	104.25
414.705	108.25
414.928	112.25
415.151	104.25
415.374	102.25
415.597	99.25
415.821	94.25
416.044	115.25
416.267	108.25
416.49	111.25
416.713	113.25
416.936	106.25
417.159	111.25
417.382	92.25
417.605	103.25
417.828	106.25
418.051	116.25
418.274	107.25
418.497	113.25
418.72	90.25
418.943	117.25
419.166	116.25
419.389	119.25
419.611	107.25
419.834	109.25
420.057	108.25
420.28	104.25
420.503	106.25
420.726	101.25
420.948	92.25
421.171	101.25
421.394	90.25
421.617	81.25
421.839	92.25
422.062	101.25
422.285	93.25
422.507	102.25
422.73	135.25
422.953	138.25
423.175	98.25
423.398	114.25
423.621	108.25
423.843	97.25
424.066	99.25
424.288	113.25
424.511	111.25
424.733	116.25
424.956	98.25
425.178	94.25
425.401	104.25
425.623	104.25
425.846	95.25
426.068	89.25
426.291	102.25
426.513	108.25
426.735	106.25
426.958	94.25
427.18	83.25
427.402	89.25
427.625	100.25
427.847	92.25
428.069	97.25
428.292	93.25
428.514	112.25
428.736	94.25
428.958	106.25
429.181	106.25
429.403	93.25
429.625	108.25
429.847	94.25
430.069	107.25
430.292	120.25
430.514	95.25
430.736	115.25
430.958	98.25
431.18	97.25
431.402	91.25
431.624	96.25
431.846	100.25
432.068	90.25
432.29	91.25
432.512	100.25
432.734	98.25
432.956	103.25
433.178	113.25
433.4	106.25
433.622	99.25
433.844	96.25
434.066	82.25
434.287	101.25
434.509	94.25
434.731	79.25
434.953	89.25
435.175	81.25
435.397	100.25
435.618	81.25
435.84	87.25
436.062	107.25
436.284	97.25
436.505	93.25
436.727	108.25
436.949	101.25
437.17	108.25
437.392	101.25
437.614	109.25
437.835	85.25
438.057	95.25
438.278	112.25
438.5	105.25
438.721	92.25
438.943	102.25
439.165	117.25
439.386	125.25
439.608	95.25
439.829	113.25
440.05	125.25
440.272	124.25
440.493	107.25
440.715	91.25
440.936	80.25
441.158	94.25
441.379	97.25
441.6	106.25
441.822	97.25
442.043	113.25
442.264	133.25
442.486	108.25
442.707	108.25
442.928	118.25
443.149	95.25
443.371	86.25
443.592	99.25
443.813	106.25
444.034	103.25
444.255	92.25
444.476	100.25
444.698	97.25
444.919	98.25
445.14	179.25
445.361	139.25
445.582	101.25
445.803	99.25
446.024	118.25
446.245	112.25
446.466	122.25
446.687	117.25
446.908	106.25
447.129	112.25
447.35	100.25
447.571	88.25
447.792	105.25
448.013	101.25
448.234	107.25
448.455	104.25
448.675	100.25
448.896	89.25
449.117	107.25
449.338	137.25
449.559	165.25
449.779	129.25
450	103.25
450.221	95.25
450.442	119.25
450.662	125.25
450.883	107.25
451.104	119.25
451.324	128.25
451.545	119.25
451.766	123.25
451.986	139.25
452.207	225.25
452.428	589.25
452.648	1404.25
452.869	801.25
453.089	211.25
453.31	123.25
453.53	125.25
453.751	148.25
453.971	151.25
454.192	148.25
454.412	118.25
454.633	93.25
454.853	87.25
455.073	107.25
455.294	95.25
455.514	86.25
455.734	93.25
455.955	89.25
456.175	88.25
456.395	91.25
456.616	106.25
456.836	111.25
457.056	104.25
457.276	102.25
457.497	118.25
457.717	119.25
457.937	105.25
458.157	93.25
458.377	93.25
458.598	96.25
458.818	112.25
459.038	83.25
459.258	84.25
459.478	99.25
459.698	106.25
459.918	114.25
460.138	85.25
460.358	100.25
460.578	104.25
460.798	83.25
461.018	99.25
461.238	90.25
461.458	88.25
461.678	94.25
461.898	112.25
462.118	103.25
462.338	81.25
462.558	97.25
462.777	98.25
462.997	100.25
463.217	96.25
463.437	143.25
463.657	199.25
463.876	181.25
464.096	121.25
464.316	107.25
464.536	107.25
464.755	100.25
464.975	98.25
465.195	100.25
465.414	95.25
465.634	102.25
465.854	95.25
466.073	108.25
466.293	107.25
466.512	92.25
466.732	93.25
466.951	127.25
467.171	153.25
467.391	154.25
467.61	116.25
467.829	108.25
468.049	102.25
468.268	96.25
468.488	100.25
468.707	84.25
468.927	100.25
469.146	105.25
469.365	73.25
469.585	99.25
469.804	103.25
470.023	103.25
470.243	90.25
470.462	113.25
470.681	117.25
470.901	121.25
471.12	188.25
471.339	201.25
471.558	129.25
471.777	102.25
471.997	107.25
472.216	97.25
472.435	100.25
472.654	112.25
472.873	97.25
473.092	98.25
473.311	94.25
473.53	96.25
473.749	102.25
473.968	100.25
474.187	86.25
474.406	104.25
474.625	98.25
474.844	92.25
475.063	108.25
475.282	104.25
475.501	99.25
475.72	108.25
475.939	99.25
476.158	87.25
476.377	98.25
476.596	112.25
476.814	105.25
477.033	101.25
477.252	104.25
477.471	95.25
477.69	93.25
477.908	92.25
478.127	95.25
478.346	116.25
478.564	103.25
478.783	95.25
479.002	103.25
479.22	116.25
479.439	113.25
479.658	103.25
479.876	96.25
480.095	101.25
480.313	100.25
480.532	99.25
480.751	102.25
480.969	89.25
481.188	94.25
481.406	102.25
481.624	100.25
481.843	106.25
482.061	122.25
482.28	105.25
482.498	117.25
482.717	97.25
482.935	89.25
483.153	100.25
483.372	115.25
483.59	112.25
483.808	113.25
484.027	114.25
484.245	131.25
484.463	195.25
484.681	232.25
484.9	151.25
485.118	115.25
485.336	121.25
485.554	107.25
485.772	131.25
485.99	203.25
486.209	249.25
486.427	178.25
486.645	111.25
486.863	100.25
487.081	104.25
487.299	103.25
487.517	104.25
487.735	101.25
487.953	98.25
488.171	100.25
488.389	99.25
488.607	113.25
488.825	98.25
489.043	114.25
489.261	94.25
489.479	77.25
489.696	98.25
489.914	100.25
490.132	92.25
490.35	99.25
490.568	113.25
490.786	108.25
491.003	106.25
491.221	102.25
491.439	109.25
491.657	117.25
491.874	107.25
492.092	97.25
492.31	108.25
492.527	121.25
492.745	113.25
492.963	118.25
493.18	114.25
493.398	100.25
493.615	111.25
493.833	104.25
494.05	121.25
494.268	118.25
494.485	96.25
494.703	89.25
494.92	99.25
495.138	105.25
495.355	112.25
495.573	105.25
495.79	95.25
496.008	112.25
496.225	97.25
496.442	91.25
496.66	123.25
496.877	151.25
497.094	155.25
497.312	99.25
497.529	105.25
497.746	109.25
497.963	111.25
498.181	107.25
498.398	115.25
498.615	105.25
498.832	115.25
499.049	119.25
499.267	146.25
499.484	160.25
499.701	118.25
499.918	105.25
500.135	112.25
500.352	108.25
500.569	89.25
500.786	107.25
501.003	97.25
501.22	99.25
501.437	110.25
501.654	111.25
501.871	106.25
502.088	108.25
502.305	106.25
502.522	95.25
502.739	101.25
502.956	103.25
503.172	97.25
503.389	109.25
503.606	95.25
503.823	101.25
504.04	102.25
504.256	114.25
504.473	82.25
504.69	105.25
504.907	127.25
505.123	132.25
505.34	111.25
505.557	100.25
505.773	114.25
505.99	108.25
506.207	103.25
506.423	116.25
506.64	98.25
506.856	99.25
