Data from SnStandardFlinnAPT0064_LampEnergy5.5_LIBS07252019.E.O._I.C._HRD10591_15-15-03-491.txt Node
Date: Thu Jul 25 15:15:03 EDT 2019
User: cochatt
Spectrometer: HR+D1059
Trigger mode: 1
Integration Time (sec): 1.000000E-1
Scans to average: 1
Electric dark correction enabled: true
Nonlinearity correction enabled: false
Boxcar width: 0
XAxis mode: Wavelengths
Number of Pixels in Spectrum: 2048
>>>>>Begin Spectral Data<<<<<
223.165	-12.75
223.4	-12.75
223.635	-12.75
223.869	-7.75
224.104	-14.75
224.338	-1.75
224.573	-4.75
224.808	-10.75
225.042	-22.75
225.277	-15.75
225.511	1.25
225.746	6.25
225.98	-3.75
226.215	11.25
226.449	5.25
226.683	16.25
226.918	19.25
227.152	35.25
227.387	29.25
227.621	29.25
227.856	51.25
228.09	49.25
228.324	52.25
228.559	67.25
228.793	81.25
229.027	141.25
229.262	148.25
229.496	131.25
229.73	140.25
229.964	158.25
230.199	144.25
230.433	163.25
230.667	164.25
230.901	167.25
231.136	160.25
231.37	166.25
231.604	181.25
231.838	189.25
232.072	205.25
232.306	209.25
232.541	193.25
232.775	187.25
233.009	196.25
233.243	211.25
233.477	194.25
233.711	209.25
233.945	245.25
234.179	216.25
234.413	210.25
234.647	193.25
234.881	202.25
235.115	222.25
235.349	257.25
235.583	288.25
235.817	391.25
236.051	368.25
236.285	269.25
236.519	219.25
236.753	195.25
236.987	232.25
237.221	229.25
237.455	227.25
237.689	224.25
237.922	186.25
238.156	197.25
238.39	200.25
238.624	228.25
238.858	208.25
239.091	214.25
239.325	209.25
239.559	224.25
239.793	210.25
240.027	213.25
240.26	242.25
240.494	232.25
240.728	243.25
240.961	257.25
241.195	262.25
241.429	264.25
241.662	282.25
241.896	295.25
242.13	340.25
242.363	437.25
242.597	573.25
242.83	531.25
243.064	521.25
243.298	610.25
243.531	498.25
243.765	362.25
243.998	302.25
244.232	291.25
244.465	283.25
244.699	281.25
244.932	263.25
245.166	279.25
245.399	291.25
245.633	291.25
245.866	285.25
246.099	288.25
246.333	285.25
246.566	291.25
246.8	254.25
247.033	278.25
247.266	281.25
247.5	292.25
247.733	289.25
247.966	288.25
248.2	313.25
248.433	325.25
248.666	369.25
248.899	362.25
249.133	335.25
249.366	330.25
249.599	360.25
249.832	378.25
250.066	375.25
250.299	344.25
250.532	332.25
250.765	328.25
250.998	326.25
251.231	302.25
251.465	305.25
251.698	317.25
251.931	295.25
252.164	314.25
252.397	316.25
252.63	311.25
252.863	321.25
253.096	343.25
253.329	345.25
253.562	320.25
253.795	332.25
254.028	311.25
254.261	343.25
254.494	348.25
254.727	391.25
254.96	461.25
255.193	448.25
255.426	387.25
255.659	348.25
255.892	350.25
256.124	350.25
256.357	369.25
256.59	376.25
256.823	393.25
257.056	426.25
257.289	482.25
257.521	498.25
257.754	422.25
257.987	390.25
258.22	378.25
258.452	370.25
258.685	372.25
258.918	367.25
259.151	400.25
259.383	409.25
259.616	457.25
259.849	459.25
260.081	417.25
260.314	390.25
260.547	384.25
260.779	395.25
261.012	385.25
261.244	402.25
261.477	414.25
261.71	409.25
261.942	420.25
262.175	436.25
262.407	441.25
262.64	440.25
262.872	463.25
263.105	485.25
263.337	518.25
263.57	533.25
263.802	551.25
264.035	553.25
264.267	554.25
264.499	573.25
264.732	617.25
264.964	595.25
265.197	595.25
265.429	608.25
265.661	595.25
265.894	652.25
266.126	682.25
266.358	722.25
266.591	710.25
266.823	660.25
267.055	605.25
267.287	572.25
267.52	565.25
267.752	546.25
267.984	524.25
268.216	538.25
268.448	524.25
268.681	509.25
268.913	516.25
269.145	518.25
269.377	520.25
269.609	497.25
269.841	516.25
270.073	534.25
270.306	609.25
270.538	772.25
270.77	1078.25
271.002	1286.25
271.234	928.25
271.466	684.25
271.698	591.25
271.93	550.25
272.162	544.25
272.394	531.25
272.626	516.25
272.858	476.25
273.09	488.25
273.322	502.25
273.553	480.25
273.785	495.25
274.017	489.25
274.249	474.25
274.481	502.25
274.713	487.25
274.945	511.25
275.176	495.25
275.408	514.25
275.64	530.25
275.872	499.25
276.104	478.25
276.335	510.25
276.567	514.25
276.799	522.25
277.031	513.25
277.262	516.25
277.494	552.25
277.726	593.25
277.957	677.25
278.189	708.25
278.421	685.25
278.652	607.25
278.884	601.25
279.115	566.25
279.347	536.25
279.579	542.25
279.81	552.25
280.042	563.25
280.273	568.25
280.505	548.25
280.736	547.25
280.968	626.25
281.199	636.25
281.431	683.25
281.662	710.25
281.894	651.25
282.125	625.25
282.356	630.25
282.588	632.25
282.819	652.25
283.051	692.25
283.282	739.25
283.513	885.25
283.745	1203.25
283.976	1871.25
284.207	2592.25
284.439	2316.25
284.67	1483.25
284.901	1228.25
285.132	1180.25
285.364	1147.25
285.595	912.25
285.826	869.25
286.057	960.25
286.288	1298.25
286.52	1673.25
286.751	1568.25
286.982	1030.25
287.213	823.25
287.444	735.25
287.675	698.25
287.906	675.25
288.138	686.25
288.369	671.25
288.6	667.25
288.831	665.25
289.062	648.25
289.293	669.25
289.524	652.25
289.755	658.25
289.986	686.25
290.217	684.25
290.448	679.25
290.679	672.25
290.91	688.25
291.141	695.25
291.371	731.25
291.602	740.25
291.833	682.25
292.064	649.25
292.295	655.25
292.526	647.25
292.757	642.25
292.987	660.25
293.218	630.25
293.449	622.25
293.68	615.25
293.91	636.25
294.141	615.25
294.372	609.25
294.603	610.25
294.833	632.25
295.064	609.25
295.295	594.25
295.525	612.25
295.756	633.25
295.987	608.25
296.217	638.25
296.448	621.25
296.679	640.25
296.909	640.25
297.14	645.25
297.37	628.25
297.601	652.25
297.831	648.25
298.062	641.25
298.292	658.25
298.523	639.25
298.753	672.25
298.984	657.25
299.214	678.25
299.445	675.25
299.675	672.25
299.905	675.25
300.136	715.25
300.366	779.25
300.597	948.25
300.827	1280.25
301.057	1614.25
301.288	1612.25
301.518	1130.25
301.748	912.25
301.979	848.25
302.209	820.25
302.439	832.25
302.669	850.25
302.9	1029.25
303.13	1350.25
303.36	1906.25
303.59	2487.25
303.82	2142.25
304.051	1368.25
304.281	1016.25
304.511	906.25
304.741	869.25
304.971	822.25
305.201	789.25
305.431	762.25
305.661	756.25
305.891	734.25
306.121	737.25
306.352	751.25
306.582	743.25
306.812	676.25
307.042	700.25
307.272	712.25
307.502	702.25
307.731	707.25
307.961	712.25
308.191	709.25
308.421	700.25
308.651	722.25
308.881	716.25
309.111	724.25
309.341	727.25
309.571	704.25
309.8	736.25
310.03	727.25
310.26	709.25
310.49	728.25
310.72	737.25
310.949	716.25
311.179	730.25
311.409	745.25
311.639	742.25
311.868	766.25
312.098	774.25
312.328	752.25
312.557	790.25
312.787	787.25
313.017	781.25
313.246	761.25
313.476	776.25
313.706	766.25
313.935	828.25
314.165	856.25
314.394	877.25
314.624	874.25
314.853	832.25
315.083	828.25
315.312	868.25
315.542	834.25
315.771	856.25
316.001	843.25
316.23	873.25
316.46	873.25
316.689	959.25
316.919	1153.25
317.148	1548.25
317.377	2263.25
317.607	3253.25
317.836	3291.25
318.065	2072.25
318.295	1382.25
318.524	1190.25
318.753	1057.25
318.983	1009.25
319.212	951.25
319.441	950.25
319.67	914.25
319.9	938.25
320.129	895.25
320.358	881.25
320.587	898.25
320.816	919.25
321.046	925.25
321.275	915.25
321.504	942.25
321.733	919.25
321.962	910.25
322.191	958.25
322.42	961.25
322.649	945.25
322.878	959.25
323.108	944.25
323.337	983.25
323.566	954.25
323.795	969.25
324.024	995.25
324.253	1031.25
324.482	1032.25
324.71	1098.25
324.939	1132.25
325.168	1191.25
325.397	1208.25
325.626	1384.25
325.855	1872.25
326.084	2750.25
326.313	4014.25
326.542	4244.25
326.77	2810.25
326.999	1961.25
327.228	1704.25
327.457	1627.25
327.686	1633.25
327.914	1759.25
328.143	1943.25
328.372	2238.25
328.6	2421.25
328.829	2312.25
329.058	2018.25
329.287	1810.25
329.515	1698.25
329.744	1586.25
329.972	1493.25
330.201	1398.25
330.43	1392.25
330.658	1364.25
330.887	1356.25
331.115	1321.25
331.344	1288.25
331.572	1305.25
331.801	1316.25
332.03	1282.25
332.258	1313.25
332.486	1381.25
332.715	1495.25
332.943	1782.25
333.172	2098.25
333.4	2107.25
333.629	1715.25
333.857	1627.25
334.085	1618.25
334.314	1695.25
334.542	1854.25
334.771	2065.25
334.999	2435.25
335.227	2911.25
335.455	3257.25
335.684	3050.25
335.912	2654.25
336.14	2297.25
336.369	2087.25
336.597	1950.25
336.825	1790.25
337.053	1654.25
337.281	1593.25
337.51	1467.25
337.738	1443.25
337.966	1417.25
338.194	1368.25
338.422	1314.25
338.65	1303.25
338.878	1262.25
339.106	1239.25
339.334	1219.25
339.562	1198.25
339.79	1193.25
340.018	1161.25
340.246	1124.25
340.474	1148.25
340.702	1170.25
340.93	1152.25
341.158	1151.25
341.386	1130.25
341.614	1140.25
341.842	1129.25
342.07	1113.25
342.298	1121.25
342.526	1103.25
342.754	1081.25
342.981	1079.25
343.209	1083.25
343.437	1088.25
343.665	1090.25
343.893	1109.25
344.12	1112.25
344.348	1063.25
344.576	1084.25
344.804	1061.25
345.031	1042.25
345.259	1028.25
345.487	1013.25
345.714	991.25
345.942	991.25
346.17	995.25
346.397	991.25
346.625	981.25
346.853	994.25
347.08	966.25
347.308	983.25
347.535	979.25
347.763	974.25
347.99	982.25
348.218	971.25
348.445	977.25
348.673	943.25
348.9	972.25
349.128	983.25
349.355	994.25
349.583	959.25
349.81	960.25
350.037	955.25
350.265	972.25
350.492	966.25
350.72	933.25
350.947	968.25
351.174	965.25
351.402	955.25
351.629	964.25
351.856	956.25
352.083	960.25
352.311	958.25
352.538	943.25
352.765	956.25
352.992	968.25
353.22	944.25
353.447	908.25
353.674	959.25
353.901	945.25
354.128	960.25
354.355	950.25
354.583	976.25
354.81	936.25
355.037	982.25
355.264	958.25
355.491	986.25
355.718	967.25
355.945	974.25
356.172	966.25
356.399	964.25
356.626	976.25
356.853	998.25
357.08	996.25
357.307	993.25
357.534	989.25
357.761	1027.25
357.988	1006.25
358.215	1014.25
358.441	990.25
358.668	1013.25
358.895	1008.25
359.122	975.25
359.349	1003.25
359.576	998.25
359.802	1019.25
360.029	987.25
360.256	978.25
360.483	989.25
360.709	1002.25
360.936	994.25
361.163	999.25
361.39	968.25
361.616	994.25
361.843	1024.25
362.07	1010.25
362.296	995.25
362.523	985.25
362.749	1024.25
362.976	998.25
363.203	999.25
363.429	973.25
363.656	1031.25
363.882	1020.25
364.109	997.25
364.335	984.25
364.562	1032.25
364.788	1003.25
365.015	1022.25
365.241	1037.25
365.468	1041.25
365.694	1098.25
365.92	1078.25
366.147	1032.25
366.373	1030.25
366.599	1035.25
366.826	1029.25
367.052	993.25
367.278	1058.25
367.505	1062.25
367.731	1022.25
367.957	1023.25
368.184	1016.25
368.41	1046.25
368.636	1052.25
368.862	1052.25
369.089	1047.25
369.315	1024.25
369.541	1048.25
369.767	1032.25
369.993	1049.25
370.219	1050.25
370.445	1054.25
370.672	1060.25
370.898	1053.25
371.124	1087.25
371.35	1068.25
371.576	1060.25
371.802	1104.25
372.028	1094.25
372.254	1103.25
372.48	1106.25
372.706	1094.25
372.932	1122.25
373.158	1094.25
373.384	1095.25
373.61	1106.25
373.835	1094.25
374.061	1113.25
374.287	1136.25
374.513	1114.25
374.739	1130.25
374.965	1130.25
375.191	1162.25
375.416	1119.25
375.642	1121.25
375.868	1131.25
376.094	1105.25
376.319	1111.25
376.545	1112.25
376.771	1115.25
376.997	1076.25
377.222	1076.25
377.448	1095.25
377.674	1085.25
377.899	1067.25
378.125	1060.25
378.35	1059.25
378.576	1096.25
378.802	1107.25
379.027	1129.25
379.253	1123.25
379.478	1134.25
379.704	1294.25
379.929	1717.25
380.155	2462.25
380.38	2627.25
380.606	1729.25
380.831	1308.25
381.057	1232.25
381.282	1141.25
381.507	1103.25
381.733	1110.25
381.958	1084.25
382.184	1083.25
382.409	1097.25
382.634	1107.25
382.86	1040.25
383.085	1052.25
383.31	1051.25
383.535	1085.25
383.761	1102.25
383.986	1091.25
384.211	1081.25
384.436	1095.25
384.662	1121.25
384.887	1125.25
385.112	1095.25
385.337	1105.25
385.562	1127.25
385.787	1078.25
386.013	1107.25
386.238	1098.25
386.463	1111.25
386.688	1131.25
386.913	1103.25
387.138	1106.25
387.363	1105.25
387.588	1105.25
387.813	1098.25
388.038	1124.25
388.263	1088.25
388.488	1103.25
388.713	1106.25
388.938	1103.25
389.163	1082.25
389.387	1103.25
389.612	1121.25
389.837	1140.25
390.062	1140.25
390.287	1113.25
390.512	1127.25
390.736	1163.25
390.961	1156.25
391.186	1148.25
391.411	1174.25
391.636	1150.25
391.86	1158.25
392.085	1134.25
392.31	1143.25
392.534	1149.25
392.759	1164.25
392.984	1136.25
393.208	1116.25
393.433	1130.25
393.658	1124.25
393.882	1136.25
394.107	1122.25
394.331	1129.25
394.556	1155.25
394.78	1103.25
395.005	1148.25
395.229	1111.25
395.454	1143.25
395.678	1161.25
395.903	1168.25
396.127	1144.25
396.352	1136.25
396.576	1128.25
396.801	1130.25
397.025	1155.25
397.249	1175.25
397.474	1183.25
397.698	1178.25
397.922	1195.25
398.147	1162.25
398.371	1182.25
398.595	1228.25
398.82	1233.25
399.044	1255.25
399.268	1322.25
399.492	1422.25
399.717	1481.25
399.941	1484.25
400.165	1425.25
400.389	1351.25
400.613	1301.25
400.837	1257.25
401.062	1265.25
401.286	1231.25
401.51	1236.25
401.734	1216.25
401.958	1247.25
402.182	1243.25
402.406	1222.25
402.63	1251.25
402.854	1262.25
403.078	1259.25
403.302	1306.25
403.526	1274.25
403.75	1257.25
403.974	1263.25
404.198	1279.25
404.422	1263.25
404.645	1305.25
404.869	1311.25
405.093	1254.25
405.317	1266.25
405.541	1275.25
405.765	1304.25
405.988	1311.25
406.212	1303.25
406.436	1303.25
406.66	1308.25
406.883	1330.25
407.107	1353.25
407.331	1321.25
407.555	1391.25
407.778	1396.25
408.002	1369.25
408.226	1354.25
408.449	1338.25
408.673	1315.25
408.896	1301.25
409.12	1306.25
409.344	1279.25
409.567	1259.25
409.791	1264.25
410.014	1266.25
410.238	1238.25
410.461	1246.25
410.685	1254.25
410.908	1251.25
411.132	1235.25
411.355	1234.25
411.578	1247.25
411.802	1234.25
412.025	1248.25
412.249	1234.25
412.472	1252.25
412.695	1240.25
412.919	1193.25
413.142	1185.25
413.365	1205.25
413.589	1272.25
413.812	1195.25
414.035	1214.25
414.258	1227.25
414.482	1212.25
414.705	1218.25
414.928	1216.25
415.151	1201.25
415.374	1191.25
415.597	1181.25
415.821	1150.25
416.044	1156.25
416.267	1194.25
416.49	1152.25
416.713	1145.25
416.936	1176.25
417.159	1168.25
417.382	1149.25
417.605	1168.25
417.828	1174.25
418.051	1195.25
418.274	1196.25
418.497	1143.25
418.72	1175.25
418.943	1173.25
419.166	1210.25
419.389	1298.25
419.611	1268.25
419.834	1226.25
420.057	1211.25
420.28	1193.25
420.503	1148.25
420.726	1161.25
420.948	1176.25
421.171	1153.25
421.394	1175.25
421.617	1186.25
421.839	1198.25
422.062	1181.25
422.285	1144.25
422.507	1167.25
422.73	1198.25
422.953	1177.25
423.175	1233.25
423.398	1186.25
423.621	1154.25
423.843	1200.25
424.066	1180.25
424.288	1139.25
424.511	1170.25
424.733	1196.25
424.956	1164.25
425.178	1160.25
425.401	1171.25
425.623	1150.25
425.846	1138.25
426.068	1145.25
426.291	1127.25
426.513	1114.25
426.735	1137.25
426.958	1124.25
427.18	1074.25
427.402	1133.25
427.625	1074.25
427.847	1110.25
428.069	1076.25
428.292	1113.25
428.514	1093.25
428.736	1109.25
428.958	1094.25
429.181	1050.25
429.403	1080.25
429.625	1045.25
429.847	1073.25
430.069	1087.25
430.292	1114.25
430.514	1159.25
430.736	1118.25
430.958	1092.25
431.18	1071.25
431.402	1066.25
431.624	1064.25
431.846	1079.25
432.068	1046.25
432.29	1042.25
432.512	1055.25
432.734	1079.25
432.956	1079.25
433.178	1099.25
433.4	1072.25
433.622	1088.25
433.844	1099.25
434.066	1103.25
434.287	1078.25
434.509	1114.25
434.731	1095.25
434.953	1114.25
435.175	1112.25
435.397	1135.25
435.618	1062.25
435.84	1097.25
436.062	1053.25
436.284	1082.25
436.505	1054.25
436.727	1050.25
436.949	1091.25
437.17	1087.25
437.392	1059.25
437.614	1044.25
437.835	1023.25
438.057	1010.25
438.278	1008.25
438.5	1018.25
438.721	1029.25
438.943	1088.25
439.165	1098.25
439.386	1126.25
439.608	1096.25
439.829	1116.25
440.05	1160.25
440.272	1138.25
440.493	1098.25
440.715	1094.25
440.936	1117.25
441.158	1120.25
441.379	1147.25
441.6	1174.25
441.822	1184.25
442.043	1198.25
442.264	1251.25
442.486	1183.25
442.707	1163.25
442.928	1125.25
443.149	1150.25
443.371	1141.25
443.592	1166.25
443.813	1175.25
444.034	1156.25
444.255	1187.25
444.476	1163.25
444.698	1228.25
444.919	1288.25
445.14	1311.25
445.361	1231.25
445.582	1205.25
445.803	1171.25
446.024	1143.25
446.245	1153.25
446.466	1134.25
446.687	1154.25
446.908	1146.25
447.129	1098.25
447.35	1117.25
447.571	1079.25
447.792	1079.25
448.013	1057.25
448.234	1076.25
448.455	1077.25
448.675	1075.25
448.896	1111.25
449.117	1146.25
449.338	1178.25
449.559	1189.25
449.779	1121.25
450	1060.25
450.221	1027.25
450.442	1051.25
450.662	1022.25
450.883	1031.25
451.104	1047.25
451.324	1023.25
451.545	1016.25
451.766	1048.25
451.986	1035.25
452.207	1063.25
452.428	1278.25
452.648	1672.25
452.869	1436.25
453.089	1155.25
453.31	1131.25
453.53	1139.25
453.751	1142.25
453.971	1176.25
454.192	1176.25
454.412	1065.25
454.633	1038.25
454.853	991.25
455.073	984.25
455.294	983.25
455.514	964.25
455.734	980.25
455.955	964.25
456.175	968.25
456.395	990.25
456.616	989.25
456.836	1011.25
457.056	989.25
457.276	1001.25
457.497	1029.25
457.717	1047.25
457.937	1024.25
458.157	1034.25
458.377	1033.25
458.598	1051.25
458.818	1060.25
459.038	1063.25
459.258	1076.25
459.478	1084.25
459.698	1056.25
459.918	1090.25
460.138	1138.25
460.358	1152.25
460.578	1152.25
460.798	1160.25
461.018	1175.25
461.238	1159.25
461.458	1165.25
461.678	1170.25
461.898	1220.25
462.118	1208.25
462.338	1235.25
462.558	1267.25
462.777	1283.25
462.997	1307.25
463.217	1354.25
463.437	1374.25
463.657	1356.25
463.876	1342.25
464.096	1326.25
464.316	1252.25
464.536	1262.25
464.755	1205.25
464.975	1193.25
465.195	1187.25
465.414	1157.25
465.634	1114.25
465.854	1097.25
466.073	1113.25
466.293	1093.25
466.512	1107.25
466.732	1120.25
466.951	1166.25
467.171	1167.25
467.391	1141.25
467.61	1058.25
467.829	1056.25
468.049	1066.25
468.268	1051.25
468.488	1037.25
468.707	1040.25
468.927	1064.25
469.146	1077.25
469.365	1063.25
469.585	1060.25
469.804	1082.25
470.023	1117.25
470.243	1105.25
470.462	1163.25
470.681	1188.25
470.901	1257.25
471.12	1391.25
471.339	1420.25
471.558	1238.25
471.777	1168.25
471.997	1139.25
472.216	1066.25
472.435	1090.25
472.654	1034.25
472.873	1049.25
473.092	1067.25
473.311	1086.25
473.53	1055.25
473.749	1098.25
473.968	1099.25
474.187	1092.25
474.406	1047.25
474.625	1036.25
474.844	1066.25
475.063	1092.25
475.282	1081.25
475.501	1067.25
475.72	1091.25
475.939	1064.25
476.158	1068.25
476.377	1114.25
476.596	1094.25
476.814	1087.25
477.033	1079.25
477.252	1114.25
477.471	1115.25
477.69	1166.25
477.908	1179.25
478.127	1188.25
478.346	1188.25
478.564	1239.25
478.783	1239.25
479.002	1245.25
479.22	1273.25
479.439	1262.25
479.658	1239.25
479.876	1236.25
480.095	1279.25
480.313	1319.25
480.532	1299.25
480.751	1291.25
480.969	1261.25
481.188	1218.25
481.406	1224.25
481.624	1244.25
481.843	1249.25
482.061	1235.25
482.28	1244.25
482.498	1243.25
482.717	1200.25
482.935	1258.25
483.153	1311.25
483.372	1299.25
483.59	1320.25
483.808	1352.25
484.027	1367.25
484.245	1398.25
484.463	1520.25
484.681	1648.25
484.9	1541.25
485.118	1474.25
485.336	1415.25
485.554	1436.25
485.772	1537.25
485.99	1666.25
486.209	1824.25
486.427	1541.25
486.645	1435.25
486.863	1411.25
487.081	1396.25
487.299	1379.25
487.517	1332.25
487.735	1374.25
487.953	1394.25
488.171	1420.25
488.389	1339.25
488.607	1329.25
488.825	1312.25
489.043	1319.25
489.261	1295.25
489.479	1330.25
489.696	1285.25
489.914	1330.25
490.132	1350.25
490.35	1306.25
490.568	1303.25
490.786	1368.25
491.003	1386.25
491.221	1406.25
491.439	1387.25
491.657	1394.25
491.874	1430.25
492.092	1432.25
