Data from SnStandardFlinnAPT0064_QswitchEnergy10_LIBS07252019.E.O._I.C._HRD10591_15-26-15-973.txt Node
Date: Thu Jul 25 15:26:15 EDT 2019
User: cochatt
Spectrometer: HR+D1059
Trigger mode: 1
Integration Time (sec): 1.000000E-1
Scans to average: 1
Electric dark correction enabled: true
Nonlinearity correction enabled: false
Boxcar width: 0
XAxis mode: Wavelengths
Number of Pixels in Spectrum: 2048
>>>>>Begin Spectral Data<<<<<
223.165	-13.38
223.4	-13.38
223.635	-13.38
223.869	-8.38
224.104	-22.38
224.338	-16.38
224.573	-13.38
224.808	-22.38
225.042	3.62
225.277	-7.38
225.511	-0.38
225.746	-6.38
225.98	4.62
226.215	18.62
226.449	10.62
226.683	21.62
226.918	16.62
227.152	34.62
227.387	35.62
227.621	37.62
227.856	39.62
228.09	28.62
228.324	41.62
228.559	51.62
228.793	61.62
229.027	63.62
229.262	78.62
229.496	65.62
229.73	82.62
229.964	88.62
230.199	71.62
230.433	69.62
230.667	72.62
230.901	75.62
231.136	73.62
231.37	83.62
231.604	98.62
231.838	92.62
232.072	114.62
232.306	126.62
232.541	96.62
232.775	90.62
233.009	95.62
233.243	96.62
233.477	82.62
233.711	93.62
233.945	104.62
234.179	101.62
234.413	81.62
234.647	83.62
234.881	93.62
235.115	84.62
235.349	78.62
235.583	95.62
235.817	137.62
236.051	119.62
236.285	104.62
236.519	96.62
236.753	81.62
236.987	87.62
237.221	95.62
237.455	82.62
237.689	75.62
237.922	82.62
238.156	82.62
238.39	75.62
238.624	72.62
238.858	73.62
239.091	82.62
239.325	87.62
239.559	83.62
239.793	83.62
240.027	59.62
240.26	71.62
240.494	84.62
240.728	66.62
240.961	95.62
241.195	90.62
241.429	95.62
241.662	77.62
241.896	89.62
242.13	102.62
242.363	133.62
242.597	161.62
242.83	137.62
243.064	135.62
243.298	161.62
243.531	138.62
243.765	98.62
243.998	87.62
244.232	82.62
244.465	67.62
244.699	103.62
244.932	87.62
245.166	86.62
245.399	80.62
245.633	88.62
245.866	86.62
246.099	86.62
246.333	80.62
246.566	65.62
246.8	74.62
247.033	73.62
247.266	77.62
247.5	92.62
247.733	85.62
247.966	87.62
248.2	91.62
248.433	90.62
248.666	115.62
248.899	123.62
249.133	106.62
249.366	96.62
249.599	98.62
249.832	125.62
250.066	126.62
250.299	96.62
250.532	67.62
250.765	82.62
250.998	76.62
251.231	78.62
251.465	74.62
251.698	82.62
251.931	89.62
252.164	95.62
252.397	90.62
252.63	103.62
252.863	93.62
253.096	103.62
253.329	94.62
253.562	82.62
253.795	94.62
254.028	107.62
254.261	89.62
254.494	106.62
254.727	122.62
254.96	142.62
255.193	140.62
255.426	110.62
255.659	81.62
255.892	95.62
256.124	99.62
256.357	104.62
256.59	95.62
256.823	101.62
257.056	114.62
257.289	126.62
257.521	174.62
257.754	125.62
257.987	85.62
258.22	83.62
258.452	98.62
258.685	85.62
258.918	88.62
259.151	106.62
259.383	118.62
259.616	119.62
259.849	143.62
260.081	101.62
260.314	90.62
260.547	83.62
260.779	76.62
261.012	91.62
261.244	92.62
261.477	84.62
261.71	82.62
261.942	85.62
262.175	89.62
262.407	85.62
262.64	72.62
262.872	89.62
263.105	91.62
263.337	81.62
263.57	78.62
263.802	97.62
264.035	89.62
264.267	92.62
264.499	75.62
264.732	90.62
264.964	83.62
265.197	89.62
265.429	92.62
265.661	82.62
265.894	102.62
266.126	115.62
266.358	154.62
266.591	154.62
266.823	107.62
267.055	88.62
267.287	79.62
267.52	95.62
267.752	72.62
267.984	79.62
268.216	96.62
268.448	82.62
268.681	107.62
268.913	92.62
269.145	79.62
269.377	96.62
269.609	90.62
269.841	100.62
270.073	91.62
270.306	116.62
270.538	186.62
270.77	292.62
271.002	368.62
271.234	184.62
271.466	110.62
271.698	102.62
271.93	81.62
272.162	93.62
272.394	92.62
272.626	98.62
272.858	87.62
273.09	92.62
273.322	88.62
273.553	93.62
273.785	67.62
274.017	82.62
274.249	82.62
274.481	105.62
274.713	87.62
274.945	88.62
275.176	92.62
275.408	85.62
275.64	95.62
275.872	92.62
276.104	87.62
276.335	104.62
276.567	106.62
276.799	83.62
277.031	93.62
277.262	89.62
277.494	93.62
277.726	115.62
277.957	178.62
278.189	251.62
278.421	238.62
278.652	182.62
278.884	191.62
279.115	138.62
279.347	114.62
279.579	110.62
279.81	94.62
280.042	86.62
280.273	93.62
280.505	104.62
280.736	117.62
280.968	110.62
281.199	163.62
281.431	230.62
281.662	246.62
281.894	140.62
282.125	116.62
282.356	106.62
282.588	114.62
282.819	105.62
283.051	99.62
283.282	134.62
283.513	178.62
283.745	300.62
283.976	515.62
284.207	772.62
284.439	579.62
284.67	260.62
284.901	250.62
285.132	321.62
285.364	357.62
285.595	222.62
285.826	154.62
286.057	219.62
286.288	397.62
286.52	583.62
286.751	466.62
286.982	200.62
287.213	126.62
287.444	110.62
287.675	94.62
287.906	113.62
288.138	97.62
288.369	90.62
288.6	105.62
288.831	104.62
289.062	95.62
289.293	100.62
289.524	81.62
289.755	99.62
289.986	85.62
290.217	92.62
290.448	90.62
290.679	104.62
290.91	117.62
291.141	166.62
291.371	223.62
291.602	285.62
291.833	202.62
292.064	122.62
292.295	114.62
292.526	94.62
292.757	102.62
292.987	90.62
293.218	104.62
293.449	97.62
293.68	99.62
293.91	92.62
294.141	71.62
294.372	94.62
294.603	90.62
294.833	92.62
295.064	98.62
295.295	86.62
295.525	89.62
295.756	98.62
295.987	84.62
296.217	86.62
296.448	105.62
296.679	90.62
296.909	101.62
297.14	92.62
297.37	100.62
297.601	108.62
297.831	107.62
298.062	103.62
298.292	90.62
298.523	87.62
298.753	85.62
298.984	97.62
299.214	96.62
299.445	94.62
299.675	102.62
299.905	126.62
300.136	130.62
300.366	165.62
300.597	269.62
300.827	436.62
301.057	626.62
301.288	592.62
301.518	256.62
301.748	140.62
301.979	124.62
302.209	126.62
302.439	144.62
302.669	155.62
302.9	244.62
303.13	482.62
303.36	850.62
303.59	1180.62
303.82	805.62
304.051	290.62
304.281	148.62
304.511	126.62
304.741	122.62
304.971	104.62
305.201	103.62
305.431	92.62
305.661	101.62
305.891	77.62
306.121	110.62
306.352	111.62
306.582	105.62
306.812	95.62
307.042	103.62
307.272	101.62
307.502	107.62
307.731	107.62
307.961	108.62
308.191	102.62
308.421	114.62
308.651	95.62
308.881	96.62
309.111	81.62
309.341	93.62
309.571	109.62
309.8	108.62
310.03	88.62
310.26	107.62
310.49	114.62
310.72	101.62
310.949	103.62
311.179	98.62
311.409	113.62
311.639	107.62
311.868	112.62
312.098	115.62
312.328	102.62
312.557	118.62
312.787	118.62
313.017	106.62
313.246	115.62
313.476	121.62
313.706	118.62
313.935	150.62
314.165	174.62
314.394	236.62
314.624	172.62
314.853	134.62
315.083	132.62
315.312	116.62
315.542	121.62
315.771	110.62
316.001	123.62
316.23	146.62
316.46	150.62
316.689	165.62
316.919	237.62
317.148	451.62
317.377	852.62
317.607	1390.62
317.836	1338.62
318.065	514.62
318.295	212.62
318.524	160.62
318.753	124.62
318.983	114.62
319.212	119.62
319.441	125.62
319.67	109.62
319.9	122.62
320.129	114.62
320.358	114.62
320.587	117.62
320.816	112.62
321.046	115.62
321.275	113.62
321.504	128.62
321.733	144.62
321.962	163.62
322.191	158.62
322.42	118.62
322.649	104.62
322.878	130.62
323.108	121.62
323.337	105.62
323.566	122.62
323.795	120.62
324.024	132.62
324.253	147.62
324.482	152.62
324.71	219.62
324.939	272.62
325.168	229.62
325.397	184.62
325.626	228.62
325.855	457.62
326.084	894.62
326.313	1476.62
326.542	1498.62
326.77	575.62
326.999	260.62
327.228	206.62
327.457	226.62
327.686	211.62
327.914	156.62
328.143	129.62
328.372	123.62
328.6	105.62
328.829	118.62
329.058	101.62
329.287	106.62
329.515	129.62
329.744	104.62
329.972	105.62
330.201	118.62
330.43	118.62
330.658	117.62
330.887	104.62
331.115	98.62
331.344	101.62
331.572	131.62
331.801	117.62
332.03	112.62
332.258	135.62
332.486	166.62
332.715	275.62
332.943	459.62
333.172	690.62
333.4	623.62
333.629	230.62
333.857	144.62
334.085	122.62
334.314	112.62
334.542	110.62
334.771	114.62
334.999	111.62
335.227	119.62
335.455	118.62
335.684	119.62
335.912	118.62
336.14	89.62
336.369	123.62
336.597	102.62
336.825	110.62
337.053	112.62
337.281	104.62
337.51	109.62
337.738	94.62
337.966	106.62
338.194	107.62
338.422	104.62
338.65	103.62
338.878	121.62
339.106	124.62
339.334	113.62
339.562	119.62
339.79	103.62
340.018	119.62
340.246	107.62
340.474	112.62
340.702	112.62
340.93	114.62
341.158	97.62
341.386	109.62
341.614	116.62
341.842	113.62
342.07	115.62
342.298	107.62
342.526	117.62
342.754	117.62
342.981	104.62
343.209	91.62
343.437	98.62
343.665	112.62
343.893	94.62
344.12	94.62
344.348	119.62
344.576	116.62
344.804	107.62
345.031	98.62
345.259	103.62
345.487	102.62
345.714	98.62
345.942	92.62
346.17	118.62
346.397	94.62
346.625	94.62
346.853	97.62
347.08	102.62
347.308	112.62
347.535	103.62
347.763	96.62
347.99	111.62
348.218	98.62
348.445	96.62
348.673	121.62
348.9	105.62
349.128	126.62
349.355	119.62
349.583	123.62
349.81	116.62
350.037	113.62
350.265	97.62
350.492	114.62
350.72	110.62
350.947	117.62
351.174	111.62
351.402	115.62
351.629	100.62
351.856	90.62
352.083	106.62
352.311	113.62
352.538	103.62
352.765	111.62
352.992	100.62
353.22	105.62
353.447	85.62
353.674	113.62
353.901	99.62
354.128	94.62
354.355	95.62
354.583	118.62
354.81	118.62
355.037	103.62
355.264	97.62
355.491	97.62
355.718	101.62
355.945	97.62
356.172	106.62
356.399	102.62
356.626	99.62
356.853	105.62
357.08	103.62
357.307	91.62
357.534	121.62
357.761	111.62
357.988	116.62
358.215	111.62
358.441	88.62
358.668	112.62
358.895	118.62
359.122	108.62
359.349	106.62
359.576	111.62
359.802	112.62
360.029	93.62
360.256	107.62
360.483	122.62
360.709	107.62
360.936	110.62
361.163	110.62
361.39	115.62
361.616	115.62
361.843	112.62
362.07	111.62
362.296	118.62
362.523	108.62
362.749	104.62
362.976	88.62
363.203	106.62
363.429	108.62
363.656	103.62
363.882	116.62
364.109	112.62
364.335	124.62
364.562	112.62
364.788	99.62
365.015	103.62
365.241	127.62
365.468	200.62
365.694	244.62
365.92	194.62
366.147	95.62
366.373	99.62
366.599	107.62
366.826	80.62
367.052	96.62
367.278	112.62
367.505	107.62
367.731	100.62
367.957	103.62
368.184	105.62
368.41	105.62
368.636	118.62
368.862	107.62
369.089	108.62
369.315	110.62
369.541	104.62
369.767	101.62
369.993	95.62
370.219	106.62
370.445	118.62
370.672	112.62
370.898	106.62
371.124	110.62
371.35	101.62
371.576	98.62
371.802	111.62
372.028	118.62
372.254	98.62
372.48	114.62
372.706	107.62
372.932	112.62
373.158	107.62
373.384	119.62
373.61	113.62
373.835	107.62
374.061	114.62
374.287	115.62
374.513	96.62
374.739	107.62
374.965	107.62
375.191	122.62
375.416	112.62
375.642	118.62
375.868	99.62
376.094	112.62
376.319	116.62
376.545	96.62
376.771	92.62
376.997	97.62
377.222	102.62
377.448	115.62
377.674	90.62
377.899	106.62
378.125	116.62
378.35	110.62
378.576	108.62
378.802	110.62
379.027	120.62
379.253	138.62
379.478	184.62
379.704	297.62
379.929	704.62
380.155	1481.62
380.38	1553.62
380.606	499.62
380.831	184.62
381.057	136.62
381.282	100.62
381.507	98.62
381.733	105.62
381.958	108.62
382.184	105.62
382.409	110.62
382.634	115.62
382.86	97.62
383.085	111.62
383.31	103.62
383.535	111.62
383.761	115.62
383.986	105.62
384.211	114.62
384.436	107.62
384.662	107.62
384.887	88.62
385.112	108.62
385.337	103.62
385.562	93.62
385.787	101.62
386.013	112.62
386.238	99.62
386.463	98.62
386.688	110.62
386.913	108.62
387.138	112.62
387.363	121.62
387.588	110.62
387.813	92.62
388.038	104.62
388.263	91.62
388.488	111.62
388.713	87.62
388.938	112.62
389.163	105.62
389.387	81.62
389.612	103.62
389.837	115.62
390.062	90.62
390.287	98.62
390.512	98.62
390.736	102.62
390.961	113.62
391.186	92.62
391.411	77.62
391.636	97.62
391.86	111.62
392.085	88.62
392.31	86.62
392.534	94.62
392.759	100.62
392.984	87.62
393.208	114.62
393.433	132.62
393.658	137.62
393.882	110.62
394.107	102.62
394.331	97.62
394.556	108.62
394.78	117.62
395.005	95.62
395.229	89.62
395.454	96.62
395.678	83.62
395.903	93.62
396.127	98.62
396.352	92.62
396.576	108.62
396.801	118.62
397.025	121.62
397.249	108.62
397.474	103.62
397.698	100.62
397.922	105.62
398.147	99.62
398.371	92.62
398.595	101.62
398.82	99.62
399.044	110.62
399.268	99.62
399.492	90.62
399.717	94.62
399.941	97.62
400.165	100.62
400.389	100.62
400.613	95.62
400.837	107.62
401.062	98.62
401.286	108.62
401.51	101.62
401.734	94.62
401.958	98.62
402.182	97.62
402.406	96.62
402.63	104.62
402.854	99.62
403.078	107.62
403.302	93.62
403.526	100.62
403.75	87.62
403.974	98.62
404.198	96.62
404.422	102.62
404.645	105.62
404.869	101.62
405.093	70.62
405.317	90.62
405.541	99.62
405.765	126.62
405.988	131.62
406.212	117.62
406.436	115.62
406.66	95.62
406.883	97.62
407.107	90.62
407.331	95.62
407.555	92.62
407.778	98.62
408.002	97.62
408.226	102.62
408.449	88.62
408.673	97.62
408.896	118.62
409.12	99.62
409.344	112.62
409.567	86.62
409.791	97.62
410.014	100.62
410.238	107.62
410.461	100.62
410.685	101.62
410.908	88.62
411.132	97.62
411.355	111.62
411.578	83.62
411.802	97.62
412.025	94.62
412.249	103.62
412.472	99.62
412.695	92.62
412.919	94.62
413.142	97.62
413.365	85.62
413.589	103.62
413.812	93.62
414.035	113.62
414.258	94.62
414.482	116.62
414.705	102.62
414.928	102.62
415.151	102.62
415.374	107.62
415.597	91.62
415.821	99.62
416.044	96.62
416.267	85.62
416.49	91.62
416.713	97.62
416.936	83.62
417.159	106.62
417.382	105.62
417.605	94.62
417.828	102.62
418.051	91.62
418.274	99.62
418.497	90.62
418.72	97.62
418.943	101.62
419.166	94.62
419.389	101.62
419.611	91.62
419.834	107.62
420.057	94.62
420.28	94.62
420.503	104.62
420.726	110.62
420.948	93.62
421.171	89.62
421.394	107.62
421.617	94.62
421.839	86.62
422.062	98.62
422.285	106.62
422.507	107.62
422.73	126.62
422.953	126.62
423.175	115.62
423.398	97.62
423.621	84.62
423.843	95.62
424.066	91.62
424.288	91.62
424.511	104.62
424.733	94.62
424.956	89.62
425.178	96.62
425.401	94.62
425.623	91.62
425.846	92.62
426.068	94.62
426.291	82.62
426.513	84.62
426.735	94.62
426.958	79.62
427.18	89.62
427.402	112.62
427.625	99.62
427.847	93.62
428.069	81.62
428.292	110.62
428.514	99.62
428.736	113.62
428.958	94.62
429.181	82.62
429.403	107.62
429.625	95.62
429.847	91.62
430.069	109.62
430.292	107.62
430.514	99.62
430.736	106.62
430.958	101.62
431.18	96.62
431.402	98.62
431.624	99.62
431.846	97.62
432.068	98.62
432.29	95.62
432.512	102.62
432.734	94.62
432.956	103.62
433.178	102.62
433.4	95.62
433.622	100.62
433.844	92.62
434.066	96.62
434.287	100.62
434.509	94.62
434.731	97.62
434.953	83.62
435.175	86.62
435.397	81.62
435.618	82.62
435.84	93.62
436.062	99.62
436.284	95.62
436.505	86.62
436.727	95.62
436.949	104.62
437.17	87.62
437.392	90.62
437.614	87.62
437.835	95.62
438.057	88.62
438.278	91.62
438.5	89.62
438.721	110.62
438.943	102.62
439.165	127.62
439.386	113.62
439.608	103.62
439.829	102.62
440.05	120.62
440.272	133.62
440.493	98.62
440.715	80.62
440.936	101.62
441.158	82.62
441.379	104.62
441.6	106.62
441.822	99.62
442.043	114.62
442.264	130.62
442.486	107.62
442.707	108.62
442.928	92.62
443.149	100.62
443.371	98.62
443.592	89.62
443.813	86.62
444.034	96.62
444.255	80.62
444.476	78.62
444.698	103.62
444.919	91.62
445.14	240.62
445.361	136.62
445.582	98.62
445.803	93.62
446.024	91.62
446.245	98.62
446.466	95.62
446.687	113.62
446.908	112.62
447.129	99.62
447.35	98.62
447.571	96.62
447.792	82.62
448.013	94.62
448.234	86.62
448.455	103.62
448.675	84.62
448.896	97.62
449.117	115.62
449.338	126.62
449.559	142.62
449.779	122.62
450	102.62
450.221	94.62
450.442	116.62
450.662	109.62
450.883	116.62
451.104	127.62
451.324	117.62
451.545	102.62
451.766	120.62
451.986	131.62
452.207	199.62
452.428	508.62
452.648	1266.62
452.869	747.62
453.089	185.62
453.31	126.62
453.53	124.62
453.751	134.62
453.971	147.62
454.192	164.62
454.412	114.62
454.633	101.62
454.853	97.62
455.073	96.62
455.294	99.62
455.514	100.62
455.734	99.62
455.955	96.62
456.175	90.62
456.395	89.62
456.616	102.62
456.836	94.62
457.056	98.62
457.276	117.62
457.497	114.62
457.717	119.62
457.937	103.62
458.157	91.62
458.377	88.62
458.598	107.62
458.818	91.62
459.038	101.62
459.258	96.62
459.478	94.62
459.698	111.62
459.918	102.62
460.138	82.62
460.358	86.62
460.578	90.62
460.798	95.62
461.018	77.62
461.238	100.62
461.458	87.62
461.678	100.62
461.898	97.62
462.118	104.62
462.338	99.62
462.558	101.62
462.777	87.62
462.997	86.62
463.217	106.62
463.437	141.62
463.657	192.62
463.876	175.62
464.096	116.62
464.316	97.62
464.536	98.62
464.755	104.62
464.975	101.62
465.195	84.62
465.414	93.62
465.634	110.62
465.854	88.62
466.073	102.62
466.293	91.62
466.512	89.62
466.732	93.62
466.951	110.62
467.171	121.62
467.391	135.62
467.61	108.62
467.829	99.62
468.049	94.62
468.268	85.62
468.488	89.62
468.707	104.62
468.927	103.62
469.146	108.62
469.365	113.62
469.585	102.62
469.804	94.62
470.023	90.62
470.243	93.62
470.462	107.62
470.681	109.62
470.901	134.62
471.12	199.62
471.339	199.62
471.558	131.62
471.777	112.62
471.997	100.62
472.216	104.62
472.435	95.62
472.654	99.62
472.873	104.62
473.092	105.62
473.311	107.62
473.53	101.62
473.749	105.62
473.968	90.62
474.187	99.62
474.406	94.62
474.625	89.62
474.844	91.62
475.063	111.62
475.282	93.62
475.501	101.62
475.72	106.62
475.939	91.62
476.158	84.62
476.377	110.62
476.596	105.62
476.814	102.62
477.033	99.62
477.252	111.62
477.471	107.62
477.69	101.62
477.908	104.62
478.127	110.62
478.346	97.62
478.564	87.62
478.783	81.62
479.002	90.62
479.22	92.62
479.439	87.62
479.658	92.62
479.876	98.62
480.095	100.62
480.313	100.62
480.532	96.62
480.751	101.62
480.969	90.62
481.188	88.62
481.406	84.62
481.624	112.62
481.843	110.62
482.061	113.62
482.28	100.62
482.498	108.62
482.717	108.62
482.935	97.62
483.153	105.62
483.372	99.62
483.59	107.62
483.808	99.62
484.027	99.62
484.245	119.62
484.463	159.62
484.681	213.62
484.9	141.62
485.118	106.62
485.336	114.62
485.554	115.62
485.772	114.62
485.99	178.62
486.209	242.62
486.427	165.62
486.645	114.62
486.863	103.62
487.081	110.62
487.299	97.62
487.517	98.62
487.735	85.62
487.953	104.62
488.171	110.62
488.389	94.62
488.607	104.62
488.825	85.62
489.043	90.62
489.261	97.62
489.479	98.62
489.696	97.62
489.914	117.62
490.132	104.62
490.35	102.62
490.568	106.62
490.786	97.62
491.003	88.62
491.221	102.62
491.439	110.62
491.657	104.62
491.874	106.62
492.092	123.62
492.31	114.62
492.527	116.62
492.745	114.62
492.963	105.62
493.18	119.62
493.398	94.62
493.615	88.62
493.833	107.62
494.05	96.62
494.268	110.62
494.485	103.62
494.703	103.62
494.92	102.62
495.138	103.62
495.355	113.62
495.573	110.62
495.79	107.62
496.008	105.62
496.225	105.62
496.442	104.62
496.66	119.62
496.877	162.62
497.094	150.62
497.312	102.62
497.529	98.62
497.746	103.62
497.963	89.62
498.181	91.62
498.398	103.62
498.615	102.62
498.832	123.62
499.049	100.62
499.267	128.62
499.484	146.62
499.701	123.62
499.918	104.62
500.135	101.62
500.352	101.62
500.569	111.62
500.786	108.62
501.003	108.62
501.22	112.62
501.437	106.62
501.654	90.62
501.871	96.62
502.088	94.62
502.305	104.62
502.522	112.62
502.739	107.62
502.956	79.62
503.172	96.62
503.389	97.62
503.606	96.62
503.823	101.62
504.04	114.62
504.256	96.62
504.473	110.62
504.69	105.62
504.907	112.62
505.123	111.62
505.34	96.62
505.557	99.62
505.773	109.62
505.99	98.62
506.207	104.62
506.423	115.62
506.64	104.62
506.856	90.62
507.073	104.62
507.289	97.62
507.506	99.62
507.722	110.62
507.939	100.62
508.155	110.62
508.372	119.62
508.588	111.62
508.805	99.62
