Data from SnStandardFlinnAPT0064_LampEnergy5.5_LIBS07252019.E.O._I.C._HRD10591_15-17-04-492.txt Node
Date: Thu Jul 25 15:17:04 EDT 2019
User: cochatt
Spectrometer: HR+D1059
Trigger mode: 1
Integration Time (sec): 1.000000E-1
Scans to average: 1
Electric dark correction enabled: true
Nonlinearity correction enabled: false
Boxcar width: 0
XAxis mode: Wavelengths
Number of Pixels in Spectrum: 2048
>>>>>Begin Spectral Data<<<<<
223.165	-8.81
223.4	-8.81
223.635	-8.81
223.869	-12.81
224.104	-28.81
224.338	-12.81
224.573	-11.81
224.808	-5.81
225.042	-18.81
225.277	8.19
225.511	-5.81
225.746	6.19
225.98	4.19
226.215	4.19
226.449	6.19
226.683	8.19
226.918	29.19
227.152	39.19
227.387	40.19
227.621	37.19
227.856	31.19
228.09	47.19
228.324	40.19
228.559	48.19
228.793	73.19
229.027	167.19
229.262	167.19
229.496	151.19
229.73	137.19
229.964	150.19
230.199	150.19
230.433	174.19
230.667	168.19
230.901	157.19
231.136	181.19
231.37	196.19
231.604	191.19
231.838	212.19
232.072	239.19
232.306	273.19
232.541	223.19
232.775	197.19
233.009	208.19
233.243	204.19
233.477	216.19
233.711	252.19
233.945	278.19
234.179	231.19
234.413	214.19
234.647	223.19
234.881	229.19
235.115	256.19
235.349	286.19
235.583	368.19
235.817	474.19
236.051	438.19
236.285	279.19
236.519	245.19
236.753	243.19
236.987	226.19
237.221	255.19
237.455	258.19
237.689	232.19
237.922	219.19
238.156	231.19
238.39	232.19
238.624	226.19
238.858	237.19
239.091	218.19
239.325	230.19
239.559	236.19
239.793	252.19
240.027	260.19
240.26	242.19
240.494	262.19
240.728	252.19
240.961	278.19
241.195	288.19
241.429	292.19
241.662	322.19
241.896	316.19
242.13	413.19
242.363	519.19
242.597	683.19
242.83	638.19
243.064	637.19
243.298	766.19
243.531	631.19
243.765	414.19
243.998	330.19
244.232	322.19
244.465	296.19
244.699	290.19
244.932	306.19
245.166	290.19
245.399	294.19
245.633	318.19
245.866	321.19
246.099	287.19
246.333	306.19
246.566	307.19
246.8	293.19
247.033	280.19
247.266	311.19
247.5	294.19
247.733	313.19
247.966	332.19
248.2	348.19
248.433	373.19
248.666	418.19
248.899	401.19
249.133	375.19
249.366	374.19
249.599	420.19
249.832	450.19
250.066	440.19
250.299	380.19
250.532	358.19
250.765	324.19
250.998	340.19
251.231	332.19
251.465	330.19
251.698	339.19
251.931	324.19
252.164	357.19
252.397	348.19
252.63	369.19
252.863	357.19
253.096	366.19
253.329	345.19
253.562	336.19
253.795	351.19
254.028	365.19
254.261	372.19
254.494	400.19
254.727	449.19
254.96	526.19
255.193	516.19
255.426	418.19
255.659	392.19
255.892	395.19
256.124	356.19
256.357	402.19
256.59	404.19
256.823	434.19
257.056	479.19
257.289	558.19
257.521	592.19
257.754	503.19
257.987	432.19
258.22	404.19
258.452	423.19
258.685	405.19
258.918	409.19
259.151	423.19
259.383	466.19
259.616	490.19
259.849	554.19
260.081	480.19
260.314	434.19
260.547	434.19
260.779	434.19
261.012	441.19
261.244	430.19
261.477	441.19
261.71	430.19
261.942	443.19
262.175	456.19
262.407	468.19
262.64	476.19
262.872	505.19
263.105	530.19
263.337	540.19
263.57	560.19
263.802	574.19
264.035	582.19
264.267	585.19
264.499	620.19
264.732	634.19
264.964	641.19
265.197	634.19
265.429	646.19
265.661	674.19
265.894	702.19
266.126	759.19
266.358	812.19
266.591	823.19
266.823	698.19
267.055	630.19
267.287	613.19
267.52	610.19
267.752	588.19
267.984	591.19
268.216	567.19
268.448	567.19
268.681	536.19
268.913	547.19
269.145	542.19
269.377	558.19
269.609	543.19
269.841	564.19
270.073	592.19
270.306	690.19
270.538	926.19
270.77	1335.19
271.002	1588.19
271.234	1130.19
271.466	766.19
271.698	640.19
271.93	612.19
272.162	564.19
272.394	544.19
272.626	552.19
272.858	549.19
273.09	547.19
273.322	531.19
273.553	537.19
273.785	527.19
274.017	535.19
274.249	545.19
274.481	525.19
274.713	516.19
274.945	538.19
275.176	524.19
275.408	544.19
275.64	550.19
275.872	547.19
276.104	529.19
276.335	574.19
276.567	574.19
276.799	579.19
277.031	590.19
277.262	604.19
277.494	619.19
277.726	642.19
277.957	725.19
278.189	846.19
278.421	780.19
278.652	710.19
278.884	690.19
279.115	624.19
279.347	613.19
279.579	590.19
279.81	602.19
280.042	605.19
280.273	615.19
280.505	625.19
280.736	640.19
280.968	648.19
281.199	729.19
281.431	831.19
281.662	824.19
281.894	720.19
282.125	674.19
282.356	686.19
282.588	685.19
282.819	700.19
283.051	769.19
283.282	857.19
283.513	1030.19
283.745	1494.19
283.976	2384.19
284.207	3352.19
284.439	2982.19
284.67	1728.19
284.901	1428.19
285.132	1411.19
285.364	1366.19
285.595	1070.19
285.826	987.19
286.057	1200.19
286.288	1611.19
286.52	2176.19
286.751	1984.19
286.982	1191.19
287.213	895.19
287.444	810.19
287.675	772.19
287.906	739.19
288.138	732.19
288.369	716.19
288.6	709.19
288.831	708.19
289.062	719.19
289.293	689.19
289.524	749.19
289.755	721.19
289.986	731.19
290.217	722.19
290.448	723.19
290.679	750.19
290.91	745.19
291.141	782.19
291.371	831.19
291.602	844.19
291.833	786.19
292.064	731.19
292.295	729.19
292.526	695.19
292.757	724.19
292.987	698.19
293.218	690.19
293.449	678.19
293.68	716.19
293.91	662.19
294.141	664.19
294.372	664.19
294.603	680.19
294.833	668.19
295.064	676.19
295.295	648.19
295.525	669.19
295.756	704.19
295.987	673.19
296.217	642.19
296.448	680.19
296.679	666.19
296.909	695.19
297.14	676.19
297.37	706.19
297.601	699.19
297.831	698.19
298.062	688.19
298.292	700.19
298.523	707.19
298.753	738.19
298.984	729.19
299.214	723.19
299.445	741.19
299.675	734.19
299.905	779.19
300.136	828.19
300.366	910.19
300.597	1123.19
300.827	1562.19
301.057	2113.19
301.288	2066.19
301.518	1354.19
301.748	1022.19
301.979	932.19
302.209	949.19
302.439	951.19
302.669	998.19
302.9	1206.19
303.13	1689.19
303.36	2482.19
303.59	3338.19
303.82	2895.19
304.051	1658.19
304.281	1182.19
304.511	1010.19
304.741	942.19
304.971	882.19
305.201	870.19
305.431	836.19
305.661	808.19
305.891	801.19
306.121	790.19
306.352	809.19
306.582	794.19
306.812	786.19
307.042	788.19
307.272	781.19
307.502	790.19
307.731	764.19
307.961	773.19
308.191	763.19
308.421	765.19
308.651	784.19
308.881	774.19
309.111	788.19
309.341	774.19
309.571	777.19
309.8	820.19
310.03	814.19
310.26	794.19
310.49	798.19
310.72	830.19
310.949	789.19
311.179	818.19
311.409	829.19
311.639	824.19
311.868	820.19
312.098	818.19
312.328	821.19
312.557	858.19
312.787	845.19
313.017	867.19
313.246	873.19
313.476	865.19
313.706	887.19
313.935	916.19
314.165	954.19
314.394	994.19
314.624	938.19
314.853	889.19
315.083	928.19
315.312	904.19
315.542	929.19
315.771	947.19
316.001	958.19
316.23	954.19
316.46	981.19
316.689	1085.19
316.919	1319.19
317.148	1890.19
317.377	2954.19
317.607	4348.19
317.836	4488.19
318.065	2566.19
318.295	1654.19
318.524	1320.19
318.753	1186.19
318.983	1076.19
319.212	1026.19
319.441	1039.19
319.67	997.19
319.9	998.19
320.129	975.19
320.358	972.19
320.587	975.19
320.816	973.19
321.046	966.19
321.275	977.19
321.504	1020.19
321.733	1037.19
321.962	1056.19
322.191	1052.19
322.42	1002.19
322.649	1031.19
322.878	1038.19
323.108	1008.19
323.337	1048.19
323.566	1080.19
323.795	1096.19
324.024	1114.19
324.253	1121.19
324.482	1156.19
324.71	1215.19
324.939	1297.19
325.168	1282.19
325.397	1375.19
325.626	1592.19
325.855	2294.19
326.084	3590.19
326.313	5344.19
326.542	5615.19
326.77	3490.19
326.999	2252.19
327.228	1863.19
327.457	1811.19
327.686	1834.19
327.914	1908.19
328.143	2238.19
328.372	2556.19
328.6	2746.19
328.829	2567.19
329.058	2214.19
329.287	1986.19
329.515	1833.19
329.744	1698.19
329.972	1616.19
330.201	1525.19
330.43	1464.19
330.658	1451.19
330.887	1448.19
331.115	1428.19
331.344	1400.19
331.572	1402.19
331.801	1423.19
332.03	1414.19
332.258	1486.19
332.486	1512.19
332.715	1705.19
332.943	2112.19
333.172	2585.19
333.4	2551.19
333.629	1976.19
333.857	1788.19
334.085	1777.19
334.314	1852.19
334.542	2008.19
334.771	2270.19
334.999	2763.19
335.227	3320.19
335.455	3729.19
335.684	3410.19
335.912	2892.19
336.14	2511.19
336.369	2249.19
336.597	2060.19
336.825	1884.19
337.053	1815.19
337.281	1706.19
337.51	1640.19
337.738	1548.19
337.966	1506.19
338.194	1453.19
338.422	1418.19
338.65	1387.19
338.878	1372.19
339.106	1350.19
339.334	1312.19
339.562	1291.19
339.79	1311.19
340.018	1300.19
340.246	1273.19
340.474	1247.19
340.702	1252.19
340.93	1269.19
341.158	1275.19
341.386	1251.19
341.614	1224.19
341.842	1219.19
342.07	1182.19
342.298	1192.19
342.526	1173.19
342.754	1164.19
342.981	1132.19
343.209	1110.19
343.437	1174.19
343.665	1194.19
343.893	1193.19
344.12	1202.19
344.348	1169.19
344.576	1146.19
344.804	1143.19
345.031	1129.19
345.259	1130.19
345.487	1128.19
345.714	1111.19
345.942	1063.19
346.17	1088.19
346.397	1046.19
346.625	1072.19
346.853	1087.19
347.08	1051.19
347.308	1074.19
347.535	1054.19
347.763	1068.19
347.99	1020.19
348.218	1080.19
348.445	1038.19
348.673	1043.19
348.9	1080.19
349.128	1035.19
349.355	991.19
349.583	1024.19
349.81	1045.19
350.037	1008.19
350.265	1030.19
350.492	1044.19
350.72	1024.19
350.947	1026.19
351.174	1059.19
351.402	1023.19
351.629	1037.19
351.856	1005.19
352.083	1013.19
352.311	1028.19
352.538	1045.19
352.765	1026.19
352.992	1033.19
353.22	1029.19
353.447	1009.19
353.674	1026.19
353.901	1020.19
354.128	1026.19
354.355	1000.19
354.583	1046.19
354.81	1039.19
355.037	1040.19
355.264	1034.19
355.491	1029.19
355.718	1046.19
355.945	1051.19
356.172	1027.19
356.399	1048.19
356.626	1063.19
356.853	1065.19
357.08	1033.19
357.307	1101.19
357.534	1068.19
357.761	1072.19
357.988	1091.19
358.215	1109.19
358.441	1084.19
358.668	1106.19
358.895	1070.19
359.122	1093.19
359.349	1081.19
359.576	1066.19
359.802	1091.19
360.029	1065.19
360.256	1087.19
360.483	1092.19
360.709	1113.19
360.936	1084.19
361.163	1079.19
361.39	1113.19
361.616	1093.19
361.843	1105.19
362.07	1119.19
362.296	1104.19
362.523	1094.19
362.749	1106.19
362.976	1097.19
363.203	1093.19
363.429	1080.19
363.656	1091.19
363.882	1092.19
364.109	1091.19
364.335	1105.19
364.562	1055.19
364.788	1081.19
365.015	1115.19
365.241	1127.19
365.468	1147.19
365.694	1173.19
365.92	1174.19
366.147	1125.19
366.373	1130.19
366.599	1123.19
366.826	1101.19
367.052	1106.19
367.278	1118.19
367.505	1123.19
367.731	1113.19
367.957	1111.19
368.184	1127.19
368.41	1147.19
368.636	1129.19
368.862	1120.19
369.089	1136.19
369.315	1141.19
369.541	1114.19
369.767	1104.19
369.993	1110.19
370.219	1155.19
370.445	1136.19
370.672	1157.19
370.898	1168.19
371.124	1136.19
371.35	1161.19
371.576	1147.19
371.802	1154.19
372.028	1167.19
372.254	1168.19
372.48	1194.19
372.706	1166.19
372.932	1198.19
373.158	1200.19
373.384	1218.19
373.61	1209.19
373.835	1181.19
374.061	1188.19
374.287	1242.19
374.513	1194.19
374.739	1248.19
374.965	1259.19
375.191	1239.19
375.416	1255.19
375.642	1202.19
375.868	1220.19
376.094	1185.19
376.319	1185.19
376.545	1172.19
376.771	1188.19
376.997	1203.19
377.222	1191.19
377.448	1177.19
377.674	1191.19
377.899	1161.19
378.125	1188.19
378.35	1183.19
378.576	1171.19
378.802	1155.19
379.027	1200.19
379.253	1221.19
379.478	1281.19
379.704	1464.19
379.929	2146.19
380.155	3200.19
380.38	3380.19
380.606	2059.19
380.831	1503.19
381.057	1311.19
381.282	1258.19
381.507	1194.19
381.733	1209.19
381.958	1173.19
382.184	1185.19
382.409	1138.19
382.634	1170.19
382.86	1152.19
383.085	1135.19
383.31	1184.19
383.535	1161.19
383.761	1153.19
383.986	1155.19
384.211	1207.19
384.436	1185.19
384.662	1207.19
384.887	1224.19
385.112	1174.19
385.337	1207.19
385.562	1167.19
385.787	1207.19
386.013	1234.19
386.238	1202.19
386.463	1203.19
386.688	1210.19
386.913	1198.19
387.138	1210.19
387.363	1196.19
387.588	1193.19
387.813	1175.19
388.038	1203.19
388.263	1220.19
388.488	1205.19
388.713	1208.19
388.938	1211.19
389.163	1168.19
389.387	1212.19
389.612	1185.19
389.837	1204.19
390.062	1204.19
390.287	1203.19
390.512	1226.19
390.736	1213.19
390.961	1251.19
391.186	1222.19
391.411	1261.19
391.636	1234.19
391.86	1253.19
392.085	1266.19
392.31	1272.19
392.534	1277.19
392.759	1286.19
392.984	1236.19
393.208	1212.19
393.433	1252.19
393.658	1267.19
393.882	1226.19
394.107	1229.19
394.331	1224.19
394.556	1252.19
394.78	1226.19
395.005	1220.19
395.229	1212.19
395.454	1221.19
395.678	1254.19
395.903	1260.19
396.127	1244.19
396.352	1258.19
396.576	1240.19
396.801	1238.19
397.025	1276.19
397.249	1237.19
397.474	1239.19
397.698	1255.19
397.922	1289.19
398.147	1248.19
398.371	1320.19
398.595	1335.19
398.82	1330.19
399.044	1390.19
399.268	1472.19
399.492	1536.19
399.717	1593.19
399.941	1576.19
400.165	1505.19
400.389	1457.19
400.613	1430.19
400.837	1391.19
401.062	1340.19
401.286	1342.19
401.51	1321.19
401.734	1310.19
401.958	1332.19
402.182	1338.19
402.406	1335.19
402.63	1348.19
402.854	1362.19
403.078	1363.19
403.302	1354.19
403.526	1364.19
403.75	1354.19
403.974	1407.19
404.198	1366.19
404.422	1376.19
404.645	1381.19
404.869	1405.19
405.093	1378.19
405.317	1362.19
405.541	1354.19
405.765	1370.19
405.988	1436.19
406.212	1396.19
406.436	1412.19
406.66	1423.19
406.883	1414.19
407.107	1485.19
407.331	1448.19
407.555	1506.19
407.778	1493.19
408.002	1468.19
408.226	1454.19
408.449	1453.19
408.673	1448.19
408.896	1406.19
409.12	1395.19
409.344	1393.19
409.567	1363.19
409.791	1340.19
410.014	1369.19
410.238	1353.19
410.461	1361.19
410.685	1365.19
410.908	1358.19
411.132	1350.19
411.355	1261.19
411.578	1317.19
411.802	1325.19
412.025	1293.19
412.249	1306.19
412.472	1333.19
412.695	1307.19
412.919	1312.19
413.142	1295.19
413.365	1317.19
413.589	1309.19
413.812	1262.19
414.035	1290.19
414.258	1319.19
414.482	1330.19
414.705	1314.19
414.928	1302.19
415.151	1270.19
415.374	1294.19
415.597	1271.19
415.821	1259.19
416.044	1241.19
416.267	1252.19
416.49	1261.19
416.713	1260.19
416.936	1277.19
417.159	1256.19
417.382	1234.19
417.605	1267.19
417.828	1253.19
418.051	1276.19
418.274	1284.19
418.497	1284.19
418.72	1286.19
418.943	1232.19
419.166	1322.19
419.389	1393.19
419.611	1379.19
419.834	1337.19
420.057	1314.19
420.28	1283.19
420.503	1224.19
420.726	1207.19
420.948	1263.19
421.171	1245.19
421.394	1238.19
421.617	1257.19
421.839	1292.19
422.062	1262.19
422.285	1295.19
422.507	1288.19
422.73	1300.19
422.953	1304.19
423.175	1342.19
423.398	1280.19
423.621	1263.19
423.843	1261.19
424.066	1278.19
424.288	1257.19
424.511	1267.19
424.733	1268.19
424.956	1249.19
425.178	1240.19
425.401	1220.19
425.623	1247.19
425.846	1229.19
426.068	1217.19
426.291	1201.19
426.513	1204.19
426.735	1214.19
426.958	1205.19
427.18	1199.19
427.402	1196.19
427.625	1203.19
427.847	1155.19
428.069	1156.19
428.292	1174.19
428.514	1179.19
428.736	1173.19
428.958	1171.19
429.181	1129.19
429.403	1166.19
429.625	1123.19
429.847	1159.19
430.069	1159.19
430.292	1249.19
430.514	1240.19
430.736	1244.19
430.958	1185.19
431.18	1178.19
431.402	1153.19
431.624	1154.19
431.846	1153.19
432.068	1133.19
432.29	1136.19
432.512	1127.19
432.734	1162.19
432.956	1163.19
433.178	1206.19
433.4	1164.19
433.622	1182.19
433.844	1178.19
434.066	1194.19
434.287	1169.19
434.509	1179.19
434.731	1166.19
434.953	1191.19
435.175	1202.19
435.397	1196.19
435.618	1181.19
435.84	1150.19
436.062	1180.19
436.284	1167.19
436.505	1152.19
436.727	1174.19
436.949	1160.19
437.17	1173.19
437.392	1133.19
437.614	1134.19
437.835	1087.19
438.057	1146.19
438.278	1125.19
438.5	1154.19
438.721	1132.19
438.943	1140.19
439.165	1203.19
439.386	1204.19
439.608	1178.19
439.829	1227.19
440.05	1180.19
440.272	1262.19
440.493	1181.19
440.715	1190.19
440.936	1206.19
441.158	1186.19
441.379	1197.19
441.6	1253.19
441.822	1283.19
442.043	1347.19
442.264	1368.19
442.486	1290.19
442.707	1263.19
442.928	1230.19
443.149	1239.19
443.371	1252.19
443.592	1264.19
443.813	1269.19
444.034	1226.19
444.255	1262.19
444.476	1307.19
444.698	1318.19
444.919	1329.19
445.14	1406.19
445.361	1338.19
445.582	1299.19
445.803	1288.19
446.024	1236.19
446.245	1240.19
446.466	1257.19
446.687	1222.19
446.908	1237.19
447.129	1198.19
447.35	1201.19
447.571	1168.19
447.792	1162.19
448.013	1150.19
448.234	1144.19
448.455	1156.19
448.675	1141.19
448.896	1172.19
449.117	1212.19
449.338	1304.19
449.559	1346.19
449.779	1195.19
450	1148.19
450.221	1108.19
450.442	1141.19
450.662	1125.19
450.883	1082.19
451.104	1117.19
451.324	1084.19
451.545	1118.19
451.766	1128.19
451.986	1148.19
452.207	1193.19
452.428	1462.19
452.648	2129.19
452.869	1770.19
453.089	1280.19
453.31	1215.19
453.53	1207.19
453.751	1301.19
453.971	1346.19
454.192	1308.19
454.412	1168.19
454.633	1086.19
454.853	1058.19
455.073	1065.19
455.294	1094.19
455.514	1051.19
455.734	1062.19
455.955	1061.19
456.175	1074.19
456.395	1067.19
456.616	1063.19
456.836	1068.19
457.056	1099.19
457.276	1041.19
457.497	1134.19
457.717	1141.19
457.937	1123.19
458.157	1108.19
458.377	1092.19
458.598	1128.19
458.818	1128.19
459.038	1109.19
459.258	1144.19
459.478	1141.19
459.698	1156.19
459.918	1162.19
460.138	1202.19
460.358	1221.19
460.578	1232.19
460.798	1245.19
461.018	1226.19
461.238	1262.19
461.458	1257.19
461.678	1248.19
461.898	1285.19
462.118	1299.19
462.338	1316.19
462.558	1333.19
462.777	1357.19
462.997	1424.19
463.217	1436.19
463.437	1490.19
463.657	1504.19
463.876	1502.19
464.096	1445.19
464.316	1395.19
464.536	1391.19
464.755	1337.19
464.975	1310.19
465.195	1251.19
465.414	1232.19
465.634	1194.19
465.854	1202.19
466.073	1159.19
466.293	1158.19
466.512	1189.19
466.732	1198.19
466.951	1213.19
467.171	1294.19
467.391	1259.19
467.61	1216.19
467.829	1144.19
468.049	1151.19
468.268	1132.19
468.488	1138.19
468.707	1122.19
468.927	1139.19
469.146	1138.19
469.365	1168.19
469.585	1152.19
469.804	1200.19
470.023	1216.19
470.243	1190.19
470.462	1224.19
470.681	1295.19
470.901	1398.19
471.12	1612.19
471.339	1618.19
471.558	1351.19
471.777	1241.19
471.997	1171.19
472.216	1203.19
472.435	1178.19
472.654	1156.19
472.873	1134.19
473.092	1154.19
473.311	1119.19
473.53	1174.19
473.749	1154.19
473.968	1206.19
474.187	1172.19
474.406	1125.19
474.625	1144.19
474.844	1138.19
475.063	1144.19
475.282	1144.19
475.501	1154.19
475.72	1161.19
475.939	1148.19
476.158	1196.19
476.377	1200.19
476.596	1166.19
476.814	1189.19
477.033	1193.19
477.252	1226.19
477.471	1232.19
477.69	1267.19
477.908	1268.19
478.127	1288.19
478.346	1289.19
478.564	1314.19
478.783	1326.19
479.002	1352.19
479.22	1383.19
479.439	1354.19
479.658	1390.19
479.876	1353.19
480.095	1349.19
480.313	1368.19
480.532	1390.19
480.751	1386.19
480.969	1386.19
481.188	1330.19
481.406	1322.19
481.624	1367.19
481.843	1378.19
482.061	1385.19
482.28	1380.19
482.498	1334.19
482.717	1351.19
482.935	1397.19
483.153	1370.19
483.372	1411.19
483.59	1425.19
483.808	1438.19
484.027	1450.19
484.245	1524.19
484.463	1685.19
484.681	1906.19
484.9	1729.19
485.118	1613.19
485.336	1597.19
485.554	1589.19
485.772	1676.19
485.99	1914.19
486.209	2092.19
486.427	1754.19
486.645	1587.19
486.863	1538.19
487.081	1480.19
487.299	1456.19
487.517	1480.19
487.735	1482.19
487.953	1466.19
488.171	1464.19
488.389	1469.19
488.607	1420.19
488.825	1412.19
489.043	1406.19
489.261	1400.19
489.479	1412.19
489.696	1438.19
489.914	1419.19
490.132	1409.19
490.35	1444.19
490.568	1419.19
490.786	1475.19
491.003	1502.19
