Data from SnStandardFlinnAPT0064_LampEnergy10_LIBS07252019.E.O._I.C._HRD10591_15-19-48-493.txt Node
Date: Thu Jul 25 15:19:48 EDT 2019
User: cochatt
Spectrometer: HR+D1059
Trigger mode: 1
Integration Time (sec): 1.000000E-1
Scans to average: 1
Electric dark correction enabled: true
Nonlinearity correction enabled: false
Boxcar width: 0
XAxis mode: Wavelengths
Number of Pixels in Spectrum: 2048
>>>>>Begin Spectral Data<<<<<
223.165	-22.19
223.4	-22.19
223.635	-22.19
223.869	-13.19
224.104	-26.19
224.338	-16.19
224.573	-18.19
224.808	-15.19
225.042	-8.19
225.277	2.81
225.511	3.81
225.746	-6.19
225.98	10.81
226.215	19.81
226.449	14.81
226.683	17.81
226.918	21.81
227.152	33.81
227.387	45.81
227.621	24.81
227.856	49.81
228.09	50.81
228.324	51.81
228.559	67.81
228.793	118.81
229.027	307.81
229.262	343.81
229.496	312.81
229.73	290.81
229.964	295.81
230.199	304.81
230.433	294.81
230.667	324.81
230.901	336.81
231.136	351.81
231.37	355.81
231.604	383.81
231.838	444.81
232.072	547.81
232.306	568.81
232.541	472.81
232.775	429.81
233.009	418.81
233.243	422.81
233.477	473.81
233.711	528.81
233.945	603.81
234.179	500.81
234.413	471.81
234.647	453.81
234.881	486.81
235.115	553.81
235.349	630.81
235.583	785.81
235.817	998.81
236.051	996.81
236.285	678.81
236.519	541.81
236.753	515.81
236.987	524.81
237.221	544.81
237.455	520.81
237.689	469.81
237.922	470.81
238.156	448.81
238.39	506.81
238.624	485.81
238.858	477.81
239.091	465.81
239.325	487.81
239.559	515.81
239.793	498.81
240.027	532.81
240.26	547.81
240.494	569.81
240.728	606.81
240.961	634.81
241.195	659.81
241.429	681.81
241.662	701.81
241.896	802.81
242.13	952.81
242.363	1268.81
242.597	1647.81
242.83	1599.81
243.064	1562.81
243.298	1826.81
243.531	1551.81
243.765	985.81
243.998	791.81
244.232	708.81
244.465	648.81
244.699	661.81
244.932	666.81
245.166	667.81
245.399	668.81
245.633	699.81
245.866	680.81
246.099	688.81
246.333	654.81
246.566	652.81
246.8	633.81
247.033	638.81
247.266	652.81
247.5	657.81
247.733	670.81
247.966	737.81
248.2	782.81
248.433	882.81
248.666	985.81
248.899	949.81
249.133	877.81
249.366	887.81
249.599	962.81
249.832	1095.81
250.066	1092.81
250.299	858.81
250.532	762.81
250.765	756.81
250.998	748.81
251.231	734.81
251.465	741.81
251.698	758.81
251.931	752.81
252.164	720.81
252.397	734.81
252.63	793.81
252.863	806.81
253.096	801.81
253.329	792.81
253.562	770.81
253.795	800.81
254.028	776.81
254.261	797.81
254.494	856.81
254.727	1048.81
254.96	1247.81
255.193	1242.81
255.426	981.81
255.659	906.81
255.892	871.81
256.124	880.81
256.357	847.81
256.59	924.81
256.823	1000.81
257.056	1126.81
257.289	1389.81
257.521	1522.81
257.754	1202.81
257.987	980.81
258.22	916.81
258.452	918.81
258.685	910.81
258.918	948.81
259.151	1008.81
259.383	1126.81
259.616	1208.81
259.849	1312.81
260.081	1112.81
260.314	991.81
260.547	957.81
260.779	953.81
261.012	946.81
261.244	938.81
261.477	975.81
261.71	960.81
261.942	1000.81
262.175	1009.81
262.407	1003.81
262.64	1046.81
262.872	1046.81
263.105	1115.81
263.337	1162.81
263.57	1241.81
263.802	1292.81
264.035	1313.81
264.267	1290.81
264.499	1354.81
264.732	1379.81
264.964	1399.81
265.197	1410.81
265.429	1390.81
265.661	1402.81
265.894	1556.81
266.126	1764.81
266.358	1941.81
266.591	1922.81
266.823	1568.81
267.055	1439.81
267.287	1360.81
267.52	1302.81
267.752	1282.81
267.984	1239.81
268.216	1236.81
268.448	1248.81
268.681	1216.81
268.913	1228.81
269.145	1228.81
269.377	1234.81
269.609	1231.81
269.841	1295.81
270.073	1378.81
270.306	1642.81
270.538	2194.81
270.77	3238.81
271.002	4048.81
271.234	2886.81
271.466	1923.81
271.698	1564.81
271.93	1434.81
272.162	1341.81
272.394	1288.81
272.626	1259.81
272.858	1249.81
273.09	1223.81
273.322	1207.81
273.553	1208.81
273.785	1195.81
274.017	1198.81
274.249	1200.81
274.481	1210.81
274.713	1194.81
274.945	1209.81
275.176	1233.81
275.408	1218.81
275.64	1228.81
275.872	1182.81
276.104	1219.81
276.335	1262.81
276.567	1262.81
276.799	1240.81
277.031	1296.81
277.262	1318.81
277.494	1384.81
277.726	1557.81
277.957	1888.81
278.189	2180.81
278.421	2031.81
278.652	1782.81
278.884	1704.81
279.115	1506.81
279.347	1406.81
279.579	1395.81
279.81	1409.81
280.042	1427.81
280.273	1428.81
280.505	1460.81
280.736	1523.81
280.968	1619.81
281.199	1777.81
281.431	2079.81
281.662	2125.81
281.894	1791.81
282.125	1627.81
282.356	1641.81
282.588	1657.81
282.819	1727.81
283.051	1840.81
283.282	2012.81
283.513	2432.81
283.745	3653.81
283.976	5724.81
284.207	8164.81
284.439	7465.81
284.67	4680.81
284.901	3848.81
285.132	3875.81
285.364	3661.81
285.595	2803.81
285.826	2490.81
286.057	2930.81
286.288	3925.81
286.52	5327.81
286.751	5024.81
286.982	3124.81
287.213	2349.81
287.444	2001.81
287.675	1904.81
287.906	1786.81
288.138	1735.81
288.369	1675.81
288.6	1687.81
288.831	1688.81
289.062	1673.81
289.293	1684.81
289.524	1696.81
289.755	1666.81
289.986	1709.81
290.217	1702.81
290.448	1728.81
290.679	1722.81
290.91	1791.81
291.141	1856.81
291.371	2071.81
291.602	2104.81
291.833	1933.81
292.064	1772.81
292.295	1689.81
292.526	1643.81
292.757	1624.81
292.987	1625.81
293.218	1603.81
293.449	1621.81
293.68	1600.81
293.91	1564.81
294.141	1572.81
294.372	1572.81
294.603	1583.81
294.833	1536.81
295.064	1528.81
295.295	1556.81
295.525	1538.81
295.756	1553.81
295.987	1510.81
296.217	1577.81
296.448	1594.81
296.679	1541.81
296.909	1513.81
297.14	1616.81
297.37	1620.81
297.601	1616.81
297.831	1632.81
298.062	1614.81
298.292	1663.81
298.523	1710.81
298.753	1660.81
298.984	1675.81
299.214	1731.81
299.445	1713.81
299.675	1776.81
299.905	1811.81
300.136	1891.81
300.366	2128.81
300.597	2767.81
300.827	3850.81
301.057	5300.81
301.288	5337.81
301.518	3458.81
301.748	2653.81
301.979	2390.81
302.209	2318.81
302.439	2345.81
302.669	2499.81
302.9	2976.81
303.13	4162.81
303.36	6225.81
303.59	8361.81
303.82	7271.81
304.051	4311.81
304.281	3113.81
304.511	2620.81
304.741	2360.81
304.971	2191.81
305.201	2097.81
305.431	2034.81
305.661	1949.81
305.891	1931.81
306.121	1836.81
306.352	1854.81
306.582	1818.81
306.812	1806.81
307.042	1893.81
307.272	1819.81
307.502	1761.81
307.731	1784.81
307.961	1780.81
308.191	1784.81
308.421	1762.81
308.651	1817.81
308.881	1799.81
309.111	1810.81
309.341	1825.81
309.571	1859.81
309.8	1845.81
310.03	1842.81
310.26	1833.81
310.49	1811.81
310.72	1850.81
310.949	1826.81
311.179	1884.81
311.409	1863.81
311.639	1900.81
311.868	1907.81
312.098	1934.81
312.328	1918.81
312.557	1937.81
312.787	1934.81
313.017	1952.81
313.246	2048.81
313.476	2000.81
313.706	2083.81
313.935	2170.81
314.165	2326.81
314.394	2468.81
314.624	2335.81
314.853	2196.81
315.083	2141.81
315.312	2176.81
315.542	2172.81
315.771	2226.81
316.001	2267.81
316.23	2268.81
316.46	2412.81
316.689	2720.81
316.919	3223.81
317.148	4637.81
317.377	7220.81
317.607	10510.81
317.836	11043.81
318.065	6876.81
318.295	4486.81
318.524	3500.81
318.753	3049.81
318.983	2828.81
319.212	2602.81
319.441	2500.81
319.67	2470.81
319.9	2405.81
320.129	2356.81
320.358	2351.81
320.587	2356.81
320.816	2339.81
321.046	2369.81
321.275	2383.81
321.504	2388.81
321.733	2418.81
321.962	2480.81
322.191	2529.81
322.42	2529.81
322.649	2527.81
322.878	2473.81
323.108	2530.81
323.337	2541.81
323.566	2578.81
323.795	2640.81
324.024	2664.81
324.253	2777.81
324.482	2818.81
324.71	2976.81
324.939	3231.81
325.168	3316.81
325.397	3424.81
325.626	4065.81
325.855	5654.81
326.084	8895.81
326.313	12768.81
326.542	13633.81
326.77	9409.81
326.999	6156.81
327.228	5138.81
327.457	4847.81
327.686	4904.81
327.914	5179.81
328.143	6082.81
328.372	7224.81
328.6	7838.81
328.829	7017.81
329.058	5904.81
329.287	5122.81
329.515	4636.81
329.744	4308.81
329.972	4066.81
330.201	3903.81
330.43	3738.81
330.658	3634.81
330.887	3552.81
331.115	3484.81
331.344	3437.81
331.572	3448.81
331.801	3462.81
332.03	3432.81
332.258	3514.81
332.486	3756.81
332.715	4249.81
332.943	5315.81
333.172	6718.81
333.4	6716.81
333.629	5051.81
333.857	4542.81
334.085	4516.81
334.314	4729.81
334.542	5162.81
334.771	6072.81
334.999	7514.81
335.227	9358.81
335.455	10506.81
335.684	9528.81
335.912	7745.81
336.14	6535.81
336.369	5752.81
336.597	5228.81
336.825	4826.81
337.053	4548.81
337.281	4200.81
337.51	4013.81
337.738	3845.81
337.966	3673.81
338.194	3545.81
338.422	3422.81
338.65	3292.81
338.878	3264.81
339.106	3171.81
339.334	3128.81
339.562	3060.81
339.79	3025.81
340.018	2972.81
340.246	2995.81
340.474	2994.81
340.702	3004.81
340.93	2962.81
341.158	2998.81
341.386	2902.81
341.614	2942.81
341.842	2900.81
342.07	2780.81
342.298	2739.81
342.526	2726.81
342.754	2724.81
342.981	2678.81
343.209	2702.81
343.437	2709.81
343.665	2728.81
343.893	2784.81
344.12	2742.81
344.348	2730.81
344.576	2709.81
344.804	2675.81
345.031	2616.81
345.259	2598.81
345.487	2533.81
345.714	2520.81
345.942	2480.81
346.17	2500.81
346.397	2494.81
346.625	2506.81
346.853	2468.81
347.08	2473.81
347.308	2484.81
347.535	2500.81
347.763	2441.81
347.99	2440.81
348.218	2440.81
348.445	2400.81
348.673	2413.81
348.9	2468.81
349.128	2444.81
349.355	2433.81
349.583	2412.81
349.81	2439.81
350.037	2358.81
350.265	2359.81
350.492	2380.81
350.72	2328.81
350.947	2378.81
351.174	2344.81
351.402	2395.81
351.629	2393.81
351.856	2342.81
352.083	2377.81
352.311	2343.81
352.538	2330.81
352.765	2352.81
352.992	2380.81
353.22	2305.81
353.447	2326.81
353.674	2327.81
353.901	2370.81
354.128	2339.81
354.355	2366.81
354.583	2371.81
354.81	2383.81
355.037	2403.81
355.264	2401.81
355.491	2356.81
355.718	2407.81
355.945	2393.81
356.172	2433.81
356.399	2433.81
356.626	2439.81
356.853	2476.81
357.08	2448.81
357.307	2494.81
357.534	2530.81
357.761	2551.81
357.988	2557.81
358.215	2490.81
358.441	2519.81
358.668	2495.81
358.895	2484.81
359.122	2492.81
359.349	2515.81
359.576	2452.81
359.802	2498.81
360.029	2478.81
360.256	2497.81
360.483	2527.81
360.709	2517.81
360.936	2558.81
361.163	2535.81
361.39	2532.81
361.616	2517.81
361.843	2564.81
362.07	2517.81
362.296	2476.81
362.523	2492.81
362.749	2541.81
362.976	2535.81
363.203	2489.81
363.429	2476.81
363.656	2487.81
363.882	2517.81
364.109	2512.81
364.335	2491.81
364.562	2500.81
364.788	2522.81
365.015	2575.81
365.241	2614.81
365.468	2748.81
365.694	2903.81
365.92	2813.81
366.147	2556.81
366.373	2560.81
366.599	2567.81
366.826	2541.81
367.052	2588.81
367.278	2596.81
367.505	2593.81
367.731	2600.81
367.957	2550.81
368.184	2600.81
368.41	2637.81
368.636	2661.81
368.862	2625.81
369.089	2611.81
369.315	2620.81
369.541	2614.81
369.767	2612.81
369.993	2570.81
370.219	2538.81
370.445	2585.81
370.672	2614.81
370.898	2633.81
371.124	2611.81
371.35	2652.81
371.576	2652.81
371.802	2692.81
372.028	2629.81
372.254	2664.81
372.48	2695.81
372.706	2753.81
372.932	2702.81
373.158	2741.81
373.384	2761.81
373.61	2687.81
373.835	2722.81
374.061	2745.81
374.287	2789.81
374.513	2730.81
374.739	2858.81
374.965	2846.81
375.191	2821.81
375.416	2831.81
375.642	2782.81
375.868	2791.81
376.094	2730.81
376.319	2732.81
376.545	2697.81
376.771	2729.81
376.997	2719.81
377.222	2653.81
377.448	2693.81
377.674	2703.81
377.899	2614.81
378.125	2679.81
378.35	2674.81
378.576	2700.81
378.802	2768.81
379.027	2824.81
379.253	2890.81
379.478	3033.81
379.704	3551.81
379.929	5116.81
380.155	8032.81
380.38	8784.81
380.606	5395.81
380.831	3729.81
381.057	3202.81
381.282	2940.81
381.507	2863.81
381.733	2809.81
381.958	2736.81
382.184	2727.81
382.409	2724.81
382.634	2651.81
382.86	2624.81
383.085	2622.81
383.31	2639.81
383.535	2654.81
383.761	2613.81
383.986	2702.81
384.211	2686.81
384.436	2718.81
384.662	2736.81
384.887	2725.81
385.112	2688.81
385.337	2734.81
385.562	2700.81
385.787	2755.81
386.013	2763.81
386.238	2775.81
386.463	2753.81
386.688	2764.81
386.913	2672.81
387.138	2694.81
387.363	2670.81
387.588	2717.81
387.813	2728.81
388.038	2699.81
388.263	2704.81
388.488	2689.81
388.713	2685.81
388.938	2720.81
389.163	2696.81
389.387	2695.81
389.612	2679.81
389.837	2759.81
390.062	2684.81
390.287	2744.81
390.512	2718.81
390.736	2741.81
390.961	2793.81
391.186	2797.81
391.411	2852.81
391.636	2881.81
391.86	2826.81
392.085	2901.81
392.31	2791.81
392.534	2849.81
392.759	2793.81
392.984	2798.81
393.208	2838.81
393.433	2833.81
393.658	2827.81
393.882	2720.81
394.107	2735.81
394.331	2807.81
394.556	2751.81
394.78	2799.81
395.005	2753.81
395.229	2742.81
395.454	2781.81
395.678	2831.81
395.903	2860.81
396.127	2813.81
396.352	2778.81
396.576	2812.81
396.801	2853.81
397.025	2862.81
397.249	2860.81
397.474	2870.81
397.698	2871.81
397.922	2900.81
398.147	2825.81
398.371	2897.81
398.595	2986.81
398.82	3026.81
399.044	3188.81
399.268	3264.81
399.492	3504.81
399.717	3604.81
399.941	3555.81
400.165	3429.81
400.389	3346.81
400.613	3168.81
400.837	3101.81
401.062	3078.81
401.286	2986.81
401.51	3036.81
401.734	2969.81
401.958	2980.81
402.182	2990.81
402.406	2976.81
402.63	2989.81
402.854	3017.81
403.078	3064.81
403.302	3106.81
403.526	3073.81
403.75	3051.81
403.974	3135.81
404.198	3107.81
404.422	3093.81
404.645	3092.81
404.869	3079.81
405.093	3189.81
405.317	3097.81
405.541	3142.81
405.765	3124.81
405.988	3244.81
406.212	3181.81
406.436	3174.81
406.66	3240.81
406.883	3216.81
407.107	3303.81
407.331	3386.81
407.555	3421.81
407.778	3388.81
408.002	3330.81
408.226	3255.81
408.449	3314.81
408.673	3206.81
408.896	3182.81
409.12	3185.81
409.344	3202.81
409.567	3110.81
409.791	3115.81
410.014	3064.81
410.238	3032.81
410.461	3042.81
410.685	3088.81
410.908	3059.81
411.132	3075.81
411.355	2984.81
411.578	3002.81
411.802	2968.81
412.025	2979.81
412.249	3008.81
412.472	2948.81
412.695	2966.81
412.919	2886.81
413.142	2933.81
413.365	2944.81
413.589	2959.81
413.812	2916.81
414.035	2921.81
414.258	2950.81
414.482	2946.81
414.705	2914.81
414.928	2930.81
415.151	2906.81
415.374	2911.81
415.597	2860.81
415.821	2857.81
416.044	2803.81
416.267	2829.81
416.49	2799.81
416.713	2803.81
416.936	2834.81
417.159	2756.81
417.382	2786.81
417.605	2782.81
417.828	2826.81
418.051	2787.81
418.274	2821.81
418.497	2792.81
418.72	2891.81
418.943	2866.81
419.166	2960.81
419.389	3142.81
419.611	3096.81
419.834	3009.81
420.057	2960.81
420.28	2826.81
420.503	2779.81
420.726	2830.81
420.948	2769.81
421.171	2791.81
421.394	2841.81
421.617	2754.81
421.839	2807.81
422.062	2801.81
422.285	2774.81
422.507	2915.81
422.73	2884.81
422.953	2924.81
423.175	2913.81
423.398	2887.81
423.621	2836.81
423.843	2828.81
424.066	2817.81
424.288	2786.81
424.511	2825.81
424.733	2776.81
424.956	2820.81
425.178	2846.81
425.401	2736.81
425.623	2816.81
425.846	2726.81
426.068	2737.81
426.291	2696.81
426.513	2702.81
426.735	2662.81
426.958	2696.81
427.18	2655.81
427.402	2699.81
427.625	2677.81
427.847	2626.81
428.069	2612.81
428.292	2680.81
428.514	2624.81
428.736	2594.81
428.958	2635.81
429.181	2596.81
429.403	2577.81
429.625	2568.81
429.847	2624.81
430.069	2625.81
430.292	2711.81
430.514	2808.81
430.736	2802.81
430.958	2648.81
431.18	2562.81
431.402	2631.81
431.624	2602.81
431.846	2530.81
432.068	2539.81
432.29	2590.81
432.512	2536.81
432.734	2648.81
432.956	2581.81
433.178	2583.81
433.4	2623.81
433.622	2564.81
433.844	2632.81
434.066	2604.81
434.287	2579.81
434.509	2670.81
434.731	2713.81
434.953	2684.81
435.175	2732.81
435.397	2674.81
435.618	2669.81
435.84	2615.81
436.062	2588.81
436.284	2612.81
436.505	2590.81
436.727	2556.81
436.949	2548.81
437.17	2574.81
437.392	2518.81
437.614	2469.81
437.835	2464.81
438.057	2510.81
438.278	2473.81
438.5	2528.81
438.721	2544.81
438.943	2630.81
439.165	2704.81
439.386	2686.81
439.608	2678.81
439.829	2729.81
440.05	2774.81
440.272	2854.81
440.493	2710.81
440.715	2671.81
440.936	2700.81
441.158	2710.81
441.379	2741.81
441.6	2832.81
441.822	2901.81
442.043	3006.81
442.264	3125.81
442.486	2865.81
442.707	2816.81
442.928	2769.81
443.149	2762.81
443.371	2744.81
443.592	2817.81
443.813	2762.81
444.034	2792.81
444.255	2893.81
444.476	2846.81
444.698	2914.81
444.919	2951.81
445.14	3046.81
445.361	2898.81
445.582	2853.81
445.803	2786.81
446.024	2761.81
446.245	2748.81
446.466	2755.81
446.687	2749.81
446.908	2729.81
447.129	2664.81
447.35	2626.81
447.571	2561.81
447.792	2555.81
448.013	2548.81
448.234	2578.81
448.455	2559.81
448.675	2606.81
448.896	2678.81
449.117	2707.81
449.338	2971.81
449.559	3086.81
449.779	2799.81
450	2595.81
450.221	2525.81
450.442	2527.81
450.662	2476.81
450.883	2470.81
451.104	2507.81
451.324	2516.81
451.545	2565.81
451.766	2590.81
451.986	2566.81
452.207	2812.81
452.428	3588.81
452.648	5541.81
452.869	4706.81
453.089	3246.81
453.31	2964.81
453.53	2949.81
453.751	2952.81
453.971	3209.81
454.192	3138.81
454.412	2679.81
454.633	2542.81
454.853	2458.81
455.073	2444.81
455.294	2422.81
455.514	2366.81
455.734	2366.81
455.955	2372.81
456.175	2378.81
456.395	2373.81
456.616	2359.81
456.836	2471.81
457.056	2457.81
457.276	2424.81
457.497	2596.81
457.717	2620.81
457.937	2537.81
458.157	2516.81
458.377	2548.81
458.598	2547.81
458.818	2573.81
459.038	2589.81
459.258	2572.81
459.478	2589.81
459.698	2582.81
459.918	2628.81
460.138	2632.81
460.358	2749.81
460.578	2790.81
460.798	2816.81
461.018	2790.81
461.238	2794.81
461.458	2872.81
461.678	2837.81
461.898	2917.81
462.118	2956.81
462.338	2988.81
462.558	3008.81
462.777	3082.81
462.997	3231.81
463.217	3269.81
463.437	3471.81
463.657	3496.81
463.876	3484.81
464.096	3339.81
464.316	3166.81
464.536	3093.81
464.755	3032.81
464.975	2964.81
465.195	2840.81
465.414	2809.81
465.634	2721.81
465.854	2674.81
466.073	2638.81
466.293	2670.81
466.512	2638.81
466.732	2675.81
466.951	2794.81
467.171	2939.81
467.391	2886.81
467.61	2684.81
467.829	2616.81
468.049	2590.81
468.268	2500.81
468.488	2526.81
468.707	2537.81
468.927	2537.81
469.146	2514.81
469.365	2610.81
469.585	2630.81
469.804	2628.81
470.023	2729.81
470.243	2770.81
470.462	2814.81
470.681	2998.81
470.901	3278.81
471.12	3720.81
471.339	3726.81
471.558	3165.81
471.777	2897.81
471.997	2770.81
472.216	2684.81
472.435	2636.81
472.654	2598.81
472.873	2577.81
473.092	2548.81
473.311	2586.81
473.53	2599.81
473.749	2637.81
473.968	2748.81
474.187	2634.81
474.406	2526.81
474.625	2599.81
474.844	2592.81
475.063	2626.81
475.282	2529.81
475.501	2606.81
475.72	2637.81
475.939	2590.81
476.158	2660.81
476.377	2747.81
476.596	2713.81
476.814	2713.81
477.033	2721.81
477.252	2710.81
477.471	2761.81
477.69	2832.81
477.908	2836.81
478.127	2927.81
478.346	2911.81
478.564	2966.81
478.783	3005.81
479.002	3046.81
479.22	3047.81
479.439	3086.81
479.658	3072.81
479.876	3133.81
480.095	3104.81
480.313	3184.81
480.532	3157.81
480.751	3199.81
480.969	3128.81
481.188	3041.81
481.406	3144.81
481.624	3074.81
481.843	3126.81
482.061	3163.81
482.28	3066.81
482.498	3131.81
482.717	3041.81
482.935	3150.81
483.153	3114.81
483.372	3188.81
483.59	3239.81
483.808	3288.81
484.027	3422.81
484.245	3548.81
484.463	4010.81
484.681	4467.81
484.9	4157.81
485.118	3746.81
485.336	3775.81
485.554	3766.81
485.772	4012.81
485.99	4518.81
486.209	4833.81
486.427	4124.81
486.645	3645.81
486.863	3544.81
487.081	3399.81
487.299	3384.81
487.517	3341.81
487.735	3367.81
