Data from SnStandardFlinnAPT0064_QswitchEnergy10_LIBS07252019.E.O._I.C._HRD10591_15-27-17-973.txt Node
Date: Thu Jul 25 15:27:17 EDT 2019
User: cochatt
Spectrometer: HR+D1059
Trigger mode: 1
Integration Time (sec): 1.000000E-1
Scans to average: 1
Electric dark correction enabled: true
Nonlinearity correction enabled: false
Boxcar width: 0
XAxis mode: Wavelengths
Number of Pixels in Spectrum: 2048
>>>>>Begin Spectral Data<<<<<
223.165	-8.81
223.4	-8.81
223.635	-8.81
223.869	-23.81
224.104	-16.81
224.338	-11.81
224.573	-3.81
224.808	-7.81
225.042	-3.81
225.277	5.19
225.511	-16.81
225.746	9.19
225.98	1.19
226.215	12.19
226.449	10.19
226.683	12.19
226.918	12.19
227.152	31.19
227.387	27.19
227.621	43.19
227.856	51.19
228.09	57.19
228.324	39.19
228.559	47.19
228.793	69.19
229.027	66.19
229.262	65.19
229.496	47.19
229.73	54.19
229.964	73.19
230.199	76.19
230.433	71.19
230.667	79.19
230.901	82.19
231.136	75.19
231.37	65.19
231.604	88.19
231.838	103.19
232.072	107.19
232.306	110.19
232.541	88.19
232.775	79.19
233.009	94.19
233.243	89.19
233.477	92.19
233.711	87.19
233.945	103.19
234.179	84.19
234.413	81.19
234.647	81.19
234.881	88.19
235.115	85.19
235.349	79.19
235.583	91.19
235.817	125.19
236.051	119.19
236.285	87.19
236.519	91.19
236.753	86.19
236.987	80.19
237.221	69.19
237.455	86.19
237.689	78.19
237.922	91.19
238.156	86.19
238.39	81.19
238.624	94.19
238.858	83.19
239.091	77.19
239.325	83.19
239.559	88.19
239.793	66.19
240.027	87.19
240.26	77.19
240.494	86.19
240.728	72.19
240.961	78.19
241.195	93.19
241.429	81.19
241.662	95.19
241.896	76.19
242.13	101.19
242.363	126.19
242.597	168.19
242.83	138.19
243.064	143.19
243.298	168.19
243.531	151.19
243.765	91.19
243.998	82.19
244.232	94.19
244.465	70.19
244.699	80.19
244.932	85.19
245.166	80.19
245.399	92.19
245.633	88.19
245.866	79.19
246.099	87.19
246.333	81.19
246.566	72.19
246.8	67.19
247.033	84.19
247.266	75.19
247.5	65.19
247.733	80.19
247.966	87.19
248.2	85.19
248.433	99.19
248.666	122.19
248.899	114.19
249.133	99.19
249.366	79.19
249.599	89.19
249.832	123.19
250.066	134.19
250.299	93.19
250.532	79.19
250.765	91.19
250.998	73.19
251.231	69.19
251.465	86.19
251.698	67.19
251.931	83.19
252.164	73.19
252.397	66.19
252.63	78.19
252.863	87.19
253.096	87.19
253.329	91.19
253.562	92.19
253.795	92.19
254.028	83.19
254.261	94.19
254.494	112.19
254.727	114.19
254.96	146.19
255.193	118.19
255.426	83.19
255.659	93.19
255.892	87.19
256.124	78.19
256.357	89.19
256.59	88.19
256.823	79.19
257.056	113.19
257.289	130.19
257.521	177.19
257.754	125.19
257.987	83.19
258.22	83.19
258.452	90.19
258.685	79.19
258.918	84.19
259.151	91.19
259.383	108.19
259.616	119.19
259.849	141.19
260.081	94.19
260.314	74.19
260.547	76.19
260.779	80.19
261.012	73.19
261.244	78.19
261.477	102.19
261.71	90.19
261.942	85.19
262.175	80.19
262.407	92.19
262.64	66.19
262.872	85.19
263.105	87.19
263.337	86.19
263.57	83.19
263.802	68.19
264.035	91.19
264.267	81.19
264.499	82.19
264.732	98.19
264.964	79.19
265.197	84.19
265.429	91.19
265.661	84.19
265.894	92.19
266.126	129.19
266.358	137.19
266.591	137.19
266.823	89.19
267.055	86.19
267.287	79.19
267.52	79.19
267.752	78.19
267.984	88.19
268.216	85.19
268.448	89.19
268.681	83.19
268.913	84.19
269.145	76.19
269.377	88.19
269.609	86.19
269.841	79.19
270.073	92.19
270.306	130.19
270.538	188.19
270.77	281.19
271.002	372.19
271.234	178.19
271.466	109.19
271.698	91.19
271.93	87.19
272.162	97.19
272.394	88.19
272.626	85.19
272.858	88.19
273.09	103.19
273.322	87.19
273.553	82.19
273.785	82.19
274.017	80.19
274.249	94.19
274.481	88.19
274.713	93.19
274.945	86.19
275.176	84.19
275.408	83.19
275.64	91.19
275.872	92.19
276.104	85.19
276.335	97.19
276.567	102.19
276.799	82.19
277.031	83.19
277.262	102.19
277.494	93.19
277.726	117.19
277.957	151.19
278.189	239.19
278.421	218.19
278.652	187.19
278.884	173.19
279.115	132.19
279.347	110.19
279.579	97.19
279.81	83.19
280.042	98.19
280.273	94.19
280.505	88.19
280.736	101.19
280.968	120.19
281.199	151.19
281.431	219.19
281.662	241.19
281.894	143.19
282.125	103.19
282.356	113.19
282.588	99.19
282.819	109.19
283.051	109.19
283.282	126.19
283.513	180.19
283.745	293.19
283.976	510.19
284.207	766.19
284.439	576.19
284.67	260.19
284.901	244.19
285.132	337.19
285.364	348.19
285.595	214.19
285.826	167.19
286.057	233.19
286.288	382.19
286.52	573.19
286.751	479.19
286.982	187.19
287.213	109.19
287.444	102.19
287.675	103.19
287.906	110.19
288.138	93.19
288.369	103.19
288.6	100.19
288.831	91.19
289.062	99.19
289.293	83.19
289.524	78.19
289.755	91.19
289.986	97.19
290.217	87.19
290.448	94.19
290.679	93.19
290.91	111.19
291.141	141.19
291.371	203.19
291.602	244.19
291.833	164.19
292.064	112.19
292.295	98.19
292.526	94.19
292.757	97.19
292.987	93.19
293.218	77.19
293.449	86.19
293.68	92.19
293.91	69.19
294.141	108.19
294.372	78.19
294.603	92.19
294.833	87.19
295.064	79.19
295.295	96.19
295.525	81.19
295.756	83.19
295.987	80.19
296.217	104.19
296.448	104.19
296.679	95.19
296.909	79.19
297.14	95.19
297.37	95.19
297.601	95.19
297.831	84.19
298.062	109.19
298.292	107.19
298.523	96.19
298.753	103.19
298.984	102.19
299.214	96.19
299.445	105.19
299.675	117.19
299.905	113.19
300.136	120.19
300.366	144.19
300.597	247.19
300.827	408.19
301.057	671.19
301.288	613.19
301.518	230.19
301.748	139.19
301.979	126.19
302.209	121.19
302.439	133.19
302.669	150.19
302.9	251.19
303.13	453.19
303.36	805.19
303.59	1148.19
303.82	819.19
304.051	288.19
304.281	159.19
304.511	109.19
304.741	128.19
304.971	115.19
305.201	117.19
305.431	105.19
305.661	93.19
305.891	100.19
306.121	91.19
306.352	92.19
306.582	86.19
306.812	109.19
307.042	109.19
307.272	102.19
307.502	86.19
307.731	96.19
307.961	114.19
308.191	92.19
308.421	105.19
308.651	94.19
308.881	101.19
309.111	98.19
309.341	113.19
309.571	113.19
309.8	110.19
310.03	94.19
310.26	104.19
310.49	106.19
310.72	101.19
310.949	100.19
311.179	112.19
311.409	102.19
311.639	103.19
311.868	101.19
312.098	111.19
312.328	101.19
312.557	104.19
312.787	129.19
313.017	110.19
313.246	116.19
313.476	99.19
313.706	119.19
313.935	132.19
314.165	173.19
314.394	207.19
314.624	154.19
314.853	122.19
315.083	133.19
315.312	131.19
315.542	127.19
315.771	125.19
316.001	119.19
316.23	133.19
316.46	149.19
316.689	163.19
316.919	243.19
317.148	463.19
317.377	843.19
317.607	1378.19
317.836	1334.19
318.065	493.19
318.295	217.19
318.524	152.19
318.753	130.19
318.983	135.19
319.212	128.19
319.441	129.19
319.67	111.19
319.9	103.19
320.129	108.19
320.358	119.19
320.587	121.19
320.816	119.19
321.046	107.19
321.275	125.19
321.504	122.19
321.733	138.19
321.962	161.19
322.191	145.19
322.42	113.19
322.649	125.19
322.878	122.19
323.108	125.19
323.337	120.19
323.566	123.19
323.795	107.19
324.024	116.19
324.253	128.19
324.482	160.19
324.71	198.19
324.939	270.19
325.168	205.19
325.397	175.19
325.626	238.19
325.855	472.19
326.084	891.19
326.313	1527.19
326.542	1502.19
326.77	586.19
326.999	253.19
327.228	199.19
327.457	210.19
327.686	195.19
327.914	151.19
328.143	123.19
328.372	118.19
328.6	121.19
328.829	121.19
329.058	117.19
329.287	113.19
329.515	108.19
329.744	113.19
329.972	108.19
330.201	110.19
330.43	116.19
330.658	103.19
330.887	114.19
331.115	98.19
331.344	105.19
331.572	114.19
331.801	117.19
332.03	100.19
332.258	123.19
332.486	163.19
332.715	277.19
332.943	466.19
333.172	719.19
333.4	636.19
333.629	230.19
333.857	139.19
334.085	119.19
334.314	132.19
334.542	119.19
334.771	118.19
334.999	114.19
335.227	122.19
335.455	107.19
335.684	123.19
335.912	131.19
336.14	105.19
336.369	107.19
336.597	111.19
336.825	90.19
337.053	108.19
337.281	107.19
337.51	104.19
337.738	98.19
337.966	101.19
338.194	108.19
338.422	104.19
338.65	117.19
338.878	113.19
339.106	117.19
339.334	108.19
339.562	110.19
339.79	103.19
340.018	111.19
340.246	99.19
340.474	94.19
340.702	107.19
340.93	108.19
341.158	116.19
341.386	116.19
341.614	97.19
341.842	107.19
342.07	115.19
342.298	124.19
342.526	106.19
342.754	107.19
342.981	112.19
343.209	96.19
343.437	104.19
343.665	106.19
343.893	104.19
344.12	112.19
344.348	102.19
344.576	114.19
344.804	96.19
345.031	114.19
345.259	110.19
345.487	96.19
345.714	110.19
345.942	107.19
346.17	89.19
346.397	107.19
346.625	102.19
346.853	95.19
347.08	99.19
347.308	99.19
347.535	98.19
347.763	93.19
347.99	108.19
348.218	97.19
348.445	90.19
348.673	111.19
348.9	129.19
349.128	117.19
349.355	123.19
349.583	105.19
349.81	109.19
350.037	117.19
350.265	114.19
350.492	99.19
350.72	91.19
350.947	109.19
351.174	105.19
351.402	102.19
351.629	102.19
351.856	92.19
352.083	110.19
352.311	103.19
352.538	100.19
352.765	104.19
352.992	105.19
353.22	87.19
353.447	98.19
353.674	116.19
353.901	88.19
354.128	103.19
354.355	96.19
354.583	96.19
354.81	99.19
355.037	108.19
355.264	91.19
355.491	104.19
355.718	105.19
355.945	110.19
356.172	109.19
356.399	117.19
356.626	103.19
356.853	105.19
357.08	110.19
357.307	96.19
357.534	108.19
357.761	87.19
357.988	105.19
358.215	100.19
358.441	118.19
358.668	87.19
358.895	127.19
359.122	118.19
359.349	102.19
359.576	116.19
359.802	103.19
360.029	112.19
360.256	103.19
360.483	115.19
360.709	111.19
360.936	110.19
361.163	110.19
361.39	108.19
361.616	104.19
361.843	104.19
362.07	91.19
362.296	108.19
362.523	103.19
362.749	102.19
362.976	96.19
363.203	107.19
363.429	102.19
363.656	108.19
363.882	102.19
364.109	107.19
364.335	107.19
364.562	111.19
364.788	110.19
365.015	116.19
365.241	122.19
365.468	157.19
365.694	211.19
365.92	185.19
366.147	117.19
366.373	109.19
366.599	88.19
366.826	92.19
367.052	98.19
367.278	89.19
367.505	102.19
367.731	97.19
367.957	112.19
368.184	98.19
368.41	111.19
368.636	117.19
368.862	112.19
369.089	102.19
369.315	89.19
369.541	108.19
369.767	102.19
369.993	102.19
370.219	109.19
370.445	99.19
370.672	105.19
370.898	91.19
371.124	106.19
371.35	113.19
371.576	118.19
371.802	102.19
372.028	109.19
372.254	111.19
372.48	100.19
372.706	116.19
372.932	117.19
373.158	113.19
373.384	101.19
373.61	109.19
373.835	120.19
374.061	87.19
374.287	105.19
374.513	96.19
374.739	109.19
374.965	104.19
375.191	92.19
375.416	100.19
375.642	103.19
375.868	111.19
376.094	94.19
376.319	98.19
376.545	97.19
376.771	100.19
376.997	110.19
377.222	95.19
377.448	100.19
377.674	112.19
377.899	96.19
378.125	107.19
378.35	123.19
378.576	104.19
378.802	123.19
379.027	125.19
379.253	135.19
379.478	164.19
379.704	272.19
379.929	734.19
380.155	1472.19
380.38	1556.19
380.606	482.19
380.831	177.19
381.057	132.19
381.282	104.19
381.507	98.19
381.733	110.19
381.958	104.19
382.184	99.19
382.409	107.19
382.634	94.19
382.86	111.19
383.085	104.19
383.31	107.19
383.535	113.19
383.761	105.19
383.986	119.19
384.211	104.19
384.436	79.19
384.662	91.19
384.887	96.19
385.112	98.19
385.337	99.19
385.562	98.19
385.787	117.19
386.013	110.19
386.238	109.19
386.463	103.19
386.688	97.19
386.913	100.19
387.138	103.19
387.363	115.19
387.588	95.19
387.813	104.19
388.038	98.19
388.263	89.19
388.488	108.19
388.713	94.19
388.938	90.19
389.163	104.19
389.387	103.19
389.612	86.19
389.837	95.19
390.062	88.19
390.287	77.19
390.512	98.19
390.736	112.19
390.961	92.19
391.186	109.19
391.411	91.19
391.636	85.19
391.86	102.19
392.085	87.19
392.31	97.19
392.534	81.19
392.759	95.19
392.984	105.19
393.208	109.19
393.433	122.19
393.658	113.19
393.882	93.19
394.107	102.19
394.331	95.19
394.556	96.19
394.78	93.19
395.005	90.19
395.229	93.19
395.454	103.19
395.678	95.19
395.903	105.19
396.127	98.19
396.352	99.19
396.576	95.19
396.801	116.19
397.025	115.19
397.249	96.19
397.474	97.19
397.698	84.19
397.922	100.19
398.147	99.19
398.371	83.19
398.595	98.19
398.82	105.19
399.044	95.19
399.268	83.19
399.492	89.19
399.717	88.19
399.941	96.19
400.165	88.19
400.389	85.19
400.613	84.19
400.837	95.19
401.062	104.19
401.286	97.19
401.51	100.19
401.734	83.19
401.958	102.19
402.182	88.19
402.406	91.19
402.63	106.19
402.854	100.19
403.078	92.19
403.302	76.19
403.526	85.19
403.75	96.19
403.974	102.19
404.198	97.19
404.422	96.19
404.645	95.19
404.869	84.19
405.093	98.19
405.317	86.19
405.541	94.19
405.765	107.19
405.988	115.19
406.212	104.19
406.436	87.19
406.66	98.19
406.883	86.19
407.107	85.19
407.331	88.19
407.555	91.19
407.778	93.19
408.002	96.19
408.226	107.19
408.449	86.19
408.673	89.19
408.896	95.19
409.12	99.19
409.344	95.19
409.567	99.19
409.791	92.19
410.014	94.19
410.238	104.19
410.461	95.19
410.685	83.19
410.908	86.19
411.132	98.19
411.355	93.19
411.578	95.19
411.802	79.19
412.025	89.19
412.249	102.19
412.472	91.19
412.695	98.19
412.919	94.19
413.142	99.19
413.365	94.19
413.589	91.19
413.812	97.19
414.035	96.19
414.258	98.19
414.482	83.19
414.705	99.19
414.928	98.19
415.151	91.19
415.374	84.19
415.597	112.19
415.821	96.19
416.044	100.19
416.267	92.19
416.49	92.19
416.713	95.19
416.936	99.19
417.159	96.19
417.382	96.19
417.605	86.19
417.828	90.19
418.051	89.19
418.274	99.19
418.497	109.19
418.72	103.19
418.943	90.19
419.166	100.19
419.389	101.19
419.611	117.19
419.834	98.19
420.057	98.19
420.28	91.19
420.503	82.19
420.726	101.19
420.948	95.19
421.171	82.19
421.394	96.19
421.617	99.19
421.839	88.19
422.062	73.19
422.285	85.19
422.507	89.19
422.73	96.19
422.953	125.19
423.175	112.19
423.398	82.19
423.621	91.19
423.843	94.19
424.066	96.19
424.288	101.19
424.511	104.19
424.733	103.19
424.956	102.19
425.178	104.19
425.401	93.19
425.623	93.19
425.846	87.19
426.068	95.19
426.291	86.19
426.513	92.19
426.735	89.19
426.958	115.19
427.18	98.19
427.402	97.19
427.625	88.19
427.847	82.19
428.069	103.19
428.292	105.19
428.514	96.19
428.736	83.19
428.958	81.19
429.181	94.19
429.403	94.19
429.625	96.19
429.847	111.19
430.069	98.19
430.292	93.19
430.514	96.19
430.736	94.19
430.958	99.19
431.18	93.19
431.402	79.19
431.624	91.19
431.846	85.19
432.068	98.19
432.29	73.19
432.512	88.19
432.734	91.19
432.956	67.19
433.178	84.19
433.4	98.19
433.622	91.19
433.844	104.19
434.066	92.19
434.287	66.19
434.509	93.19
434.731	105.19
434.953	100.19
435.175	90.19
435.397	98.19
435.618	87.19
435.84	92.19
436.062	72.19
436.284	98.19
436.505	92.19
436.727	102.19
436.949	93.19
437.17	93.19
437.392	83.19
437.614	79.19
437.835	91.19
438.057	80.19
438.278	87.19
438.5	95.19
438.721	87.19
438.943	108.19
439.165	114.19
439.386	91.19
439.608	81.19
439.829	102.19
440.05	114.19
440.272	123.19
440.493	115.19
440.715	85.19
440.936	93.19
441.158	99.19
441.379	100.19
441.6	85.19
441.822	103.19
442.043	113.19
442.264	119.19
442.486	104.19
442.707	86.19
442.928	85.19
443.149	100.19
443.371	96.19
443.592	92.19
443.813	94.19
444.034	101.19
444.255	86.19
444.476	89.19
444.698	81.19
444.919	82.19
445.14	189.19
445.361	145.19
445.582	80.19
445.803	80.19
446.024	96.19
446.245	84.19
446.466	102.19
446.687	112.19
446.908	106.19
447.129	91.19
447.35	102.19
447.571	82.19
447.792	92.19
448.013	86.19
448.234	84.19
448.455	85.19
448.675	87.19
448.896	80.19
449.117	113.19
449.338	125.19
449.559	159.19
449.779	117.19
450	101.19
450.221	98.19
450.442	107.19
450.662	121.19
450.883	102.19
451.104	101.19
451.324	102.19
451.545	107.19
451.766	100.19
451.986	145.19
452.207	193.19
452.428	502.19
452.648	1196.19
452.869	655.19
453.089	189.19
453.31	124.19
453.53	101.19
453.751	123.19
453.971	153.19
454.192	153.19
454.412	112.19
454.633	94.19
454.853	96.19
455.073	101.19
455.294	87.19
455.514	87.19
455.734	87.19
455.955	82.19
456.175	92.19
456.395	89.19
456.616	83.19
456.836	101.19
457.056	74.19
457.276	89.19
457.497	100.19
457.717	119.19
457.937	89.19
458.157	77.19
458.377	86.19
458.598	86.19
458.818	93.19
459.038	85.19
459.258	101.19
459.478	77.19
459.698	87.19
459.918	70.19
460.138	79.19
460.358	83.19
460.578	96.19
460.798	82.19
461.018	88.19
461.238	86.19
461.458	84.19
461.678	100.19
461.898	94.19
462.118	92.19
462.338	84.19
462.558	84.19
462.777	103.19
462.997	84.19
463.217	92.19
463.437	121.19
463.657	171.19
463.876	189.19
464.096	120.19
464.316	97.19
464.536	90.19
464.755	87.19
464.975	91.19
465.195	95.19
465.414	80.19
465.634	83.19
465.854	86.19
466.073	95.19
466.293	85.19
466.512	90.19
466.732	87.19
466.951	101.19
467.171	145.19
467.391	129.19
467.61	103.19
467.829	97.19
468.049	99.19
468.268	84.19
468.488	105.19
468.707	98.19
468.927	85.19
469.146	111.19
469.365	100.19
469.585	95.19
469.804	94.19
470.023	94.19
470.243	97.19
470.462	112.19
470.681	114.19
470.901	122.19
471.12	196.19
471.339	209.19
471.558	132.19
471.777	108.19
471.997	89.19
472.216	98.19
472.435	99.19
472.654	96.19
472.873	88.19
473.092	76.19
473.311	98.19
473.53	100.19
473.749	94.19
473.968	106.19
474.187	88.19
474.406	84.19
474.625	90.19
474.844	89.19
475.063	83.19
475.282	88.19
475.501	92.19
475.72	93.19
475.939	92.19
476.158	106.19
476.377	117.19
476.596	105.19
476.814	82.19
477.033	81.19
477.252	82.19
477.471	89.19
477.69	100.19
477.908	91.19
478.127	87.19
478.346	90.19
478.564	100.19
478.783	92.19
479.002	88.19
479.22	83.19
479.439	92.19
479.658	85.19
479.876	82.19
480.095	82.19
480.313	74.19
480.532	96.19
480.751	103.19
480.969	84.19
481.188	94.19
481.406	88.19
481.624	91.19
481.843	106.19
482.061	110.19
482.28	93.19
482.498	91.19
482.717	83.19
482.935	97.19
483.153	93.19
483.372	104.19
483.59	96.19
483.808	104.19
484.027	98.19
484.245	115.19
484.463	171.19
484.681	207.19
484.9	119.19
485.118	110.19
485.336	102.19
485.554	99.19
485.772	124.19
485.99	167.19
486.209	238.19
486.427	162.19
486.645	117.19
486.863	108.19
487.081	115.19
487.299	86.19
487.517	85.19
487.735	87.19
487.953	90.19
488.171	96.19
488.389	96.19
488.607	84.19
488.825	81.19
489.043	80.19
489.261	92.19
489.479	100.19
489.696	96.19
489.914	86.19
490.132	93.19
490.35	107.19
490.568	83.19
490.786	104.19
491.003	92.19
491.221	107.19
491.439	94.19
491.657	101.19
491.874	105.19
492.092	107.19
492.31	91.19
492.527	103.19
492.745	118.19
492.963	111.19
493.18	99.19
493.398	110.19
493.615	112.19
493.833	103.19
494.05	96.19
494.268	96.19
494.485	88.19
494.703	107.19
494.92	92.19
495.138	91.19
495.355	98.19
495.573	95.19
495.79	102.19
496.008	83.19
496.225	97.19
496.442	102.19
496.66	107.19
496.877	153.19
497.094	143.19
497.312	109.19
497.529	111.19
497.746	80.19
497.963	97.19
498.181	96.19
498.398	118.19
498.615	94.19
498.832	92.19
499.049	94.19
499.267	127.19
499.484	163.19
499.701	116.19
499.918	93.19
500.135	93.19
500.352	101.19
500.569	97.19
500.786	101.19
501.003	100.19
501.22	97.19
501.437	96.19
501.654	101.19
501.871	96.19
502.088	78.19
502.305	102.19
502.522	107.19
502.739	97.19
502.956	103.19
503.172	101.19
503.389	101.19
503.606	92.19
503.823	89.19
504.04	100.19
504.256	83.19
504.473	102.19
504.69	103.19
504.907	109.19
505.123	108.19
505.34	100.19
505.557	88.19
505.773	92.19
505.99	93.19
506.207	91.19
506.423	115.19
506.64	100.19
506.856	115.19
507.073	81.19
507.289	77.19
507.506	91.19
507.722	77.19
507.939	105.19
508.155	97.19
508.372	92.19
508.588	103.19
508.805	104.19
509.021	99.19
509.238	103.19
509.454	123.19
509.67	164.19
509.887	111.19
510.103	91.19
510.319	107.19
510.536	102.19
