Data from SnStandardFlinnAPT0064_LampEnergy10_LIBS07252019.E.O._I.C._HRD10591_15-19-53-493.txt Node
Date: Thu Jul 25 15:19:53 EDT 2019
User: cochatt
Spectrometer: HR+D1059
Trigger mode: 1
Integration Time (sec): 1.000000E-1
Scans to average: 1
Electric dark correction enabled: true
Nonlinearity correction enabled: false
Boxcar width: 0
XAxis mode: Wavelengths
Number of Pixels in Spectrum: 2048
>>>>>Begin Spectral Data<<<<<
223.165	-16.06
223.4	-16.06
223.635	-16.06
223.869	-20.06
224.104	-17.06
224.338	-18.06
224.573	-27.06
224.808	4.94
225.042	5.94
225.277	-12.06
225.511	-2.06
225.746	3.94
225.98	11.94
226.215	-7.06
226.449	12.94
226.683	15.94
226.918	32.94
227.152	30.94
227.387	33.94
227.621	29.94
227.856	47.94
228.09	44.94
228.324	50.94
228.559	47.94
228.793	124.94
229.027	325.94
229.262	363.94
229.496	322.94
229.73	299.94
229.964	298.94
230.199	315.94
230.433	293.94
230.667	315.94
230.901	333.94
231.136	329.94
231.37	363.94
231.604	375.94
231.838	453.94
232.072	546.94
232.306	588.94
232.541	488.94
232.775	438.94
233.009	422.94
233.243	442.94
233.477	471.94
233.711	553.94
233.945	600.94
234.179	552.94
234.413	464.94
234.647	448.94
234.881	488.94
235.115	540.94
235.349	650.94
235.583	796.94
235.817	1040.94
236.051	1010.94
236.285	667.94
236.519	550.94
236.753	522.94
236.987	508.94
237.221	565.94
237.455	543.94
237.689	496.94
237.922	475.94
238.156	501.94
238.39	510.94
238.624	506.94
238.858	512.94
239.091	490.94
239.325	516.94
239.559	525.94
239.793	513.94
240.027	550.94
240.26	539.94
240.494	574.94
240.728	626.94
240.961	627.94
241.195	661.94
241.429	706.94
241.662	725.94
241.896	858.94
242.13	1003.94
242.363	1278.94
242.597	1667.94
242.83	1637.94
243.064	1607.94
243.298	1899.94
243.531	1554.94
243.765	1022.94
243.998	818.94
244.232	729.94
244.465	672.94
244.699	671.94
244.932	671.94
245.166	698.94
245.399	708.94
245.633	700.94
245.866	692.94
246.099	702.94
246.333	686.94
246.566	681.94
246.8	644.94
247.033	649.94
247.266	659.94
247.5	653.94
247.733	682.94
247.966	715.94
248.2	791.94
248.433	890.94
248.666	1048.94
248.899	975.94
249.133	892.94
249.366	914.94
249.599	1006.94
249.832	1144.94
250.066	1117.94
250.299	900.94
250.532	820.94
250.765	772.94
250.998	794.94
251.231	752.94
251.465	739.94
251.698	742.94
251.931	770.94
252.164	787.94
252.397	817.94
252.63	784.94
252.863	816.94
253.096	825.94
253.329	792.94
253.562	766.94
253.795	815.94
254.028	835.94
254.261	836.94
254.494	929.94
254.727	1070.94
254.96	1280.94
255.193	1256.94
255.426	1006.94
255.659	916.94
255.892	892.94
256.124	913.94
256.357	898.94
256.59	936.94
256.823	1011.94
257.056	1146.94
257.289	1405.94
257.521	1568.94
257.754	1232.94
257.987	984.94
258.22	939.94
258.452	931.94
258.685	930.94
258.918	968.94
259.151	1015.94
259.383	1107.94
259.616	1286.94
259.849	1330.94
260.081	1111.94
260.314	1018.94
260.547	972.94
260.779	982.94
261.012	967.94
261.244	985.94
261.477	994.94
261.71	978.94
261.942	990.94
262.175	1032.94
262.407	1032.94
262.64	1071.94
262.872	1117.94
263.105	1132.94
263.337	1184.94
263.57	1243.94
263.802	1290.94
264.035	1338.94
264.267	1356.94
264.499	1363.94
264.732	1420.94
264.964	1444.94
265.197	1457.94
265.429	1437.94
265.661	1476.94
265.894	1561.94
266.126	1749.94
266.358	1948.94
266.591	1911.94
266.823	1653.94
267.055	1471.94
267.287	1361.94
267.52	1340.94
267.752	1288.94
267.984	1266.94
268.216	1248.94
268.448	1261.94
268.681	1270.94
268.913	1243.94
269.145	1238.94
269.377	1236.94
269.609	1285.94
269.841	1336.94
270.073	1421.94
270.306	1641.94
270.538	2269.94
270.77	3276.94
271.002	4090.94
271.234	2905.94
271.466	1944.94
271.698	1594.94
271.93	1444.94
272.162	1367.94
272.394	1338.94
272.626	1273.94
272.858	1246.94
273.09	1239.94
273.322	1255.94
273.553	1240.94
273.785	1233.94
274.017	1224.94
274.249	1244.94
274.481	1233.94
274.713	1230.94
274.945	1228.94
275.176	1236.94
275.408	1243.94
275.64	1259.94
275.872	1240.94
276.104	1298.94
276.335	1276.94
276.567	1279.94
276.799	1300.94
277.031	1379.94
277.262	1347.94
277.494	1452.94
277.726	1578.94
277.957	1932.94
278.189	2198.94
278.421	2061.94
278.652	1848.94
278.884	1725.94
279.115	1538.94
279.347	1465.94
279.579	1420.94
279.81	1427.94
280.042	1421.94
280.273	1458.94
280.505	1452.94
280.736	1491.94
280.968	1631.94
281.199	1827.94
281.431	2090.94
281.662	2162.94
281.894	1846.94
282.125	1703.94
282.356	1736.94
282.588	1704.94
282.819	1753.94
283.051	1869.94
283.282	2099.94
283.513	2577.94
283.745	3747.94
283.976	5858.94
284.207	8354.94
284.439	7696.94
284.67	4872.94
284.901	3977.94
285.132	4006.94
285.364	3765.94
285.595	2850.94
285.826	2542.94
286.057	2922.94
286.288	4042.94
286.52	5378.94
286.751	5120.94
286.982	3193.94
287.213	2380.94
287.444	2092.94
287.675	1925.94
287.906	1858.94
288.138	1835.94
288.369	1733.94
288.6	1731.94
288.831	1721.94
289.062	1705.94
289.293	1695.94
289.524	1708.94
289.755	1749.94
289.986	1746.94
290.217	1739.94
290.448	1716.94
290.679	1748.94
290.91	1791.94
291.141	1936.94
291.371	2102.94
291.602	2210.94
291.833	1959.94
292.064	1785.94
292.295	1702.94
292.526	1741.94
292.757	1679.94
292.987	1612.94
293.218	1605.94
293.449	1661.94
293.68	1589.94
293.91	1591.94
294.141	1605.94
294.372	1570.94
294.603	1621.94
294.833	1595.94
295.064	1584.94
295.295	1559.94
295.525	1583.94
295.756	1576.94
295.987	1595.94
296.217	1610.94
296.448	1648.94
296.679	1579.94
296.909	1610.94
297.14	1640.94
297.37	1627.94
297.601	1675.94
297.831	1643.94
298.062	1671.94
298.292	1671.94
298.523	1669.94
298.753	1718.94
298.984	1730.94
299.214	1742.94
299.445	1765.94
299.675	1821.94
299.905	1858.94
300.136	1972.94
300.366	2249.94
300.597	2800.94
300.827	3960.94
301.057	5432.94
301.288	5528.94
301.518	3594.94
301.748	2730.94
301.979	2463.94
302.209	2386.94
302.439	2370.94
302.669	2493.94
302.9	3122.94
303.13	4304.94
303.36	6323.94
303.59	8549.94
303.82	7531.94
304.051	4502.94
304.281	3212.94
304.511	2663.94
304.741	2428.94
304.971	2267.94
305.201	2146.94
305.431	2054.94
305.661	2020.94
305.891	1940.94
306.121	1923.94
306.352	1893.94
306.582	1848.94
306.812	1882.94
307.042	1863.94
307.272	1875.94
307.502	1876.94
307.731	1844.94
307.961	1848.94
308.191	1840.94
308.421	1861.94
308.651	1851.94
308.881	1813.94
309.111	1870.94
309.341	1822.94
309.571	1867.94
309.8	1878.94
310.03	1858.94
310.26	1858.94
310.49	1875.94
310.72	1899.94
310.949	1890.94
311.179	1950.94
311.409	1950.94
311.639	1961.94
311.868	1979.94
312.098	1959.94
312.328	1999.94
312.557	2001.94
312.787	2038.94
313.017	2015.94
313.246	2056.94
313.476	2034.94
313.706	2107.94
313.935	2247.94
314.165	2387.94
314.394	2543.94
314.624	2387.94
314.853	2257.94
315.083	2184.94
315.312	2178.94
315.542	2236.94
315.771	2230.94
316.001	2280.94
316.23	2394.94
316.46	2493.94
316.689	2795.94
316.919	3325.94
317.148	4734.94
317.377	7386.94
317.607	10791.94
317.836	11336.94
318.065	7026.94
318.295	4570.94
318.524	3611.94
318.753	3110.94
318.983	2814.94
319.212	2659.94
319.441	2631.94
319.67	2489.94
319.9	2466.94
320.129	2423.94
320.358	2454.94
320.587	2381.94
320.816	2446.94
321.046	2356.94
321.275	2385.94
321.504	2420.94
321.733	2498.94
321.962	2556.94
322.191	2591.94
322.42	2582.94
322.649	2523.94
322.878	2560.94
323.108	2545.94
323.337	2555.94
323.566	2616.94
323.795	2694.94
324.024	2755.94
324.253	2805.94
324.482	2926.94
324.71	3054.94
324.939	3299.94
325.168	3378.94
325.397	3552.94
325.626	4158.94
325.855	5827.94
326.084	9058.94
326.313	13020.94
326.542	13786.94
326.77	9673.94
326.999	6324.94
327.228	5234.94
327.457	4946.94
327.686	4992.94
327.914	5351.94
328.143	6194.94
328.372	7508.94
328.6	8144.94
328.829	7331.94
329.058	6057.94
329.287	5279.94
329.515	4772.94
329.744	4440.94
329.972	4162.94
330.201	3995.94
330.43	3811.94
330.658	3675.94
330.887	3641.94
331.115	3578.94
331.344	3606.94
331.572	3544.94
331.801	3554.94
332.03	3540.94
332.258	3623.94
332.486	3835.94
332.715	4448.94
332.943	5474.94
333.172	6789.94
333.4	6918.94
333.629	5093.94
333.857	4689.94
334.085	4633.94
334.314	4880.94
334.542	5265.94
334.771	6270.94
334.999	7664.94
335.227	9736.94
335.455	10809.94
335.684	9774.94
335.912	8068.94
336.14	6757.94
336.369	5949.94
336.597	5388.94
336.825	5021.94
337.053	4620.94
337.281	4400.94
337.51	4184.94
337.738	3914.94
337.966	3794.94
338.194	3730.94
338.422	3567.94
338.65	3403.94
338.878	3386.94
339.106	3272.94
339.334	3218.94
339.562	3173.94
339.79	3152.94
340.018	3059.94
340.246	3052.94
340.474	3074.94
340.702	3090.94
340.93	3088.94
341.158	3127.94
341.386	3051.94
341.614	3026.94
341.842	2928.94
342.07	2880.94
342.298	2869.94
342.526	2776.94
342.754	2743.94
342.981	2752.94
343.209	2727.94
343.437	2836.94
343.665	2790.94
343.893	2827.94
344.12	2876.94
344.348	2749.94
344.576	2747.94
344.804	2712.94
345.031	2642.94
345.259	2627.94
345.487	2606.94
345.714	2577.94
345.942	2571.94
346.17	2588.94
346.397	2614.94
346.625	2511.94
346.853	2566.94
347.08	2551.94
347.308	2571.94
347.535	2562.94
347.763	2559.94
347.99	2494.94
348.218	2505.94
348.445	2533.94
348.673	2470.94
348.9	2499.94
349.128	2504.94
349.355	2456.94
349.583	2439.94
349.81	2455.94
350.037	2433.94
350.265	2419.94
350.492	2446.94
350.72	2468.94
350.947	2375.94
351.174	2432.94
351.402	2448.94
351.629	2416.94
351.856	2437.94
352.083	2467.94
352.311	2452.94
352.538	2393.94
352.765	2450.94
352.992	2358.94
353.22	2410.94
353.447	2397.94
353.674	2395.94
353.901	2404.94
354.128	2432.94
354.355	2404.94
354.583	2422.94
354.81	2411.94
355.037	2430.94
355.264	2467.94
355.491	2436.94
355.718	2488.94
355.945	2495.94
356.172	2479.94
356.399	2518.94
356.626	2496.94
356.853	2515.94
357.08	2535.94
357.307	2564.94
357.534	2609.94
357.761	2680.94
357.988	2619.94
358.215	2597.94
358.441	2583.94
358.668	2572.94
358.895	2563.94
359.122	2551.94
359.349	2565.94
359.576	2522.94
359.802	2549.94
360.029	2578.94
360.256	2548.94
360.483	2554.94
360.709	2545.94
360.936	2608.94
361.163	2547.94
361.39	2546.94
361.616	2576.94
361.843	2623.94
362.07	2568.94
362.296	2568.94
362.523	2591.94
362.749	2602.94
362.976	2558.94
363.203	2522.94
363.429	2534.94
363.656	2555.94
363.882	2540.94
364.109	2560.94
364.335	2482.94
364.562	2548.94
364.788	2558.94
365.015	2588.94
365.241	2646.94
365.468	2857.94
365.694	2996.94
365.92	2862.94
366.147	2682.94
366.373	2630.94
366.599	2630.94
366.826	2593.94
367.052	2587.94
367.278	2619.94
367.505	2614.94
367.731	2586.94
367.957	2581.94
368.184	2646.94
368.41	2704.94
368.636	2649.94
368.862	2716.94
369.089	2656.94
369.315	2674.94
369.541	2676.94
369.767	2595.94
369.993	2643.94
370.219	2662.94
370.445	2656.94
370.672	2715.94
370.898	2708.94
371.124	2696.94
371.35	2697.94
371.576	2744.94
371.802	2747.94
372.028	2755.94
372.254	2738.94
372.48	2775.94
372.706	2795.94
372.932	2810.94
373.158	2766.94
373.384	2771.94
373.61	2780.94
373.835	2804.94
374.061	2790.94
374.287	2850.94
374.513	2808.94
374.739	2888.94
374.965	2918.94
375.191	2882.94
375.416	2920.94
375.642	2879.94
375.868	2855.94
376.094	2761.94
376.319	2794.94
376.545	2778.94
376.771	2738.94
376.997	2755.94
377.222	2728.94
377.448	2714.94
377.674	2706.94
377.899	2726.94
378.125	2786.94
378.35	2732.94
378.576	2754.94
378.802	2762.94
379.027	2834.94
379.253	2940.94
379.478	3088.94
379.704	3637.94
379.929	5294.94
380.155	8090.94
380.38	8936.94
380.606	5473.94
380.831	3825.94
381.057	3316.94
381.282	3034.94
381.507	2936.94
381.733	2809.94
381.958	2799.94
382.184	2746.94
382.409	2776.94
382.634	2682.94
382.86	2681.94
383.085	2675.94
383.31	2639.94
383.535	2736.94
383.761	2663.94
383.986	2711.94
384.211	2794.94
384.436	2770.94
384.662	2786.94
384.887	2820.94
385.112	2786.94
385.337	2796.94
385.562	2771.94
385.787	2805.94
386.013	2822.94
386.238	2790.94
386.463	2825.94
386.688	2817.94
386.913	2764.94
387.138	2775.94
387.363	2795.94
387.588	2753.94
387.813	2789.94
388.038	2747.94
388.263	2779.94
388.488	2774.94
388.713	2778.94
388.938	2754.94
389.163	2775.94
389.387	2777.94
389.612	2722.94
389.837	2752.94
390.062	2795.94
390.287	2814.94
390.512	2812.94
390.736	2843.94
390.961	2890.94
391.186	2864.94
391.411	2897.94
391.636	2960.94
391.86	2931.94
392.085	2923.94
392.31	2905.94
392.534	2887.94
392.759	2835.94
392.984	2871.94
393.208	2866.94
393.433	2844.94
393.658	2822.94
393.882	2788.94
394.107	2810.94
394.331	2832.94
394.556	2778.94
394.78	2815.94
395.005	2839.94
395.229	2852.94
395.454	2902.94
395.678	2882.94
395.903	2889.94
396.127	2886.94
396.352	2864.94
396.576	2870.94
396.801	2844.94
397.025	2923.94
397.249	2946.94
397.474	2907.94
397.698	2898.94
397.922	2970.94
398.147	2952.94
398.371	2981.94
398.595	3044.94
398.82	3044.94
399.044	3179.94
399.268	3397.94
399.492	3574.94
399.717	3692.94
399.941	3595.94
400.165	3529.94
400.389	3359.94
400.613	3230.94
400.837	3160.94
401.062	3134.94
401.286	3093.94
401.51	3096.94
401.734	3059.94
401.958	3095.94
402.182	3026.94
402.406	3008.94
402.63	3137.94
402.854	3175.94
403.078	3111.94
403.302	3165.94
403.526	3154.94
403.75	3145.94
403.974	3195.94
404.198	3122.94
404.422	3192.94
404.645	3227.94
404.869	3153.94
405.093	3183.94
405.317	3204.94
405.541	3209.94
405.765	3269.94
405.988	3320.94
406.212	3306.94
406.436	3251.94
406.66	3315.94
406.883	3285.94
407.107	3400.94
407.331	3416.94
407.555	3469.94
407.778	3390.94
408.002	3417.94
408.226	3401.94
408.449	3436.94
408.673	3245.94
408.896	3278.94
409.12	3238.94
409.344	3270.94
409.567	3195.94
409.791	3192.94
410.014	3181.94
410.238	3157.94
410.461	3174.94
410.685	3142.94
410.908	3144.94
411.132	3148.94
411.355	3047.94
411.578	3081.94
411.802	3087.94
412.025	3047.94
412.249	3061.94
412.472	3013.94
412.695	3045.94
412.919	2985.94
413.142	2992.94
413.365	2974.94
413.589	3041.94
413.812	3032.94
414.035	2970.94
414.258	2992.94
414.482	2992.94
414.705	2983.94
414.928	3024.94
415.151	2971.94
415.374	2979.94
415.597	2968.94
415.821	2936.94
416.044	2909.94
416.267	2863.94
416.49	2858.94
416.713	2865.94
416.936	2903.94
417.159	2869.94
417.382	2864.94
417.605	2869.94
417.828	2873.94
418.051	2870.94
418.274	2923.94
418.497	2937.94
418.72	2990.94
418.943	2924.94
419.166	3059.94
419.389	3246.94
419.611	3207.94
419.834	3042.94
420.057	3038.94
420.28	2935.94
420.503	2926.94
420.726	2876.94
420.948	2849.94
421.171	2848.94
421.394	2917.94
421.617	2908.94
421.839	2911.94
422.062	2922.94
422.285	2883.94
422.507	2942.94
422.73	2962.94
422.953	2966.94
423.175	2939.94
423.398	2980.94
423.621	2903.94
423.843	2898.94
424.066	2878.94
424.288	2827.94
424.511	2851.94
424.733	2918.94
424.956	2868.94
425.178	2882.94
425.401	2863.94
425.623	2835.94
425.846	2805.94
426.068	2775.94
426.291	2734.94
426.513	2785.94
426.735	2736.94
426.958	2766.94
427.18	2720.94
427.402	2751.94
427.625	2758.94
427.847	2648.94
428.069	2722.94
428.292	2776.94
428.514	2678.94
428.736	2640.94
428.958	2696.94
429.181	2665.94
429.403	2622.94
429.625	2676.94
429.847	2682.94
430.069	2746.94
430.292	2812.94
430.514	2872.94
430.736	2907.94
430.958	2721.94
431.18	2622.94
431.402	2636.94
431.624	2594.94
431.846	2608.94
432.068	2651.94
432.29	2613.94
432.512	2576.94
432.734	2697.94
432.956	2638.94
433.178	2670.94
433.4	2690.94
433.622	2664.94
433.844	2697.94
434.066	2649.94
434.287	2672.94
434.509	2701.94
434.731	2763.94
434.953	2766.94
435.175	2797.94
435.397	2786.94
435.618	2712.94
435.84	2680.94
436.062	2674.94
436.284	2658.94
436.505	2575.94
436.727	2673.94
436.949	2635.94
437.17	2628.94
437.392	2624.94
437.614	2602.94
437.835	2566.94
438.057	2547.94
438.278	2553.94
438.5	2574.94
438.721	2678.94
438.943	2693.94
439.165	2806.94
439.386	2740.94
439.608	2736.94
439.829	2758.94
440.05	2867.94
440.272	2917.94
440.493	2822.94
440.715	2714.94
440.936	2744.94
441.158	2702.94
441.379	2754.94
441.6	2946.94
441.822	2981.94
442.043	3115.94
442.264	3209.94
442.486	3049.94
442.707	2931.94
442.928	2811.94
443.149	2857.94
443.371	2817.94
443.592	2828.94
443.813	2894.94
444.034	2894.94
444.255	2927.94
444.476	2939.94
444.698	2984.94
444.919	3035.94
445.14	3110.94
445.361	2966.94
445.582	2924.94
445.803	2846.94
446.024	2837.94
446.245	2842.94
446.466	2888.94
446.687	2765.94
446.908	2742.94
447.129	2719.94
447.35	2690.94
447.571	2713.94
447.792	2582.94
448.013	2617.94
448.234	2586.94
448.455	2596.94
448.675	2646.94
448.896	2688.94
449.117	2788.94
449.338	3076.94
449.559	3146.94
449.779	2870.94
450	2642.94
450.221	2639.94
450.442	2577.94
450.662	2568.94
450.883	2535.94
451.104	2576.94
451.324	2558.94
451.545	2550.94
451.766	2558.94
451.986	2667.94
452.207	2862.94
452.428	3706.94
452.648	5743.94
452.869	4806.94
453.089	3245.94
453.31	3050.94
453.53	3019.94
453.751	3090.94
453.971	3262.94
454.192	3192.94
454.412	2767.94
454.633	2654.94
454.853	2530.94
455.073	2482.94
455.294	2513.94
455.514	2455.94
455.734	2463.94
455.955	2450.94
456.175	2437.94
456.395	2409.94
456.616	2464.94
456.836	2480.94
457.056	2490.94
457.276	2504.94
457.497	2664.94
457.717	2690.94
457.937	2549.94
458.157	2609.94
458.377	2545.94
458.598	2612.94
458.818	2609.94
459.038	2602.94
459.258	2625.94
459.478	2679.94
459.698	2684.94
459.918	2698.94
460.138	2729.94
460.358	2859.94
460.578	2814.94
460.798	2918.94
461.018	2870.94
461.238	2850.94
461.458	2942.94
461.678	2919.94
461.898	3014.94
462.118	3044.94
462.338	3095.94
462.558	3097.94
462.777	3165.94
462.997	3279.94
463.217	3357.94
463.437	3518.94
463.657	3584.94
463.876	3522.94
464.096	3403.94
464.316	3246.94
464.536	3216.94
464.755	3129.94
464.975	3074.94
465.195	2944.94
465.414	2888.94
465.634	2806.94
465.854	2777.94
466.073	2714.94
466.293	2675.94
466.512	2691.94
466.732	2701.94
466.951	2870.94
467.171	3032.94
467.391	2991.94
467.61	2744.94
467.829	2618.94
468.049	2634.94
468.268	2592.94
468.488	2564.94
468.707	2613.94
468.927	2634.94
469.146	2599.94
469.365	2663.94
469.585	2689.94
469.804	2736.94
470.023	2798.94
470.243	2807.94
470.462	2944.94
470.681	3051.94
470.901	3376.94
471.12	3842.94
471.339	3827.94
471.558	3248.94
471.777	2934.94
471.997	2800.94
472.216	2737.94
472.435	2680.94
472.654	2633.94
472.873	2628.94
473.092	2649.94
473.311	2643.94
473.53	2650.94
473.749	2731.94
473.968	2822.94
474.187	2656.94
474.406	2615.94
474.625	2650.94
474.844	2643.94
475.063	2635.94
475.282	2606.94
475.501	2626.94
475.72	2691.94
475.939	2704.94
476.158	2727.94
476.377	2846.94
476.596	2801.94
476.814	2790.94
477.033	2782.94
477.252	2806.94
477.471	2842.94
477.69	2917.94
477.908	2973.94
478.127	3002.94
478.346	2965.94
478.564	3034.94
478.783	3073.94
479.002	3076.94
479.22	3119.94
479.439	3099.94
479.658	3142.94
479.876	3157.94
480.095	3172.94
480.313	3251.94
480.532	3273.94
480.751	3230.94
480.969	3243.94
481.188	3234.94
481.406	3191.94
481.624	3182.94
481.843	3236.94
482.061	3242.94
482.28	3217.94
482.498	3206.94
482.717	3198.94
482.935	3255.94
483.153	3298.94
483.372	3249.94
483.59	3371.94
483.808	3421.94
484.027	3472.94
484.245	3627.94
484.463	4102.94
484.681	4570.94
484.9	4180.94
485.118	3890.94
485.336	3801.94
485.554	3844.94
485.772	4116.94
485.99	4660.94
486.209	4940.94
486.427	4217.94
486.645	3762.94
486.863	3570.94
487.081	3434.94
487.299	3425.94
487.517	3363.94
487.735	3473.94
