Data from SnStandardFlinnAPT0064_LampEnergy5.5_LIBS07252019.E.O._I.C._HRD10591_15-16-17-491.txt Node
Date: Thu Jul 25 15:16:17 EDT 2019
User: cochatt
Spectrometer: HR+D1059
Trigger mode: 1
Integration Time (sec): 1.000000E-1
Scans to average: 1
Electric dark correction enabled: true
Nonlinearity correction enabled: false
Boxcar width: 0
XAxis mode: Wavelengths
Number of Pixels in Spectrum: 2048
>>>>>Begin Spectral Data<<<<<
223.165	-9.19
223.4	-9.19
223.635	-9.19
223.869	-32.19
224.104	-16.19
224.338	-12.19
224.573	-15.19
224.808	-25.19
225.042	-8.19
225.277	-3.19
225.511	4.81
225.746	-2.19
225.98	0.81
226.215	-1.19
226.449	25.81
226.683	32.81
226.918	25.81
227.152	34.81
227.387	24.81
227.621	24.81
227.856	29.81
228.09	24.81
228.324	38.81
228.559	55.81
228.793	78.81
229.027	147.81
229.262	160.81
229.496	149.81
229.73	160.81
229.964	151.81
230.199	160.81
230.433	147.81
230.667	153.81
230.901	156.81
231.136	164.81
231.37	177.81
231.604	191.81
231.838	209.81
232.072	249.81
232.306	245.81
232.541	214.81
232.775	198.81
233.009	195.81
233.243	197.81
233.477	227.81
233.711	223.81
233.945	248.81
234.179	228.81
234.413	230.81
234.647	204.81
234.881	241.81
235.115	229.81
235.349	257.81
235.583	342.81
235.817	422.81
236.051	408.81
236.285	303.81
236.519	240.81
236.753	225.81
236.987	234.81
237.221	228.81
237.455	228.81
237.689	220.81
237.922	217.81
238.156	207.81
238.39	234.81
238.624	218.81
238.858	218.81
239.091	222.81
239.325	229.81
239.559	220.81
239.793	237.81
240.027	244.81
240.26	247.81
240.494	252.81
240.728	261.81
240.961	277.81
241.195	282.81
241.429	287.81
241.662	297.81
241.896	339.81
242.13	403.81
242.363	513.81
242.597	659.81
242.83	603.81
243.064	633.81
243.298	697.81
243.531	581.81
243.765	403.81
243.998	323.81
244.232	307.81
244.465	291.81
244.699	301.81
244.932	277.81
245.166	299.81
245.399	303.81
245.633	306.81
245.866	316.81
246.099	285.81
246.333	292.81
246.566	298.81
246.8	276.81
247.033	286.81
247.266	282.81
247.5	294.81
247.733	315.81
247.966	312.81
248.2	311.81
248.433	362.81
248.666	416.81
248.899	385.81
249.133	355.81
249.366	346.81
249.599	405.81
249.832	425.81
250.066	429.81
250.299	352.81
250.532	364.81
250.765	310.81
250.998	317.81
251.231	336.81
251.465	342.81
251.698	334.81
251.931	355.81
252.164	333.81
252.397	339.81
252.63	342.81
252.863	350.81
253.096	343.81
253.329	349.81
253.562	327.81
253.795	348.81
254.028	358.81
254.261	365.81
254.494	387.81
254.727	437.81
254.96	489.81
255.193	502.81
255.426	406.81
255.659	372.81
255.892	372.81
256.124	371.81
256.357	376.81
256.59	407.81
256.823	427.81
257.056	434.81
257.289	531.81
257.521	594.81
257.754	488.81
257.987	412.81
258.22	392.81
258.452	395.81
258.685	417.81
258.918	413.81
259.151	433.81
259.383	471.81
259.616	479.81
259.849	533.81
260.081	447.81
260.314	449.81
260.547	418.81
260.779	424.81
261.012	435.81
261.244	432.81
261.477	431.81
261.71	445.81
261.942	449.81
262.175	455.81
262.407	461.81
262.64	472.81
262.872	465.81
263.105	507.81
263.337	509.81
263.57	566.81
263.802	558.81
264.035	551.81
264.267	574.81
264.499	615.81
264.732	621.81
264.964	647.81
265.197	644.81
265.429	625.81
265.661	663.81
265.894	680.81
266.126	731.81
266.358	806.81
266.591	789.81
266.823	713.81
267.055	613.81
267.287	625.81
267.52	589.81
267.752	567.81
267.984	569.81
268.216	557.81
268.448	559.81
268.681	553.81
268.913	553.81
269.145	556.81
269.377	543.81
269.609	547.81
269.841	563.81
270.073	595.81
270.306	672.81
270.538	888.81
270.77	1245.81
271.002	1517.81
271.234	1088.81
271.466	744.81
271.698	637.81
271.93	568.81
272.162	577.81
272.394	575.81
272.626	536.81
272.858	545.81
273.09	527.81
273.322	514.81
273.553	527.81
273.785	521.81
274.017	520.81
274.249	532.81
274.481	520.81
274.713	501.81
274.945	542.81
275.176	534.81
275.408	535.81
275.64	528.81
275.872	515.81
276.104	526.81
276.335	539.81
276.567	567.81
276.799	555.81
277.031	550.81
277.262	547.81
277.494	576.81
277.726	661.81
277.957	711.81
278.189	775.81
278.421	761.81
278.652	697.81
278.884	666.81
279.115	621.81
279.347	580.81
279.579	594.81
279.81	605.81
280.042	587.81
280.273	598.81
280.505	625.81
280.736	612.81
280.968	663.81
281.199	714.81
281.431	769.81
281.662	788.81
281.894	736.81
282.125	696.81
282.356	684.81
282.588	702.81
282.819	697.81
283.051	752.81
283.282	805.81
283.513	982.81
283.745	1447.81
283.976	2201.81
284.207	3120.81
284.439	2753.81
284.67	1695.81
284.901	1396.81
285.132	1363.81
285.364	1271.81
285.595	1032.81
285.826	933.81
286.057	1122.81
286.288	1520.81
286.52	1994.81
286.751	1867.81
286.982	1136.81
287.213	877.81
287.444	785.81
287.675	728.81
287.906	732.81
288.138	700.81
288.369	713.81
288.6	718.81
288.831	696.81
289.062	702.81
289.293	708.81
289.524	699.81
289.755	724.81
289.986	726.81
290.217	721.81
290.448	711.81
290.679	702.81
290.91	723.81
291.141	776.81
291.371	765.81
291.602	799.81
291.833	763.81
292.064	712.81
292.295	703.81
292.526	700.81
292.757	671.81
292.987	677.81
293.218	667.81
293.449	662.81
293.68	669.81
293.91	667.81
294.141	630.81
294.372	663.81
294.603	670.81
294.833	670.81
295.064	679.81
295.295	650.81
295.525	661.81
295.756	644.81
295.987	663.81
296.217	670.81
296.448	672.81
296.679	692.81
296.909	670.81
297.14	683.81
297.37	699.81
297.601	673.81
297.831	667.81
298.062	694.81
298.292	705.81
298.523	706.81
298.753	717.81
298.984	711.81
299.214	708.81
299.445	717.81
299.675	728.81
299.905	736.81
300.136	786.81
300.366	884.81
300.597	1122.81
300.827	1456.81
301.057	1951.81
301.288	1975.81
301.518	1261.81
301.748	1009.81
301.979	943.81
302.209	892.81
302.439	907.81
302.669	963.81
302.9	1132.81
303.13	1577.81
303.36	2265.81
303.59	3036.81
303.82	2607.81
304.051	1561.81
304.281	1165.81
304.511	983.81
304.741	929.81
304.971	860.81
305.201	845.81
305.431	828.81
305.661	791.81
305.891	789.81
306.121	764.81
306.352	765.81
306.582	748.81
306.812	737.81
307.042	795.81
307.272	765.81
307.502	741.81
307.731	776.81
307.961	771.81
308.191	769.81
308.421	753.81
308.651	745.81
308.881	766.81
309.111	758.81
309.341	754.81
309.571	749.81
309.8	777.81
310.03	791.81
310.26	770.81
310.49	798.81
310.72	799.81
310.949	802.81
311.179	781.81
311.409	790.81
311.639	809.81
311.868	797.81
312.098	808.81
312.328	820.81
312.557	847.81
312.787	847.81
313.017	833.81
313.246	808.81
313.476	827.81
313.706	869.81
313.935	912.81
314.165	968.81
314.394	965.81
314.624	945.81
314.853	877.81
315.083	926.81
315.312	909.81
315.542	891.81
315.771	916.81
316.001	889.81
316.23	915.81
316.46	996.81
316.689	1070.81
316.919	1279.81
317.148	1803.81
317.377	2748.81
317.607	4079.81
317.836	4153.81
318.065	2452.81
318.295	1590.81
318.524	1328.81
318.753	1147.81
318.983	1060.81
319.212	1030.81
319.441	1010.81
319.67	983.81
319.9	967.81
320.129	982.81
320.358	979.81
320.587	948.81
320.816	987.81
321.046	993.81
321.275	995.81
321.504	991.81
321.733	988.81
321.962	1000.81
322.191	1018.81
322.42	1037.81
322.649	1004.81
322.878	1019.81
323.108	1016.81
323.337	1027.81
323.566	1023.81
323.795	1052.81
324.024	1080.81
324.253	1112.81
324.482	1115.81
324.71	1179.81
324.939	1247.81
325.168	1295.81
325.397	1344.81
325.626	1551.81
325.855	2137.81
326.084	3382.81
326.313	4939.81
326.542	5243.81
326.77	3317.81
326.999	2204.81
327.228	1841.81
327.457	1810.81
327.686	1762.81
327.914	1935.81
328.143	2139.81
328.372	2539.81
328.6	2722.81
328.829	2498.81
329.058	2155.81
329.287	1984.81
329.515	1786.81
329.744	1674.81
329.972	1604.81
330.201	1536.81
330.43	1480.81
330.658	1420.81
330.887	1422.81
331.115	1411.81
331.344	1407.81
331.572	1389.81
331.801	1404.81
332.03	1371.81
332.258	1425.81
332.486	1499.81
332.715	1671.81
332.943	2012.81
333.172	2433.81
333.4	2412.81
333.629	1883.81
333.857	1749.81
334.085	1779.81
334.314	1819.81
334.542	1991.81
334.771	2287.81
334.999	2726.81
335.227	3315.81
335.455	3719.81
335.684	3422.81
335.912	2929.81
336.14	2459.81
336.369	2237.81
336.597	2069.81
336.825	1933.81
337.053	1809.81
337.281	1687.81
337.51	1619.81
337.738	1552.81
337.966	1501.81
338.194	1429.81
338.422	1406.81
338.65	1373.81
338.878	1348.81
339.106	1355.81
339.334	1299.81
339.562	1288.81
339.79	1247.81
340.018	1243.81
340.246	1225.81
340.474	1252.81
340.702	1206.81
340.93	1229.81
341.158	1239.81
341.386	1214.81
341.614	1244.81
341.842	1204.81
342.07	1199.81
342.298	1175.81
342.526	1155.81
342.754	1160.81
342.981	1148.81
343.209	1148.81
343.437	1155.81
343.665	1166.81
343.893	1156.81
344.12	1191.81
344.348	1184.81
344.576	1145.81
344.804	1104.81
345.031	1105.81
345.259	1097.81
345.487	1090.81
345.714	1077.81
345.942	1045.81
346.17	1069.81
346.397	1067.81
346.625	1083.81
346.853	1054.81
347.08	1044.81
347.308	1044.81
347.535	1034.81
347.763	1031.81
347.99	1049.81
348.218	1031.81
348.445	1030.81
348.673	1023.81
348.9	1028.81
349.128	1057.81
349.355	1046.81
349.583	1060.81
349.81	1035.81
350.037	1014.81
350.265	1031.81
350.492	1023.81
350.72	996.81
350.947	987.81
351.174	991.81
351.402	1006.81
351.629	1021.81
351.856	1010.81
352.083	1010.81
352.311	1004.81
352.538	972.81
352.765	992.81
352.992	1020.81
353.22	1023.81
353.447	1005.81
353.674	1020.81
353.901	994.81
354.128	1000.81
354.355	992.81
354.583	1028.81
354.81	1021.81
355.037	1037.81
355.264	1017.81
355.491	1052.81
355.718	1053.81
355.945	1026.81
356.172	1014.81
356.399	1039.81
356.626	996.81
356.853	1033.81
357.08	1051.81
357.307	1055.81
357.534	1064.81
357.761	1096.81
357.988	1084.81
358.215	1068.81
358.441	1067.81
358.668	1074.81
358.895	1069.81
359.122	1056.81
359.349	1053.81
359.576	1072.81
359.802	1047.81
360.029	1072.81
360.256	1093.81
360.483	1095.81
360.709	1078.81
360.936	1051.81
361.163	1065.81
361.39	1068.81
361.616	1103.81
361.843	1097.81
362.07	1102.81
362.296	1063.81
362.523	1042.81
362.749	1104.81
362.976	1103.81
363.203	1077.81
363.429	1059.81
363.656	1044.81
363.882	1093.81
364.109	1064.81
364.335	1074.81
364.562	1091.81
364.788	1071.81
365.015	1065.81
365.241	1089.81
365.468	1159.81
365.694	1166.81
365.92	1161.81
366.147	1109.81
366.373	1079.81
366.599	1092.81
366.826	1085.81
367.052	1123.81
367.278	1118.81
367.505	1064.81
367.731	1106.81
367.957	1087.81
368.184	1129.81
368.41	1101.81
368.636	1095.81
368.862	1110.81
369.089	1109.81
369.315	1123.81
369.541	1144.81
369.767	1101.81
369.993	1111.81
370.219	1109.81
370.445	1126.81
370.672	1125.81
370.898	1133.81
371.124	1109.81
371.35	1153.81
371.576	1127.81
371.802	1165.81
372.028	1164.81
372.254	1162.81
372.48	1168.81
372.706	1204.81
372.932	1171.81
373.158	1171.81
373.384	1195.81
373.61	1206.81
373.835	1167.81
374.061	1157.81
374.287	1183.81
374.513	1167.81
374.739	1224.81
374.965	1204.81
375.191	1245.81
375.416	1223.81
375.642	1204.81
375.868	1206.81
376.094	1187.81
376.319	1171.81
376.545	1185.81
376.771	1171.81
376.997	1169.81
377.222	1138.81
377.448	1160.81
377.674	1153.81
377.899	1180.81
378.125	1148.81
378.35	1175.81
378.576	1144.81
378.802	1159.81
379.027	1195.81
379.253	1220.81
379.478	1269.81
379.704	1437.81
379.929	2005.81
380.155	2925.81
380.38	3122.81
380.606	2001.81
380.831	1449.81
381.057	1288.81
381.282	1214.81
381.507	1191.81
381.733	1183.81
381.958	1177.81
382.184	1147.81
382.409	1154.81
382.634	1180.81
382.86	1149.81
383.085	1135.81
383.31	1146.81
383.535	1175.81
383.761	1153.81
383.986	1160.81
384.211	1154.81
384.436	1174.81
384.662	1160.81
384.887	1186.81
385.112	1173.81
385.337	1147.81
385.562	1196.81
385.787	1205.81
386.013	1199.81
386.238	1217.81
386.463	1217.81
386.688	1172.81
386.913	1197.81
387.138	1198.81
387.363	1186.81
387.588	1165.81
387.813	1161.81
388.038	1171.81
388.263	1173.81
388.488	1158.81
388.713	1204.81
388.938	1180.81
389.163	1153.81
389.387	1175.81
389.612	1154.81
389.837	1206.81
390.062	1169.81
390.287	1167.81
390.512	1190.81
390.736	1228.81
390.961	1221.81
391.186	1232.81
391.411	1222.81
391.636	1198.81
391.86	1250.81
392.085	1262.81
392.31	1217.81
392.534	1238.81
392.759	1187.81
392.984	1205.81
393.208	1244.81
393.433	1260.81
393.658	1260.81
393.882	1220.81
394.107	1208.81
394.331	1198.81
394.556	1200.81
394.78	1220.81
395.005	1232.81
395.229	1215.81
395.454	1255.81
395.678	1233.81
395.903	1236.81
396.127	1254.81
396.352	1220.81
396.576	1212.81
396.801	1251.81
397.025	1260.81
397.249	1237.81
397.474	1225.81
397.698	1219.81
397.922	1282.81
398.147	1271.81
398.371	1261.81
398.595	1300.81
398.82	1359.81
399.044	1366.81
399.268	1421.81
399.492	1487.81
399.717	1587.81
399.941	1595.81
400.165	1525.81
400.389	1455.81
400.613	1426.81
400.837	1360.81
401.062	1351.81
401.286	1332.81
401.51	1316.81
401.734	1303.81
401.958	1363.81
402.182	1346.81
402.406	1329.81
402.63	1285.81
402.854	1341.81
403.078	1345.81
403.302	1333.81
403.526	1336.81
403.75	1343.81
403.974	1388.81
404.198	1348.81
404.422	1359.81
404.645	1355.81
404.869	1326.81
405.093	1374.81
405.317	1339.81
405.541	1403.81
405.765	1398.81
405.988	1378.81
406.212	1407.81
406.436	1391.81
406.66	1437.81
406.883	1427.81
407.107	1447.81
407.331	1480.81
407.555	1483.81
407.778	1481.81
408.002	1457.81
408.226	1439.81
408.449	1443.81
408.673	1399.81
408.896	1403.81
409.12	1403.81
409.344	1381.81
409.567	1319.81
409.791	1372.81
410.014	1339.81
410.238	1369.81
410.461	1359.81
410.685	1366.81
410.908	1319.81
411.132	1333.81
411.355	1295.81
411.578	1339.81
411.802	1295.81
412.025	1309.81
412.249	1301.81
412.472	1317.81
412.695	1296.81
412.919	1295.81
413.142	1293.81
413.365	1275.81
413.589	1304.81
413.812	1286.81
414.035	1256.81
414.258	1268.81
414.482	1259.81
414.705	1304.81
414.928	1312.81
415.151	1269.81
415.374	1294.81
415.597	1275.81
415.821	1241.81
416.044	1227.81
416.267	1232.81
416.49	1238.81
416.713	1262.81
416.936	1249.81
417.159	1255.81
417.382	1206.81
417.605	1253.81
417.828	1243.81
418.051	1232.81
418.274	1261.81
418.497	1246.81
418.72	1261.81
418.943	1259.81
419.166	1310.81
419.389	1382.81
419.611	1379.81
419.834	1333.81
420.057	1323.81
420.28	1272.81
420.503	1226.81
420.726	1252.81
420.948	1248.81
421.171	1247.81
421.394	1278.81
421.617	1270.81
421.839	1239.81
422.062	1255.81
422.285	1207.81
422.507	1269.81
422.73	1265.81
422.953	1274.81
423.175	1253.81
423.398	1271.81
423.621	1229.81
423.843	1247.81
424.066	1232.81
424.288	1269.81
424.511	1276.81
424.733	1234.81
424.956	1245.81
425.178	1231.81
425.401	1231.81
425.623	1230.81
425.846	1213.81
426.068	1223.81
426.291	1172.81
426.513	1219.81
426.735	1196.81
426.958	1169.81
427.18	1168.81
427.402	1195.81
427.625	1164.81
427.847	1170.81
428.069	1138.81
428.292	1164.81
428.514	1159.81
428.736	1143.81
428.958	1164.81
429.181	1101.81
429.403	1147.81
429.625	1140.81
429.847	1131.81
430.069	1144.81
430.292	1193.81
430.514	1203.81
430.736	1251.81
430.958	1176.81
431.18	1164.81
431.402	1149.81
431.624	1176.81
431.846	1113.81
432.068	1143.81
432.29	1129.81
432.512	1124.81
432.734	1150.81
432.956	1166.81
433.178	1185.81
433.4	1150.81
433.622	1144.81
433.844	1141.81
434.066	1145.81
434.287	1135.81
434.509	1156.81
434.731	1155.81
434.953	1156.81
435.175	1182.81
435.397	1181.81
435.618	1168.81
435.84	1132.81
436.062	1146.81
436.284	1135.81
436.505	1140.81
436.727	1151.81
436.949	1142.81
437.17	1116.81
437.392	1120.81
437.614	1139.81
437.835	1089.81
438.057	1101.81
438.278	1087.81
438.5	1115.81
438.721	1109.81
438.943	1157.81
439.165	1217.81
439.386	1155.81
439.608	1199.81
439.829	1204.81
440.05	1199.81
440.272	1233.81
440.493	1168.81
440.715	1179.81
440.936	1211.81
441.158	1223.81
441.379	1202.81
441.6	1247.81
441.822	1253.81
442.043	1325.81
442.264	1350.81
442.486	1279.81
442.707	1245.81
442.928	1221.81
443.149	1218.81
443.371	1240.81
443.592	1252.81
443.813	1235.81
444.034	1247.81
444.255	1256.81
444.476	1316.81
444.698	1312.81
444.919	1341.81
445.14	1399.81
445.361	1317.81
445.582	1271.81
445.803	1238.81
446.024	1222.81
446.245	1210.81
446.466	1244.81
446.687	1217.81
446.908	1206.81
447.129	1154.81
447.35	1183.81
447.571	1149.81
447.792	1128.81
448.013	1123.81
448.234	1103.81
448.455	1117.81
448.675	1128.81
448.896	1155.81
449.117	1155.81
449.338	1311.81
449.559	1303.81
449.779	1203.81
450	1148.81
450.221	1095.81
450.442	1103.81
450.662	1113.81
450.883	1079.81
451.104	1108.81
451.324	1078.81
451.545	1107.81
451.766	1094.81
451.986	1107.81
452.207	1176.81
452.428	1400.81
452.648	1962.81
452.869	1717.81
453.089	1275.81
453.31	1203.81
453.53	1207.81
453.751	1209.81
453.971	1320.81
454.192	1266.81
454.412	1177.81
454.633	1080.81
454.853	1063.81
455.073	1051.81
455.294	1059.81
455.514	1064.81
455.734	1053.81
455.955	1041.81
456.175	1056.81
456.395	1054.81
456.616	1061.81
456.836	1057.81
457.056	1067.81
457.276	1080.81
457.497	1121.81
457.717	1118.81
457.937	1060.81
458.157	1111.81
458.377	1101.81
458.598	1127.81
458.818	1127.81
459.038	1136.81
459.258	1083.81
459.478	1157.81
459.698	1139.81
459.918	1145.81
460.138	1200.81
460.358	1245.81
460.578	1225.81
460.798	1254.81
461.018	1219.81
461.238	1274.81
461.458	1233.81
461.678	1281.81
461.898	1281.81
462.118	1277.81
462.338	1300.81
462.558	1302.81
462.777	1340.81
462.997	1413.81
463.217	1418.81
463.437	1481.81
463.657	1481.81
463.876	1460.81
464.096	1393.81
464.316	1332.81
464.536	1381.81
464.755	1352.81
464.975	1265.81
465.195	1232.81
465.414	1246.81
465.634	1175.81
465.854	1193.81
466.073	1166.81
466.293	1156.81
466.512	1155.81
466.732	1184.81
466.951	1189.81
467.171	1289.81
467.391	1244.81
467.61	1178.81
467.829	1143.81
468.049	1117.81
468.268	1129.81
468.488	1138.81
468.707	1112.81
468.927	1134.81
469.146	1112.81
469.365	1142.81
469.585	1143.81
469.804	1151.81
470.023	1177.81
470.243	1192.81
470.462	1227.81
470.681	1297.81
470.901	1395.81
471.12	1563.81
471.339	1579.81
471.558	1333.81
471.777	1261.81
471.997	1193.81
472.216	1146.81
472.435	1147.81
472.654	1124.81
472.873	1093.81
473.092	1118.81
473.311	1107.81
473.53	1121.81
473.749	1172.81
473.968	1173.81
474.187	1138.81
474.406	1126.81
474.625	1103.81
474.844	1155.81
475.063	1135.81
475.282	1155.81
475.501	1126.81
475.72	1156.81
475.939	1142.81
476.158	1179.81
476.377	1182.81
476.596	1176.81
476.814	1189.81
477.033	1179.81
477.252	1199.81
477.471	1240.81
477.69	1219.81
477.908	1270.81
478.127	1296.81
478.346	1295.81
478.564	1311.81
478.783	1285.81
479.002	1330.81
479.22	1325.81
479.439	1347.81
479.658	1325.81
479.876	1317.81
480.095	1332.81
480.313	1400.81
480.532	1388.81
480.751	1371.81
480.969	1327.81
481.188	1326.81
481.406	1347.81
481.624	1289.81
481.843	1345.81
482.061	1305.81
482.28	1299.81
482.498	1325.81
482.717	1315.81
482.935	1349.81
483.153	1364.81
483.372	1385.81
483.59	1404.81
483.808	1415.81
484.027	1476.81
484.245	1508.81
484.463	1668.81
484.681	1839.81
484.9	1685.81
485.118	1602.81
485.336	1520.81
485.554	1573.81
485.772	1647.81
485.99	1875.81
486.209	2054.81
486.427	1745.81
486.645	1530.81
486.863	1490.81
487.081	1467.81
487.299	1437.81
487.517	1455.81
487.735	1480.81
487.953	1490.81
488.171	1461.81
488.389	1470.81
488.607	1424.81
488.825	1437.81
489.043	1387.81
489.261	1364.81
489.479	1380.81
489.696	1379.81
489.914	1357.81
490.132	1405.81
490.35	1435.81
490.568	1445.81
490.786	1500.81
491.003	1461.81
