Data from SnStandardFlinnAPT0064_LampEnergy10_LIBS07252019.E.O._I.C._HRD10591_15-20-53-494.txt Node
Date: Thu Jul 25 15:20:53 EDT 2019
User: cochatt
Spectrometer: HR+D1059
Trigger mode: 1
Integration Time (sec): 1.000000E-1
Scans to average: 1
Electric dark correction enabled: true
Nonlinearity correction enabled: false
Boxcar width: 0
XAxis mode: Wavelengths
Number of Pixels in Spectrum: 2048
>>>>>Begin Spectral Data<<<<<
223.165	-13.12
223.4	-13.12
223.635	-13.12
223.869	-24.12
224.104	-14.12
224.338	-15.12
224.573	-17.12
224.808	-9.12
225.042	0.88
225.277	-0.12
225.511	-3.12
225.746	-11.12
225.98	1.88
226.215	15.88
226.449	-0.12
226.683	23.88
226.918	31.88
227.152	32.88
227.387	36.88
227.621	31.88
227.856	46.88
228.09	36.88
228.324	57.88
228.559	55.88
228.793	120.88
229.027	308.88
229.262	331.88
229.496	308.88
229.73	286.88
229.964	280.88
230.199	294.88
230.433	296.88
230.667	294.88
230.901	325.88
231.136	322.88
231.37	337.88
231.604	372.88
231.838	423.88
232.072	530.88
232.306	557.88
232.541	461.88
232.775	419.88
233.009	418.88
233.243	424.88
233.477	450.88
233.711	513.88
233.945	587.88
234.179	503.88
234.413	430.88
234.647	442.88
234.881	457.88
235.115	530.88
235.349	599.88
235.583	775.88
235.817	968.88
236.051	974.88
236.285	640.88
236.519	498.88
236.753	489.88
236.987	498.88
237.221	534.88
237.455	494.88
237.689	456.88
237.922	433.88
238.156	454.88
238.39	461.88
238.624	492.88
238.858	451.88
239.091	465.88
239.325	468.88
239.559	503.88
239.793	506.88
240.027	518.88
240.26	517.88
240.494	569.88
240.728	558.88
240.961	610.88
241.195	669.88
241.429	687.88
241.662	712.88
241.896	748.88
242.13	978.88
242.363	1262.88
242.597	1576.88
242.83	1495.88
243.064	1542.88
243.298	1804.88
243.531	1536.88
243.765	949.88
243.998	782.88
244.232	720.88
244.465	651.88
244.699	664.88
244.932	638.88
245.166	668.88
245.399	660.88
245.633	702.88
245.866	699.88
246.099	653.88
246.333	654.88
246.566	644.88
246.8	638.88
247.033	668.88
247.266	644.88
247.5	641.88
247.733	640.88
247.966	702.88
248.2	782.88
248.433	872.88
248.666	990.88
248.899	961.88
249.133	848.88
249.366	861.88
249.599	933.88
249.832	1088.88
250.066	1085.88
250.299	861.88
250.532	776.88
250.765	733.88
250.998	741.88
251.231	725.88
251.465	741.88
251.698	714.88
251.931	731.88
252.164	724.88
252.397	782.88
252.63	757.88
252.863	815.88
253.096	770.88
253.329	762.88
253.562	763.88
253.795	767.88
254.028	790.88
254.261	813.88
254.494	890.88
254.727	1007.88
254.96	1223.88
255.193	1228.88
255.426	971.88
255.659	891.88
255.892	855.88
256.124	885.88
256.357	855.88
256.59	896.88
256.823	956.88
257.056	1118.88
257.289	1360.88
257.521	1463.88
257.754	1170.88
257.987	962.88
258.22	896.88
258.452	905.88
258.685	926.88
258.918	945.88
259.151	983.88
259.383	1092.88
259.616	1189.88
259.849	1279.88
260.081	1093.88
260.314	959.88
260.547	917.88
260.779	915.88
261.012	945.88
261.244	908.88
261.477	963.88
261.71	989.88
261.942	1004.88
262.175	999.88
262.407	1036.88
262.64	1054.88
262.872	1048.88
263.105	1117.88
263.337	1195.88
263.57	1253.88
263.802	1317.88
264.035	1295.88
264.267	1324.88
264.499	1365.88
264.732	1407.88
264.964	1408.88
265.197	1396.88
265.429	1410.88
265.661	1440.88
265.894	1551.88
266.126	1746.88
266.358	1967.88
266.591	1886.88
266.823	1588.88
267.055	1418.88
267.287	1381.88
267.52	1308.88
267.752	1243.88
267.984	1248.88
268.216	1247.88
268.448	1228.88
268.681	1238.88
268.913	1224.88
269.145	1228.88
269.377	1218.88
269.609	1247.88
269.841	1283.88
270.073	1354.88
270.306	1566.88
270.538	2098.88
270.77	3224.88
271.002	3896.88
271.234	2768.88
271.466	1847.88
271.698	1542.88
271.93	1402.88
272.162	1354.88
272.394	1271.88
272.626	1228.88
272.858	1234.88
273.09	1248.88
273.322	1210.88
273.553	1200.88
273.785	1189.88
274.017	1188.88
274.249	1202.88
274.481	1196.88
274.713	1167.88
274.945	1235.88
275.176	1203.88
275.408	1228.88
275.64	1174.88
275.872	1183.88
276.104	1233.88
276.335	1272.88
276.567	1267.88
276.799	1259.88
277.031	1268.88
277.262	1316.88
277.494	1421.88
277.726	1559.88
277.957	1847.88
278.189	2114.88
278.421	1985.88
278.652	1722.88
278.884	1670.88
279.115	1471.88
279.347	1405.88
279.579	1403.88
279.81	1383.88
280.042	1365.88
280.273	1408.88
280.505	1468.88
280.736	1469.88
280.968	1587.88
281.199	1772.88
281.431	2017.88
281.662	2098.88
281.894	1757.88
282.125	1604.88
282.356	1627.88
282.588	1645.88
282.819	1695.88
283.051	1791.88
283.282	2026.88
283.513	2495.88
283.745	3571.88
283.976	5645.88
284.207	8011.88
284.439	7270.88
284.67	4470.88
284.901	3708.88
285.132	3675.88
285.364	3508.88
285.595	2739.88
285.826	2388.88
286.057	2852.88
286.288	3874.88
286.52	5143.88
286.751	4858.88
286.982	3025.88
287.213	2307.88
287.444	2006.88
287.675	1845.88
287.906	1766.88
288.138	1723.88
288.369	1686.88
288.6	1686.88
288.831	1631.88
289.062	1646.88
289.293	1639.88
289.524	1680.88
289.755	1699.88
289.986	1691.88
290.217	1670.88
290.448	1706.88
290.679	1713.88
290.91	1774.88
291.141	1842.88
291.371	1972.88
291.602	2098.88
291.833	1925.88
292.064	1730.88
292.295	1666.88
292.526	1650.88
292.757	1598.88
292.987	1618.88
293.218	1600.88
293.449	1557.88
293.68	1562.88
293.91	1582.88
294.141	1569.88
294.372	1527.88
294.603	1553.88
294.833	1540.88
295.064	1586.88
295.295	1562.88
295.525	1523.88
295.756	1548.88
295.987	1530.88
296.217	1582.88
296.448	1570.88
296.679	1564.88
296.909	1589.88
297.14	1562.88
297.37	1605.88
297.601	1633.88
297.831	1606.88
298.062	1618.88
298.292	1670.88
298.523	1659.88
298.753	1710.88
298.984	1698.88
299.214	1691.88
299.445	1715.88
299.675	1766.88
299.905	1835.88
300.136	1921.88
300.366	2103.88
300.597	2750.88
300.827	3820.88
301.057	5150.88
301.288	5178.88
301.518	3362.88
301.748	2605.88
301.979	2370.88
302.209	2283.88
302.439	2291.88
302.669	2389.88
302.9	2976.88
303.13	4120.88
303.36	6123.88
303.59	8147.88
303.82	7131.88
304.051	4158.88
304.281	3025.88
304.511	2516.88
304.741	2305.88
304.971	2201.88
305.201	2056.88
305.431	1983.88
305.661	1928.88
305.891	1891.88
306.121	1850.88
306.352	1846.88
306.582	1821.88
306.812	1845.88
307.042	1787.88
307.272	1860.88
307.502	1813.88
307.731	1808.88
307.961	1812.88
308.191	1797.88
308.421	1773.88
308.651	1792.88
308.881	1766.88
309.111	1784.88
309.341	1818.88
309.571	1823.88
309.8	1821.88
310.03	1823.88
310.26	1831.88
310.49	1858.88
310.72	1839.88
310.949	1850.88
311.179	1849.88
311.409	1887.88
311.639	1881.88
311.868	1885.88
312.098	1884.88
312.328	1969.88
312.557	1942.88
312.787	1962.88
313.017	1928.88
313.246	1974.88
313.476	1994.88
313.706	2049.88
313.935	2210.88
314.165	2326.88
314.394	2444.88
314.624	2318.88
314.853	2130.88
315.083	2160.88
315.312	2147.88
315.542	2170.88
315.771	2178.88
316.001	2263.88
316.23	2330.88
316.46	2418.88
316.689	2690.88
316.919	3221.88
317.148	4629.88
317.377	7125.88
317.607	10422.88
317.836	10783.88
318.065	6536.88
318.295	4247.88
318.524	3373.88
318.753	2966.88
318.983	2687.88
319.212	2604.88
319.441	2492.88
319.67	2431.88
319.9	2334.88
320.129	2375.88
320.358	2328.88
320.587	2337.88
320.816	2341.88
321.046	2339.88
321.275	2331.88
321.504	2406.88
321.733	2428.88
321.962	2480.88
322.191	2494.88
322.42	2527.88
322.649	2481.88
322.878	2467.88
323.108	2466.88
323.337	2510.88
323.566	2541.88
323.795	2591.88
324.024	2624.88
324.253	2701.88
324.482	2813.88
324.71	2933.88
324.939	3189.88
325.168	3234.88
325.397	3370.88
325.626	4059.88
325.855	5525.88
326.084	8694.88
326.313	12640.88
326.542	13302.88
326.77	8992.88
326.999	5907.88
327.228	5006.88
327.457	4745.88
327.686	4767.88
327.914	5143.88
328.143	5996.88
328.372	7162.88
328.6	7766.88
328.829	7004.88
329.058	5802.88
329.287	5043.88
329.515	4555.88
329.744	4301.88
329.972	4016.88
330.201	3836.88
330.43	3748.88
330.658	3589.88
330.887	3490.88
331.115	3469.88
331.344	3469.88
331.572	3434.88
331.801	3443.88
332.03	3492.88
332.258	3537.88
332.486	3762.88
332.715	4285.88
332.943	5358.88
333.172	6597.88
333.4	6502.88
333.629	4964.88
333.857	4443.88
334.085	4508.88
334.314	4717.88
334.542	5167.88
334.771	5998.88
334.999	7488.88
335.227	9360.88
335.455	10314.88
335.684	9373.88
335.912	7600.88
336.14	6398.88
336.369	5709.88
336.597	5256.88
336.825	4762.88
337.053	4469.88
337.281	4237.88
337.51	4020.88
337.738	3791.88
337.966	3651.88
338.194	3571.88
338.422	3430.88
338.65	3342.88
338.878	3316.88
339.106	3185.88
339.334	3196.88
339.562	3101.88
339.79	3052.88
340.018	3091.88
340.246	2986.88
340.474	3034.88
340.702	3022.88
340.93	3000.88
341.158	3020.88
341.386	2938.88
341.614	2949.88
341.842	2879.88
342.07	2820.88
342.298	2754.88
342.526	2782.88
342.754	2686.88
342.981	2676.88
343.209	2704.88
343.437	2706.88
343.665	2752.88
343.893	2780.88
344.12	2858.88
344.348	2778.88
344.576	2718.88
344.804	2708.88
345.031	2583.88
345.259	2588.88
345.487	2587.88
345.714	2533.88
345.942	2550.88
346.17	2539.88
346.397	2499.88
346.625	2524.88
346.853	2515.88
347.08	2526.88
347.308	2509.88
347.535	2526.88
347.763	2478.88
347.99	2470.88
348.218	2476.88
348.445	2430.88
348.673	2443.88
348.9	2440.88
349.128	2452.88
349.355	2422.88
349.583	2446.88
349.81	2438.88
350.037	2402.88
350.265	2380.88
350.492	2351.88
350.72	2375.88
350.947	2370.88
351.174	2388.88
351.402	2409.88
351.629	2401.88
351.856	2399.88
352.083	2388.88
352.311	2357.88
352.538	2335.88
352.765	2376.88
352.992	2349.88
353.22	2388.88
353.447	2319.88
353.674	2337.88
353.901	2398.88
354.128	2378.88
354.355	2379.88
354.583	2382.88
354.81	2357.88
355.037	2374.88
355.264	2399.88
355.491	2438.88
355.718	2465.88
355.945	2466.88
356.172	2461.88
356.399	2427.88
356.626	2496.88
356.853	2498.88
357.08	2484.88
357.307	2565.88
357.534	2550.88
357.761	2543.88
357.988	2596.88
358.215	2543.88
358.441	2567.88
358.668	2530.88
358.895	2499.88
359.122	2504.88
359.349	2515.88
359.576	2482.88
359.802	2514.88
360.029	2508.88
360.256	2536.88
360.483	2547.88
360.709	2517.88
360.936	2592.88
361.163	2549.88
361.39	2512.88
361.616	2466.88
361.843	2518.88
362.07	2558.88
362.296	2516.88
362.523	2573.88
362.749	2554.88
362.976	2545.88
363.203	2514.88
363.429	2510.88
363.656	2497.88
363.882	2524.88
364.109	2536.88
364.335	2530.88
364.562	2575.88
364.788	2503.88
365.015	2535.88
365.241	2594.88
365.468	2736.88
365.694	2911.88
365.92	2798.88
366.147	2582.88
366.373	2587.88
366.599	2578.88
366.826	2620.88
367.052	2625.88
367.278	2632.88
367.505	2632.88
367.731	2588.88
367.957	2654.88
368.184	2609.88
368.41	2620.88
368.636	2629.88
368.862	2641.88
369.089	2619.88
369.315	2631.88
369.541	2651.88
369.767	2588.88
369.993	2561.88
370.219	2610.88
370.445	2639.88
370.672	2637.88
370.898	2635.88
371.124	2596.88
371.35	2733.88
371.576	2750.88
371.802	2738.88
372.028	2730.88
372.254	2758.88
372.48	2720.88
372.706	2790.88
372.932	2739.88
373.158	2747.88
373.384	2731.88
373.61	2774.88
373.835	2746.88
374.061	2723.88
374.287	2790.88
374.513	2848.88
374.739	2855.88
374.965	2920.88
375.191	2870.88
375.416	2797.88
375.642	2823.88
375.868	2797.88
376.094	2790.88
376.319	2789.88
376.545	2708.88
376.771	2723.88
376.997	2670.88
377.222	2709.88
377.448	2717.88
377.674	2755.88
377.899	2628.88
378.125	2736.88
378.35	2710.88
378.576	2704.88
378.802	2760.88
379.027	2757.88
379.253	2871.88
379.478	3017.88
379.704	3553.88
379.929	5120.88
380.155	7896.88
380.38	8591.88
380.606	5268.88
380.831	3670.88
381.057	3159.88
381.282	2972.88
381.507	2826.88
381.733	2798.88
381.958	2724.88
382.184	2696.88
382.409	2662.88
382.634	2648.88
382.86	2653.88
383.085	2624.88
383.31	2638.88
383.535	2641.88
383.761	2703.88
383.986	2661.88
384.211	2709.88
384.436	2730.88
384.662	2744.88
384.887	2770.88
385.112	2760.88
385.337	2756.88
385.562	2764.88
385.787	2774.88
386.013	2768.88
386.238	2739.88
386.463	2733.88
386.688	2759.88
386.913	2749.88
387.138	2752.88
387.363	2704.88
387.588	2718.88
387.813	2676.88
388.038	2714.88
388.263	2742.88
388.488	2736.88
388.713	2725.88
388.938	2734.88
389.163	2756.88
389.387	2759.88
389.612	2755.88
389.837	2739.88
390.062	2735.88
390.287	2752.88
390.512	2795.88
390.736	2799.88
390.961	2839.88
391.186	2806.88
391.411	2834.88
391.636	2873.88
391.86	2891.88
392.085	2849.88
392.31	2869.88
392.534	2869.88
392.759	2843.88
392.984	2849.88
393.208	2755.88
393.433	2755.88
393.658	2773.88
393.882	2766.88
394.107	2785.88
394.331	2750.88
394.556	2755.88
394.78	2804.88
395.005	2791.88
395.229	2774.88
395.454	2869.88
395.678	2858.88
395.903	2861.88
396.127	2860.88
396.352	2854.88
396.576	2806.88
396.801	2812.88
397.025	2879.88
397.249	2854.88
397.474	2974.88
397.698	2877.88
397.922	2886.88
398.147	2889.88
398.371	2951.88
398.595	2986.88
398.82	3088.88
399.044	3190.88
399.268	3283.88
399.492	3514.88
399.717	3642.88
399.941	3630.88
400.165	3494.88
400.389	3375.88
400.613	3236.88
400.837	3114.88
401.062	3099.88
401.286	3041.88
401.51	3052.88
401.734	3026.88
401.958	3069.88
402.182	3060.88
402.406	3030.88
402.63	3028.88
402.854	3129.88
403.078	3086.88
403.302	3115.88
403.526	3118.88
403.75	3138.88
403.974	3151.88
404.198	3174.88
404.422	3159.88
404.645	3099.88
404.869	3106.88
405.093	3179.88
405.317	3187.88
405.541	3217.88
405.765	3253.88
405.988	3269.88
406.212	3225.88
406.436	3242.88
406.66	3227.88
406.883	3249.88
407.107	3396.88
407.331	3396.88
407.555	3410.88
407.778	3458.88
408.002	3399.88
408.226	3407.88
408.449	3358.88
408.673	3283.88
408.896	3209.88
409.12	3226.88
409.344	3184.88
409.567	3114.88
409.791	3182.88
410.014	3133.88
410.238	3146.88
410.461	3118.88
410.685	3162.88
410.908	3133.88
411.132	3124.88
411.355	3008.88
411.578	3019.88
411.802	3014.88
412.025	3047.88
412.249	3026.88
412.472	3020.88
412.695	3013.88
412.919	2983.88
413.142	2956.88
413.365	2980.88
413.589	2928.88
413.812	2940.88
414.035	2941.88
414.258	2951.88
414.482	2965.88
414.705	3000.88
414.928	3009.88
415.151	2969.88
415.374	2942.88
415.597	2904.88
415.821	2862.88
416.044	2866.88
416.267	2836.88
416.49	2866.88
416.713	2868.88
416.936	2862.88
417.159	2812.88
417.382	2788.88
417.605	2742.88
417.828	2805.88
418.051	2823.88
418.274	2835.88
418.497	2814.88
418.72	2910.88
418.943	2896.88
419.166	2986.88
419.389	3187.88
419.611	3122.88
419.834	3064.88
420.057	2943.88
420.28	2946.88
420.503	2842.88
420.726	2840.88
420.948	2816.88
421.171	2852.88
421.394	2849.88
421.617	2812.88
421.839	2898.88
422.062	2860.88
422.285	2790.88
422.507	2979.88
422.73	2912.88
422.953	2942.88
423.175	2996.88
423.398	2903.88
423.621	2864.88
423.843	2883.88
424.066	2880.88
424.288	2849.88
424.511	2810.88
424.733	2818.88
424.956	2856.88
425.178	2847.88
425.401	2829.88
425.623	2763.88
425.846	2755.88
426.068	2788.88
426.291	2729.88
426.513	2743.88
426.735	2711.88
426.958	2755.88
427.18	2654.88
427.402	2691.88
427.625	2734.88
427.847	2623.88
428.069	2645.88
428.292	2655.88
428.514	2663.88
428.736	2613.88
428.958	2653.88
429.181	2590.88
429.403	2532.88
429.625	2636.88
429.847	2631.88
430.069	2642.88
430.292	2749.88
430.514	2866.88
430.736	2832.88
430.958	2706.88
431.18	2626.88
431.402	2588.88
431.624	2562.88
431.846	2554.88
432.068	2560.88
432.29	2639.88
432.512	2592.88
432.734	2594.88
432.956	2615.88
433.178	2565.88
433.4	2600.88
433.622	2619.88
433.844	2659.88
434.066	2626.88
434.287	2643.88
434.509	2652.88
434.731	2669.88
434.953	2722.88
435.175	2718.88
435.397	2697.88
435.618	2662.88
435.84	2626.88
436.062	2627.88
436.284	2644.88
436.505	2568.88
436.727	2618.88
436.949	2570.88
437.17	2649.88
437.392	2546.88
437.614	2531.88
437.835	2496.88
438.057	2549.88
438.278	2547.88
438.5	2515.88
438.721	2565.88
438.943	2640.88
439.165	2677.88
439.386	2780.88
439.608	2658.88
439.829	2687.88
440.05	2812.88
440.272	2849.88
440.493	2721.88
440.715	2660.88
440.936	2737.88
441.158	2708.88
441.379	2723.88
441.6	2856.88
441.822	2918.88
442.043	3081.88
442.264	3123.88
442.486	2932.88
442.707	2804.88
442.928	2774.88
443.149	2797.88
443.371	2786.88
443.592	2782.88
443.813	2861.88
444.034	2840.88
444.255	2883.88
444.476	2886.88
444.698	2992.88
444.919	2965.88
445.14	3079.88
445.361	2924.88
445.582	2887.88
445.803	2791.88
446.024	2773.88
446.245	2772.88
446.466	2767.88
446.687	2702.88
446.908	2666.88
447.129	2628.88
447.35	2658.88
447.571	2642.88
447.792	2527.88
448.013	2527.88
448.234	2535.88
448.455	2564.88
448.675	2602.88
448.896	2657.88
449.117	2798.88
449.338	2974.88
449.559	3032.88
449.779	2758.88
450	2581.88
450.221	2558.88
450.442	2516.88
450.662	2546.88
450.883	2462.88
451.104	2505.88
451.324	2465.88
451.545	2551.88
451.766	2525.88
451.986	2546.88
452.207	2758.88
452.428	3619.88
452.648	5452.88
452.869	4542.88
453.089	3098.88
453.31	2896.88
453.53	2932.88
453.751	3018.88
453.971	3227.88
454.192	3059.88
454.412	2607.88
454.633	2535.88
454.853	2534.88
455.073	2461.88
455.294	2412.88
455.514	2396.88
455.734	2390.88
455.955	2399.88
456.175	2398.88
456.395	2388.88
456.616	2380.88
456.836	2477.88
457.056	2469.88
457.276	2482.88
457.497	2600.88
457.717	2643.88
457.937	2541.88
458.157	2548.88
458.377	2496.88
458.598	2576.88
458.818	2547.88
459.038	2562.88
459.258	2584.88
459.478	2620.88
459.698	2626.88
459.918	2683.88
460.138	2684.88
460.358	2761.88
460.578	2792.88
460.798	2847.88
461.018	2846.88
461.238	2846.88
461.458	2899.88
461.678	2861.88
461.898	2933.88
462.118	2968.88
462.338	3021.88
462.558	3024.88
462.777	3115.88
462.997	3242.88
463.217	3313.88
463.437	3471.88
463.657	3514.88
463.876	3543.88
464.096	3323.88
464.316	3156.88
464.536	3124.88
464.755	3047.88
464.975	3004.88
465.195	2859.88
465.414	2791.88
465.634	2708.88
465.854	2681.88
466.073	2692.88
466.293	2587.88
466.512	2610.88
466.732	2682.88
466.951	2823.88
467.171	3006.88
467.391	2954.88
467.61	2672.88
467.829	2592.88
468.049	2576.88
468.268	2566.88
468.488	2560.88
468.707	2539.88
468.927	2580.88
469.146	2546.88
469.365	2620.88
469.585	2580.88
469.804	2662.88
470.023	2758.88
470.243	2784.88
470.462	2820.88
470.681	3015.88
470.901	3278.88
471.12	3732.88
471.339	3711.88
471.558	3141.88
471.777	2824.88
471.997	2770.88
472.216	2634.88
472.435	2639.88
472.654	2574.88
472.873	2590.88
473.092	2566.88
473.311	2602.88
473.53	2614.88
473.749	2667.88
473.968	2756.88
474.187	2607.88
474.406	2567.88
474.625	2595.88
474.844	2562.88
475.063	2599.88
475.282	2583.88
475.501	2613.88
475.72	2655.88
475.939	2660.88
476.158	2716.88
476.377	2726.88
476.596	2706.88
476.814	2700.88
477.033	2682.88
477.252	2740.88
477.471	2823.88
477.69	2805.88
477.908	2881.88
478.127	2938.88
478.346	2932.88
478.564	3024.88
478.783	2994.88
479.002	3083.88
479.22	3079.88
479.439	3130.88
479.658	3066.88
479.876	3161.88
480.095	3086.88
480.313	3249.88
480.532	3227.88
480.751	3232.88
480.969	3123.88
481.188	3146.88
481.406	3105.88
481.624	3096.88
481.843	3098.88
482.061	3137.88
482.28	3126.88
482.498	3109.88
482.717	3148.88
482.935	3151.88
483.153	3222.88
483.372	3238.88
483.59	3264.88
483.808	3279.88
484.027	3380.88
484.245	3596.88
484.463	4038.88
484.681	4491.88
484.9	4069.88
485.118	3768.88
485.336	3697.88
485.554	3755.88
485.772	3992.88
485.99	4587.88
486.209	4758.88
486.427	4078.88
486.645	3704.88
486.863	3498.88
487.081	3442.88
487.299	3369.88
487.517	3280.88
487.735	3330.88
