Data from SnStandardFlinnAPT0064_LampEnergy5.5_LIBS07252019.E.O._I.C._HRD10591_15-16-30-492.txt Node
Date: Thu Jul 25 15:16:30 EDT 2019
User: cochatt
Spectrometer: HR+D1059
Trigger mode: 1
Integration Time (sec): 1.000000E-1
Scans to average: 1
Electric dark correction enabled: true
Nonlinearity correction enabled: false
Boxcar width: 0
XAxis mode: Wavelengths
Number of Pixels in Spectrum: 2048
>>>>>Begin Spectral Data<<<<<
223.165	-28.94
223.4	-28.94
223.635	-28.94
223.869	-22.94
224.104	-11.94
224.338	-23.94
224.573	-11.94
224.808	-11.94
225.042	2.06
225.277	1.06
225.511	6.06
225.746	2.06
225.98	0.06
226.215	13.06
226.449	28.06
226.683	12.06
226.918	16.06
227.152	31.06
227.387	31.06
227.621	24.06
227.856	33.06
228.09	43.06
228.324	58.06
228.559	62.06
228.793	91.06
229.027	132.06
229.262	166.06
229.496	175.06
229.73	163.06
229.964	158.06
230.199	160.06
230.433	159.06
230.667	175.06
230.901	179.06
231.136	170.06
231.37	181.06
231.604	196.06
231.838	226.06
232.072	238.06
232.306	245.06
232.541	228.06
232.775	211.06
233.009	197.06
233.243	198.06
233.477	223.06
233.711	256.06
233.945	265.06
234.179	227.06
234.413	206.06
234.647	196.06
234.881	234.06
235.115	253.06
235.349	295.06
235.583	356.06
235.817	449.06
236.051	436.06
236.285	290.06
236.519	240.06
236.753	240.06
236.987	232.06
237.221	244.06
237.455	227.06
237.689	233.06
237.922	226.06
238.156	226.06
238.39	209.06
238.624	249.06
238.858	224.06
239.091	228.06
239.325	224.06
239.559	240.06
239.793	238.06
240.027	242.06
240.26	261.06
240.494	246.06
240.728	259.06
240.961	277.06
241.195	289.06
241.429	312.06
241.662	327.06
241.896	349.06
242.13	406.06
242.363	533.06
242.597	637.06
242.83	624.06
243.064	646.06
243.298	747.06
243.531	615.06
243.765	396.06
243.998	341.06
244.232	326.06
244.465	293.06
244.699	284.06
244.932	286.06
245.166	322.06
245.399	309.06
245.633	314.06
245.866	305.06
246.099	308.06
246.333	307.06
246.566	295.06
246.8	322.06
247.033	308.06
247.266	299.06
247.5	308.06
247.733	316.06
247.966	348.06
248.2	341.06
248.433	364.06
248.666	409.06
248.899	414.06
249.133	377.06
249.366	394.06
249.599	387.06
249.832	444.06
250.066	455.06
250.299	370.06
250.532	369.06
250.765	333.06
250.998	318.06
251.231	336.06
251.465	329.06
251.698	321.06
251.931	338.06
252.164	337.06
252.397	322.06
252.63	350.06
252.863	354.06
253.096	361.06
253.329	368.06
253.562	363.06
253.795	366.06
254.028	351.06
254.261	351.06
254.494	392.06
254.727	441.06
254.96	514.06
255.193	514.06
255.426	418.06
255.659	379.06
255.892	372.06
256.124	401.06
256.357	396.06
256.59	379.06
256.823	408.06
257.056	465.06
257.289	560.06
257.521	603.06
257.754	501.06
257.987	419.06
258.22	402.06
258.452	386.06
258.685	392.06
258.918	408.06
259.151	446.06
259.383	486.06
259.616	484.06
259.849	522.06
260.081	476.06
260.314	438.06
260.547	427.06
260.779	427.06
261.012	423.06
261.244	439.06
261.477	426.06
261.71	427.06
261.942	460.06
262.175	470.06
262.407	488.06
262.64	477.06
262.872	487.06
263.105	502.06
263.337	528.06
263.57	555.06
263.802	576.06
264.035	596.06
264.267	601.06
264.499	603.06
264.732	633.06
264.964	631.06
265.197	640.06
265.429	642.06
265.661	646.06
265.894	699.06
266.126	764.06
266.358	832.06
266.591	799.06
266.823	716.06
267.055	616.06
267.287	607.06
267.52	589.06
267.752	581.06
267.984	566.06
268.216	579.06
268.448	576.06
268.681	554.06
268.913	542.06
269.145	545.06
269.377	546.06
269.609	565.06
269.841	560.06
270.073	609.06
270.306	676.06
270.538	883.06
270.77	1291.06
271.002	1598.06
271.234	1113.06
271.466	750.06
271.698	635.06
271.93	616.06
272.162	576.06
272.394	540.06
272.626	530.06
272.858	544.06
273.09	515.06
273.322	567.06
273.553	531.06
273.785	532.06
274.017	538.06
274.249	536.06
274.481	533.06
274.713	534.06
274.945	574.06
275.176	542.06
275.408	531.06
275.64	554.06
275.872	523.06
276.104	548.06
276.335	578.06
276.567	553.06
276.799	549.06
277.031	579.06
277.262	569.06
277.494	593.06
277.726	630.06
277.957	743.06
278.189	826.06
278.421	774.06
278.652	720.06
278.884	680.06
279.115	630.06
279.347	607.06
279.579	593.06
279.81	592.06
280.042	608.06
280.273	591.06
280.505	630.06
280.736	632.06
280.968	639.06
281.199	719.06
281.431	781.06
281.662	800.06
281.894	734.06
282.125	672.06
282.356	683.06
282.588	666.06
282.819	710.06
283.051	739.06
283.282	831.06
283.513	984.06
283.745	1433.06
283.976	2267.06
284.207	3218.06
284.439	2884.06
284.67	1702.06
284.901	1380.06
285.132	1377.06
285.364	1345.06
285.595	1005.06
285.826	971.06
286.057	1142.06
286.288	1537.06
286.52	2072.06
286.751	1890.06
286.982	1196.06
287.213	921.06
287.444	810.06
287.675	763.06
287.906	743.06
288.138	739.06
288.369	716.06
288.6	707.06
288.831	700.06
289.062	693.06
289.293	704.06
289.524	714.06
289.755	699.06
289.986	735.06
290.217	734.06
290.448	747.06
290.679	708.06
290.91	755.06
291.141	778.06
291.371	812.06
291.602	828.06
291.833	779.06
292.064	731.06
292.295	712.06
292.526	708.06
292.757	690.06
292.987	684.06
293.218	696.06
293.449	675.06
293.68	688.06
293.91	673.06
294.141	673.06
294.372	678.06
294.603	691.06
294.833	690.06
295.064	685.06
295.295	679.06
295.525	678.06
295.756	679.06
295.987	651.06
296.217	678.06
296.448	656.06
296.679	661.06
296.909	648.06
297.14	692.06
297.37	704.06
297.601	696.06
297.831	699.06
298.062	718.06
298.292	709.06
298.523	723.06
298.753	725.06
298.984	710.06
299.214	734.06
299.445	728.06
299.675	752.06
299.905	794.06
300.136	788.06
300.366	910.06
300.597	1119.06
300.827	1536.06
301.057	2006.06
301.288	1952.06
301.518	1286.06
301.748	1032.06
301.979	918.06
302.209	910.06
302.439	937.06
302.669	991.06
302.9	1171.06
303.13	1598.06
303.36	2328.06
303.59	3143.06
303.82	2685.06
304.051	1577.06
304.281	1174.06
304.511	1004.06
304.741	909.06
304.971	890.06
305.201	849.06
305.431	810.06
305.661	806.06
305.891	768.06
306.121	796.06
306.352	793.06
306.582	769.06
306.812	790.06
307.042	782.06
307.272	773.06
307.502	754.06
307.731	803.06
307.961	767.06
308.191	784.06
308.421	773.06
308.651	758.06
308.881	745.06
309.111	791.06
309.341	781.06
309.571	786.06
309.8	791.06
310.03	799.06
310.26	796.06
310.49	795.06
310.72	806.06
310.949	771.06
311.179	802.06
311.409	810.06
311.639	832.06
311.868	841.06
312.098	809.06
312.328	817.06
312.557	827.06
312.787	842.06
313.017	836.06
313.246	850.06
313.476	821.06
313.706	883.06
313.935	918.06
314.165	950.06
314.394	984.06
314.624	944.06
314.853	910.06
315.083	891.06
315.312	889.06
315.542	907.06
315.771	951.06
316.001	937.06
316.23	975.06
316.46	993.06
316.689	1079.06
316.919	1285.06
317.148	1890.06
317.377	2828.06
317.607	4188.06
317.836	4153.06
318.065	2456.06
318.295	1622.06
318.524	1330.06
318.753	1179.06
318.983	1088.06
319.212	1058.06
319.441	1020.06
319.67	1012.06
319.9	980.06
320.129	968.06
320.358	972.06
320.587	1002.06
320.816	989.06
321.046	990.06
321.275	975.06
321.504	999.06
321.733	997.06
321.962	1042.06
322.191	1032.06
322.42	1060.06
322.649	1031.06
322.878	1050.06
323.108	1009.06
323.337	1060.06
323.566	1084.06
323.795	1089.06
324.024	1077.06
324.253	1131.06
324.482	1150.06
324.71	1190.06
324.939	1288.06
325.168	1292.06
325.397	1324.06
325.626	1591.06
325.855	2200.06
326.084	3464.06
326.313	5074.06
326.542	5320.06
326.77	3406.06
326.999	2222.06
327.228	1879.06
327.457	1811.06
327.686	1816.06
327.914	1964.06
328.143	2233.06
328.372	2553.06
328.6	2775.06
328.829	2547.06
329.058	2234.06
329.287	1983.06
329.515	1845.06
329.744	1716.06
329.972	1636.06
330.201	1556.06
330.43	1498.06
330.658	1466.06
330.887	1447.06
331.115	1418.06
331.344	1425.06
331.572	1419.06
331.801	1412.06
332.03	1406.06
332.258	1431.06
332.486	1502.06
332.715	1711.06
332.943	2075.06
333.172	2467.06
333.4	2456.06
333.629	1961.06
333.857	1791.06
334.085	1810.06
334.314	1842.06
334.542	1990.06
334.771	2280.06
334.999	2782.06
335.227	3372.06
335.455	3760.06
335.684	3499.06
335.912	2942.06
336.14	2527.06
336.369	2263.06
336.597	2077.06
336.825	1936.06
337.053	1799.06
337.281	1700.06
337.51	1650.06
337.738	1577.06
337.966	1525.06
338.194	1445.06
338.422	1437.06
338.65	1375.06
338.878	1372.06
339.106	1385.06
339.334	1317.06
339.562	1299.06
339.79	1286.06
340.018	1265.06
340.246	1258.06
340.474	1280.06
340.702	1239.06
340.93	1251.06
341.158	1267.06
341.386	1223.06
341.614	1257.06
341.842	1209.06
342.07	1238.06
342.298	1200.06
342.526	1165.06
342.754	1161.06
342.981	1129.06
343.209	1131.06
343.437	1201.06
343.665	1182.06
343.893	1207.06
344.12	1214.06
344.348	1172.06
344.576	1134.06
344.804	1138.06
345.031	1127.06
345.259	1117.06
345.487	1122.06
345.714	1078.06
345.942	1074.06
346.17	1083.06
346.397	1055.06
346.625	1047.06
346.853	1041.06
347.08	1079.06
347.308	1095.06
347.535	1078.06
347.763	1057.06
347.99	1024.06
348.218	1062.06
348.445	1041.06
348.673	1014.06
348.9	1019.06
349.128	1045.06
349.355	1039.06
349.583	1047.06
349.81	1027.06
350.037	1035.06
350.265	1035.06
350.492	1043.06
350.72	1024.06
350.947	1040.06
351.174	1017.06
351.402	1009.06
351.629	1035.06
351.856	1042.06
352.083	1022.06
352.311	1036.06
352.538	1012.06
352.765	1032.06
352.992	970.06
353.22	997.06
353.447	990.06
353.674	1021.06
353.901	1046.06
354.128	1023.06
354.355	1049.06
354.583	1002.06
354.81	1014.06
355.037	1050.06
355.264	1048.06
355.491	1054.06
355.718	1040.06
355.945	1058.06
356.172	1068.06
356.399	1079.06
356.626	1074.06
356.853	1074.06
357.08	1057.06
357.307	1067.06
357.534	1078.06
357.761	1100.06
357.988	1083.06
358.215	1066.06
358.441	1077.06
358.668	1062.06
358.895	1106.06
359.122	1068.06
359.349	1083.06
359.576	1104.06
359.802	1082.06
360.029	1066.06
360.256	1089.06
360.483	1105.06
360.709	1082.06
360.936	1104.06
361.163	1079.06
361.39	1089.06
361.616	1096.06
361.843	1088.06
362.07	1100.06
362.296	1094.06
362.523	1095.06
362.749	1065.06
362.976	1075.06
363.203	1094.06
363.429	1061.06
363.656	1108.06
363.882	1087.06
364.109	1083.06
364.335	1057.06
364.562	1062.06
364.788	1104.06
365.015	1088.06
365.241	1127.06
365.468	1134.06
365.694	1199.06
365.92	1162.06
366.147	1104.06
366.373	1123.06
366.599	1096.06
366.826	1103.06
367.052	1070.06
367.278	1130.06
367.505	1102.06
367.731	1119.06
367.957	1100.06
368.184	1106.06
368.41	1105.06
368.636	1174.06
368.862	1136.06
369.089	1105.06
369.315	1107.06
369.541	1125.06
369.767	1116.06
369.993	1129.06
370.219	1099.06
370.445	1156.06
370.672	1150.06
370.898	1146.06
371.124	1174.06
371.35	1146.06
371.576	1146.06
371.802	1196.06
372.028	1164.06
372.254	1194.06
372.48	1211.06
372.706	1207.06
372.932	1182.06
373.158	1216.06
373.384	1203.06
373.61	1195.06
373.835	1201.06
374.061	1218.06
374.287	1228.06
374.513	1223.06
374.739	1189.06
374.965	1264.06
375.191	1232.06
375.416	1224.06
375.642	1210.06
375.868	1237.06
376.094	1191.06
376.319	1202.06
376.545	1180.06
376.771	1192.06
376.997	1220.06
377.222	1179.06
377.448	1174.06
377.674	1203.06
377.899	1166.06
378.125	1150.06
378.35	1186.06
378.576	1169.06
378.802	1166.06
379.027	1158.06
379.253	1232.06
379.478	1287.06
379.704	1434.06
379.929	2035.06
380.155	3009.06
380.38	3238.06
380.606	1980.06
380.831	1462.06
381.057	1324.06
381.282	1226.06
381.507	1206.06
381.733	1190.06
381.958	1178.06
382.184	1175.06
382.409	1172.06
382.634	1158.06
382.86	1144.06
383.085	1163.06
383.31	1167.06
383.535	1138.06
383.761	1153.06
383.986	1162.06
384.211	1139.06
384.436	1218.06
384.662	1185.06
384.887	1167.06
385.112	1168.06
385.337	1191.06
385.562	1163.06
385.787	1155.06
386.013	1190.06
386.238	1180.06
386.463	1220.06
386.688	1252.06
386.913	1216.06
387.138	1201.06
387.363	1199.06
387.588	1221.06
387.813	1198.06
388.038	1190.06
388.263	1200.06
388.488	1196.06
388.713	1198.06
388.938	1186.06
389.163	1180.06
389.387	1202.06
389.612	1216.06
389.837	1203.06
390.062	1193.06
390.287	1191.06
390.512	1217.06
390.736	1213.06
390.961	1226.06
391.186	1232.06
391.411	1221.06
391.636	1224.06
391.86	1254.06
392.085	1239.06
392.31	1265.06
392.534	1220.06
392.759	1236.06
392.984	1201.06
393.208	1239.06
393.433	1223.06
393.658	1269.06
393.882	1201.06
394.107	1191.06
394.331	1210.06
394.556	1212.06
394.78	1203.06
395.005	1241.06
395.229	1252.06
395.454	1236.06
395.678	1250.06
395.903	1228.06
396.127	1223.06
396.352	1241.06
396.576	1242.06
396.801	1246.06
397.025	1295.06
397.249	1316.06
397.474	1301.06
397.698	1231.06
397.922	1273.06
398.147	1262.06
398.371	1315.06
398.595	1337.06
398.82	1335.06
399.044	1354.06
399.268	1451.06
399.492	1557.06
399.717	1606.06
399.941	1582.06
400.165	1519.06
400.389	1488.06
400.613	1391.06
400.837	1338.06
401.062	1370.06
401.286	1378.06
401.51	1314.06
401.734	1305.06
401.958	1311.06
402.182	1348.06
402.406	1335.06
402.63	1364.06
402.854	1336.06
403.078	1320.06
403.302	1323.06
403.526	1397.06
403.75	1352.06
403.974	1401.06
404.198	1380.06
404.422	1385.06
404.645	1378.06
404.869	1374.06
405.093	1348.06
405.317	1360.06
405.541	1371.06
405.765	1387.06
405.988	1410.06
406.212	1387.06
406.436	1367.06
406.66	1420.06
406.883	1397.06
407.107	1438.06
407.331	1491.06
407.555	1466.06
407.778	1511.06
408.002	1497.06
408.226	1425.06
408.449	1435.06
408.673	1408.06
408.896	1405.06
409.12	1367.06
409.344	1374.06
409.567	1374.06
409.791	1360.06
410.014	1363.06
410.238	1359.06
410.461	1345.06
410.685	1371.06
410.908	1355.06
411.132	1323.06
411.355	1331.06
411.578	1317.06
411.802	1311.06
412.025	1292.06
412.249	1339.06
412.472	1352.06
412.695	1310.06
412.919	1290.06
413.142	1257.06
413.365	1323.06
413.589	1328.06
413.812	1322.06
414.035	1297.06
414.258	1292.06
414.482	1312.06
414.705	1300.06
414.928	1330.06
415.151	1303.06
415.374	1280.06
415.597	1295.06
415.821	1246.06
416.044	1270.06
416.267	1222.06
416.49	1240.06
416.713	1266.06
416.936	1245.06
417.159	1209.06
417.382	1225.06
417.605	1246.06
417.828	1241.06
418.051	1256.06
418.274	1256.06
418.497	1238.06
418.72	1298.06
418.943	1264.06
419.166	1317.06
419.389	1395.06
419.611	1399.06
419.834	1335.06
420.057	1323.06
420.28	1279.06
420.503	1266.06
420.726	1207.06
420.948	1276.06
421.171	1230.06
421.394	1264.06
421.617	1247.06
421.839	1288.06
422.062	1283.06
422.285	1250.06
422.507	1257.06
422.73	1284.06
422.953	1308.06
423.175	1305.06
423.398	1294.06
423.621	1283.06
423.843	1304.06
424.066	1282.06
424.288	1278.06
424.511	1259.06
424.733	1270.06
424.956	1238.06
425.178	1266.06
425.401	1239.06
425.623	1256.06
425.846	1195.06
426.068	1205.06
426.291	1216.06
426.513	1225.06
426.735	1206.06
426.958	1221.06
427.18	1222.06
427.402	1163.06
427.625	1168.06
427.847	1182.06
428.069	1173.06
428.292	1184.06
428.514	1172.06
428.736	1138.06
428.958	1172.06
429.181	1167.06
429.403	1126.06
429.625	1127.06
429.847	1173.06
430.069	1162.06
430.292	1214.06
430.514	1233.06
430.736	1215.06
430.958	1201.06
431.18	1170.06
431.402	1173.06
431.624	1136.06
431.846	1139.06
432.068	1138.06
432.29	1134.06
432.512	1131.06
432.734	1143.06
432.956	1139.06
433.178	1172.06
433.4	1157.06
433.622	1204.06
433.844	1192.06
434.066	1154.06
434.287	1134.06
434.509	1169.06
434.731	1158.06
434.953	1199.06
435.175	1198.06
435.397	1226.06
435.618	1184.06
435.84	1198.06
436.062	1131.06
436.284	1147.06
436.505	1171.06
436.727	1164.06
436.949	1142.06
437.17	1120.06
437.392	1136.06
437.614	1123.06
437.835	1124.06
438.057	1075.06
438.278	1116.06
438.5	1129.06
438.721	1123.06
438.943	1147.06
439.165	1210.06
439.386	1194.06
439.608	1192.06
439.829	1200.06
440.05	1238.06
440.272	1239.06
440.493	1184.06
440.715	1192.06
440.936	1180.06
441.158	1219.06
441.379	1237.06
441.6	1277.06
441.822	1298.06
442.043	1346.06
442.264	1378.06
442.486	1308.06
442.707	1254.06
442.928	1228.06
443.149	1238.06
443.371	1240.06
443.592	1275.06
443.813	1238.06
444.034	1251.06
444.255	1255.06
444.476	1333.06
444.698	1312.06
444.919	1346.06
445.14	1411.06
445.361	1324.06
445.582	1293.06
445.803	1250.06
446.024	1264.06
446.245	1245.06
446.466	1264.06
446.687	1232.06
446.908	1218.06
447.129	1185.06
447.35	1172.06
447.571	1190.06
447.792	1166.06
448.013	1164.06
448.234	1130.06
448.455	1145.06
448.675	1160.06
448.896	1214.06
449.117	1237.06
449.338	1314.06
449.559	1328.06
449.779	1211.06
450	1168.06
450.221	1112.06
450.442	1127.06
450.662	1091.06
450.883	1103.06
451.104	1127.06
451.324	1104.06
451.545	1099.06
451.766	1109.06
451.986	1125.06
452.207	1201.06
452.428	1454.06
452.648	2027.06
452.869	1688.06
453.089	1301.06
453.31	1241.06
453.53	1246.06
453.751	1257.06
453.971	1305.06
454.192	1306.06
454.412	1159.06
454.633	1083.06
454.853	1073.06
455.073	1070.06
455.294	1060.06
455.514	1054.06
455.734	1052.06
455.955	1067.06
456.175	1027.06
456.395	1091.06
456.616	1042.06
456.836	1088.06
457.056	1072.06
457.276	1077.06
457.497	1138.06
457.717	1150.06
457.937	1129.06
458.157	1110.06
458.377	1114.06
458.598	1148.06
458.818	1120.06
459.038	1120.06
459.258	1116.06
459.478	1115.06
459.698	1154.06
459.918	1146.06
460.138	1163.06
460.358	1246.06
460.578	1233.06
460.798	1244.06
461.018	1274.06
461.238	1266.06
461.458	1249.06
461.678	1267.06
461.898	1320.06
462.118	1278.06
462.338	1328.06
462.558	1338.06
462.777	1370.06
462.997	1436.06
463.217	1462.06
463.437	1501.06
463.657	1512.06
463.876	1499.06
464.096	1412.06
464.316	1366.06
464.536	1366.06
464.755	1359.06
464.975	1290.06
465.195	1240.06
465.414	1244.06
465.634	1192.06
465.854	1192.06
466.073	1170.06
466.293	1149.06
466.512	1166.06
466.732	1186.06
466.951	1222.06
467.171	1274.06
467.391	1302.06
467.61	1175.06
467.829	1169.06
468.049	1151.06
468.268	1135.06
468.488	1132.06
468.707	1128.06
468.927	1146.06
469.146	1148.06
469.365	1145.06
469.585	1137.06
469.804	1151.06
470.023	1195.06
470.243	1222.06
470.462	1227.06
470.681	1292.06
470.901	1412.06
471.12	1576.06
471.339	1617.06
471.558	1345.06
471.777	1234.06
471.997	1187.06
472.216	1169.06
472.435	1144.06
472.654	1110.06
472.873	1104.06
473.092	1145.06
473.311	1130.06
473.53	1143.06
473.749	1171.06
473.968	1211.06
474.187	1183.06
474.406	1114.06
474.625	1136.06
474.844	1143.06
475.063	1122.06
475.282	1146.06
475.501	1142.06
475.72	1144.06
475.939	1175.06
476.158	1203.06
476.377	1224.06
476.596	1179.06
476.814	1195.06
477.033	1203.06
477.252	1218.06
477.471	1207.06
477.69	1258.06
477.908	1305.06
478.127	1298.06
478.346	1281.06
478.564	1316.06
478.783	1297.06
479.002	1337.06
479.22	1383.06
479.439	1348.06
479.658	1310.06
479.876	1377.06
480.095	1328.06
480.313	1401.06
480.532	1369.06
480.751	1392.06
480.969	1301.06
481.188	1363.06
481.406	1344.06
481.624	1347.06
481.843	1345.06
482.061	1395.06
482.28	1328.06
482.498	1348.06
482.717	1324.06
482.935	1353.06
483.153	1403.06
483.372	1412.06
483.59	1443.06
483.808	1455.06
484.027	1481.06
484.245	1544.06
484.463	1691.06
484.681	1887.06
484.9	1702.06
485.118	1591.06
485.336	1572.06
485.554	1599.06
485.772	1682.06
485.99	1915.06
486.209	2061.06
486.427	1699.06
486.645	1563.06
486.863	1510.06
487.081	1498.06
487.299	1468.06
487.517	1455.06
487.735	1468.06
487.953	1491.06
488.171	1457.06
488.389	1487.06
488.607	1441.06
488.825	1410.06
489.043	1382.06
489.261	1411.06
489.479	1388.06
489.696	1412.06
489.914	1406.06
490.132	1447.06
490.35	1462.06
490.568	1419.06
490.786	1411.06
491.003	1469.06
