Data from SnStandardFlinnAPT0064_LampEnergy5.5_LIBS07252019.E.O._I.C._HRD10591_15-15-42-491.txt Node
Date: Thu Jul 25 15:15:42 EDT 2019
User: cochatt
Spectrometer: HR+D1059
Trigger mode: 1
Integration Time (sec): 1.000000E-1
Scans to average: 1
Electric dark correction enabled: true
Nonlinearity correction enabled: false
Boxcar width: 0
XAxis mode: Wavelengths
Number of Pixels in Spectrum: 2048
>>>>>Begin Spectral Data<<<<<
223.165	-9.38
223.4	-9.38
223.635	-9.38
223.869	-13.38
224.104	-29.38
224.338	-19.38
224.573	-13.38
224.808	-19.38
225.042	-11.38
225.277	-15.38
225.511	4.62
225.746	3.62
225.98	19.62
226.215	4.62
226.449	23.62
226.683	9.62
226.918	30.62
227.152	34.62
227.387	38.62
227.621	31.62
227.856	39.62
228.09	43.62
228.324	61.62
228.559	52.62
228.793	67.62
229.027	146.62
229.262	167.62
229.496	152.62
229.73	134.62
229.964	155.62
230.199	132.62
230.433	173.62
230.667	154.62
230.901	171.62
231.136	162.62
231.37	175.62
231.604	204.62
231.838	211.62
232.072	210.62
232.306	239.62
232.541	195.62
232.775	201.62
233.009	191.62
233.243	202.62
233.477	202.62
233.711	216.62
233.945	246.62
234.179	215.62
234.413	225.62
234.647	224.62
234.881	216.62
235.115	216.62
235.349	267.62
235.583	316.62
235.817	368.62
236.051	381.62
236.285	277.62
236.519	228.62
236.753	221.62
236.987	226.62
237.221	234.62
237.455	237.62
237.689	225.62
237.922	220.62
238.156	216.62
238.39	228.62
238.624	217.62
238.858	206.62
239.091	209.62
239.325	219.62
239.559	235.62
239.793	222.62
240.027	233.62
240.26	238.62
240.494	239.62
240.728	237.62
240.961	273.62
241.195	267.62
241.429	278.62
241.662	266.62
241.896	304.62
242.13	374.62
242.363	466.62
242.597	568.62
242.83	524.62
243.064	569.62
243.298	647.62
243.531	534.62
243.765	363.62
243.998	307.62
244.232	303.62
244.465	300.62
244.699	273.62
244.932	279.62
245.166	282.62
245.399	299.62
245.633	287.62
245.866	285.62
246.099	276.62
246.333	281.62
246.566	287.62
246.8	292.62
247.033	280.62
247.266	281.62
247.5	282.62
247.733	294.62
247.966	308.62
248.2	311.62
248.433	341.62
248.666	364.62
248.899	370.62
249.133	333.62
249.366	365.62
249.599	368.62
249.832	384.62
250.066	408.62
250.299	360.62
250.532	352.62
250.765	321.62
250.998	321.62
251.231	328.62
251.465	331.62
251.698	321.62
251.931	330.62
252.164	303.62
252.397	319.62
252.63	309.62
252.863	346.62
253.096	349.62
253.329	330.62
253.562	347.62
253.795	324.62
254.028	328.62
254.261	357.62
254.494	362.62
254.727	387.62
254.96	469.62
255.193	461.62
255.426	381.62
255.659	364.62
255.892	368.62
256.124	377.62
256.357	378.62
256.59	380.62
256.823	392.62
257.056	418.62
257.289	488.62
257.521	511.62
257.754	457.62
257.987	409.62
258.22	378.62
258.452	367.62
258.685	388.62
258.918	379.62
259.151	416.62
259.383	425.62
259.616	444.62
259.849	481.62
260.081	439.62
260.314	418.62
260.547	386.62
260.779	396.62
261.012	421.62
261.244	418.62
261.477	441.62
261.71	412.62
261.942	433.62
262.175	450.62
262.407	446.62
262.64	450.62
262.872	475.62
263.105	477.62
263.337	507.62
263.57	561.62
263.802	553.62
264.035	543.62
264.267	551.62
264.499	585.62
264.732	628.62
264.964	625.62
265.197	592.62
265.429	604.62
265.661	635.62
265.894	655.62
266.126	709.62
266.358	763.62
266.591	719.62
266.823	638.62
267.055	615.62
267.287	582.62
267.52	572.62
267.752	537.62
267.984	553.62
268.216	532.62
268.448	535.62
268.681	522.62
268.913	515.62
269.145	521.62
269.377	519.62
269.609	525.62
269.841	524.62
270.073	549.62
270.306	631.62
270.538	804.62
270.77	1089.62
271.002	1324.62
271.234	1018.62
271.466	701.62
271.698	574.62
271.93	566.62
272.162	556.62
272.394	525.62
272.626	517.62
272.858	503.62
273.09	513.62
273.322	530.62
273.553	524.62
273.785	496.62
274.017	500.62
274.249	498.62
274.481	489.62
274.713	515.62
274.945	500.62
275.176	521.62
275.408	504.62
275.64	510.62
275.872	524.62
276.104	538.62
276.335	530.62
276.567	513.62
276.799	533.62
277.031	518.62
277.262	551.62
277.494	562.62
277.726	567.62
277.957	673.62
278.189	732.62
278.421	701.62
278.652	640.62
278.884	614.62
279.115	597.62
279.347	576.62
279.579	571.62
279.81	567.62
280.042	572.62
280.273	573.62
280.505	576.62
280.736	603.62
280.968	620.62
281.199	664.62
281.431	725.62
281.662	729.62
281.894	652.62
282.125	627.62
282.356	665.62
282.588	636.62
282.819	679.62
283.051	680.62
283.282	748.62
283.513	909.62
283.745	1273.62
283.976	1941.62
284.207	2699.62
284.439	2459.62
284.67	1513.62
284.901	1258.62
285.132	1248.62
285.364	1155.62
285.595	931.62
285.826	893.62
286.057	1022.62
286.288	1338.62
286.52	1759.62
286.751	1600.62
286.982	1073.62
287.213	841.62
287.444	746.62
287.675	735.62
287.906	697.62
288.138	668.62
288.369	679.62
288.6	690.62
288.831	665.62
289.062	673.62
289.293	681.62
289.524	669.62
289.755	702.62
289.986	673.62
290.217	696.62
290.448	667.62
290.679	681.62
290.91	687.62
291.141	725.62
291.371	721.62
291.602	727.62
291.833	721.62
292.064	672.62
292.295	660.62
292.526	680.62
292.757	653.62
292.987	643.62
293.218	627.62
293.449	661.62
293.68	653.62
293.91	636.62
294.141	635.62
294.372	621.62
294.603	624.62
294.833	625.62
295.064	636.62
295.295	644.62
295.525	635.62
295.756	642.62
295.987	628.62
296.217	635.62
296.448	641.62
296.679	631.62
296.909	637.62
297.14	653.62
297.37	664.62
297.601	658.62
297.831	651.62
298.062	650.62
298.292	676.62
298.523	677.62
298.753	675.62
298.984	675.62
299.214	698.62
299.445	687.62
299.675	672.62
299.905	737.62
300.136	740.62
300.366	802.62
300.597	992.62
300.827	1333.62
301.057	1709.62
301.288	1697.62
301.518	1156.62
301.748	913.62
301.979	862.62
302.209	836.62
302.439	855.62
302.669	901.62
302.9	1039.62
303.13	1375.62
303.36	1976.62
303.59	2585.62
303.82	2287.62
304.051	1433.62
304.281	1057.62
304.511	937.62
304.741	881.62
304.971	854.62
305.201	795.62
305.431	776.62
305.661	765.62
305.891	721.62
306.121	753.62
306.352	736.62
306.582	729.62
306.812	724.62
307.042	732.62
307.272	713.62
307.502	722.62
307.731	744.62
307.961	735.62
308.191	743.62
308.421	733.62
308.651	724.62
308.881	731.62
309.111	721.62
309.341	731.62
309.571	749.62
309.8	735.62
310.03	774.62
310.26	742.62
310.49	763.62
310.72	751.62
310.949	741.62
311.179	751.62
311.409	780.62
311.639	778.62
311.868	791.62
312.098	790.62
312.328	789.62
312.557	780.62
312.787	802.62
313.017	811.62
313.246	820.62
313.476	813.62
313.706	804.62
313.935	863.62
314.165	888.62
314.394	907.62
314.624	876.62
314.853	840.62
315.083	841.62
315.312	850.62
315.542	878.62
315.771	875.62
316.001	901.62
316.23	900.62
316.46	930.62
316.689	983.62
316.919	1171.62
317.148	1602.62
317.377	2362.62
317.607	3455.62
317.836	3581.62
318.065	2166.62
318.295	1444.62
318.524	1207.62
318.753	1071.62
318.983	1023.62
319.212	953.62
319.441	966.62
319.67	947.62
319.9	943.62
320.129	925.62
320.358	935.62
320.587	919.62
320.816	924.62
321.046	907.62
321.275	937.62
321.504	912.62
321.733	946.62
321.962	961.62
322.191	962.62
322.42	986.62
322.649	965.62
322.878	967.62
323.108	961.62
323.337	1016.62
323.566	983.62
323.795	1008.62
324.024	1036.62
324.253	1025.62
324.482	1105.62
324.71	1108.62
324.939	1199.62
325.168	1203.62
325.397	1222.62
325.626	1443.62
325.855	1899.62
326.084	2916.62
326.313	4188.62
326.542	4522.62
326.77	2961.62
326.999	2012.62
327.228	1743.62
327.457	1665.62
327.686	1699.62
327.914	1778.62
328.143	2051.62
328.372	2314.62
328.6	2511.62
328.829	2329.62
329.058	2047.62
329.287	1850.62
329.515	1721.62
329.744	1645.62
329.972	1535.62
330.201	1491.62
330.43	1430.62
330.658	1405.62
330.887	1346.62
331.115	1352.62
331.344	1345.62
331.572	1330.62
331.801	1341.62
332.03	1369.62
332.258	1350.62
332.486	1418.62
332.715	1559.62
332.943	1816.62
333.172	2153.62
333.4	2120.62
333.629	1760.62
333.857	1683.62
334.085	1674.62
334.314	1733.62
334.542	1899.62
334.771	2116.62
334.999	2535.62
335.227	3044.62
335.455	3379.62
335.684	3139.62
335.912	2686.62
336.14	2355.62
336.369	2147.62
336.597	1961.62
336.825	1813.62
337.053	1673.62
337.281	1627.62
337.51	1556.62
337.738	1496.62
337.966	1441.62
338.194	1428.62
338.422	1347.62
338.65	1307.62
338.878	1286.62
339.106	1238.62
339.334	1267.62
339.562	1228.62
339.79	1217.62
340.018	1221.62
340.246	1215.62
340.474	1176.62
340.702	1171.62
340.93	1209.62
341.158	1161.62
341.386	1197.62
341.614	1179.62
341.842	1192.62
342.07	1131.62
342.298	1111.62
342.526	1101.62
342.754	1094.62
342.981	1081.62
343.209	1109.62
343.437	1099.62
343.665	1100.62
343.893	1130.62
344.12	1147.62
344.348	1125.62
344.576	1107.62
344.804	1077.62
345.031	1041.62
345.259	1038.62
345.487	1027.62
345.714	1013.62
345.942	992.62
346.17	1039.62
346.397	1038.62
346.625	1026.62
346.853	998.62
347.08	1016.62
347.308	985.62
347.535	1041.62
347.763	1013.62
347.99	996.62
348.218	1005.62
348.445	997.62
348.673	997.62
348.9	1032.62
349.128	975.62
349.355	975.62
349.583	1027.62
349.81	989.62
350.037	987.62
350.265	989.62
350.492	950.62
350.72	950.62
350.947	958.62
351.174	989.62
351.402	1002.62
351.629	956.62
351.856	983.62
352.083	935.62
352.311	967.62
352.538	933.62
352.765	957.62
352.992	946.62
353.22	968.62
353.447	966.62
353.674	972.62
353.901	952.62
354.128	957.62
354.355	965.62
354.583	963.62
354.81	964.62
355.037	983.62
355.264	977.62
355.491	977.62
355.718	981.62
355.945	975.62
356.172	980.62
356.399	994.62
356.626	1007.62
356.853	1003.62
357.08	1031.62
357.307	1001.62
357.534	1023.62
357.761	982.62
357.988	999.62
358.215	1031.62
358.441	1019.62
358.668	1010.62
358.895	1016.62
359.122	1025.62
359.349	1008.62
359.576	1032.62
359.802	1024.62
360.029	1028.62
360.256	1032.62
360.483	1047.62
360.709	1016.62
360.936	1026.62
361.163	1061.62
361.39	1028.62
361.616	1009.62
361.843	1044.62
362.07	1034.62
362.296	1043.62
362.523	1036.62
362.749	1017.62
362.976	1042.62
363.203	1035.62
363.429	1007.62
363.656	1035.62
363.882	1039.62
364.109	1041.62
364.335	1017.62
364.562	1022.62
364.788	1027.62
365.015	1035.62
365.241	1051.62
365.468	1088.62
365.694	1114.62
365.92	1091.62
366.147	1025.62
366.373	1084.62
366.599	1078.62
366.826	1052.62
367.052	1047.62
367.278	1044.62
367.505	1061.62
367.731	1043.62
367.957	1028.62
368.184	1068.62
368.41	1084.62
368.636	1080.62
368.862	1072.62
369.089	1012.62
369.315	1068.62
369.541	1061.62
369.767	1060.62
369.993	1077.62
370.219	1044.62
370.445	1059.62
370.672	1084.62
370.898	1057.62
371.124	1067.62
371.35	1124.62
371.576	1123.62
371.802	1105.62
372.028	1120.62
372.254	1113.62
372.48	1104.62
372.706	1130.62
372.932	1120.62
373.158	1142.62
373.384	1155.62
373.61	1119.62
373.835	1131.62
374.061	1138.62
374.287	1132.62
374.513	1151.62
374.739	1159.62
374.965	1172.62
375.191	1162.62
375.416	1169.62
375.642	1151.62
375.868	1158.62
376.094	1137.62
376.319	1109.62
376.545	1112.62
376.771	1136.62
376.997	1114.62
377.222	1087.62
377.448	1062.62
377.674	1084.62
377.899	1095.62
378.125	1092.62
378.35	1106.62
378.576	1106.62
378.802	1128.62
379.027	1120.62
379.253	1148.62
379.478	1190.62
379.704	1340.62
379.929	1749.62
380.155	2540.62
380.38	2709.62
380.606	1767.62
380.831	1362.62
381.057	1228.62
381.282	1169.62
381.507	1129.62
381.733	1133.62
381.958	1090.62
382.184	1083.62
382.409	1091.62
382.634	1092.62
382.86	1069.62
383.085	1083.62
383.31	1082.62
383.535	1079.62
383.761	1085.62
383.986	1109.62
384.211	1106.62
384.436	1105.62
384.662	1114.62
384.887	1149.62
385.112	1099.62
385.337	1163.62
385.562	1135.62
385.787	1125.62
386.013	1139.62
386.238	1139.62
386.463	1151.62
386.688	1171.62
386.913	1121.62
387.138	1133.62
387.363	1137.62
387.588	1120.62
387.813	1143.62
388.038	1100.62
388.263	1155.62
388.488	1135.62
388.713	1147.62
388.938	1151.62
389.163	1141.62
389.387	1127.62
389.612	1151.62
389.837	1127.62
390.062	1140.62
390.287	1160.62
390.512	1127.62
390.736	1155.62
390.961	1195.62
391.186	1164.62
391.411	1205.62
391.636	1171.62
391.86	1204.62
392.085	1179.62
392.31	1203.62
392.534	1182.62
392.759	1163.62
392.984	1186.62
393.208	1157.62
393.433	1139.62
393.658	1139.62
393.882	1171.62
394.107	1167.62
394.331	1149.62
394.556	1175.62
394.78	1159.62
395.005	1154.62
395.229	1155.62
395.454	1195.62
395.678	1180.62
395.903	1195.62
396.127	1163.62
396.352	1165.62
396.576	1187.62
396.801	1171.62
397.025	1187.62
397.249	1207.62
397.474	1229.62
397.698	1180.62
397.922	1233.62
398.147	1209.62
398.371	1247.62
398.595	1245.62
398.82	1265.62
399.044	1332.62
399.268	1386.62
399.492	1473.62
399.717	1482.62
399.941	1502.62
400.165	1437.62
400.389	1419.62
400.613	1375.62
400.837	1292.62
401.062	1304.62
401.286	1279.62
401.51	1292.62
401.734	1257.62
401.958	1280.62
402.182	1276.62
402.406	1264.62
402.63	1260.62
402.854	1265.62
403.078	1274.62
403.302	1322.62
403.526	1319.62
403.75	1310.62
403.974	1369.62
404.198	1312.62
404.422	1313.62
404.645	1308.62
404.869	1289.62
405.093	1339.62
405.317	1310.62
405.541	1321.62
405.765	1329.62
405.988	1343.62
406.212	1357.62
406.436	1321.62
406.66	1363.62
406.883	1363.62
407.107	1403.62
407.331	1425.62
407.555	1473.62
407.778	1399.62
408.002	1422.62
408.226	1400.62
408.449	1385.62
408.673	1337.62
408.896	1336.62
409.12	1325.62
409.344	1337.62
409.567	1311.62
409.791	1291.62
410.014	1287.62
410.238	1282.62
410.461	1298.62
410.685	1301.62
410.908	1303.62
411.132	1276.62
411.355	1237.62
411.578	1224.62
411.802	1251.62
412.025	1283.62
412.249	1265.62
412.472	1233.62
412.695	1267.62
412.919	1238.62
413.142	1252.62
413.365	1239.62
413.589	1229.62
413.812	1241.62
414.035	1254.62
414.258	1235.62
414.482	1257.62
414.705	1264.62
414.928	1239.62
415.151	1250.62
415.374	1241.62
415.597	1234.62
415.821	1199.62
416.044	1199.62
416.267	1188.62
416.49	1191.62
416.713	1190.62
416.936	1233.62
417.159	1155.62
417.382	1187.62
417.605	1189.62
417.828	1204.62
418.051	1203.62
418.274	1225.62
418.497	1217.62
418.72	1241.62
418.943	1203.62
419.166	1285.62
419.389	1324.62
419.611	1312.62
419.834	1252.62
420.057	1253.62
420.28	1223.62
420.503	1207.62
420.726	1173.62
420.948	1210.62
421.171	1196.62
421.394	1193.62
421.617	1195.62
421.839	1188.62
422.062	1199.62
422.285	1190.62
422.507	1211.62
422.73	1210.62
422.953	1235.62
423.175	1249.62
423.398	1194.62
423.621	1177.62
423.843	1232.62
424.066	1211.62
424.288	1224.62
424.511	1195.62
424.733	1213.62
424.956	1202.62
425.178	1180.62
425.401	1202.62
425.623	1211.62
425.846	1134.62
426.068	1210.62
426.291	1179.62
426.513	1138.62
426.735	1165.62
426.958	1148.62
427.18	1138.62
427.402	1128.62
427.625	1132.62
427.847	1130.62
428.069	1107.62
428.292	1130.62
428.514	1114.62
428.736	1115.62
428.958	1091.62
429.181	1123.62
429.403	1081.62
429.625	1110.62
429.847	1096.62
430.069	1114.62
430.292	1172.62
430.514	1180.62
430.736	1155.62
430.958	1112.62
431.18	1113.62
431.402	1112.62
431.624	1090.62
431.846	1115.62
432.068	1040.62
432.29	1087.62
432.512	1090.62
432.734	1094.62
432.956	1067.62
433.178	1155.62
433.4	1119.62
433.622	1094.62
433.844	1146.62
434.066	1110.62
434.287	1091.62
434.509	1111.62
434.731	1131.62
434.953	1151.62
435.175	1159.62
435.397	1157.62
435.618	1122.62
435.84	1130.62
436.062	1078.62
436.284	1085.62
436.505	1095.62
436.727	1116.62
436.949	1103.62
437.17	1113.62
437.392	1064.62
437.614	1097.62
437.835	1019.62
438.057	1028.62
438.278	1044.62
438.5	1041.62
438.721	1076.62
438.943	1122.62
439.165	1122.62
439.386	1142.62
439.608	1130.62
439.829	1143.62
440.05	1163.62
440.272	1173.62
440.493	1163.62
440.715	1087.62
440.936	1161.62
441.158	1159.62
441.379	1162.62
441.6	1202.62
441.822	1203.62
442.043	1271.62
442.264	1293.62
442.486	1172.62
442.707	1205.62
442.928	1178.62
443.149	1179.62
443.371	1171.62
443.592	1183.62
443.813	1208.62
444.034	1207.62
444.255	1219.62
444.476	1231.62
444.698	1264.62
444.919	1304.62
445.14	1327.62
445.361	1242.62
445.582	1230.62
445.803	1210.62
446.024	1171.62
446.245	1204.62
446.466	1193.62
446.687	1149.62
446.908	1172.62
447.129	1148.62
447.35	1130.62
447.571	1114.62
447.792	1116.62
448.013	1089.62
448.234	1105.62
448.455	1085.62
448.675	1090.62
448.896	1121.62
449.117	1125.62
449.338	1211.62
449.559	1222.62
449.779	1130.62
450	1085.62
450.221	1091.62
450.442	1087.62
450.662	1031.62
450.883	1075.62
451.104	1079.62
451.324	1061.62
451.545	1059.62
451.766	1053.62
451.986	1083.62
452.207	1115.62
452.428	1284.62
452.648	1715.62
452.869	1511.62
453.089	1170.62
453.31	1159.62
453.53	1135.62
453.751	1164.62
453.971	1230.62
454.192	1210.62
454.412	1083.62
454.633	1026.62
454.853	1047.62
455.073	1015.62
455.294	1008.62
455.514	1021.62
455.734	1008.62
455.955	988.62
456.175	1012.62
456.395	1000.62
456.616	994.62
456.836	994.62
457.056	1028.62
457.276	992.62
457.497	1036.62
457.717	1043.62
457.937	1049.62
458.157	1049.62
458.377	1047.62
458.598	1037.62
458.818	1073.62
459.038	1073.62
459.258	1090.62
459.478	1075.62
459.698	1089.62
459.918	1101.62
460.138	1142.62
460.358	1143.62
460.578	1159.62
460.798	1166.62
461.018	1220.62
461.238	1208.62
461.458	1205.62
461.678	1187.62
461.898	1219.62
462.118	1228.62
462.338	1238.62
462.558	1287.62
462.777	1275.62
462.997	1340.62
463.217	1383.62
463.437	1419.62
463.657	1417.62
463.876	1395.62
464.096	1361.62
464.316	1312.62
464.536	1276.62
464.755	1303.62
464.975	1239.62
465.195	1209.62
465.414	1195.62
465.634	1146.62
465.854	1132.62
466.073	1136.62
466.293	1122.62
466.512	1080.62
466.732	1097.62
466.951	1166.62
467.171	1223.62
467.391	1205.62
467.61	1129.62
467.829	1107.62
468.049	1068.62
468.268	1094.62
468.488	1084.62
468.707	1100.62
468.927	1071.62
469.146	1051.62
469.365	1105.62
469.585	1096.62
469.804	1098.62
470.023	1154.62
470.243	1136.62
470.462	1184.62
470.681	1249.62
470.901	1267.62
471.12	1441.62
471.339	1449.62
471.558	1254.62
471.777	1205.62
471.997	1155.62
472.216	1082.62
472.435	1091.62
472.654	1072.62
472.873	1059.62
473.092	1075.62
473.311	1073.62
473.53	1084.62
473.749	1125.62
473.968	1152.62
474.187	1093.62
474.406	1098.62
474.625	1090.62
474.844	1092.62
475.063	1091.62
475.282	1078.62
475.501	1088.62
475.72	1137.62
475.939	1118.62
476.158	1139.62
476.377	1147.62
476.596	1125.62
476.814	1132.62
477.033	1175.62
477.252	1169.62
477.471	1185.62
477.69	1192.62
477.908	1240.62
478.127	1223.62
478.346	1240.62
478.564	1279.62
478.783	1272.62
479.002	1275.62
479.22	1300.62
479.439	1283.62
479.658	1314.62
479.876	1279.62
480.095	1282.62
480.313	1347.62
480.532	1321.62
480.751	1314.62
480.969	1283.62
481.188	1302.62
481.406	1272.62
481.624	1250.62
481.843	1291.62
482.061	1279.62
482.28	1292.62
482.498	1277.62
482.717	1292.62
482.935	1315.62
483.153	1320.62
483.372	1343.62
483.59	1371.62
483.808	1383.62
484.027	1381.62
484.245	1462.62
484.463	1603.62
484.681	1685.62
484.9	1609.62
485.118	1547.62
485.336	1481.62
485.554	1472.62
485.772	1562.62
485.99	1730.62
486.209	1853.62
486.427	1635.62
486.645	1447.62
486.863	1446.62
487.081	1402.62
487.299	1386.62
487.517	1349.62
487.735	1399.62
487.953	1427.62
488.171	1441.62
488.389	1403.62
488.607	1355.62
488.825	1369.62
489.043	1328.62
489.261	1336.62
489.479	1311.62
489.696	1357.62
489.914	1320.62
490.132	1361.62
490.35	1344.62
490.568	1344.62
490.786	1409.62
491.003	1406.62
491.221	1403.62
491.439	1397.62
491.657	1418.62
