Data from SnStandardFlinnAPT0064_QswitchEnergy10_LIBS07252019.E.O._I.C._HRD10591_15-28-35-973.txt Node
Date: Thu Jul 25 15:28:35 EDT 2019
User: cochatt
Spectrometer: HR+D1059
Trigger mode: 1
Integration Time (sec): 1.000000E-1
Scans to average: 1
Electric dark correction enabled: true
Nonlinearity correction enabled: false
Boxcar width: 0
XAxis mode: Wavelengths
Number of Pixels in Spectrum: 2048
>>>>>Begin Spectral Data<<<<<
223.165	-1.38
223.4	-1.38
223.635	-1.38
223.869	-21.38
224.104	-19.38
224.338	-12.38
224.573	-27.38
224.808	-21.38
225.042	-8.38
225.277	-0.38
225.511	-0.38
225.746	8.62
225.98	15.62
226.215	11.62
226.449	10.62
226.683	16.62
226.918	11.62
227.152	37.62
227.387	42.62
227.621	41.62
227.856	37.62
228.09	45.62
228.324	39.62
228.559	56.62
228.793	49.62
229.027	62.62
229.262	75.62
229.496	64.62
229.73	54.62
229.964	73.62
230.199	62.62
230.433	68.62
230.667	80.62
230.901	73.62
231.136	69.62
231.37	81.62
231.604	92.62
231.838	101.62
232.072	98.62
232.306	108.62
232.541	73.62
232.775	78.62
233.009	84.62
233.243	78.62
233.477	93.62
233.711	88.62
233.945	86.62
234.179	84.62
234.413	74.62
234.647	78.62
234.881	65.62
235.115	71.62
235.349	83.62
235.583	108.62
235.817	108.62
236.051	112.62
236.285	89.62
236.519	81.62
236.753	68.62
236.987	78.62
237.221	74.62
237.455	81.62
237.689	73.62
237.922	77.62
238.156	65.62
238.39	65.62
238.624	78.62
238.858	76.62
239.091	82.62
239.325	71.62
239.559	89.62
239.793	90.62
240.027	89.62
240.26	84.62
240.494	81.62
240.728	73.62
240.961	81.62
241.195	83.62
241.429	100.62
241.662	77.62
241.896	70.62
242.13	78.62
242.363	102.62
242.597	133.62
242.83	119.62
243.064	120.62
243.298	146.62
243.531	133.62
243.765	101.62
243.998	103.62
244.232	86.62
244.465	79.62
244.699	77.62
244.932	78.62
245.166	80.62
245.399	78.62
245.633	79.62
245.866	85.62
246.099	73.62
246.333	79.62
246.566	71.62
246.8	82.62
247.033	67.62
247.266	84.62
247.5	75.62
247.733	92.62
247.966	76.62
248.2	78.62
248.433	90.62
248.666	102.62
248.899	100.62
249.133	85.62
249.366	80.62
249.599	85.62
249.832	93.62
250.066	120.62
250.299	84.62
250.532	90.62
250.765	72.62
250.998	80.62
251.231	74.62
251.465	77.62
251.698	97.62
251.931	83.62
252.164	78.62
252.397	80.62
252.63	81.62
252.863	96.62
253.096	98.62
253.329	88.62
253.562	95.62
253.795	84.62
254.028	99.62
254.261	96.62
254.494	94.62
254.727	96.62
254.96	135.62
255.193	112.62
255.426	86.62
255.659	82.62
255.892	91.62
256.124	90.62
256.357	81.62
256.59	86.62
256.823	84.62
257.056	111.62
257.289	122.62
257.521	134.62
257.754	114.62
257.987	69.62
258.22	87.62
258.452	80.62
258.685	84.62
258.918	89.62
259.151	79.62
259.383	104.62
259.616	122.62
259.849	130.62
260.081	100.62
260.314	80.62
260.547	78.62
260.779	82.62
261.012	76.62
261.244	87.62
261.477	94.62
261.71	82.62
261.942	88.62
262.175	73.62
262.407	84.62
262.64	93.62
262.872	82.62
263.105	96.62
263.337	91.62
263.57	65.62
263.802	85.62
264.035	90.62
264.267	72.62
264.499	77.62
264.732	84.62
264.964	77.62
265.197	70.62
265.429	85.62
265.661	79.62
265.894	110.62
266.126	112.62
266.358	128.62
266.591	132.62
266.823	90.62
267.055	82.62
267.287	86.62
267.52	86.62
267.752	75.62
267.984	85.62
268.216	73.62
268.448	86.62
268.681	93.62
268.913	105.62
269.145	102.62
269.377	78.62
269.609	92.62
269.841	88.62
270.073	100.62
270.306	118.62
270.538	155.62
270.77	243.62
271.002	280.62
271.234	188.62
271.466	100.62
271.698	91.62
271.93	93.62
272.162	96.62
272.394	98.62
272.626	98.62
272.858	84.62
273.09	93.62
273.322	84.62
273.553	80.62
273.785	84.62
274.017	84.62
274.249	81.62
274.481	103.62
274.713	75.62
274.945	99.62
275.176	90.62
275.408	95.62
275.64	94.62
275.872	86.62
276.104	85.62
276.335	105.62
276.567	89.62
276.799	86.62
277.031	85.62
277.262	86.62
277.494	71.62
277.726	137.62
277.957	150.62
278.189	204.62
278.421	199.62
278.652	161.62
278.884	165.62
279.115	117.62
279.347	98.62
279.579	94.62
279.81	88.62
280.042	72.62
280.273	79.62
280.505	98.62
280.736	110.62
280.968	114.62
281.199	150.62
281.431	184.62
281.662	213.62
281.894	139.62
282.125	95.62
282.356	101.62
282.588	111.62
282.819	100.62
283.051	108.62
283.282	133.62
283.513	157.62
283.745	255.62
283.976	416.62
284.207	599.62
284.439	463.62
284.67	213.62
284.901	199.62
285.132	278.62
285.364	304.62
285.595	191.62
285.826	140.62
286.057	198.62
286.288	324.62
286.52	471.62
286.751	386.62
286.982	160.62
287.213	101.62
287.444	110.62
287.675	98.62
287.906	83.62
288.138	111.62
288.369	110.62
288.6	103.62
288.831	86.62
289.062	97.62
289.293	89.62
289.524	100.62
289.755	84.62
289.986	93.62
290.217	84.62
290.448	111.62
290.679	109.62
290.91	106.62
291.141	126.62
291.371	197.62
291.602	243.62
291.833	172.62
292.064	110.62
292.295	110.62
292.526	94.62
292.757	89.62
292.987	84.62
293.218	99.62
293.449	105.62
293.68	100.62
293.91	88.62
294.141	84.62
294.372	94.62
294.603	96.62
294.833	90.62
295.064	99.62
295.295	93.62
295.525	85.62
295.756	98.62
295.987	101.62
296.217	81.62
296.448	88.62
296.679	88.62
296.909	89.62
297.14	81.62
297.37	99.62
297.601	102.62
297.831	93.62
298.062	107.62
298.292	105.62
298.523	87.62
298.753	93.62
298.984	104.62
299.214	101.62
299.445	97.62
299.675	91.62
299.905	111.62
300.136	104.62
300.366	136.62
300.597	220.62
300.827	365.62
301.057	527.62
301.288	502.62
301.518	210.62
301.748	152.62
301.979	132.62
302.209	127.62
302.439	110.62
302.669	160.62
302.9	207.62
303.13	392.62
303.36	705.62
303.59	960.62
303.82	677.62
304.051	232.62
304.281	140.62
304.511	106.62
304.741	100.62
304.971	100.62
305.201	105.62
305.431	104.62
305.661	102.62
305.891	110.62
306.121	114.62
306.352	105.62
306.582	116.62
306.812	107.62
307.042	99.62
307.272	101.62
307.502	105.62
307.731	109.62
307.961	113.62
308.191	95.62
308.421	91.62
308.651	93.62
308.881	101.62
309.111	104.62
309.341	106.62
309.571	88.62
309.8	99.62
310.03	98.62
310.26	111.62
310.49	108.62
310.72	100.62
310.949	104.62
311.179	114.62
311.409	108.62
311.639	105.62
311.868	98.62
312.098	114.62
312.328	122.62
312.557	121.62
312.787	109.62
313.017	113.62
313.246	103.62
313.476	116.62
313.706	118.62
313.935	133.62
314.165	173.62
314.394	202.62
314.624	163.62
314.853	116.62
315.083	114.62
315.312	125.62
315.542	125.62
315.771	132.62
316.001	126.62
316.23	130.62
316.46	131.62
316.689	149.62
316.919	210.62
317.148	392.62
317.377	722.62
317.607	1184.62
317.836	1095.62
318.065	392.62
318.295	183.62
318.524	128.62
318.753	114.62
318.983	117.62
319.212	116.62
319.441	105.62
319.67	120.62
319.9	114.62
320.129	105.62
320.358	109.62
320.587	113.62
320.816	114.62
321.046	119.62
321.275	128.62
321.504	108.62
321.733	135.62
321.962	138.62
322.191	150.62
322.42	129.62
322.649	111.62
322.878	112.62
323.108	115.62
323.337	117.62
323.566	109.62
323.795	129.62
324.024	124.62
324.253	154.62
324.482	177.62
324.71	212.62
324.939	266.62
325.168	218.62
325.397	165.62
325.626	217.62
325.855	394.62
326.084	721.62
326.313	1231.62
326.542	1252.62
326.77	500.62
326.999	232.62
327.228	199.62
327.457	207.62
327.686	217.62
327.914	138.62
328.143	138.62
328.372	131.62
328.6	130.62
328.829	104.62
329.058	113.62
329.287	102.62
329.515	114.62
329.744	110.62
329.972	110.62
330.201	110.62
330.43	104.62
330.658	108.62
330.887	108.62
331.115	121.62
331.344	111.62
331.572	119.62
331.801	120.62
332.03	125.62
332.258	142.62
332.486	145.62
332.715	271.62
332.943	400.62
333.172	624.62
333.4	531.62
333.629	214.62
333.857	142.62
334.085	123.62
334.314	121.62
334.542	118.62
334.771	113.62
334.999	110.62
335.227	120.62
335.455	103.62
335.684	107.62
335.912	118.62
336.14	116.62
336.369	111.62
336.597	106.62
336.825	96.62
337.053	113.62
337.281	92.62
337.51	96.62
337.738	100.62
337.966	104.62
338.194	110.62
338.422	112.62
338.65	120.62
338.878	121.62
339.106	126.62
339.334	118.62
339.562	114.62
339.79	121.62
340.018	116.62
340.246	117.62
340.474	127.62
340.702	111.62
340.93	120.62
341.158	116.62
341.386	84.62
341.614	121.62
341.842	118.62
342.07	122.62
342.298	124.62
342.526	115.62
342.754	108.62
342.981	118.62
343.209	123.62
343.437	120.62
343.665	106.62
343.893	119.62
344.12	120.62
344.348	111.62
344.576	125.62
344.804	117.62
345.031	117.62
345.259	113.62
345.487	97.62
345.714	124.62
345.942	117.62
346.17	112.62
346.397	120.62
346.625	115.62
346.853	87.62
347.08	99.62
347.308	111.62
347.535	105.62
347.763	94.62
347.99	100.62
348.218	112.62
348.445	97.62
348.673	113.62
348.9	134.62
349.128	124.62
349.355	126.62
349.583	126.62
349.81	122.62
350.037	113.62
350.265	119.62
350.492	115.62
350.72	113.62
350.947	114.62
351.174	109.62
351.402	103.62
351.629	102.62
351.856	105.62
352.083	102.62
352.311	108.62
352.538	112.62
352.765	106.62
352.992	93.62
353.22	96.62
353.447	96.62
353.674	113.62
353.901	105.62
354.128	95.62
354.355	95.62
354.583	92.62
354.81	95.62
355.037	121.62
355.264	100.62
355.491	114.62
355.718	94.62
355.945	102.62
356.172	118.62
356.399	100.62
356.626	100.62
356.853	115.62
357.08	103.62
357.307	116.62
357.534	101.62
357.761	93.62
357.988	108.62
358.215	118.62
358.441	116.62
358.668	119.62
358.895	130.62
359.122	100.62
359.349	110.62
359.576	119.62
359.802	114.62
360.029	119.62
360.256	116.62
360.483	104.62
360.709	100.62
360.936	115.62
361.163	125.62
361.39	113.62
361.616	104.62
361.843	118.62
362.07	121.62
362.296	115.62
362.523	99.62
362.749	118.62
362.976	116.62
363.203	107.62
363.429	103.62
363.656	98.62
363.882	103.62
364.109	111.62
364.335	117.62
364.562	97.62
364.788	100.62
365.015	111.62
365.241	118.62
365.468	156.62
365.694	229.62
365.92	193.62
366.147	114.62
366.373	102.62
366.599	108.62
366.826	96.62
367.052	105.62
367.278	96.62
367.505	82.62
367.731	94.62
367.957	93.62
368.184	113.62
368.41	112.62
368.636	111.62
368.862	100.62
369.089	117.62
369.315	96.62
369.541	113.62
369.767	113.62
369.993	98.62
370.219	101.62
370.445	99.62
370.672	115.62
370.898	100.62
371.124	101.62
371.35	102.62
371.576	95.62
371.802	108.62
372.028	92.62
372.254	122.62
372.48	113.62
372.706	104.62
372.932	114.62
373.158	126.62
373.384	102.62
373.61	84.62
373.835	113.62
374.061	112.62
374.287	102.62
374.513	98.62
374.739	112.62
374.965	106.62
375.191	109.62
375.416	119.62
375.642	101.62
375.868	108.62
376.094	98.62
376.319	110.62
376.545	97.62
376.771	103.62
376.997	112.62
377.222	109.62
377.448	110.62
377.674	100.62
377.899	116.62
378.125	93.62
378.35	111.62
378.576	127.62
378.802	98.62
379.027	112.62
379.253	137.62
379.478	159.62
379.704	260.62
379.929	651.62
380.155	1288.62
380.38	1316.62
380.606	432.62
380.831	182.62
381.057	111.62
381.282	118.62
381.507	111.62
381.733	100.62
381.958	106.62
382.184	110.62
382.409	112.62
382.634	96.62
382.86	100.62
383.085	118.62
383.31	93.62
383.535	109.62
383.761	80.62
383.986	93.62
384.211	100.62
384.436	96.62
384.662	112.62
384.887	111.62
385.112	110.62
385.337	103.62
385.562	101.62
385.787	97.62
386.013	105.62
386.238	112.62
386.463	101.62
386.688	102.62
386.913	100.62
387.138	101.62
387.363	99.62
387.588	115.62
387.813	94.62
388.038	108.62
388.263	108.62
388.488	112.62
388.713	117.62
388.938	99.62
389.163	98.62
389.387	105.62
389.612	111.62
389.837	94.62
390.062	104.62
390.287	94.62
390.512	92.62
390.736	97.62
390.961	98.62
391.186	102.62
391.411	97.62
391.636	110.62
391.86	100.62
392.085	84.62
392.31	94.62
392.534	85.62
392.759	101.62
392.984	98.62
393.208	116.62
393.433	148.62
393.658	136.62
393.882	115.62
394.107	115.62
394.331	112.62
394.556	103.62
394.78	93.62
395.005	90.62
395.229	101.62
395.454	101.62
395.678	96.62
395.903	114.62
396.127	103.62
396.352	96.62
396.576	102.62
396.801	116.62
397.025	126.62
397.249	114.62
397.474	102.62
397.698	110.62
397.922	93.62
398.147	85.62
398.371	99.62
398.595	100.62
398.82	98.62
399.044	112.62
399.268	100.62
399.492	86.62
399.717	89.62
399.941	99.62
400.165	100.62
400.389	103.62
400.613	86.62
400.837	96.62
401.062	94.62
401.286	105.62
401.51	85.62
401.734	87.62
401.958	95.62
402.182	104.62
402.406	102.62
402.63	91.62
402.854	89.62
403.078	87.62
403.302	88.62
403.526	87.62
403.75	98.62
403.974	93.62
404.198	104.62
404.422	116.62
404.645	107.62
404.869	102.62
405.093	105.62
405.317	94.62
405.541	101.62
405.765	114.62
405.988	154.62
406.212	121.62
406.436	117.62
406.66	86.62
406.883	94.62
407.107	85.62
407.331	102.62
407.555	89.62
407.778	96.62
408.002	90.62
408.226	89.62
408.449	87.62
408.673	101.62
408.896	98.62
409.12	78.62
409.344	109.62
409.567	88.62
409.791	102.62
410.014	104.62
410.238	92.62
410.461	109.62
410.685	108.62
410.908	93.62
411.132	111.62
411.355	97.62
411.578	94.62
411.802	113.62
412.025	101.62
412.249	98.62
412.472	83.62
412.695	91.62
412.919	82.62
413.142	82.62
413.365	89.62
413.589	102.62
413.812	108.62
414.035	99.62
414.258	100.62
414.482	110.62
414.705	102.62
414.928	101.62
415.151	117.62
415.374	98.62
415.597	97.62
415.821	93.62
416.044	79.62
416.267	94.62
416.49	78.62
416.713	96.62
416.936	98.62
417.159	98.62
417.382	91.62
417.605	80.62
417.828	88.62
418.051	93.62
418.274	89.62
418.497	94.62
418.72	88.62
418.943	98.62
419.166	94.62
419.389	112.62
419.611	112.62
419.834	101.62
420.057	122.62
420.28	98.62
420.503	89.62
420.726	111.62
420.948	82.62
421.171	97.62
421.394	95.62
421.617	91.62
421.839	90.62
422.062	89.62
422.285	90.62
422.507	102.62
422.73	131.62
422.953	133.62
423.175	102.62
423.398	105.62
423.621	91.62
423.843	95.62
424.066	97.62
424.288	102.62
424.511	91.62
424.733	92.62
424.956	112.62
425.178	83.62
425.401	91.62
425.623	100.62
425.846	91.62
426.068	107.62
426.291	98.62
426.513	87.62
426.735	97.62
426.958	83.62
427.18	97.62
427.402	101.62
427.625	95.62
427.847	89.62
428.069	98.62
428.292	94.62
428.514	88.62
428.736	98.62
428.958	103.62
429.181	88.62
429.403	70.62
429.625	87.62
429.847	85.62
430.069	105.62
430.292	98.62
430.514	104.62
430.736	98.62
430.958	89.62
431.18	87.62
431.402	91.62
431.624	97.62
431.846	93.62
432.068	89.62
432.29	88.62
432.512	83.62
432.734	84.62
432.956	81.62
433.178	94.62
433.4	96.62
433.622	100.62
433.844	106.62
434.066	101.62
434.287	100.62
434.509	99.62
434.731	89.62
434.953	85.62
435.175	91.62
435.397	88.62
435.618	94.62
435.84	96.62
436.062	92.62
436.284	93.62
436.505	93.62
436.727	90.62
436.949	86.62
437.17	89.62
437.392	69.62
437.614	85.62
437.835	92.62
438.057	91.62
438.278	86.62
438.5	81.62
438.721	92.62
438.943	105.62
439.165	94.62
439.386	96.62
439.608	108.62
439.829	90.62
440.05	118.62
440.272	125.62
440.493	91.62
440.715	84.62
440.936	84.62
441.158	88.62
441.379	96.62
441.6	104.62
441.822	99.62
442.043	98.62
442.264	126.62
442.486	106.62
442.707	100.62
442.928	103.62
443.149	93.62
443.371	97.62
443.592	105.62
443.813	97.62
444.034	95.62
444.255	104.62
444.476	101.62
444.698	94.62
444.919	86.62
445.14	176.62
445.361	125.62
445.582	108.62
445.803	103.62
446.024	93.62
446.245	95.62
446.466	98.62
446.687	103.62
446.908	90.62
447.129	97.62
447.35	98.62
447.571	95.62
447.792	82.62
448.013	88.62
448.234	98.62
448.455	92.62
448.675	95.62
448.896	87.62
449.117	93.62
449.338	122.62
449.559	130.62
449.779	104.62
450	100.62
450.221	108.62
450.442	103.62
450.662	108.62
450.883	96.62
451.104	96.62
451.324	103.62
451.545	104.62
451.766	100.62
451.986	130.62
452.207	183.62
452.428	454.62
452.648	1116.62
452.869	629.62
453.089	188.62
453.31	105.62
453.53	119.62
453.751	121.62
453.971	139.62
454.192	140.62
454.412	92.62
454.633	100.62
454.853	84.62
455.073	73.62
455.294	88.62
455.514	99.62
455.734	98.62
455.955	77.62
456.175	85.62
456.395	103.62
456.616	92.62
456.836	92.62
457.056	89.62
457.276	105.62
457.497	110.62
457.717	114.62
457.937	89.62
458.157	87.62
458.377	85.62
458.598	84.62
458.818	90.62
459.038	89.62
459.258	86.62
459.478	82.62
459.698	78.62
459.918	86.62
460.138	91.62
460.358	94.62
460.578	94.62
460.798	98.62
461.018	82.62
461.238	94.62
461.458	84.62
461.678	98.62
461.898	81.62
462.118	92.62
462.338	88.62
462.558	90.62
462.777	80.62
462.997	97.62
463.217	104.62
463.437	110.62
463.657	158.62
463.876	164.62
464.096	114.62
464.316	104.62
464.536	85.62
464.755	101.62
464.975	93.62
465.195	94.62
465.414	89.62
465.634	92.62
465.854	86.62
466.073	82.62
466.293	96.62
466.512	96.62
466.732	96.62
466.951	112.62
467.171	134.62
467.391	129.62
467.61	96.62
467.829	105.62
468.049	94.62
468.268	80.62
468.488	100.62
468.707	96.62
468.927	93.62
469.146	79.62
469.365	80.62
469.585	96.62
469.804	93.62
470.023	88.62
470.243	101.62
470.462	94.62
470.681	104.62
470.901	124.62
471.12	158.62
471.339	164.62
471.558	119.62
471.777	117.62
471.997	97.62
472.216	97.62
472.435	88.62
472.654	78.62
472.873	87.62
473.092	97.62
473.311	90.62
473.53	100.62
473.749	95.62
473.968	100.62
474.187	88.62
474.406	76.62
474.625	100.62
474.844	87.62
475.063	106.62
475.282	92.62
475.501	84.62
475.72	89.62
475.939	88.62
476.158	100.62
476.377	107.62
476.596	100.62
476.814	81.62
477.033	83.62
477.252	97.62
477.471	89.62
477.69	85.62
477.908	86.62
478.127	100.62
478.346	101.62
478.564	86.62
478.783	86.62
479.002	86.62
479.22	97.62
479.439	99.62
479.658	93.62
479.876	90.62
480.095	114.62
480.313	98.62
480.532	89.62
480.751	89.62
480.969	92.62
481.188	88.62
481.406	92.62
481.624	94.62
481.843	108.62
482.061	101.62
482.28	103.62
482.498	84.62
482.717	92.62
482.935	93.62
483.153	93.62
483.372	82.62
483.59	98.62
483.808	89.62
484.027	102.62
484.245	113.62
484.463	153.62
484.681	184.62
484.9	132.62
485.118	109.62
485.336	103.62
485.554	112.62
485.772	101.62
485.99	148.62
486.209	216.62
486.427	147.62
486.645	96.62
486.863	108.62
487.081	92.62
487.299	102.62
487.517	89.62
487.735	98.62
487.953	105.62
488.171	103.62
488.389	86.62
488.607	92.62
488.825	90.62
489.043	90.62
489.261	101.62
489.479	116.62
489.696	87.62
489.914	87.62
490.132	87.62
490.35	96.62
490.568	103.62
490.786	98.62
491.003	104.62
491.221	120.62
491.439	104.62
491.657	102.62
491.874	91.62
492.092	104.62
492.31	103.62
492.527	116.62
492.745	99.62
492.963	109.62
493.18	110.62
493.398	108.62
493.615	83.62
493.833	93.62
494.05	97.62
494.268	92.62
494.485	104.62
494.703	100.62
494.92	108.62
495.138	110.62
495.355	84.62
495.573	104.62
495.79	104.62
496.008	99.62
496.225	98.62
496.442	108.62
496.66	108.62
496.877	135.62
497.094	136.62
497.312	111.62
497.529	87.62
497.746	89.62
497.963	101.62
498.181	88.62
498.398	93.62
498.615	101.62
498.832	113.62
499.049	92.62
499.267	123.62
499.484	156.62
499.701	99.62
499.918	103.62
500.135	89.62
500.352	99.62
500.569	104.62
500.786	111.62
501.003	97.62
501.22	97.62
501.437	98.62
501.654	94.62
501.871	97.62
502.088	101.62
502.305	95.62
502.522	96.62
502.739	96.62
502.956	89.62
503.172	97.62
503.389	84.62
503.606	93.62
503.823	94.62
504.04	94.62
504.256	91.62
504.473	108.62
504.69	104.62
504.907	110.62
505.123	113.62
505.34	98.62
505.557	104.62
505.773	94.62
505.99	95.62
506.207	117.62
506.423	100.62
506.64	103.62
506.856	108.62
507.073	89.62
507.289	85.62
507.506	96.62
507.722	100.62
507.939	88.62
508.155	104.62
508.372	93.62
508.588	94.62
508.805	83.62
509.021	111.62
509.238	92.62
509.454	125.62
509.67	137.62
509.887	118.62
