Data from SnStandardFlinnAPT0064_QswitchEnergy10_LIBS07252019.E.O._I.C._HRD10591_15-28-45-973.txt Node
Date: Thu Jul 25 15:28:45 EDT 2019
User: cochatt
Spectrometer: HR+D1059
Trigger mode: 1
Integration Time (sec): 1.000000E-1
Scans to average: 1
Electric dark correction enabled: true
Nonlinearity correction enabled: false
Boxcar width: 0
XAxis mode: Wavelengths
Number of Pixels in Spectrum: 2048
>>>>>Begin Spectral Data<<<<<
223.165	-27.88
223.4	-27.88
223.635	-27.88
223.869	-4.88
224.104	-10.88
224.338	-2.88
224.573	-9.88
224.808	-12.88
225.042	-11.88
225.277	-15.88
225.511	-9.88
225.746	22.12
225.98	2.12
226.215	-5.88
226.449	6.12
226.683	18.12
226.918	31.12
227.152	33.12
227.387	33.12
227.621	30.12
227.856	42.12
228.09	50.12
228.324	51.12
228.559	54.12
228.793	55.12
229.027	58.12
229.262	72.12
229.496	73.12
229.73	70.12
229.964	77.12
230.199	73.12
230.433	75.12
230.667	85.12
230.901	96.12
231.136	91.12
231.37	95.12
231.604	80.12
231.838	115.12
232.072	123.12
232.306	139.12
232.541	106.12
232.775	101.12
233.009	76.12
233.243	101.12
233.477	91.12
233.711	102.12
233.945	122.12
234.179	97.12
234.413	100.12
234.647	89.12
234.881	85.12
235.115	91.12
235.349	98.12
235.583	116.12
235.817	133.12
236.051	121.12
236.285	91.12
236.519	96.12
236.753	97.12
236.987	79.12
237.221	94.12
237.455	84.12
237.689	78.12
237.922	85.12
238.156	81.12
238.39	90.12
238.624	88.12
238.858	92.12
239.091	76.12
239.325	98.12
239.559	91.12
239.793	79.12
240.027	79.12
240.26	77.12
240.494	79.12
240.728	97.12
240.961	104.12
241.195	99.12
241.429	90.12
241.662	89.12
241.896	89.12
242.13	101.12
242.363	137.12
242.597	169.12
242.83	156.12
243.064	148.12
243.298	173.12
243.531	150.12
243.765	114.12
243.998	91.12
244.232	87.12
244.465	83.12
244.699	77.12
244.932	92.12
245.166	90.12
245.399	94.12
245.633	82.12
245.866	96.12
246.099	87.12
246.333	84.12
246.566	91.12
246.8	94.12
247.033	88.12
247.266	83.12
247.5	93.12
247.733	85.12
247.966	87.12
248.2	85.12
248.433	127.12
248.666	147.12
248.899	135.12
249.133	111.12
249.366	115.12
249.599	115.12
249.832	138.12
250.066	128.12
250.299	90.12
250.532	89.12
250.765	99.12
250.998	85.12
251.231	74.12
251.465	87.12
251.698	85.12
251.931	86.12
252.164	85.12
252.397	79.12
252.63	96.12
252.863	114.12
253.096	104.12
253.329	104.12
253.562	97.12
253.795	93.12
254.028	102.12
254.261	87.12
254.494	94.12
254.727	128.12
254.96	155.12
255.193	133.12
255.426	107.12
255.659	105.12
255.892	107.12
256.124	115.12
256.357	87.12
256.59	95.12
256.823	101.12
257.056	119.12
257.289	156.12
257.521	191.12
257.754	140.12
257.987	101.12
258.22	77.12
258.452	93.12
258.685	87.12
258.918	82.12
259.151	106.12
259.383	128.12
259.616	155.12
259.849	158.12
260.081	108.12
260.314	94.12
260.547	104.12
260.779	89.12
261.012	93.12
261.244	95.12
261.477	93.12
261.71	94.12
261.942	89.12
262.175	92.12
262.407	93.12
262.64	80.12
262.872	86.12
263.105	83.12
263.337	67.12
263.57	93.12
263.802	94.12
264.035	110.12
264.267	90.12
264.499	94.12
264.732	83.12
264.964	90.12
265.197	90.12
265.429	94.12
265.661	97.12
265.894	93.12
266.126	132.12
266.358	161.12
266.591	153.12
266.823	104.12
267.055	89.12
267.287	88.12
267.52	86.12
267.752	90.12
267.984	104.12
268.216	93.12
268.448	90.12
268.681	87.12
268.913	101.12
269.145	87.12
269.377	81.12
269.609	103.12
269.841	99.12
270.073	104.12
270.306	141.12
270.538	198.12
270.77	344.12
271.002	391.12
271.234	232.12
271.466	143.12
271.698	110.12
271.93	97.12
272.162	94.12
272.394	97.12
272.626	88.12
272.858	85.12
273.09	91.12
273.322	100.12
273.553	94.12
273.785	105.12
274.017	97.12
274.249	87.12
274.481	98.12
274.713	85.12
274.945	86.12
275.176	101.12
275.408	75.12
275.64	95.12
275.872	96.12
276.104	102.12
276.335	111.12
276.567	117.12
276.799	108.12
277.031	94.12
277.262	87.12
277.494	108.12
277.726	145.12
277.957	219.12
278.189	286.12
278.421	265.12
278.652	220.12
278.884	216.12
279.115	155.12
279.347	120.12
279.579	102.12
279.81	95.12
280.042	118.12
280.273	107.12
280.505	107.12
280.736	106.12
280.968	132.12
281.199	192.12
281.431	281.12
281.662	307.12
281.894	195.12
282.125	120.12
282.356	132.12
282.588	118.12
282.819	116.12
283.051	139.12
283.282	155.12
283.513	216.12
283.745	358.12
283.976	618.12
284.207	889.12
284.439	682.12
284.67	335.12
284.901	277.12
285.132	392.12
285.364	421.12
285.595	243.12
285.826	184.12
286.057	296.12
286.288	467.12
286.52	706.12
286.751	556.12
286.982	233.12
287.213	137.12
287.444	122.12
287.675	115.12
287.906	111.12
288.138	102.12
288.369	106.12
288.6	100.12
288.831	102.12
289.062	98.12
289.293	111.12
289.524	96.12
289.755	90.12
289.986	104.12
290.217	84.12
290.448	95.12
290.679	121.12
290.91	151.12
291.141	203.12
291.371	280.12
291.602	353.12
291.833	240.12
292.064	127.12
292.295	107.12
292.526	99.12
292.757	105.12
292.987	102.12
293.218	98.12
293.449	104.12
293.68	102.12
293.91	93.12
294.141	102.12
294.372	96.12
294.603	93.12
294.833	90.12
295.064	104.12
295.295	89.12
295.525	100.12
295.756	103.12
295.987	86.12
296.217	105.12
296.448	113.12
296.679	119.12
296.909	112.12
297.14	101.12
297.37	106.12
297.601	102.12
297.831	109.12
298.062	98.12
298.292	113.12
298.523	120.12
298.753	121.12
298.984	110.12
299.214	123.12
299.445	102.12
299.675	119.12
299.905	124.12
300.136	131.12
300.366	186.12
300.597	306.12
300.827	502.12
301.057	798.12
301.288	710.12
301.518	286.12
301.748	176.12
301.979	159.12
302.209	139.12
302.439	173.12
302.669	185.12
302.9	319.12
303.13	601.12
303.36	1010.12
303.59	1379.12
303.82	958.12
304.051	343.12
304.281	174.12
304.511	153.12
304.741	123.12
304.971	114.12
305.201	123.12
305.431	117.12
305.661	121.12
305.891	124.12
306.121	118.12
306.352	113.12
306.582	123.12
306.812	132.12
307.042	126.12
307.272	120.12
307.502	111.12
307.731	110.12
307.961	106.12
308.191	110.12
308.421	108.12
308.651	112.12
308.881	111.12
309.111	123.12
309.341	125.12
309.571	111.12
309.8	121.12
310.03	120.12
310.26	121.12
310.49	124.12
310.72	119.12
310.949	127.12
311.179	122.12
311.409	130.12
311.639	114.12
311.868	119.12
312.098	123.12
312.328	109.12
312.557	135.12
312.787	127.12
313.017	141.12
313.246	132.12
313.476	129.12
313.706	133.12
313.935	170.12
314.165	223.12
314.394	284.12
314.624	210.12
314.853	155.12
315.083	130.12
315.312	134.12
315.542	157.12
315.771	145.12
316.001	132.12
316.23	145.12
316.46	166.12
316.689	202.12
316.919	292.12
317.148	588.12
317.377	1079.12
317.607	1697.12
317.836	1578.12
318.065	635.12
318.295	258.12
318.524	189.12
318.753	161.12
318.983	123.12
319.212	131.12
319.441	141.12
319.67	120.12
319.9	130.12
320.129	126.12
320.358	125.12
320.587	122.12
320.816	146.12
321.046	134.12
321.275	138.12
321.504	147.12
321.733	169.12
321.962	185.12
322.191	194.12
322.42	157.12
322.649	149.12
322.878	132.12
323.108	135.12
323.337	131.12
323.566	127.12
323.795	131.12
324.024	146.12
324.253	169.12
324.482	205.12
324.71	259.12
324.939	316.12
325.168	267.12
325.397	211.12
325.626	298.12
325.855	574.12
326.084	1111.12
326.313	1845.12
326.542	1785.12
326.77	719.12
326.999	293.12
327.228	227.12
327.457	265.12
327.686	287.12
327.914	167.12
328.143	154.12
328.372	141.12
328.6	138.12
328.829	142.12
329.058	130.12
329.287	115.12
329.515	128.12
329.744	123.12
329.972	127.12
330.201	122.12
330.43	129.12
330.658	123.12
330.887	129.12
331.115	129.12
331.344	129.12
331.572	146.12
331.801	133.12
332.03	123.12
332.258	138.12
332.486	207.12
332.715	317.12
332.943	576.12
333.172	892.12
333.4	780.12
333.629	295.12
333.857	155.12
334.085	158.12
334.314	144.12
334.542	135.12
334.771	146.12
334.999	113.12
335.227	139.12
335.455	135.12
335.684	137.12
335.912	137.12
336.14	126.12
336.369	113.12
336.597	123.12
336.825	122.12
337.053	125.12
337.281	128.12
337.51	120.12
337.738	126.12
337.966	118.12
338.194	125.12
338.422	138.12
338.65	125.12
338.878	120.12
339.106	137.12
339.334	143.12
339.562	134.12
339.79	125.12
340.018	146.12
340.246	106.12
340.474	126.12
340.702	121.12
340.93	118.12
341.158	134.12
341.386	124.12
341.614	133.12
341.842	132.12
342.07	128.12
342.298	132.12
342.526	116.12
342.754	133.12
342.981	127.12
343.209	125.12
343.437	117.12
343.665	118.12
343.893	118.12
344.12	121.12
344.348	119.12
344.576	110.12
344.804	131.12
345.031	129.12
345.259	146.12
345.487	131.12
345.714	118.12
345.942	122.12
346.17	121.12
346.397	107.12
346.625	114.12
346.853	115.12
347.08	125.12
347.308	111.12
347.535	110.12
347.763	115.12
347.99	112.12
348.218	115.12
348.445	110.12
348.673	119.12
348.9	134.12
349.128	133.12
349.355	128.12
349.583	135.12
349.81	130.12
350.037	125.12
350.265	121.12
350.492	114.12
350.72	121.12
350.947	123.12
351.174	122.12
351.402	125.12
351.629	123.12
351.856	108.12
352.083	108.12
352.311	124.12
352.538	125.12
352.765	115.12
352.992	121.12
353.22	129.12
353.447	112.12
353.674	111.12
353.901	125.12
354.128	102.12
354.355	109.12
354.583	121.12
354.81	116.12
355.037	109.12
355.264	104.12
355.491	104.12
355.718	118.12
355.945	105.12
356.172	118.12
356.399	122.12
356.626	132.12
356.853	124.12
357.08	135.12
357.307	109.12
357.534	113.12
357.761	122.12
357.988	102.12
358.215	106.12
358.441	130.12
358.668	123.12
358.895	132.12
359.122	127.12
359.349	121.12
359.576	139.12
359.802	131.12
360.029	123.12
360.256	113.12
360.483	125.12
360.709	115.12
360.936	124.12
361.163	129.12
361.39	123.12
361.616	122.12
361.843	135.12
362.07	141.12
362.296	139.12
362.523	116.12
362.749	115.12
362.976	116.12
363.203	126.12
363.429	131.12
363.656	125.12
363.882	126.12
364.109	136.12
364.335	125.12
364.562	111.12
364.788	111.12
365.015	127.12
365.241	163.12
365.468	232.12
365.694	307.12
365.92	261.12
366.147	138.12
366.373	116.12
366.599	101.12
366.826	106.12
367.052	101.12
367.278	105.12
367.505	93.12
367.731	114.12
367.957	123.12
368.184	122.12
368.41	150.12
368.636	139.12
368.862	114.12
369.089	96.12
369.315	121.12
369.541	126.12
369.767	115.12
369.993	110.12
370.219	132.12
370.445	109.12
370.672	119.12
370.898	121.12
371.124	113.12
371.35	110.12
371.576	116.12
371.802	121.12
372.028	126.12
372.254	125.12
372.48	114.12
372.706	129.12
372.932	125.12
373.158	135.12
373.384	121.12
373.61	128.12
373.835	143.12
374.061	110.12
374.287	125.12
374.513	125.12
374.739	126.12
374.965	129.12
375.191	125.12
375.416	115.12
375.642	116.12
375.868	123.12
376.094	105.12
376.319	118.12
376.545	117.12
376.771	104.12
376.997	119.12
377.222	115.12
377.448	128.12
377.674	118.12
377.899	113.12
378.125	120.12
378.35	110.12
378.576	121.12
378.802	139.12
379.027	129.12
379.253	158.12
379.478	188.12
379.704	356.12
379.929	913.12
380.155	1875.12
380.38	1891.12
380.606	626.12
380.831	215.12
381.057	149.12
381.282	133.12
381.507	114.12
381.733	119.12
381.958	135.12
382.184	98.12
382.409	118.12
382.634	123.12
382.86	99.12
383.085	124.12
383.31	122.12
383.535	118.12
383.761	99.12
383.986	109.12
384.211	115.12
384.436	116.12
384.662	115.12
384.887	109.12
385.112	117.12
385.337	120.12
385.562	114.12
385.787	117.12
386.013	117.12
386.238	105.12
386.463	109.12
386.688	124.12
386.913	113.12
387.138	122.12
387.363	125.12
387.588	116.12
387.813	110.12
388.038	102.12
388.263	104.12
388.488	115.12
388.713	117.12
388.938	100.12
389.163	109.12
389.387	106.12
389.612	107.12
389.837	102.12
390.062	124.12
390.287	123.12
390.512	117.12
390.736	110.12
390.961	103.12
391.186	106.12
391.411	101.12
391.636	117.12
391.86	109.12
392.085	119.12
392.31	106.12
392.534	108.12
392.759	103.12
392.984	117.12
393.208	126.12
393.433	158.12
393.658	133.12
393.882	113.12
394.107	100.12
394.331	98.12
394.556	108.12
394.78	85.12
395.005	107.12
395.229	126.12
395.454	108.12
395.678	110.12
395.903	107.12
396.127	115.12
396.352	122.12
396.576	110.12
396.801	137.12
397.025	129.12
397.249	121.12
397.474	113.12
397.698	117.12
397.922	121.12
398.147	105.12
398.371	90.12
398.595	99.12
398.82	112.12
399.044	115.12
399.268	114.12
399.492	104.12
399.717	97.12
399.941	116.12
400.165	98.12
400.389	118.12
400.613	96.12
400.837	117.12
401.062	99.12
401.286	114.12
401.51	124.12
401.734	107.12
401.958	100.12
402.182	100.12
402.406	89.12
402.63	95.12
402.854	100.12
403.078	103.12
403.302	111.12
403.526	101.12
403.75	94.12
403.974	104.12
404.198	109.12
404.422	97.12
404.645	113.12
404.869	103.12
405.093	102.12
405.317	108.12
405.541	122.12
405.765	147.12
405.988	178.12
406.212	130.12
406.436	94.12
406.66	106.12
406.883	109.12
407.107	105.12
407.331	117.12
407.555	117.12
407.778	110.12
408.002	103.12
408.226	93.12
408.449	111.12
408.673	104.12
408.896	97.12
409.12	97.12
409.344	99.12
409.567	106.12
409.791	110.12
410.014	111.12
410.238	114.12
410.461	108.12
410.685	99.12
410.908	113.12
411.132	89.12
411.355	112.12
411.578	117.12
411.802	100.12
412.025	123.12
412.249	101.12
412.472	109.12
412.695	92.12
412.919	111.12
413.142	93.12
413.365	102.12
413.589	101.12
413.812	100.12
414.035	123.12
414.258	110.12
414.482	101.12
414.705	111.12
414.928	114.12
415.151	115.12
415.374	121.12
415.597	96.12
415.821	103.12
416.044	97.12
416.267	91.12
416.49	104.12
416.713	103.12
416.936	98.12
417.159	114.12
417.382	105.12
417.605	113.12
417.828	97.12
418.051	109.12
418.274	103.12
418.497	110.12
418.72	119.12
418.943	104.12
419.166	108.12
419.389	133.12
419.611	131.12
419.834	103.12
420.057	113.12
420.28	101.12
420.503	107.12
420.726	114.12
420.948	123.12
421.171	103.12
421.394	99.12
421.617	90.12
421.839	103.12
422.062	99.12
422.285	111.12
422.507	113.12
422.73	153.12
422.953	166.12
423.175	114.12
423.398	107.12
423.621	98.12
423.843	91.12
424.066	106.12
424.288	110.12
424.511	99.12
424.733	105.12
424.956	117.12
425.178	102.12
425.401	97.12
425.623	98.12
425.846	89.12
426.068	112.12
426.291	98.12
426.513	99.12
426.735	107.12
426.958	111.12
427.18	109.12
427.402	112.12
427.625	104.12
427.847	105.12
428.069	101.12
428.292	114.12
428.514	109.12
428.736	108.12
428.958	106.12
429.181	95.12
429.403	99.12
429.625	102.12
429.847	97.12
430.069	105.12
430.292	110.12
430.514	105.12
430.736	114.12
430.958	110.12
431.18	101.12
431.402	100.12
431.624	93.12
431.846	104.12
432.068	94.12
432.29	87.12
432.512	108.12
432.734	97.12
432.956	108.12
433.178	108.12
433.4	98.12
433.622	100.12
433.844	105.12
434.066	120.12
434.287	103.12
434.509	106.12
434.731	97.12
434.953	101.12
435.175	102.12
435.397	109.12
435.618	98.12
435.84	98.12
436.062	92.12
436.284	103.12
436.505	100.12
436.727	84.12
436.949	94.12
437.17	96.12
437.392	105.12
437.614	117.12
437.835	105.12
438.057	102.12
438.278	116.12
438.5	93.12
438.721	107.12
438.943	109.12
439.165	121.12
439.386	121.12
439.608	115.12
439.829	96.12
440.05	131.12
440.272	133.12
440.493	113.12
440.715	110.12
440.936	119.12
441.158	102.12
441.379	81.12
441.6	99.12
441.822	105.12
442.043	124.12
442.264	120.12
442.486	119.12
442.707	101.12
442.928	97.12
443.149	115.12
443.371	100.12
443.592	93.12
443.813	103.12
444.034	97.12
444.255	96.12
444.476	116.12
444.698	100.12
444.919	98.12
445.14	200.12
445.361	138.12
445.582	109.12
445.803	107.12
446.024	103.12
446.245	107.12
446.466	103.12
446.687	129.12
446.908	113.12
447.129	96.12
447.35	105.12
447.571	100.12
447.792	99.12
448.013	105.12
448.234	99.12
448.455	106.12
448.675	105.12
448.896	104.12
449.117	121.12
449.338	135.12
449.559	152.12
449.779	137.12
450	115.12
450.221	109.12
450.442	121.12
450.662	125.12
450.883	129.12
451.104	131.12
451.324	144.12
451.545	126.12
451.766	135.12
451.986	148.12
452.207	244.12
452.428	655.12
452.648	1639.12
452.869	900.12
453.089	233.12
453.31	137.12
453.53	127.12
453.751	155.12
453.971	170.12
454.192	158.12
454.412	127.12
454.633	103.12
454.853	105.12
455.073	110.12
455.294	114.12
455.514	101.12
455.734	95.12
455.955	90.12
456.175	103.12
456.395	94.12
456.616	105.12
456.836	111.12
457.056	113.12
457.276	123.12
457.497	112.12
457.717	129.12
457.937	101.12
458.157	109.12
458.377	117.12
458.598	104.12
458.818	96.12
459.038	102.12
459.258	91.12
459.478	97.12
459.698	84.12
459.918	102.12
460.138	105.12
460.358	100.12
460.578	107.12
460.798	86.12
461.018	99.12
461.238	97.12
461.458	88.12
461.678	98.12
461.898	97.12
462.118	104.12
462.338	99.12
462.558	125.12
462.777	121.12
462.997	105.12
463.217	119.12
463.437	133.12
463.657	188.12
463.876	205.12
464.096	131.12
464.316	99.12
464.536	110.12
464.755	99.12
464.975	108.12
465.195	101.12
465.414	109.12
465.634	100.12
465.854	99.12
466.073	105.12
466.293	118.12
466.512	106.12
466.732	113.12
466.951	113.12
467.171	168.12
467.391	154.12
467.61	118.12
467.829	110.12
468.049	113.12
468.268	98.12
468.488	123.12
468.707	106.12
468.927	106.12
469.146	94.12
469.365	93.12
469.585	111.12
469.804	102.12
470.023	102.12
470.243	105.12
470.462	102.12
470.681	114.12
470.901	140.12
471.12	203.12
471.339	208.12
471.558	151.12
471.777	114.12
471.997	115.12
472.216	107.12
472.435	95.12
472.654	106.12
472.873	98.12
473.092	101.12
473.311	109.12
473.53	106.12
473.749	103.12
473.968	120.12
474.187	110.12
474.406	82.12
474.625	100.12
474.844	95.12
475.063	108.12
475.282	97.12
475.501	95.12
475.72	102.12
475.939	100.12
476.158	109.12
476.377	122.12
476.596	113.12
476.814	101.12
477.033	97.12
477.252	109.12
477.471	105.12
477.69	107.12
477.908	106.12
478.127	106.12
478.346	105.12
478.564	93.12
478.783	101.12
479.002	103.12
479.22	93.12
479.439	92.12
479.658	108.12
479.876	107.12
480.095	103.12
480.313	104.12
480.532	109.12
480.751	105.12
480.969	111.12
481.188	86.12
481.406	110.12
481.624	122.12
481.843	124.12
482.061	131.12
482.28	115.12
482.498	99.12
482.717	87.12
482.935	109.12
483.153	101.12
483.372	112.12
483.59	104.12
483.808	104.12
484.027	117.12
484.245	130.12
484.463	184.12
484.681	241.12
484.9	161.12
485.118	152.12
485.336	127.12
485.554	126.12
485.772	138.12
485.99	222.12
486.209	274.12
486.427	185.12
486.645	125.12
486.863	113.12
487.081	118.12
487.299	118.12
487.517	118.12
487.735	115.12
487.953	121.12
488.171	107.12
488.389	101.12
488.607	102.12
488.825	98.12
489.043	107.12
489.261	97.12
489.479	102.12
489.696	102.12
489.914	90.12
490.132	111.12
490.35	101.12
490.568	115.12
490.786	114.12
491.003	123.12
491.221	113.12
491.439	116.12
491.657	106.12
491.874	103.12
492.092	104.12
492.31	101.12
492.527	111.12
492.745	97.12
492.963	118.12
493.18	118.12
493.398	106.12
493.615	113.12
493.833	106.12
494.05	122.12
494.268	106.12
494.485	114.12
494.703	96.12
494.92	111.12
495.138	122.12
495.355	118.12
495.573	122.12
495.79	99.12
496.008	114.12
496.225	121.12
496.442	122.12
496.66	134.12
496.877	188.12
497.094	165.12
497.312	111.12
497.529	109.12
497.746	106.12
497.963	106.12
498.181	116.12
498.398	112.12
498.615	101.12
498.832	108.12
499.049	118.12
499.267	148.12
499.484	175.12
499.701	118.12
499.918	115.12
500.135	119.12
500.352	102.12
500.569	100.12
500.786	99.12
501.003	94.12
501.22	104.12
501.437	111.12
501.654	106.12
501.871	98.12
502.088	104.12
502.305	121.12
502.522	106.12
502.739	105.12
502.956	93.12
503.172	108.12
503.389	100.12
503.606	101.12
503.823	96.12
504.04	120.12
504.256	100.12
504.473	107.12
504.69	107.12
504.907	128.12
505.123	137.12
505.34	119.12
