Data from SnStandardFlinnAPT0064_QswitchEnergy10_LIBS07252019.E.O._I.C._HRD10591_15-26-54-973.txt Node
Date: Thu Jul 25 15:26:54 EDT 2019
User: cochatt
Spectrometer: HR+D1059
Trigger mode: 1
Integration Time (sec): 1.000000E-1
Scans to average: 1
Electric dark correction enabled: true
Nonlinearity correction enabled: false
Boxcar width: 0
XAxis mode: Wavelengths
Number of Pixels in Spectrum: 2048
>>>>>Begin Spectral Data<<<<<
223.165	-15.88
223.4	-15.88
223.635	-15.88
223.869	-15.88
224.104	-29.88
224.338	-15.88
224.573	-21.88
224.808	-10.88
225.042	-11.88
225.277	-1.88
225.511	-7.88
225.746	8.12
225.98	15.12
226.215	15.12
226.449	12.12
226.683	20.12
226.918	29.12
227.152	32.12
227.387	24.12
227.621	39.12
227.856	45.12
228.09	40.12
228.324	45.12
228.559	52.12
228.793	70.12
229.027	70.12
229.262	65.12
229.496	71.12
229.73	67.12
229.964	71.12
230.199	62.12
230.433	86.12
230.667	89.12
230.901	85.12
231.136	89.12
231.37	80.12
231.604	90.12
231.838	96.12
232.072	124.12
232.306	112.12
232.541	102.12
232.775	82.12
233.009	82.12
233.243	87.12
233.477	97.12
233.711	90.12
233.945	113.12
234.179	99.12
234.413	89.12
234.647	87.12
234.881	72.12
235.115	87.12
235.349	99.12
235.583	101.12
235.817	121.12
236.051	124.12
236.285	87.12
236.519	80.12
236.753	84.12
236.987	73.12
237.221	72.12
237.455	74.12
237.689	79.12
237.922	68.12
238.156	79.12
238.39	69.12
238.624	85.12
238.858	86.12
239.091	81.12
239.325	70.12
239.559	87.12
239.793	76.12
240.027	74.12
240.26	94.12
240.494	76.12
240.728	75.12
240.961	71.12
241.195	100.12
241.429	78.12
241.662	84.12
241.896	91.12
242.13	100.12
242.363	127.12
242.597	175.12
242.83	131.12
243.064	129.12
243.298	182.12
243.531	149.12
243.765	93.12
243.998	97.12
244.232	87.12
244.465	73.12
244.699	75.12
244.932	80.12
245.166	69.12
245.399	81.12
245.633	75.12
245.866	86.12
246.099	80.12
246.333	87.12
246.566	70.12
246.8	67.12
247.033	78.12
247.266	79.12
247.5	69.12
247.733	68.12
247.966	71.12
248.2	87.12
248.433	107.12
248.666	120.12
248.899	114.12
249.133	74.12
249.366	90.12
249.599	103.12
249.832	118.12
250.066	130.12
250.299	93.12
250.532	78.12
250.765	69.12
250.998	95.12
251.231	76.12
251.465	82.12
251.698	75.12
251.931	85.12
252.164	73.12
252.397	93.12
252.63	97.12
252.863	92.12
253.096	85.12
253.329	92.12
253.562	86.12
253.795	100.12
254.028	100.12
254.261	94.12
254.494	98.12
254.727	117.12
254.96	154.12
255.193	133.12
255.426	94.12
255.659	79.12
255.892	90.12
256.124	75.12
256.357	82.12
256.59	90.12
256.823	98.12
257.056	110.12
257.289	152.12
257.521	168.12
257.754	128.12
257.987	103.12
258.22	75.12
258.452	86.12
258.685	95.12
258.918	78.12
259.151	85.12
259.383	102.12
259.616	126.12
259.849	137.12
260.081	91.12
260.314	82.12
260.547	78.12
260.779	74.12
261.012	85.12
261.244	49.12
261.477	87.12
261.71	87.12
261.942	83.12
262.175	98.12
262.407	74.12
262.64	84.12
262.872	94.12
263.105	88.12
263.337	86.12
263.57	67.12
263.802	74.12
264.035	82.12
264.267	70.12
264.499	80.12
264.732	94.12
264.964	80.12
265.197	82.12
265.429	81.12
265.661	84.12
265.894	104.12
266.126	114.12
266.358	168.12
266.591	145.12
266.823	114.12
267.055	89.12
267.287	79.12
267.52	87.12
267.752	95.12
267.984	89.12
268.216	82.12
268.448	79.12
268.681	86.12
268.913	89.12
269.145	92.12
269.377	85.12
269.609	89.12
269.841	91.12
270.073	105.12
270.306	122.12
270.538	206.12
270.77	323.12
271.002	374.12
271.234	189.12
271.466	118.12
271.698	84.12
271.93	81.12
272.162	93.12
272.394	91.12
272.626	83.12
272.858	91.12
273.09	79.12
273.322	86.12
273.553	93.12
273.785	79.12
274.017	94.12
274.249	88.12
274.481	85.12
274.713	95.12
274.945	88.12
275.176	86.12
275.408	89.12
275.64	99.12
275.872	73.12
276.104	84.12
276.335	88.12
276.567	96.12
276.799	97.12
277.031	92.12
277.262	90.12
277.494	109.12
277.726	131.12
277.957	162.12
278.189	198.12
278.421	229.12
278.652	166.12
278.884	169.12
279.115	121.12
279.347	114.12
279.579	92.12
279.81	83.12
280.042	82.12
280.273	88.12
280.505	89.12
280.736	96.12
280.968	127.12
281.199	147.12
281.431	208.12
281.662	240.12
281.894	157.12
282.125	109.12
282.356	95.12
282.588	113.12
282.819	98.12
283.051	104.12
283.282	137.12
283.513	171.12
283.745	285.12
283.976	517.12
284.207	744.12
284.439	574.12
284.67	231.12
284.901	224.12
285.132	317.12
285.364	378.12
285.595	219.12
285.826	162.12
286.057	221.12
286.288	377.12
286.52	607.12
286.751	457.12
286.982	181.12
287.213	110.12
287.444	96.12
287.675	109.12
287.906	103.12
288.138	98.12
288.369	93.12
288.6	94.12
288.831	96.12
289.062	87.12
289.293	99.12
289.524	94.12
289.755	95.12
289.986	89.12
290.217	98.12
290.448	87.12
290.679	97.12
290.91	111.12
291.141	146.12
291.371	192.12
291.602	230.12
291.833	157.12
292.064	94.12
292.295	86.12
292.526	91.12
292.757	88.12
292.987	97.12
293.218	108.12
293.449	87.12
293.68	92.12
293.91	92.12
294.141	98.12
294.372	87.12
294.603	82.12
294.833	73.12
295.064	90.12
295.295	93.12
295.525	87.12
295.756	94.12
295.987	82.12
296.217	89.12
296.448	79.12
296.679	95.12
296.909	100.12
297.14	110.12
297.37	103.12
297.601	96.12
297.831	100.12
298.062	97.12
298.292	106.12
298.523	84.12
298.753	98.12
298.984	92.12
299.214	116.12
299.445	106.12
299.675	115.12
299.905	119.12
300.136	128.12
300.366	149.12
300.597	250.12
300.827	419.12
301.057	645.12
301.288	594.12
301.518	249.12
301.748	139.12
301.979	121.12
302.209	122.12
302.439	121.12
302.669	155.12
302.9	228.12
303.13	447.12
303.36	798.12
303.59	1136.12
303.82	796.12
304.051	275.12
304.281	159.12
304.511	119.12
304.741	106.12
304.971	113.12
305.201	109.12
305.431	90.12
305.661	103.12
305.891	103.12
306.121	111.12
306.352	110.12
306.582	97.12
306.812	99.12
307.042	122.12
307.272	111.12
307.502	93.12
307.731	95.12
307.961	89.12
308.191	97.12
308.421	97.12
308.651	97.12
308.881	95.12
309.111	102.12
309.341	100.12
309.571	95.12
309.8	110.12
310.03	104.12
310.26	92.12
310.49	107.12
310.72	99.12
310.949	109.12
311.179	117.12
311.409	114.12
311.639	103.12
311.868	111.12
312.098	100.12
312.328	113.12
312.557	99.12
312.787	101.12
313.017	106.12
313.246	99.12
313.476	104.12
313.706	124.12
313.935	137.12
314.165	169.12
314.394	190.12
314.624	168.12
314.853	130.12
315.083	112.12
315.312	111.12
315.542	126.12
315.771	129.12
316.001	135.12
316.23	137.12
316.46	134.12
316.689	156.12
316.919	223.12
317.148	437.12
317.377	846.12
317.607	1394.12
317.836	1305.12
318.065	505.12
318.295	198.12
318.524	140.12
318.753	123.12
318.983	118.12
319.212	105.12
319.441	102.12
319.67	116.12
319.9	100.12
320.129	104.12
320.358	105.12
320.587	114.12
320.816	117.12
321.046	113.12
321.275	135.12
321.504	127.12
321.733	121.12
321.962	141.12
322.191	140.12
322.42	125.12
322.649	133.12
322.878	122.12
323.108	112.12
323.337	117.12
323.566	121.12
323.795	115.12
324.024	128.12
324.253	134.12
324.482	158.12
324.71	201.12
324.939	257.12
325.168	208.12
325.397	162.12
325.626	234.12
325.855	432.12
326.084	858.12
326.313	1499.12
326.542	1490.12
326.77	566.12
326.999	239.12
327.228	183.12
327.457	205.12
327.686	209.12
327.914	126.12
328.143	139.12
328.372	126.12
328.6	121.12
328.829	109.12
329.058	109.12
329.287	115.12
329.515	120.12
329.744	121.12
329.972	105.12
330.201	114.12
330.43	115.12
330.658	110.12
330.887	104.12
331.115	111.12
331.344	109.12
331.572	112.12
331.801	114.12
332.03	128.12
332.258	134.12
332.486	161.12
332.715	261.12
332.943	438.12
333.172	711.12
333.4	614.12
333.629	235.12
333.857	137.12
334.085	123.12
334.314	119.12
334.542	119.12
334.771	123.12
334.999	112.12
335.227	114.12
335.455	118.12
335.684	111.12
335.912	118.12
336.14	114.12
336.369	117.12
336.597	99.12
336.825	93.12
337.053	81.12
337.281	118.12
337.51	103.12
337.738	104.12
337.966	107.12
338.194	112.12
338.422	97.12
338.65	104.12
338.878	104.12
339.106	111.12
339.334	109.12
339.562	119.12
339.79	110.12
340.018	112.12
340.246	111.12
340.474	112.12
340.702	100.12
340.93	119.12
341.158	115.12
341.386	110.12
341.614	105.12
341.842	118.12
342.07	100.12
342.298	115.12
342.526	113.12
342.754	106.12
342.981	111.12
343.209	106.12
343.437	114.12
343.665	113.12
343.893	95.12
344.12	96.12
344.348	101.12
344.576	107.12
344.804	120.12
345.031	116.12
345.259	109.12
345.487	106.12
345.714	109.12
345.942	85.12
346.17	119.12
346.397	96.12
346.625	82.12
346.853	111.12
347.08	107.12
347.308	107.12
347.535	105.12
347.763	109.12
347.99	103.12
348.218	101.12
348.445	109.12
348.673	121.12
348.9	121.12
349.128	134.12
349.355	93.12
349.583	118.12
349.81	112.12
350.037	115.12
350.265	120.12
350.492	110.12
350.72	96.12
350.947	109.12
351.174	109.12
351.402	105.12
351.629	103.12
351.856	98.12
352.083	103.12
352.311	97.12
352.538	110.12
352.765	111.12
352.992	113.12
353.22	101.12
353.447	104.12
353.674	105.12
353.901	98.12
354.128	96.12
354.355	110.12
354.583	117.12
354.81	101.12
355.037	97.12
355.264	109.12
355.491	94.12
355.718	102.12
355.945	89.12
356.172	95.12
356.399	92.12
356.626	100.12
356.853	91.12
357.08	102.12
357.307	107.12
357.534	110.12
357.761	86.12
357.988	109.12
358.215	119.12
358.441	113.12
358.668	95.12
358.895	106.12
359.122	125.12
359.349	114.12
359.576	113.12
359.802	99.12
360.029	97.12
360.256	113.12
360.483	90.12
360.709	109.12
360.936	115.12
361.163	101.12
361.39	100.12
361.616	101.12
361.843	107.12
362.07	110.12
362.296	105.12
362.523	108.12
362.749	112.12
362.976	113.12
363.203	96.12
363.429	114.12
363.656	109.12
363.882	101.12
364.109	112.12
364.335	115.12
364.562	87.12
364.788	107.12
365.015	123.12
365.241	119.12
365.468	178.12
365.694	219.12
365.92	175.12
366.147	122.12
366.373	93.12
366.599	99.12
366.826	98.12
367.052	86.12
367.278	101.12
367.505	106.12
367.731	95.12
367.957	92.12
368.184	114.12
368.41	123.12
368.636	116.12
368.862	99.12
369.089	93.12
369.315	93.12
369.541	114.12
369.767	88.12
369.993	117.12
370.219	102.12
370.445	106.12
370.672	101.12
370.898	104.12
371.124	109.12
371.35	91.12
371.576	104.12
371.802	94.12
372.028	95.12
372.254	118.12
372.48	116.12
372.706	103.12
372.932	101.12
373.158	118.12
373.384	107.12
373.61	103.12
373.835	122.12
374.061	115.12
374.287	110.12
374.513	95.12
374.739	100.12
374.965	105.12
375.191	109.12
375.416	107.12
375.642	109.12
375.868	107.12
376.094	119.12
376.319	101.12
376.545	103.12
376.771	110.12
376.997	102.12
377.222	100.12
377.448	114.12
377.674	93.12
377.899	110.12
378.125	99.12
378.35	121.12
378.576	110.12
378.802	118.12
379.027	114.12
379.253	138.12
379.478	155.12
379.704	268.12
379.929	673.12
380.155	1417.12
380.38	1508.12
380.606	489.12
380.831	166.12
381.057	118.12
381.282	104.12
381.507	102.12
381.733	99.12
381.958	105.12
382.184	85.12
382.409	96.12
382.634	100.12
382.86	102.12
383.085	100.12
383.31	105.12
383.535	109.12
383.761	111.12
383.986	106.12
384.211	126.12
384.436	104.12
384.662	104.12
384.887	124.12
385.112	100.12
385.337	111.12
385.562	113.12
385.787	99.12
386.013	102.12
386.238	103.12
386.463	98.12
386.688	107.12
386.913	107.12
387.138	99.12
387.363	106.12
387.588	105.12
387.813	111.12
388.038	93.12
388.263	107.12
388.488	97.12
388.713	95.12
388.938	101.12
389.163	93.12
389.387	105.12
389.612	88.12
389.837	97.12
390.062	98.12
390.287	101.12
390.512	109.12
390.736	101.12
390.961	86.12
391.186	93.12
391.411	100.12
391.636	96.12
391.86	108.12
392.085	93.12
392.31	105.12
392.534	81.12
392.759	98.12
392.984	109.12
393.208	91.12
393.433	135.12
393.658	129.12
393.882	95.12
394.107	93.12
394.331	97.12
394.556	104.12
394.78	81.12
395.005	88.12
395.229	91.12
395.454	99.12
395.678	106.12
395.903	104.12
396.127	110.12
396.352	106.12
396.576	101.12
396.801	114.12
397.025	125.12
397.249	108.12
397.474	93.12
397.698	102.12
397.922	99.12
398.147	89.12
398.371	99.12
398.595	94.12
398.82	83.12
399.044	112.12
399.268	94.12
399.492	97.12
399.717	112.12
399.941	99.12
400.165	107.12
400.389	101.12
400.613	96.12
400.837	93.12
401.062	97.12
401.286	94.12
401.51	92.12
401.734	102.12
401.958	98.12
402.182	81.12
402.406	95.12
402.63	86.12
402.854	107.12
403.078	107.12
403.302	90.12
403.526	99.12
403.75	102.12
403.974	109.12
404.198	93.12
404.422	91.12
404.645	100.12
404.869	98.12
405.093	88.12
405.317	101.12
405.541	109.12
405.765	123.12
405.988	133.12
406.212	112.12
406.436	101.12
406.66	93.12
406.883	90.12
407.107	96.12
407.331	90.12
407.555	93.12
407.778	87.12
408.002	97.12
408.226	82.12
408.449	103.12
408.673	109.12
408.896	91.12
409.12	95.12
409.344	98.12
409.567	109.12
409.791	99.12
410.014	104.12
410.238	110.12
410.461	103.12
410.685	90.12
410.908	87.12
411.132	88.12
411.355	104.12
411.578	95.12
411.802	101.12
412.025	100.12
412.249	104.12
412.472	100.12
412.695	98.12
412.919	90.12
413.142	99.12
413.365	99.12
413.589	97.12
413.812	94.12
414.035	89.12
414.258	104.12
414.482	89.12
414.705	89.12
414.928	98.12
415.151	87.12
415.374	98.12
415.597	90.12
415.821	88.12
416.044	90.12
416.267	95.12
416.49	102.12
416.713	96.12
416.936	89.12
417.159	100.12
417.382	74.12
417.605	91.12
417.828	97.12
418.051	88.12
418.274	96.12
418.497	85.12
418.72	97.12
418.943	92.12
419.166	96.12
419.389	101.12
419.611	112.12
419.834	99.12
420.057	95.12
420.28	99.12
420.503	102.12
420.726	101.12
420.948	111.12
421.171	92.12
421.394	101.12
421.617	97.12
421.839	103.12
422.062	94.12
422.285	110.12
422.507	97.12
422.73	125.12
422.953	111.12
423.175	109.12
423.398	96.12
423.621	84.12
423.843	93.12
424.066	95.12
424.288	82.12
424.511	78.12
424.733	103.12
424.956	90.12
425.178	95.12
425.401	83.12
425.623	114.12
425.846	88.12
426.068	107.12
426.291	117.12
426.513	86.12
426.735	109.12
426.958	100.12
427.18	107.12
427.402	98.12
427.625	90.12
427.847	88.12
428.069	105.12
428.292	89.12
428.514	111.12
428.736	86.12
428.958	98.12
429.181	107.12
429.403	92.12
429.625	99.12
429.847	97.12
430.069	110.12
430.292	104.12
430.514	99.12
430.736	110.12
430.958	97.12
431.18	90.12
431.402	86.12
431.624	85.12
431.846	91.12
432.068	81.12
432.29	86.12
432.512	94.12
432.734	95.12
432.956	85.12
433.178	94.12
433.4	87.12
433.622	102.12
433.844	104.12
434.066	101.12
434.287	90.12
434.509	83.12
434.731	97.12
434.953	73.12
435.175	82.12
435.397	97.12
435.618	85.12
435.84	86.12
436.062	101.12
436.284	83.12
436.505	81.12
436.727	98.12
436.949	89.12
437.17	86.12
437.392	94.12
437.614	93.12
437.835	84.12
438.057	89.12
438.278	106.12
438.5	96.12
438.721	92.12
438.943	103.12
439.165	106.12
439.386	96.12
439.608	97.12
439.829	105.12
440.05	113.12
440.272	116.12
440.493	103.12
440.715	98.12
440.936	94.12
441.158	93.12
441.379	95.12
441.6	89.12
441.822	98.12
442.043	117.12
442.264	119.12
442.486	110.12
442.707	98.12
442.928	89.12
443.149	93.12
443.371	105.12
443.592	94.12
443.813	84.12
444.034	87.12
444.255	94.12
444.476	94.12
444.698	93.12
444.919	78.12
445.14	208.12
445.361	151.12
445.582	103.12
445.803	95.12
446.024	105.12
446.245	119.12
446.466	95.12
446.687	107.12
446.908	104.12
447.129	102.12
447.35	103.12
447.571	109.12
447.792	92.12
448.013	99.12
448.234	107.12
448.455	95.12
448.675	91.12
448.896	100.12
449.117	106.12
449.338	128.12
449.559	144.12
449.779	133.12
450	118.12
450.221	103.12
450.442	116.12
450.662	96.12
450.883	94.12
451.104	111.12
451.324	122.12
451.545	111.12
451.766	119.12
451.986	130.12
452.207	193.12
452.428	465.12
452.648	1151.12
452.869	669.12
453.089	183.12
453.31	115.12
453.53	112.12
453.751	117.12
453.971	154.12
454.192	135.12
454.412	100.12
454.633	111.12
454.853	105.12
455.073	96.12
455.294	102.12
455.514	93.12
455.734	85.12
455.955	87.12
456.175	96.12
456.395	78.12
456.616	99.12
456.836	90.12
457.056	109.12
457.276	101.12
457.497	117.12
457.717	134.12
457.937	83.12
458.157	87.12
458.377	97.12
458.598	87.12
458.818	83.12
459.038	81.12
459.258	84.12
459.478	90.12
459.698	90.12
459.918	78.12
460.138	92.12
460.358	84.12
460.578	80.12
460.798	93.12
461.018	92.12
461.238	85.12
461.458	104.12
461.678	91.12
461.898	96.12
462.118	91.12
462.338	98.12
462.558	88.12
462.777	104.12
462.997	97.12
463.217	102.12
463.437	140.12
463.657	173.12
463.876	173.12
464.096	128.12
464.316	90.12
464.536	90.12
464.755	92.12
464.975	82.12
465.195	92.12
465.414	81.12
465.634	86.12
465.854	83.12
466.073	81.12
466.293	91.12
466.512	87.12
466.732	104.12
466.951	109.12
467.171	143.12
467.391	136.12
467.61	110.12
467.829	96.12
468.049	98.12
468.268	87.12
468.488	79.12
468.707	84.12
468.927	90.12
469.146	90.12
469.365	98.12
469.585	100.12
469.804	90.12
470.023	104.12
470.243	92.12
470.462	110.12
470.681	115.12
470.901	132.12
471.12	193.12
471.339	208.12
471.558	128.12
471.777	102.12
471.997	94.12
472.216	92.12
472.435	88.12
472.654	98.12
472.873	91.12
473.092	92.12
473.311	107.12
473.53	86.12
473.749	86.12
473.968	101.12
474.187	90.12
474.406	87.12
474.625	93.12
474.844	100.12
475.063	84.12
475.282	94.12
475.501	96.12
475.72	103.12
475.939	80.12
476.158	90.12
476.377	109.12
476.596	103.12
476.814	87.12
477.033	89.12
477.252	94.12
477.471	84.12
477.69	95.12
477.908	90.12
478.127	85.12
478.346	104.12
478.564	90.12
478.783	87.12
479.002	86.12
479.22	94.12
479.439	106.12
479.658	87.12
479.876	83.12
480.095	86.12
480.313	86.12
480.532	90.12
480.751	91.12
480.969	94.12
481.188	83.12
481.406	97.12
481.624	104.12
481.843	105.12
482.061	105.12
482.28	106.12
482.498	94.12
482.717	104.12
482.935	90.12
483.153	96.12
483.372	106.12
483.59	93.12
483.808	88.12
484.027	95.12
484.245	119.12
484.463	158.12
484.681	222.12
484.9	148.12
485.118	104.12
485.336	97.12
485.554	93.12
485.772	125.12
485.99	177.12
486.209	258.12
486.427	182.12
486.645	106.12
486.863	106.12
487.081	82.12
487.299	83.12
487.517	87.12
487.735	79.12
487.953	103.12
488.171	95.12
488.389	89.12
488.607	93.12
488.825	95.12
489.043	90.12
489.261	104.12
489.479	85.12
489.696	92.12
489.914	93.12
490.132	110.12
490.35	96.12
490.568	102.12
490.786	83.12
491.003	104.12
491.221	97.12
491.439	110.12
491.657	96.12
491.874	109.12
492.092	93.12
492.31	101.12
492.527	101.12
492.745	110.12
492.963	93.12
493.18	101.12
493.398	117.12
493.615	99.12
493.833	95.12
494.05	94.12
494.268	96.12
494.485	98.12
494.703	95.12
494.92	101.12
495.138	88.12
495.355	106.12
495.573	93.12
495.79	103.12
496.008	89.12
496.225	104.12
496.442	103.12
496.66	110.12
496.877	155.12
497.094	140.12
497.312	113.12
497.529	96.12
497.746	109.12
497.963	104.12
498.181	95.12
498.398	96.12
498.615	96.12
498.832	91.12
499.049	100.12
499.267	134.12
499.484	157.12
499.701	102.12
499.918	101.12
500.135	97.12
500.352	103.12
500.569	106.12
500.786	102.12
501.003	106.12
501.22	92.12
501.437	102.12
501.654	96.12
501.871	109.12
502.088	81.12
502.305	101.12
502.522	90.12
502.739	88.12
502.956	103.12
503.172	114.12
503.389	95.12
503.606	104.12
503.823	103.12
504.04	88.12
504.256	100.12
504.473	99.12
504.69	102.12
504.907	109.12
505.123	104.12
505.34	94.12
505.557	95.12
505.773	98.12
505.99	98.12
506.207	111.12
506.423	97.12
506.64	109.12
506.856	95.12
507.073	82.12
507.289	104.12
507.506	94.12
507.722	80.12
507.939	106.12
508.155	97.12
508.372	82.12
508.588	89.12
508.805	104.12
509.021	94.12
509.238	92.12
509.454	147.12
509.67	155.12
509.887	99.12
