Data from SnStandardFlinnAPT0064_LampEnergy5.5_LIBS07252019.E.O._I.C._HRD10591_15-15-08-491.txt Node
Date: Thu Jul 25 15:15:08 EDT 2019
User: cochatt
Spectrometer: HR+D1059
Trigger mode: 1
Integration Time (sec): 1.000000E-1
Scans to average: 1
Electric dark correction enabled: true
Nonlinearity correction enabled: false
Boxcar width: 0
XAxis mode: Wavelengths
Number of Pixels in Spectrum: 2048
>>>>>Begin Spectral Data<<<<<
223.165	-16.69
223.4	-16.69
223.635	-16.69
223.869	-33.69
224.104	-28.69
224.338	-24.69
224.573	-10.69
224.808	-0.69
225.042	-16.69
225.277	-2.69
225.511	3.31
225.746	2.31
225.98	11.31
226.215	22.31
226.449	8.31
226.683	25.31
226.918	25.31
227.152	36.31
227.387	27.31
227.621	42.31
227.856	36.31
228.09	54.31
228.324	51.31
228.559	51.31
228.793	94.31
229.027	146.31
229.262	155.31
229.496	160.31
229.73	151.31
229.964	156.31
230.199	152.31
230.433	157.31
230.667	153.31
230.901	165.31
231.136	157.31
231.37	168.31
231.604	190.31
231.838	181.31
232.072	224.31
232.306	229.31
232.541	208.31
232.775	198.31
233.009	180.31
233.243	205.31
233.477	217.31
233.711	219.31
233.945	239.31
234.179	214.31
234.413	210.31
234.647	215.31
234.881	213.31
235.115	227.31
235.349	275.31
235.583	300.31
235.817	384.31
236.051	367.31
236.285	283.31
236.519	225.31
236.753	217.31
236.987	224.31
237.221	238.31
237.455	237.31
237.689	205.31
237.922	188.31
238.156	212.31
238.39	210.31
238.624	224.31
238.858	217.31
239.091	214.31
239.325	214.31
239.559	238.31
239.793	222.31
240.027	232.31
240.26	241.31
240.494	246.31
240.728	246.31
240.961	255.31
241.195	247.31
241.429	269.31
241.662	281.31
241.896	307.31
242.13	355.31
242.363	443.31
242.597	551.31
242.83	517.31
243.064	548.31
243.298	617.31
243.531	525.31
243.765	381.31
243.998	325.31
244.232	306.31
244.465	287.31
244.699	279.31
244.932	278.31
245.166	297.31
245.399	285.31
245.633	295.31
245.866	291.31
246.099	281.31
246.333	294.31
246.566	280.31
246.8	280.31
247.033	275.31
247.266	269.31
247.5	278.31
247.733	293.31
247.966	295.31
248.2	312.31
248.433	331.31
248.666	394.31
248.899	359.31
249.133	341.31
249.366	340.31
249.599	357.31
249.832	382.31
250.066	403.31
250.299	340.31
250.532	307.31
250.765	293.31
250.998	317.31
251.231	311.31
251.465	304.31
251.698	324.31
251.931	336.31
252.164	313.31
252.397	327.31
252.63	337.31
252.863	333.31
253.096	321.31
253.329	331.31
253.562	334.31
253.795	319.31
254.028	368.31
254.261	352.31
254.494	363.31
254.727	383.31
254.96	469.31
255.193	471.31
255.426	378.31
255.659	365.31
255.892	355.31
256.124	360.31
256.357	351.31
256.59	368.31
256.823	387.31
257.056	431.31
257.289	472.31
257.521	491.31
257.754	435.31
257.987	393.31
258.22	392.31
258.452	381.31
258.685	389.31
258.918	386.31
259.151	379.31
259.383	433.31
259.616	459.31
259.849	465.31
260.081	424.31
260.314	432.31
260.547	412.31
260.779	392.31
261.012	405.31
261.244	408.31
261.477	413.31
261.71	412.31
261.942	424.31
262.175	449.31
262.407	439.31
262.64	459.31
262.872	471.31
263.105	478.31
263.337	500.31
263.57	529.31
263.802	523.31
264.035	548.31
264.267	577.31
264.499	573.31
264.732	582.31
264.964	595.31
265.197	604.31
265.429	600.31
265.661	615.31
265.894	653.31
266.126	699.31
266.358	736.31
266.591	745.31
266.823	642.31
267.055	593.31
267.287	579.31
267.52	563.31
267.752	533.31
267.984	526.31
268.216	533.31
268.448	527.31
268.681	523.31
268.913	504.31
269.145	502.31
269.377	537.31
269.609	513.31
269.841	542.31
270.073	563.31
270.306	618.31
270.538	766.31
270.77	1081.31
271.002	1270.31
271.234	949.31
271.466	663.31
271.698	571.31
271.93	557.31
272.162	533.31
272.394	545.31
272.626	520.31
272.858	505.31
273.09	522.31
273.322	520.31
273.553	513.31
273.785	508.31
274.017	484.31
274.249	464.31
274.481	509.31
274.713	507.31
274.945	495.31
275.176	487.31
275.408	524.31
275.64	496.31
275.872	504.31
276.104	491.31
276.335	533.31
276.567	511.31
276.799	519.31
277.031	504.31
277.262	529.31
277.494	549.31
277.726	591.31
277.957	644.31
278.189	704.31
278.421	663.31
278.652	620.31
278.884	592.31
279.115	553.31
279.347	575.31
279.579	561.31
279.81	547.31
280.042	540.31
280.273	549.31
280.505	557.31
280.736	592.31
280.968	606.31
281.199	658.31
281.431	727.31
281.662	720.31
281.894	651.31
282.125	637.31
282.356	617.31
282.588	640.31
282.819	669.31
283.051	683.31
283.282	736.31
283.513	895.31
283.745	1221.31
283.976	1815.31
284.207	2581.31
284.439	2356.31
284.67	1489.31
284.901	1196.31
285.132	1168.31
285.364	1122.31
285.595	955.31
285.826	844.31
286.057	990.31
286.288	1304.31
286.52	1620.31
286.751	1567.31
286.982	1041.31
287.213	795.31
287.444	757.31
287.675	735.31
287.906	693.31
288.138	659.31
288.369	660.31
288.6	664.31
288.831	658.31
289.062	658.31
289.293	677.31
289.524	673.31
289.755	665.31
289.986	681.31
290.217	690.31
290.448	684.31
290.679	684.31
290.91	653.31
291.141	693.31
291.371	745.31
291.602	745.31
291.833	695.31
292.064	668.31
292.295	672.31
292.526	661.31
292.757	640.31
292.987	625.31
293.218	615.31
293.449	648.31
293.68	641.31
293.91	633.31
294.141	619.31
294.372	615.31
294.603	622.31
294.833	639.31
295.064	615.31
295.295	615.31
295.525	625.31
295.756	624.31
295.987	636.31
296.217	624.31
296.448	640.31
296.679	622.31
296.909	636.31
297.14	643.31
297.37	627.31
297.601	658.31
297.831	653.31
298.062	619.31
298.292	646.31
298.523	671.31
298.753	653.31
298.984	640.31
299.214	680.31
299.445	671.31
299.675	677.31
299.905	721.31
300.136	747.31
300.366	793.31
300.597	951.31
300.827	1252.31
301.057	1677.31
301.288	1619.31
301.518	1122.31
301.748	900.31
301.979	859.31
302.209	803.31
302.439	816.31
302.669	861.31
302.9	1041.31
303.13	1318.31
303.36	1882.31
303.59	2475.31
303.82	2144.31
304.051	1389.31
304.281	1051.31
304.511	928.31
304.741	832.31
304.971	796.31
305.201	811.31
305.431	773.31
305.661	736.31
305.891	750.31
306.121	742.31
306.352	737.31
306.582	730.31
306.812	709.31
307.042	728.31
307.272	710.31
307.502	709.31
307.731	740.31
307.961	698.31
308.191	712.31
308.421	727.31
308.651	709.31
308.881	698.31
309.111	739.31
309.341	729.31
309.571	744.31
309.8	735.31
310.03	718.31
310.26	753.31
310.49	740.31
310.72	760.31
310.949	741.31
311.179	736.31
311.409	756.31
311.639	777.31
311.868	757.31
312.098	778.31
312.328	775.31
312.557	782.31
312.787	746.31
313.017	752.31
313.246	792.31
313.476	814.31
313.706	806.31
313.935	830.31
314.165	849.31
314.394	914.31
314.624	859.31
314.853	839.31
315.083	804.31
315.312	835.31
315.542	845.31
315.771	826.31
316.001	830.31
316.23	868.31
316.46	893.31
316.689	963.31
316.919	1144.31
317.148	1564.31
317.377	2259.31
317.607	3227.31
317.836	3324.31
318.065	2063.31
318.295	1433.31
318.524	1177.31
318.753	1072.31
318.983	995.31
319.212	915.31
319.441	918.31
319.67	929.31
319.9	952.31
320.129	896.31
320.358	888.31
320.587	907.31
320.816	888.31
321.046	898.31
321.275	892.31
321.504	923.31
321.733	912.31
321.962	954.31
322.191	964.31
322.42	927.31
322.649	939.31
322.878	948.31
323.108	949.31
323.337	996.31
323.566	966.31
323.795	976.31
324.024	993.31
324.253	1017.31
324.482	1067.31
324.71	1096.31
324.939	1144.31
325.168	1175.31
325.397	1200.31
325.626	1369.31
325.855	1840.31
326.084	2713.31
326.313	3975.31
326.542	4279.31
326.77	2811.31
326.999	1984.31
327.228	1699.31
327.457	1630.31
327.686	1648.31
327.914	1725.31
328.143	1993.31
328.372	2262.31
328.6	2430.31
328.829	2299.31
329.058	2051.31
329.287	1837.31
329.515	1669.31
329.744	1566.31
329.972	1493.31
330.201	1455.31
330.43	1403.31
330.658	1353.31
330.887	1338.31
331.115	1329.31
331.344	1331.31
331.572	1309.31
331.801	1319.31
332.03	1324.31
332.258	1328.31
332.486	1381.31
332.715	1509.31
332.943	1754.31
333.172	2067.31
333.4	2110.31
333.629	1730.31
333.857	1619.31
334.085	1644.31
334.314	1694.31
334.542	1833.31
334.771	2087.31
334.999	2434.31
335.227	2918.31
335.455	3241.31
335.684	3057.31
335.912	2682.31
336.14	2308.31
336.369	2133.31
336.597	1958.31
336.825	1767.31
337.053	1683.31
337.281	1614.31
337.51	1509.31
337.738	1452.31
337.966	1426.31
338.194	1353.31
338.422	1346.31
338.65	1288.31
338.878	1270.31
339.106	1246.31
339.334	1220.31
339.562	1211.31
339.79	1167.31
340.018	1173.31
340.246	1183.31
340.474	1207.31
340.702	1185.31
340.93	1176.31
341.158	1157.31
341.386	1163.31
341.614	1174.31
341.842	1153.31
342.07	1100.31
342.298	1125.31
342.526	1091.31
342.754	1103.31
342.981	1068.31
343.209	1079.31
343.437	1094.31
343.665	1081.31
343.893	1095.31
344.12	1104.31
344.348	1099.31
344.576	1072.31
344.804	1079.31
345.031	997.31
345.259	1038.31
345.487	1004.31
345.714	985.31
345.942	1006.31
346.17	1016.31
346.397	1014.31
346.625	1017.31
346.853	1009.31
347.08	1006.31
347.308	967.31
347.535	985.31
347.763	994.31
347.99	982.31
348.218	968.31
348.445	976.31
348.673	951.31
348.9	983.31
349.128	923.31
349.355	972.31
349.583	971.31
349.81	951.31
350.037	952.31
350.265	951.31
350.492	963.31
350.72	955.31
350.947	956.31
351.174	964.31
351.402	956.31
351.629	957.31
351.856	983.31
352.083	949.31
352.311	933.31
352.538	959.31
352.765	928.31
352.992	957.31
353.22	939.31
353.447	923.31
353.674	911.31
353.901	967.31
354.128	957.31
354.355	962.31
354.583	955.31
354.81	926.31
355.037	981.31
355.264	963.31
355.491	947.31
355.718	951.31
355.945	971.31
356.172	981.31
356.399	989.31
356.626	982.31
356.853	977.31
357.08	989.31
357.307	988.31
357.534	980.31
357.761	1031.31
357.988	1011.31
358.215	995.31
358.441	1001.31
358.668	1003.31
358.895	1002.31
359.122	1012.31
359.349	989.31
359.576	1023.31
359.802	1008.31
360.029	1005.31
360.256	1016.31
360.483	1003.31
360.709	1005.31
360.936	1027.31
361.163	1017.31
361.39	977.31
361.616	1010.31
361.843	1035.31
362.07	988.31
362.296	1017.31
362.523	971.31
362.749	1009.31
362.976	992.31
363.203	1040.31
363.429	1000.31
363.656	990.31
363.882	1017.31
364.109	1038.31
364.335	999.31
364.562	992.31
364.788	995.31
365.015	1041.31
365.241	1013.31
365.468	1034.31
365.694	1100.31
365.92	1031.31
366.147	1035.31
366.373	1041.31
366.599	1024.31
366.826	1031.31
367.052	1033.31
367.278	1044.31
367.505	1059.31
367.731	1049.31
367.957	1024.31
368.184	1006.31
368.41	1083.31
368.636	1068.31
368.862	1082.31
369.089	1024.31
369.315	1077.31
369.541	1044.31
369.767	1055.31
369.993	1029.31
370.219	1047.31
370.445	1052.31
370.672	1064.31
370.898	1067.31
371.124	1060.31
371.35	1069.31
371.576	1081.31
371.802	1083.31
372.028	1084.31
372.254	1104.31
372.48	1123.31
372.706	1086.31
372.932	1123.31
373.158	1103.31
373.384	1096.31
373.61	1111.31
373.835	1105.31
374.061	1111.31
374.287	1109.31
374.513	1109.31
374.739	1140.31
374.965	1151.31
375.191	1156.31
375.416	1125.31
375.642	1115.31
375.868	1119.31
376.094	1128.31
376.319	1119.31
376.545	1093.31
376.771	1119.31
376.997	1099.31
377.222	1095.31
377.448	1063.31
377.674	1077.31
377.899	1079.31
378.125	1111.31
378.35	1070.31
378.576	1102.31
378.802	1093.31
379.027	1091.31
379.253	1135.31
379.478	1190.31
379.704	1316.31
379.929	1701.31
380.155	2413.31
380.38	2551.31
380.606	1729.31
380.831	1314.31
381.057	1189.31
381.282	1153.31
381.507	1120.31
381.733	1080.31
381.958	1086.31
382.184	1105.31
382.409	1067.31
382.634	1061.31
382.86	1102.31
383.085	1075.31
383.31	1055.31
383.535	1093.31
383.761	1087.31
383.986	1100.31
384.211	1113.31
384.436	1119.31
384.662	1096.31
384.887	1133.31
385.112	1108.31
385.337	1134.31
385.562	1115.31
385.787	1113.31
386.013	1122.31
386.238	1123.31
386.463	1118.31
386.688	1147.31
386.913	1123.31
387.138	1115.31
387.363	1129.31
387.588	1109.31
387.813	1115.31
388.038	1116.31
388.263	1116.31
388.488	1104.31
388.713	1133.31
388.938	1111.31
389.163	1093.31
389.387	1119.31
389.612	1116.31
389.837	1128.31
390.062	1130.31
390.287	1111.31
390.512	1129.31
390.736	1128.31
390.961	1163.31
391.186	1169.31
391.411	1161.31
391.636	1162.31
391.86	1163.31
392.085	1168.31
392.31	1173.31
392.534	1151.31
392.759	1188.31
392.984	1157.31
393.208	1134.31
393.433	1143.31
393.658	1123.31
393.882	1105.31
394.107	1141.31
394.331	1144.31
394.556	1162.31
394.78	1136.31
395.005	1167.31
395.229	1141.31
395.454	1140.31
395.678	1159.31
395.903	1149.31
396.127	1159.31
396.352	1161.31
396.576	1120.31
396.801	1124.31
397.025	1164.31
397.249	1179.31
397.474	1169.31
397.698	1182.31
397.922	1214.31
398.147	1198.31
398.371	1195.31
398.595	1241.31
398.82	1256.31
399.044	1302.31
399.268	1360.31
399.492	1437.31
399.717	1461.31
399.941	1511.31
400.165	1435.31
400.389	1383.31
400.613	1307.31
400.837	1256.31
401.062	1272.31
401.286	1270.31
401.51	1253.31
401.734	1238.31
401.958	1252.31
402.182	1265.31
402.406	1238.31
402.63	1243.31
402.854	1223.31
403.078	1245.31
403.302	1285.31
403.526	1323.31
403.75	1319.31
403.974	1312.31
404.198	1297.31
404.422	1309.31
404.645	1324.31
404.869	1287.31
405.093	1303.31
405.317	1256.31
405.541	1295.31
405.765	1339.31
405.988	1298.31
406.212	1313.31
406.436	1309.31
406.66	1301.31
406.883	1295.31
407.107	1360.31
407.331	1385.31
407.555	1407.31
407.778	1381.31
408.002	1347.31
408.226	1339.31
408.449	1345.31
408.673	1335.31
408.896	1304.31
409.12	1276.31
409.344	1347.31
409.567	1300.31
409.791	1287.31
410.014	1286.31
410.238	1267.31
410.461	1295.31
410.685	1276.31
410.908	1271.31
411.132	1259.31
411.355	1252.31
411.578	1233.31
411.802	1234.31
412.025	1233.31
412.249	1231.31
412.472	1239.31
412.695	1217.31
412.919	1228.31
413.142	1201.31
413.365	1207.31
413.589	1229.31
413.812	1176.31
414.035	1221.31
414.258	1228.31
414.482	1204.31
414.705	1233.31
414.928	1230.31
415.151	1209.31
415.374	1191.31
415.597	1211.31
415.821	1193.31
416.044	1128.31
416.267	1161.31
416.49	1187.31
416.713	1173.31
416.936	1176.31
417.159	1144.31
417.382	1166.31
417.605	1163.31
417.828	1153.31
418.051	1175.31
418.274	1180.31
418.497	1180.31
418.72	1206.31
418.943	1189.31
419.166	1249.31
419.389	1295.31
419.611	1292.31
419.834	1236.31
420.057	1219.31
420.28	1219.31
420.503	1197.31
420.726	1164.31
420.948	1173.31
421.171	1160.31
421.394	1173.31
421.617	1183.31
421.839	1193.31
422.062	1204.31
422.285	1191.31
422.507	1187.31
422.73	1191.31
422.953	1197.31
423.175	1183.31
423.398	1213.31
423.621	1182.31
423.843	1201.31
424.066	1197.31
424.288	1196.31
424.511	1203.31
424.733	1167.31
424.956	1162.31
425.178	1166.31
425.401	1164.31
425.623	1138.31
425.846	1117.31
426.068	1154.31
426.291	1120.31
426.513	1144.31
426.735	1156.31
426.958	1150.31
427.18	1116.31
427.402	1129.31
427.625	1123.31
427.847	1086.31
428.069	1080.31
428.292	1119.31
428.514	1117.31
428.736	1090.31
428.958	1147.31
429.181	1077.31
429.403	1061.31
429.625	1112.31
429.847	1083.31
430.069	1099.31
430.292	1117.31
430.514	1154.31
430.736	1141.31
430.958	1108.31
431.18	1072.31
431.402	1074.31
431.624	1079.31
431.846	1048.31
432.068	1045.31
432.29	1062.31
432.512	1067.31
432.734	1091.31
432.956	1063.31
433.178	1106.31
433.4	1117.31
433.622	1093.31
433.844	1103.31
434.066	1082.31
434.287	1080.31
434.509	1093.31
434.731	1119.31
434.953	1116.31
435.175	1128.31
435.397	1133.31
435.618	1121.31
435.84	1066.31
436.062	1097.31
436.284	1065.31
436.505	1092.31
436.727	1096.31
436.949	1077.31
437.17	1081.31
437.392	1055.31
437.614	1069.31
437.835	1052.31
438.057	1047.31
438.278	1047.31
438.5	1063.31
438.721	1071.31
438.943	1097.31
439.165	1089.31
439.386	1138.31
439.608	1109.31
439.829	1121.31
440.05	1139.31
440.272	1164.31
440.493	1108.31
440.715	1097.31
440.936	1104.31
441.158	1161.31
441.379	1169.31
441.6	1160.31
441.822	1191.31
442.043	1236.31
442.264	1253.31
442.486	1196.31
442.707	1185.31
442.928	1144.31
443.149	1165.31
443.371	1139.31
443.592	1153.31
443.813	1166.31
444.034	1188.31
444.255	1181.31
444.476	1245.31
444.698	1242.31
444.919	1234.31
445.14	1340.31
445.361	1282.31
445.582	1188.31
445.803	1180.31
446.024	1155.31
446.245	1172.31
446.466	1189.31
446.687	1143.31
446.908	1115.31
447.129	1130.31
447.35	1116.31
447.571	1081.31
447.792	1064.31
448.013	1087.31
448.234	1083.31
448.455	1078.31
448.675	1082.31
448.896	1082.31
449.117	1086.31
449.338	1216.31
449.559	1195.31
449.779	1111.31
450	1081.31
450.221	1049.31
450.442	1065.31
450.662	1050.31
450.883	1038.31
451.104	1031.31
451.324	1010.31
451.545	1031.31
451.766	1029.31
451.986	1040.31
452.207	1085.31
452.428	1273.31
452.648	1643.31
452.869	1437.31
453.089	1165.31
453.31	1120.31
453.53	1112.31
453.751	1125.31
453.971	1166.31
454.192	1177.31
454.412	1071.31
454.633	1039.31
454.853	1020.31
455.073	991.31
455.294	1000.31
455.514	1001.31
455.734	985.31
455.955	990.31
456.175	968.31
456.395	994.31
456.616	995.31
456.836	986.31
457.056	997.31
457.276	999.31
457.497	1037.31
457.717	1035.31
457.937	1040.31
458.157	1031.31
458.377	1041.31
458.598	1014.31
458.818	1036.31
459.038	1042.31
459.258	1053.31
459.478	1060.31
459.698	1073.31
459.918	1086.31
460.138	1109.31
460.358	1129.31
460.578	1154.31
460.798	1149.31
461.018	1177.31
461.238	1158.31
461.458	1160.31
461.678	1194.31
461.898	1178.31
462.118	1215.31
462.338	1231.31
462.558	1253.31
462.777	1224.31
462.997	1336.31
463.217	1319.31
463.437	1382.31
463.657	1380.31
463.876	1345.31
464.096	1317.31
464.316	1295.31
464.536	1281.31
464.755	1237.31
464.975	1213.31
465.195	1206.31
465.414	1185.31
465.634	1121.31
465.854	1132.31
466.073	1135.31
466.293	1112.31
466.512	1063.31
466.732	1090.31
466.951	1126.31
467.171	1152.31
467.391	1150.31
467.61	1105.31
467.829	1087.31
468.049	1065.31
468.268	1066.31
468.488	1040.31
468.707	1070.31
468.927	1054.31
469.146	1052.31
469.365	1082.31
469.585	1075.31
469.804	1086.31
470.023	1119.31
470.243	1157.31
470.462	1159.31
470.681	1169.31
470.901	1296.31
471.12	1426.31
471.339	1435.31
471.558	1252.31
471.777	1197.31
471.997	1141.31
472.216	1098.31
472.435	1063.31
472.654	1047.31
472.873	1047.31
473.092	1062.31
473.311	1077.31
473.53	1081.31
473.749	1110.31
473.968	1069.31
474.187	1061.31
474.406	1059.31
474.625	1101.31
474.844	1075.31
475.063	1088.31
475.282	1099.31
475.501	1079.31
475.72	1065.31
475.939	1085.31
476.158	1124.31
476.377	1121.31
476.596	1107.31
476.814	1097.31
477.033	1123.31
477.252	1111.31
477.471	1155.31
477.69	1195.31
477.908	1224.31
478.127	1221.31
478.346	1225.31
478.564	1270.31
478.783	1242.31
479.002	1268.31
479.22	1273.31
479.439	1250.31
479.658	1243.31
479.876	1251.31
480.095	1262.31
480.313	1301.31
480.532	1306.31
480.751	1297.31
480.969	1287.31
481.188	1257.31
481.406	1240.31
481.624	1232.31
481.843	1264.31
482.061	1249.31
482.28	1262.31
482.498	1250.31
482.717	1255.31
482.935	1297.31
483.153	1305.31
483.372	1330.31
483.59	1333.31
483.808	1373.31
484.027	1378.31
484.245	1432.31
484.463	1520.31
484.681	1688.31
484.9	1550.31
485.118	1482.31
485.336	1463.31
485.554	1480.31
485.772	1528.31
485.99	1703.31
486.209	1783.31
486.427	1523.31
486.645	1409.31
486.863	1383.31
487.081	1381.31
487.299	1373.31
487.517	1346.31
487.735	1359.31
487.953	1388.31
488.171	1395.31
488.389	1355.31
488.607	1358.31
488.825	1350.31
489.043	1289.31
489.261	1282.31
489.479	1308.31
489.696	1321.31
489.914	1334.31
490.132	1335.31
490.35	1376.31
490.568	1383.31
490.786	1370.31
491.003	1355.31
491.221	1389.31
491.439	1429.31
491.657	1431.31
491.874	1450.31
492.092	1445.31
