Data from SnStandardFlinnAPT0064_QswitchEnergy10_LIBS07252019.E.O._I.C._HRD10591_15-28-38-973.txt Node
Date: Thu Jul 25 15:28:38 EDT 2019
User: cochatt
Spectrometer: HR+D1059
Trigger mode: 1
Integration Time (sec): 1.000000E-1
Scans to average: 1
Electric dark correction enabled: true
Nonlinearity correction enabled: false
Boxcar width: 0
XAxis mode: Wavelengths
Number of Pixels in Spectrum: 2048
>>>>>Begin Spectral Data<<<<<
223.165	-12.06
223.4	-12.06
223.635	-12.06
223.869	-21.06
224.104	-12.06
224.338	-16.06
224.573	-25.06
224.808	-14.06
225.042	1.94
225.277	-4.06
225.511	-13.06
225.746	5.94
225.98	9.94
226.215	2.94
226.449	7.94
226.683	18.94
226.918	31.94
227.152	37.94
227.387	27.94
227.621	43.94
227.856	45.94
228.09	47.94
228.324	43.94
228.559	52.94
228.793	69.94
229.027	73.94
229.262	64.94
229.496	86.94
229.73	81.94
229.964	79.94
230.199	76.94
230.433	76.94
230.667	86.94
230.901	85.94
231.136	85.94
231.37	89.94
231.604	84.94
231.838	104.94
232.072	123.94
232.306	127.94
232.541	82.94
232.775	86.94
233.009	88.94
233.243	81.94
233.477	92.94
233.711	92.94
233.945	97.94
234.179	82.94
234.413	83.94
234.647	76.94
234.881	87.94
235.115	89.94
235.349	75.94
235.583	108.94
235.817	147.94
236.051	129.94
236.285	96.94
236.519	84.94
236.753	80.94
236.987	86.94
237.221	89.94
237.455	75.94
237.689	89.94
237.922	89.94
238.156	90.94
238.39	90.94
238.624	77.94
238.858	76.94
239.091	81.94
239.325	70.94
239.559	77.94
239.793	89.94
240.027	69.94
240.26	86.94
240.494	76.94
240.728	92.94
240.961	88.94
241.195	93.94
241.429	92.94
241.662	83.94
241.896	85.94
242.13	100.94
242.363	127.94
242.597	174.94
242.83	145.94
243.064	127.94
243.298	186.94
243.531	161.94
243.765	111.94
243.998	88.94
244.232	82.94
244.465	83.94
244.699	75.94
244.932	78.94
245.166	83.94
245.399	75.94
245.633	96.94
245.866	88.94
246.099	92.94
246.333	76.94
246.566	79.94
246.8	87.94
247.033	74.94
247.266	83.94
247.5	100.94
247.733	93.94
247.966	90.94
248.2	85.94
248.433	113.94
248.666	132.94
248.899	114.94
249.133	91.94
249.366	107.94
249.599	109.94
249.832	128.94
250.066	132.94
250.299	89.94
250.532	89.94
250.765	89.94
250.998	80.94
251.231	82.94
251.465	77.94
251.698	88.94
251.931	79.94
252.164	86.94
252.397	89.94
252.63	90.94
252.863	104.94
253.096	90.94
253.329	91.94
253.562	96.94
253.795	119.94
254.028	91.94
254.261	88.94
254.494	94.94
254.727	129.94
254.96	164.94
255.193	152.94
255.426	104.94
255.659	109.94
255.892	93.94
256.124	101.94
256.357	96.94
256.59	97.94
256.823	89.94
257.056	100.94
257.289	153.94
257.521	197.94
257.754	120.94
257.987	89.94
258.22	87.94
258.452	93.94
258.685	98.94
258.918	92.94
259.151	95.94
259.383	97.94
259.616	146.94
259.849	139.94
260.081	107.94
260.314	94.94
260.547	83.94
260.779	87.94
261.012	74.94
261.244	84.94
261.477	98.94
261.71	94.94
261.942	86.94
262.175	76.94
262.407	97.94
262.64	77.94
262.872	87.94
263.105	90.94
263.337	102.94
263.57	96.94
263.802	86.94
264.035	98.94
264.267	91.94
264.499	72.94
264.732	82.94
264.964	83.94
265.197	89.94
265.429	82.94
265.661	93.94
265.894	110.94
266.126	127.94
266.358	185.94
266.591	154.94
266.823	100.94
267.055	99.94
267.287	99.94
267.52	81.94
267.752	70.94
267.984	88.94
268.216	76.94
268.448	89.94
268.681	88.94
268.913	112.94
269.145	93.94
269.377	107.94
269.609	97.94
269.841	104.94
270.073	117.94
270.306	143.94
270.538	217.94
270.77	343.94
271.002	388.94
271.234	219.94
271.466	115.94
271.698	91.94
271.93	101.94
272.162	92.94
272.394	89.94
272.626	98.94
272.858	83.94
273.09	96.94
273.322	104.94
273.553	93.94
273.785	101.94
274.017	87.94
274.249	89.94
274.481	100.94
274.713	99.94
274.945	91.94
275.176	97.94
275.408	84.94
275.64	97.94
275.872	88.94
276.104	89.94
276.335	109.94
276.567	104.94
276.799	86.94
277.031	86.94
277.262	112.94
277.494	117.94
277.726	153.94
277.957	188.94
278.189	263.94
278.421	267.94
278.652	209.94
278.884	193.94
279.115	159.94
279.347	117.94
279.579	102.94
279.81	98.94
280.042	101.94
280.273	104.94
280.505	113.94
280.736	116.94
280.968	138.94
281.199	204.94
281.431	262.94
281.662	309.94
281.894	189.94
282.125	127.94
282.356	109.94
282.588	129.94
282.819	107.94
283.051	122.94
283.282	158.94
283.513	209.94
283.745	339.94
283.976	595.94
284.207	853.94
284.439	643.94
284.67	310.94
284.901	287.94
285.132	371.94
285.364	439.94
285.595	245.94
285.826	200.94
286.057	275.94
286.288	431.94
286.52	659.94
286.751	547.94
286.982	210.94
287.213	135.94
287.444	122.94
287.675	116.94
287.906	88.94
288.138	112.94
288.369	89.94
288.6	104.94
288.831	90.94
289.062	96.94
289.293	113.94
289.524	104.94
289.755	102.94
289.986	92.94
290.217	112.94
290.448	105.94
290.679	91.94
290.91	128.94
291.141	196.94
291.371	265.94
291.602	343.94
291.833	222.94
292.064	121.94
292.295	124.94
292.526	104.94
292.757	91.94
292.987	92.94
293.218	103.94
293.449	92.94
293.68	107.94
293.91	96.94
294.141	85.94
294.372	87.94
294.603	103.94
294.833	88.94
295.064	85.94
295.295	99.94
295.525	97.94
295.756	86.94
295.987	75.94
296.217	101.94
296.448	76.94
296.679	99.94
296.909	100.94
297.14	99.94
297.37	103.94
297.601	104.94
297.831	95.94
298.062	101.94
298.292	91.94
298.523	107.94
298.753	105.94
298.984	101.94
299.214	122.94
299.445	117.94
299.675	117.94
299.905	134.94
300.136	145.94
300.366	177.94
300.597	296.94
300.827	511.94
301.057	776.94
301.288	680.94
301.518	282.94
301.748	164.94
301.979	151.94
302.209	129.94
302.439	151.94
302.669	198.94
302.9	295.94
303.13	556.94
303.36	1005.94
303.59	1364.94
303.82	917.94
304.051	343.94
304.281	185.94
304.511	137.94
304.741	117.94
304.971	115.94
305.201	115.94
305.431	118.94
305.661	111.94
305.891	120.94
306.121	105.94
306.352	117.94
306.582	110.94
306.812	115.94
307.042	121.94
307.272	119.94
307.502	123.94
307.731	122.94
307.961	102.94
308.191	127.94
308.421	115.94
308.651	103.94
308.881	98.94
309.111	113.94
309.341	111.94
309.571	124.94
309.8	114.94
310.03	122.94
310.26	95.94
310.49	107.94
310.72	98.94
310.949	106.94
311.179	107.94
311.409	110.94
311.639	101.94
311.868	111.94
312.098	117.94
312.328	131.94
312.557	108.94
312.787	111.94
313.017	115.94
313.246	120.94
313.476	117.94
313.706	134.94
313.935	176.94
314.165	217.94
314.394	275.94
314.624	198.94
314.853	139.94
315.083	122.94
315.312	138.94
315.542	132.94
315.771	122.94
316.001	147.94
316.23	164.94
316.46	179.94
316.689	196.94
316.919	294.94
317.148	541.94
317.377	1019.94
317.607	1658.94
317.836	1551.94
318.065	587.94
318.295	243.94
318.524	177.94
318.753	149.94
318.983	141.94
319.212	121.94
319.441	140.94
319.67	135.94
319.9	136.94
320.129	125.94
320.358	128.94
320.587	119.94
320.816	129.94
321.046	122.94
321.275	137.94
321.504	131.94
321.733	145.94
321.962	188.94
322.191	171.94
322.42	161.94
322.649	136.94
322.878	140.94
323.108	126.94
323.337	121.94
323.566	140.94
323.795	130.94
324.024	132.94
324.253	158.94
324.482	183.94
324.71	249.94
324.939	283.94
325.168	266.94
325.397	203.94
325.626	295.94
325.855	533.94
326.084	1026.94
326.313	1766.94
326.542	1775.94
326.77	687.94
326.999	288.94
327.228	223.94
327.457	240.94
327.686	259.94
327.914	166.94
328.143	145.94
328.372	136.94
328.6	143.94
328.829	123.94
329.058	115.94
329.287	148.94
329.515	147.94
329.744	132.94
329.972	124.94
330.201	129.94
330.43	111.94
330.658	117.94
330.887	136.94
331.115	125.94
331.344	128.94
331.572	112.94
331.801	134.94
332.03	135.94
332.258	144.94
332.486	205.94
332.715	333.94
332.943	559.94
333.172	861.94
333.4	751.94
333.629	273.94
333.857	155.94
334.085	121.94
334.314	135.94
334.542	122.94
334.771	142.94
334.999	149.94
335.227	145.94
335.455	142.94
335.684	134.94
335.912	125.94
336.14	127.94
336.369	122.94
336.597	122.94
336.825	127.94
337.053	128.94
337.281	113.94
337.51	133.94
337.738	127.94
337.966	126.94
338.194	124.94
338.422	122.94
338.65	126.94
338.878	124.94
339.106	122.94
339.334	137.94
339.562	139.94
339.79	129.94
340.018	127.94
340.246	116.94
340.474	116.94
340.702	112.94
340.93	118.94
341.158	121.94
341.386	118.94
341.614	127.94
341.842	131.94
342.07	123.94
342.298	121.94
342.526	126.94
342.754	124.94
342.981	123.94
343.209	120.94
343.437	121.94
343.665	119.94
343.893	105.94
344.12	114.94
344.348	120.94
344.576	116.94
344.804	137.94
345.031	111.94
345.259	103.94
345.487	119.94
345.714	112.94
345.942	123.94
346.17	119.94
346.397	119.94
346.625	121.94
346.853	117.94
347.08	108.94
347.308	106.94
347.535	96.94
347.763	116.94
347.99	98.94
348.218	103.94
348.445	101.94
348.673	122.94
348.9	141.94
349.128	135.94
349.355	135.94
349.583	136.94
349.81	112.94
350.037	120.94
350.265	119.94
350.492	128.94
350.72	135.94
350.947	124.94
351.174	114.94
351.402	111.94
351.629	99.94
351.856	115.94
352.083	108.94
352.311	127.94
352.538	119.94
352.765	120.94
352.992	109.94
353.22	104.94
353.447	108.94
353.674	106.94
353.901	121.94
354.128	103.94
354.355	97.94
354.583	108.94
354.81	119.94
355.037	121.94
355.264	113.94
355.491	121.94
355.718	101.94
355.945	91.94
356.172	100.94
356.399	116.94
356.626	117.94
356.853	113.94
357.08	113.94
357.307	118.94
357.534	123.94
357.761	115.94
357.988	125.94
358.215	106.94
358.441	109.94
358.668	118.94
358.895	124.94
359.122	127.94
359.349	129.94
359.576	111.94
359.802	117.94
360.029	103.94
360.256	113.94
360.483	117.94
360.709	113.94
360.936	111.94
361.163	115.94
361.39	130.94
361.616	119.94
361.843	111.94
362.07	109.94
362.296	123.94
362.523	117.94
362.749	115.94
362.976	121.94
363.203	106.94
363.429	109.94
363.656	118.94
363.882	127.94
364.109	134.94
364.335	128.94
364.562	109.94
364.788	107.94
365.015	104.94
365.241	154.94
365.468	200.94
365.694	297.94
365.92	250.94
366.147	128.94
366.373	113.94
366.599	104.94
366.826	98.94
367.052	112.94
367.278	98.94
367.505	98.94
367.731	112.94
367.957	108.94
368.184	115.94
368.41	131.94
368.636	136.94
368.862	122.94
369.089	113.94
369.315	103.94
369.541	112.94
369.767	125.94
369.993	117.94
370.219	111.94
370.445	122.94
370.672	121.94
370.898	124.94
371.124	114.94
371.35	126.94
371.576	111.94
371.802	109.94
372.028	105.94
372.254	115.94
372.48	116.94
372.706	139.94
372.932	124.94
373.158	129.94
373.384	132.94
373.61	118.94
373.835	127.94
374.061	134.94
374.287	121.94
374.513	119.94
374.739	108.94
374.965	113.94
375.191	108.94
375.416	115.94
375.642	111.94
375.868	123.94
376.094	108.94
376.319	110.94
376.545	127.94
376.771	108.94
376.997	116.94
377.222	111.94
377.448	102.94
377.674	110.94
377.899	119.94
378.125	113.94
378.35	123.94
378.576	121.94
378.802	126.94
379.027	131.94
379.253	154.94
379.478	193.94
379.704	343.94
379.929	850.94
380.155	1805.94
380.38	1860.94
380.606	596.94
380.831	209.94
381.057	155.94
381.282	115.94
381.507	107.94
381.733	104.94
381.958	110.94
382.184	132.94
382.409	115.94
382.634	100.94
382.86	107.94
383.085	110.94
383.31	109.94
383.535	118.94
383.761	103.94
383.986	107.94
384.211	115.94
384.436	104.94
384.662	120.94
384.887	103.94
385.112	100.94
385.337	111.94
385.562	117.94
385.787	100.94
386.013	101.94
386.238	95.94
386.463	121.94
386.688	113.94
386.913	115.94
387.138	105.94
387.363	111.94
387.588	101.94
387.813	108.94
388.038	116.94
388.263	111.94
388.488	100.94
388.713	117.94
388.938	113.94
389.163	103.94
389.387	110.94
389.612	108.94
389.837	104.94
390.062	102.94
390.287	111.94
390.512	100.94
390.736	111.94
390.961	111.94
391.186	100.94
391.411	90.94
391.636	115.94
391.86	111.94
392.085	112.94
392.31	108.94
392.534	113.94
392.759	102.94
392.984	116.94
393.208	121.94
393.433	147.94
393.658	144.94
393.882	93.94
394.107	99.94
394.331	113.94
394.556	99.94
394.78	88.94
395.005	103.94
395.229	100.94
395.454	106.94
395.678	98.94
395.903	125.94
396.127	116.94
396.352	98.94
396.576	108.94
396.801	123.94
397.025	128.94
397.249	119.94
397.474	108.94
397.698	102.94
397.922	97.94
398.147	104.94
398.371	94.94
398.595	113.94
398.82	111.94
399.044	115.94
399.268	107.94
399.492	97.94
399.717	103.94
399.941	96.94
400.165	107.94
400.389	118.94
400.613	112.94
400.837	97.94
401.062	105.94
401.286	108.94
401.51	115.94
401.734	106.94
401.958	97.94
402.182	99.94
402.406	112.94
402.63	119.94
402.854	97.94
403.078	112.94
403.302	110.94
403.526	98.94
403.75	117.94
403.974	91.94
404.198	98.94
404.422	107.94
404.645	102.94
404.869	119.94
405.093	110.94
405.317	116.94
405.541	105.94
405.765	142.94
405.988	158.94
406.212	128.94
406.436	112.94
406.66	110.94
406.883	101.94
407.107	90.94
407.331	99.94
407.555	83.94
407.778	87.94
408.002	103.94
408.226	117.94
408.449	95.94
408.673	107.94
408.896	100.94
409.12	85.94
409.344	99.94
409.567	95.94
409.791	97.94
410.014	114.94
410.238	113.94
410.461	114.94
410.685	97.94
410.908	105.94
411.132	106.94
411.355	112.94
411.578	103.94
411.802	106.94
412.025	116.94
412.249	108.94
412.472	106.94
412.695	99.94
412.919	107.94
413.142	113.94
413.365	99.94
413.589	88.94
413.812	89.94
414.035	107.94
414.258	108.94
414.482	114.94
414.705	107.94
414.928	112.94
415.151	121.94
415.374	99.94
415.597	99.94
415.821	101.94
416.044	103.94
416.267	103.94
416.49	92.94
416.713	100.94
416.936	102.94
417.159	107.94
417.382	98.94
417.605	112.94
417.828	99.94
418.051	99.94
418.274	101.94
418.497	103.94
418.72	123.94
418.943	118.94
419.166	107.94
419.389	104.94
419.611	121.94
419.834	104.94
420.057	92.94
420.28	98.94
420.503	114.94
420.726	99.94
420.948	83.94
421.171	106.94
421.394	92.94
421.617	83.94
421.839	95.94
422.062	94.94
422.285	107.94
422.507	109.94
422.73	132.94
422.953	155.94
423.175	111.94
423.398	104.94
423.621	97.94
423.843	83.94
424.066	87.94
424.288	97.94
424.511	97.94
424.733	95.94
424.956	105.94
425.178	102.94
425.401	99.94
425.623	94.94
425.846	111.94
426.068	90.94
426.291	97.94
426.513	97.94
426.735	93.94
426.958	105.94
427.18	98.94
427.402	96.94
427.625	96.94
427.847	103.94
428.069	106.94
428.292	107.94
428.514	104.94
428.736	95.94
428.958	85.94
429.181	94.94
429.403	108.94
429.625	98.94
429.847	95.94
430.069	96.94
430.292	109.94
430.514	104.94
430.736	96.94
430.958	104.94
431.18	107.94
431.402	108.94
431.624	102.94
431.846	94.94
432.068	91.94
432.29	106.94
432.512	88.94
432.734	92.94
432.956	95.94
433.178	94.94
433.4	112.94
433.622	123.94
433.844	93.94
434.066	96.94
434.287	88.94
434.509	98.94
434.731	100.94
434.953	96.94
435.175	104.94
435.397	97.94
435.618	85.94
435.84	97.94
436.062	101.94
436.284	99.94
436.505	96.94
436.727	87.94
436.949	105.94
437.17	103.94
437.392	106.94
437.614	103.94
437.835	98.94
438.057	93.94
438.278	107.94
438.5	106.94
438.721	101.94
438.943	107.94
439.165	119.94
439.386	119.94
439.608	123.94
439.829	97.94
440.05	133.94
440.272	119.94
440.493	105.94
440.715	107.94
440.936	103.94
441.158	100.94
441.379	98.94
441.6	98.94
441.822	124.94
442.043	125.94
442.264	148.94
442.486	116.94
442.707	115.94
442.928	92.94
443.149	85.94
443.371	108.94
443.592	107.94
443.813	93.94
444.034	97.94
444.255	112.94
444.476	100.94
444.698	84.94
444.919	99.94
445.14	172.94
445.361	145.94
445.582	113.94
445.803	94.94
446.024	103.94
446.245	121.94
446.466	113.94
446.687	121.94
446.908	102.94
447.129	86.94
447.35	96.94
447.571	106.94
447.792	99.94
448.013	88.94
448.234	111.94
448.455	97.94
448.675	114.94
448.896	99.94
449.117	117.94
449.338	135.94
449.559	166.94
449.779	108.94
450	109.94
450.221	106.94
450.442	122.94
450.662	121.94
450.883	124.94
451.104	102.94
451.324	135.94
451.545	119.94
451.766	123.94
451.986	136.94
452.207	225.94
452.428	623.94
452.648	1545.94
452.869	887.94
453.089	245.94
453.31	151.94
453.53	139.94
453.751	153.94
453.971	166.94
454.192	182.94
454.412	121.94
454.633	96.94
454.853	97.94
455.073	98.94
455.294	98.94
455.514	112.94
455.734	98.94
455.955	109.94
456.175	103.94
456.395	85.94
456.616	106.94
456.836	106.94
457.056	105.94
457.276	103.94
457.497	122.94
457.717	125.94
457.937	111.94
458.157	109.94
458.377	96.94
458.598	103.94
458.818	97.94
459.038	97.94
459.258	79.94
459.478	89.94
459.698	92.94
459.918	99.94
460.138	100.94
460.358	78.94
460.578	81.94
460.798	106.94
461.018	88.94
461.238	98.94
461.458	95.94
461.678	91.94
461.898	90.94
462.118	104.94
462.338	106.94
462.558	105.94
462.777	99.94
462.997	97.94
463.217	117.94
463.437	149.94
463.657	194.94
463.876	194.94
464.096	121.94
464.316	111.94
464.536	101.94
464.755	95.94
464.975	97.94
465.195	98.94
465.414	103.94
465.634	87.94
465.854	92.94
466.073	95.94
466.293	101.94
466.512	110.94
466.732	105.94
466.951	127.94
467.171	151.94
467.391	161.94
467.61	103.94
467.829	98.94
468.049	95.94
468.268	98.94
468.488	93.94
468.707	108.94
468.927	106.94
469.146	100.94
469.365	97.94
469.585	103.94
469.804	101.94
470.023	100.94
470.243	108.94
470.462	89.94
470.681	112.94
470.901	140.94
471.12	212.94
471.339	220.94
471.558	145.94
471.777	124.94
471.997	105.94
472.216	110.94
472.435	91.94
472.654	109.94
472.873	90.94
473.092	92.94
473.311	107.94
473.53	92.94
473.749	96.94
473.968	107.94
474.187	80.94
474.406	83.94
474.625	107.94
474.844	100.94
475.063	107.94
475.282	115.94
475.501	103.94
475.72	95.94
475.939	105.94
476.158	116.94
476.377	121.94
476.596	117.94
476.814	99.94
477.033	93.94
477.252	90.94
477.471	97.94
477.69	101.94
477.908	99.94
478.127	97.94
478.346	96.94
478.564	107.94
478.783	105.94
479.002	105.94
479.22	98.94
479.439	89.94
479.658	96.94
479.876	88.94
480.095	101.94
480.313	90.94
480.532	95.94
480.751	102.94
480.969	90.94
481.188	105.94
481.406	106.94
481.624	95.94
481.843	127.94
482.061	121.94
482.28	109.94
482.498	97.94
482.717	108.94
482.935	102.94
483.153	101.94
483.372	97.94
483.59	104.94
483.808	110.94
484.027	106.94
484.245	134.94
484.463	188.94
484.681	231.94
484.9	138.94
485.118	133.94
485.336	121.94
485.554	123.94
485.772	135.94
485.99	193.94
486.209	252.94
486.427	181.94
486.645	127.94
486.863	113.94
487.081	101.94
487.299	112.94
487.517	115.94
487.735	104.94
487.953	107.94
488.171	101.94
488.389	115.94
488.607	93.94
488.825	91.94
489.043	110.94
489.261	106.94
489.479	90.94
489.696	99.94
489.914	102.94
490.132	87.94
490.35	93.94
490.568	103.94
490.786	118.94
491.003	113.94
491.221	115.94
491.439	111.94
491.657	105.94
491.874	119.94
492.092	125.94
492.31	100.94
492.527	108.94
492.745	110.94
492.963	114.94
493.18	102.94
493.398	123.94
493.615	104.94
493.833	115.94
494.05	95.94
494.268	108.94
494.485	100.94
494.703	98.94
494.92	96.94
495.138	111.94
495.355	117.94
495.573	91.94
495.79	122.94
496.008	122.94
496.225	114.94
496.442	112.94
496.66	125.94
496.877	168.94
497.094	151.94
497.312	105.94
497.529	103.94
497.746	109.94
497.963	85.94
498.181	115.94
498.398	102.94
498.615	111.94
498.832	103.94
499.049	104.94
499.267	149.94
499.484	169.94
499.701	135.94
499.918	94.94
500.135	100.94
500.352	100.94
500.569	96.94
500.786	109.94
501.003	105.94
501.22	99.94
501.437	80.94
501.654	85.94
501.871	105.94
502.088	100.94
502.305	99.94
502.522	114.94
502.739	113.94
502.956	101.94
503.172	99.94
503.389	101.94
503.606	107.94
503.823	85.94
504.04	92.94
504.256	108.94
504.473	113.94
504.69	113.94
504.907	120.94
505.123	102.94
505.34	110.94
505.557	128.94
505.773	109.94
505.99	107.94
506.207	107.94
506.423	104.94
506.64	111.94
