Data from SnStandardFlinnAPT0064_LampEnergy10_LIBS07252019.E.O._I.C._HRD10591_15-21-33-493.txt Node
Date: Thu Jul 25 15:21:33 EDT 2019
User: cochatt
Spectrometer: HR+D1059
Trigger mode: 1
Integration Time (sec): 1.000000E-1
Scans to average: 1
Electric dark correction enabled: true
Nonlinearity correction enabled: false
Boxcar width: 0
XAxis mode: Wavelengths
Number of Pixels in Spectrum: 2048
>>>>>Begin Spectral Data<<<<<
223.165	-1.38
223.4	-1.38
223.635	-1.38
223.869	-14.38
224.104	-23.38
224.338	-7.38
224.573	-13.38
224.808	-17.38
225.042	-37.38
225.277	-5.38
225.511	-15.38
225.746	0.62
225.98	12.62
226.215	5.62
226.449	16.62
226.683	33.62
226.918	35.62
227.152	30.62
227.387	41.62
227.621	46.62
227.856	45.62
228.09	50.62
228.324	51.62
228.559	60.62
228.793	127.62
229.027	312.62
229.262	330.62
229.496	296.62
229.73	307.62
229.964	311.62
230.199	305.62
230.433	324.62
230.667	321.62
230.901	336.62
231.136	319.62
231.37	374.62
231.604	373.62
231.838	454.62
232.072	536.62
232.306	579.62
232.541	479.62
232.775	427.62
233.009	426.62
233.243	431.62
233.477	470.62
233.711	531.62
233.945	588.62
234.179	508.62
234.413	468.62
234.647	453.62
234.881	459.62
235.115	525.62
235.349	621.62
235.583	776.62
235.817	991.62
236.051	961.62
236.285	644.62
236.519	523.62
236.753	513.62
236.987	511.62
237.221	551.62
237.455	539.62
237.689	464.62
237.922	465.62
238.156	481.62
238.39	479.62
238.624	505.62
238.858	479.62
239.091	490.62
239.325	470.62
239.559	497.62
239.793	487.62
240.027	517.62
240.26	533.62
240.494	531.62
240.728	587.62
240.961	618.62
241.195	639.62
241.429	669.62
241.662	715.62
241.896	788.62
242.13	945.62
242.363	1250.62
242.597	1616.62
242.83	1552.62
243.064	1519.62
243.298	1835.62
243.531	1503.62
243.765	951.62
243.998	780.62
244.232	718.62
244.465	679.62
244.699	648.62
244.932	649.62
245.166	659.62
245.399	659.62
245.633	687.62
245.866	670.62
246.099	649.62
246.333	641.62
246.566	632.62
246.8	633.62
247.033	626.62
247.266	655.62
247.5	660.62
247.733	658.62
247.966	709.62
248.2	784.62
248.433	881.62
248.666	1014.62
248.899	960.62
249.133	868.62
249.366	863.62
249.599	957.62
249.832	1054.62
250.066	1073.62
250.299	870.62
250.532	779.62
250.765	732.62
250.998	745.62
251.231	749.62
251.465	765.62
251.698	763.62
251.931	745.62
252.164	736.62
252.397	769.62
252.63	789.62
252.863	793.62
253.096	793.62
253.329	771.62
253.562	773.62
253.795	756.62
254.028	827.62
254.261	826.62
254.494	875.62
254.727	991.62
254.96	1256.62
255.193	1219.62
255.426	955.62
255.659	886.62
255.892	874.62
256.124	861.62
256.357	883.62
256.59	899.62
256.823	978.62
257.056	1082.62
257.289	1309.62
257.521	1453.62
257.754	1165.62
257.987	958.62
258.22	935.62
258.452	921.62
258.685	948.62
258.918	945.62
259.151	985.62
259.383	1106.62
259.616	1255.62
259.849	1269.62
260.081	1083.62
260.314	981.62
260.547	956.62
260.779	974.62
261.012	954.62
261.244	956.62
261.477	942.62
261.71	980.62
261.942	1015.62
262.175	997.62
262.407	1073.62
262.64	1050.62
262.872	1098.62
263.105	1143.62
263.337	1177.62
263.57	1269.62
263.802	1292.62
264.035	1322.62
264.267	1343.62
264.499	1370.62
264.732	1397.62
264.964	1450.62
265.197	1443.62
265.429	1423.62
265.661	1453.62
265.894	1555.62
266.126	1744.62
266.358	2010.62
266.591	1891.62
266.823	1625.62
267.055	1417.62
267.287	1402.62
267.52	1334.62
267.752	1312.62
267.984	1276.62
268.216	1271.62
268.448	1266.62
268.681	1236.62
268.913	1224.62
269.145	1237.62
269.377	1219.62
269.609	1250.62
269.841	1283.62
270.073	1386.62
270.306	1550.62
270.538	2137.62
270.77	3230.62
271.002	4009.62
271.234	2729.62
271.466	1863.62
271.698	1537.62
271.93	1376.62
272.162	1305.62
272.394	1297.62
272.626	1236.62
272.858	1235.62
273.09	1213.62
273.322	1233.62
273.553	1204.62
273.785	1206.62
274.017	1177.62
274.249	1179.62
274.481	1222.62
274.713	1205.62
274.945	1199.62
275.176	1209.62
275.408	1217.62
275.64	1206.62
275.872	1205.62
276.104	1207.62
276.335	1278.62
276.567	1281.62
276.799	1300.62
277.031	1294.62
277.262	1319.62
277.494	1421.62
277.726	1583.62
277.957	1844.62
278.189	2088.62
278.421	1936.62
278.652	1757.62
278.884	1665.62
279.115	1512.62
279.347	1428.62
279.579	1386.62
279.81	1401.62
280.042	1367.62
280.273	1409.62
280.505	1433.62
280.736	1478.62
280.968	1563.62
281.199	1776.62
281.431	2019.62
281.662	2069.62
281.894	1778.62
282.125	1641.62
282.356	1613.62
282.588	1644.62
282.819	1705.62
283.051	1815.62
283.282	1997.62
283.513	2486.62
283.745	3562.62
283.976	5705.62
284.207	8038.62
284.439	7339.62
284.67	4430.62
284.901	3635.62
285.132	3741.62
285.364	3574.62
285.595	2675.62
285.826	2377.62
286.057	2809.62
286.288	3860.62
286.52	5181.62
286.751	4898.62
286.982	3038.62
287.213	2287.62
287.444	1978.62
287.675	1837.62
287.906	1821.62
288.138	1745.62
288.369	1707.62
288.6	1676.62
288.831	1683.62
289.062	1651.62
289.293	1648.62
289.524	1678.62
289.755	1719.62
289.986	1757.62
290.217	1706.62
290.448	1737.62
290.679	1690.62
290.91	1751.62
291.141	1832.62
291.371	1989.62
291.602	2063.62
291.833	1928.62
292.064	1715.62
292.295	1679.62
292.526	1640.62
292.757	1646.62
292.987	1614.62
293.218	1580.62
293.449	1606.62
293.68	1570.62
293.91	1591.62
294.141	1562.62
294.372	1543.62
294.603	1546.62
294.833	1540.62
295.064	1558.62
295.295	1551.62
295.525	1535.62
295.756	1560.62
295.987	1558.62
296.217	1566.62
296.448	1578.62
296.679	1581.62
296.909	1578.62
297.14	1593.62
297.37	1603.62
297.601	1628.62
297.831	1627.62
298.062	1657.62
298.292	1617.62
298.523	1661.62
298.753	1688.62
298.984	1689.62
299.214	1739.62
299.445	1771.62
299.675	1778.62
299.905	1852.62
300.136	1894.62
300.366	2150.62
300.597	2756.62
300.827	3866.62
301.057	5255.62
301.288	5230.62
301.518	3363.62
301.748	2599.62
301.979	2354.62
302.209	2251.62
302.439	2282.62
302.669	2413.62
302.9	2968.62
303.13	4173.62
303.36	6192.62
303.59	8221.62
303.82	7142.62
304.051	4181.62
304.281	3011.62
304.511	2481.62
304.741	2307.62
304.971	2154.62
305.201	2046.62
305.431	2009.62
305.661	1929.62
305.891	1891.62
306.121	1874.62
306.352	1854.62
306.582	1841.62
306.812	1856.62
307.042	1835.62
307.272	1835.62
307.502	1806.62
307.731	1802.62
307.961	1815.62
308.191	1812.62
308.421	1804.62
308.651	1806.62
308.881	1764.62
309.111	1811.62
309.341	1785.62
309.571	1819.62
309.8	1848.62
310.03	1857.62
310.26	1870.62
310.49	1862.62
310.72	1899.62
310.949	1841.62
311.179	1859.62
311.409	1842.62
311.639	1907.62
311.868	1916.62
312.098	1923.62
312.328	1904.62
312.557	1956.62
312.787	1960.62
313.017	1964.62
313.246	1990.62
313.476	1994.62
313.706	2069.62
313.935	2166.62
314.165	2341.62
314.394	2490.62
314.624	2331.62
314.853	2157.62
315.083	2137.62
315.312	2162.62
315.542	2142.62
315.771	2239.62
316.001	2216.62
316.23	2265.62
316.46	2400.62
316.689	2647.62
316.919	3202.62
317.148	4636.62
317.377	7119.62
317.607	10427.62
317.836	10890.62
318.065	6498.62
318.295	4151.62
318.524	3425.62
318.753	2967.62
318.983	2722.62
319.212	2534.62
319.441	2497.62
319.67	2394.62
319.9	2373.62
320.129	2372.62
320.358	2328.62
320.587	2336.62
320.816	2346.62
321.046	2347.62
321.275	2364.62
321.504	2421.62
321.733	2402.62
321.962	2441.62
322.191	2483.62
322.42	2499.62
322.649	2505.62
322.878	2464.62
323.108	2427.62
323.337	2470.62
323.566	2527.62
323.795	2610.62
324.024	2649.62
324.253	2667.62
324.482	2829.62
324.71	2938.62
324.939	3122.62
325.168	3229.62
325.397	3381.62
325.626	4002.62
325.855	5607.62
326.084	8708.62
326.313	12698.62
326.542	13373.62
326.77	8890.62
326.999	5892.62
327.228	4861.62
327.457	4667.62
327.686	4715.62
327.914	5045.62
328.143	5943.62
328.372	7027.62
328.6	7669.62
328.829	6854.62
329.058	5653.62
329.287	5037.62
329.515	4549.62
329.744	4213.62
329.972	3999.62
330.201	3807.62
330.43	3678.62
330.658	3645.62
330.887	3550.62
331.115	3477.62
331.344	3442.62
331.572	3413.62
331.801	3471.62
332.03	3525.62
332.258	3525.62
332.486	3766.62
332.715	4293.62
332.943	5278.62
333.172	6567.62
333.4	6496.62
333.629	4985.62
333.857	4547.62
334.085	4452.62
334.314	4689.62
334.542	5103.62
334.771	5925.62
334.999	7306.62
335.227	9176.62
335.455	10263.62
335.684	9241.62
335.912	7572.62
336.14	6351.62
336.369	5651.62
336.597	5181.62
336.825	4759.62
337.053	4517.62
337.281	4181.62
337.51	3969.62
337.738	3879.62
337.966	3719.62
338.194	3565.62
338.422	3441.62
338.65	3413.62
338.878	3338.62
339.106	3273.62
339.334	3214.62
339.562	3098.62
339.79	3053.62
340.018	3073.62
340.246	3036.62
340.474	3067.62
340.702	3022.62
340.93	3022.62
341.158	2996.62
341.386	2991.62
341.614	2964.62
341.842	2884.62
342.07	2856.62
342.298	2833.62
342.526	2794.62
342.754	2722.62
342.981	2717.62
343.209	2706.62
343.437	2737.62
343.665	2782.62
343.893	2798.62
344.12	2828.62
344.348	2779.62
344.576	2713.62
344.804	2683.62
345.031	2659.62
345.259	2596.62
345.487	2553.62
345.714	2571.62
345.942	2515.62
346.17	2564.62
346.397	2529.62
346.625	2577.62
346.853	2526.62
347.08	2506.62
347.308	2529.62
347.535	2511.62
347.763	2516.62
347.99	2483.62
348.218	2460.62
348.445	2461.62
348.673	2489.62
348.9	2420.62
349.128	2429.62
349.355	2398.62
349.583	2441.62
349.81	2430.62
350.037	2405.62
350.265	2400.62
350.492	2431.62
350.72	2387.62
350.947	2401.62
351.174	2381.62
351.402	2361.62
351.629	2398.62
351.856	2407.62
352.083	2353.62
352.311	2381.62
352.538	2372.62
352.765	2397.62
352.992	2334.62
353.22	2348.62
353.447	2401.62
353.674	2366.62
353.901	2355.62
354.128	2386.62
354.355	2410.62
354.583	2383.62
354.81	2408.62
355.037	2419.62
355.264	2474.62
355.491	2459.62
355.718	2431.62
355.945	2439.62
356.172	2457.62
356.399	2441.62
356.626	2471.62
356.853	2493.62
357.08	2573.62
357.307	2530.62
357.534	2557.62
357.761	2557.62
357.988	2601.62
358.215	2538.62
358.441	2546.62
358.668	2547.62
358.895	2547.62
359.122	2531.62
359.349	2524.62
359.576	2569.62
359.802	2527.62
360.029	2510.62
360.256	2492.62
360.483	2577.62
360.709	2578.62
360.936	2583.62
361.163	2572.62
361.39	2554.62
361.616	2557.62
361.843	2601.62
362.07	2556.62
362.296	2577.62
362.523	2586.62
362.749	2563.62
362.976	2533.62
363.203	2565.62
363.429	2510.62
363.656	2517.62
363.882	2505.62
364.109	2470.62
364.335	2502.62
364.562	2518.62
364.788	2512.62
365.015	2582.62
365.241	2616.62
365.468	2775.62
365.694	2967.62
365.92	2784.62
366.147	2569.62
366.373	2588.62
366.599	2615.62
366.826	2602.62
367.052	2561.62
367.278	2625.62
367.505	2610.62
367.731	2669.62
367.957	2565.62
368.184	2622.62
368.41	2691.62
368.636	2677.62
368.862	2649.62
369.089	2665.62
369.315	2612.62
369.541	2641.62
369.767	2651.62
369.993	2650.62
370.219	2588.62
370.445	2627.62
370.672	2639.62
370.898	2706.62
371.124	2730.62
371.35	2671.62
371.576	2700.62
371.802	2731.62
372.028	2771.62
372.254	2739.62
372.48	2760.62
372.706	2789.62
372.932	2780.62
373.158	2787.62
373.384	2789.62
373.61	2755.62
373.835	2807.62
374.061	2814.62
374.287	2849.62
374.513	2865.62
374.739	2923.62
374.965	2916.62
375.191	2916.62
375.416	2878.62
375.642	2843.62
375.868	2901.62
376.094	2793.62
376.319	2828.62
376.545	2732.62
376.771	2796.62
376.997	2746.62
377.222	2708.62
377.448	2674.62
377.674	2731.62
377.899	2713.62
378.125	2745.62
378.35	2725.62
378.576	2724.62
378.802	2757.62
379.027	2820.62
379.253	2848.62
379.478	3013.62
379.704	3517.62
379.929	5209.62
380.155	7839.62
380.38	8485.62
380.606	5252.62
380.831	3709.62
381.057	3227.62
381.282	2938.62
381.507	2848.62
381.733	2797.62
381.958	2729.62
382.184	2737.62
382.409	2688.62
382.634	2658.62
382.86	2705.62
383.085	2663.62
383.31	2703.62
383.535	2705.62
383.761	2693.62
383.986	2635.62
384.211	2732.62
384.436	2753.62
384.662	2769.62
384.887	2798.62
385.112	2802.62
385.337	2783.62
385.562	2763.62
385.787	2743.62
386.013	2852.62
386.238	2762.62
386.463	2746.62
386.688	2770.62
386.913	2742.62
387.138	2764.62
387.363	2756.62
387.588	2757.62
387.813	2745.62
388.038	2760.62
388.263	2781.62
388.488	2766.62
388.713	2764.62
388.938	2807.62
389.163	2715.62
389.387	2758.62
389.612	2756.62
389.837	2710.62
390.062	2749.62
390.287	2776.62
390.512	2810.62
390.736	2842.62
390.961	2835.62
391.186	2853.62
391.411	2934.62
391.636	2919.62
391.86	2911.62
392.085	2977.62
392.31	2894.62
392.534	2875.62
392.759	2851.62
392.984	2807.62
393.208	2747.62
393.433	2843.62
393.658	2782.62
393.882	2776.62
394.107	2813.62
394.331	2820.62
394.556	2824.62
394.78	2805.62
395.005	2798.62
395.229	2862.62
395.454	2865.62
395.678	2932.62
395.903	2873.62
396.127	2896.62
396.352	2828.62
396.576	2865.62
396.801	2839.62
397.025	2888.62
397.249	2903.62
397.474	2902.62
397.698	2924.62
397.922	2991.62
398.147	2949.62
398.371	2969.62
398.595	3024.62
398.82	3075.62
399.044	3223.62
399.268	3340.62
399.492	3557.62
399.717	3703.62
399.941	3652.62
400.165	3518.62
400.389	3394.62
400.613	3252.62
400.837	3102.62
401.062	3133.62
401.286	3067.62
401.51	3044.62
401.734	2997.62
401.958	3042.62
402.182	3081.62
402.406	3016.62
402.63	3041.62
402.854	3133.62
403.078	3140.62
403.302	3146.62
403.526	3158.62
403.75	3170.62
403.974	3192.62
404.198	3198.62
404.422	3227.62
404.645	3170.62
404.869	3164.62
405.093	3133.62
405.317	3189.62
405.541	3233.62
405.765	3252.62
405.988	3308.62
406.212	3261.62
406.436	3222.62
406.66	3337.62
406.883	3288.62
407.107	3427.62
407.331	3459.62
407.555	3460.62
407.778	3433.62
408.002	3392.62
408.226	3407.62
408.449	3366.62
408.673	3256.62
408.896	3229.62
409.12	3219.62
409.344	3206.62
409.567	3142.62
409.791	3197.62
410.014	3193.62
410.238	3157.62
410.461	3178.62
410.685	3163.62
410.908	3102.62
411.132	3103.62
411.355	3017.62
411.578	3046.62
411.802	3027.62
412.025	3006.62
412.249	3057.62
412.472	3078.62
412.695	2999.62
412.919	2942.62
413.142	3001.62
413.365	2948.62
413.589	3034.62
413.812	2970.62
414.035	2983.62
414.258	2991.62
414.482	2982.62
414.705	3017.62
414.928	2961.62
415.151	2974.62
415.374	2935.62
415.597	2947.62
415.821	2888.62
416.044	2830.62
416.267	2867.62
416.49	2877.62
416.713	2889.62
416.936	2928.62
417.159	2835.62
417.382	2879.62
417.605	2868.62
417.828	2846.62
418.051	2882.62
418.274	2873.62
418.497	2878.62
418.72	2949.62
418.943	2901.62
419.166	3034.62
419.389	3213.62
419.611	3142.62
419.834	3048.62
420.057	3005.62
420.28	2936.62
420.503	2887.62
420.726	2907.62
420.948	2857.62
421.171	2820.62
421.394	2890.62
421.617	2900.62
421.839	2890.62
422.062	2874.62
422.285	2869.62
422.507	2895.62
422.73	2925.62
422.953	2921.62
423.175	2982.62
423.398	2977.62
423.621	2851.62
423.843	2879.62
424.066	2883.62
424.288	2829.62
424.511	2858.62
424.733	2871.62
424.956	2853.62
425.178	2829.62
425.401	2870.62
425.623	2802.62
425.846	2751.62
426.068	2785.62
426.291	2774.62
426.513	2748.62
426.735	2730.62
426.958	2744.62
427.18	2675.62
427.402	2702.62
427.625	2678.62
427.847	2624.62
428.069	2675.62
428.292	2682.62
428.514	2670.62
428.736	2658.62
428.958	2681.62
429.181	2625.62
429.403	2603.62
429.625	2607.62
429.847	2687.62
430.069	2717.62
430.292	2786.62
430.514	2850.62
430.736	2850.62
430.958	2721.62
431.18	2626.62
431.402	2634.62
431.624	2599.62
431.846	2646.62
432.068	2597.62
432.29	2647.62
432.512	2633.62
432.734	2584.62
432.956	2585.62
433.178	2661.62
433.4	2590.62
433.622	2662.62
433.844	2649.62
434.066	2664.62
434.287	2633.62
434.509	2683.62
434.731	2739.62
434.953	2749.62
435.175	2790.62
435.397	2726.62
435.618	2681.62
435.84	2658.62
436.062	2650.62
436.284	2612.62
436.505	2598.62
436.727	2620.62
436.949	2602.62
437.17	2609.62
437.392	2581.62
437.614	2541.62
437.835	2490.62
438.057	2567.62
438.278	2521.62
438.5	2508.62
438.721	2553.62
438.943	2700.62
439.165	2704.62
439.386	2748.62
439.608	2704.62
439.829	2700.62
440.05	2853.62
440.272	2818.62
440.493	2734.62
440.715	2712.62
440.936	2727.62
441.158	2726.62
441.379	2766.62
441.6	2877.62
441.822	2913.62
442.043	3083.62
442.264	3195.62
442.486	2978.62
442.707	2888.62
442.928	2778.62
443.149	2837.62
443.371	2839.62
443.592	2801.62
443.813	2803.62
444.034	2848.62
444.255	2939.62
444.476	3004.62
444.698	3075.62
444.919	3009.62
445.14	3134.62
445.361	3011.62
445.582	2915.62
445.803	2830.62
446.024	2753.62
446.245	2778.62
446.466	2788.62
446.687	2742.62
446.908	2745.62
447.129	2687.62
447.35	2726.62
447.571	2637.62
447.792	2631.62
448.013	2591.62
448.234	2574.62
448.455	2622.62
448.675	2577.62
448.896	2664.62
449.117	2751.62
449.338	2977.62
449.559	3089.62
449.779	2771.62
450	2607.62
450.221	2626.62
450.442	2530.62
450.662	2555.62
450.883	2533.62
451.104	2540.62
451.324	2524.62
451.545	2531.62
451.766	2576.62
451.986	2617.62
452.207	2824.62
452.428	3556.62
452.648	5349.62
452.869	4452.62
453.089	3119.62
453.31	2953.62
453.53	2854.62
453.751	3027.62
453.971	3181.62
454.192	3117.62
454.412	2744.62
454.633	2567.62
454.853	2467.62
455.073	2440.62
455.294	2439.62
455.514	2428.62
455.734	2407.62
455.955	2393.62
456.175	2434.62
456.395	2396.62
456.616	2419.62
456.836	2406.62
457.056	2466.62
457.276	2477.62
457.497	2642.62
457.717	2631.62
457.937	2586.62
458.157	2514.62
458.377	2494.62
458.598	2529.62
458.818	2635.62
459.038	2630.62
459.258	2601.62
459.478	2661.62
459.698	2676.62
459.918	2695.62
460.138	2762.62
460.358	2810.62
460.578	2770.62
460.798	2853.62
461.018	2895.62
461.238	2803.62
461.458	2910.62
461.678	2863.62
461.898	3000.62
462.118	3013.62
462.338	3091.62
462.558	3049.62
462.777	3155.62
462.997	3229.62
463.217	3427.62
463.437	3494.62
463.657	3577.62
463.876	3547.62
464.096	3384.62
464.316	3195.62
464.536	3111.62
464.755	3086.62
464.975	3018.62
465.195	2869.62
465.414	2798.62
465.634	2734.62
465.854	2751.62
466.073	2709.62
466.293	2650.62
466.512	2652.62
466.732	2702.62
466.951	2829.62
467.171	2980.62
467.391	2928.62
467.61	2682.62
467.829	2577.62
468.049	2644.62
468.268	2588.62
468.488	2501.62
468.707	2547.62
468.927	2561.62
469.146	2572.62
469.365	2654.62
469.585	2620.62
469.804	2678.62
470.023	2742.62
470.243	2756.62
470.462	2869.62
470.681	3019.62
470.901	3306.62
471.12	3793.62
471.339	3782.62
471.558	3087.62
471.777	2883.62
471.997	2743.62
472.216	2685.62
472.435	2640.62
472.654	2638.62
472.873	2547.62
473.092	2570.62
473.311	2636.62
473.53	2612.62
473.749	2674.62
473.968	2786.62
474.187	2631.62
474.406	2569.62
474.625	2604.62
474.844	2543.62
475.063	2601.62
475.282	2579.62
475.501	2603.62
475.72	2648.62
475.939	2649.62
476.158	2687.62
476.377	2796.62
476.596	2765.62
476.814	2775.62
477.033	2777.62
477.252	2762.62
477.471	2830.62
477.69	2898.62
477.908	2927.62
478.127	2930.62
478.346	2937.62
478.564	3011.62
478.783	2985.62
479.002	3109.62
479.22	3093.62
479.439	3118.62
479.658	3091.62
479.876	3117.62
480.095	3130.62
480.313	3183.62
480.532	3201.62
480.751	3223.62
480.969	3130.62
481.188	3114.62
481.406	3110.62
481.624	3162.62
481.843	3188.62
482.061	3160.62
482.28	3191.62
482.498	3151.62
482.717	3148.62
482.935	3169.62
483.153	3210.62
483.372	3235.62
483.59	3272.62
483.808	3362.62
484.027	3370.62
484.245	3605.62
484.463	4025.62
484.681	4517.62
484.9	4111.62
485.118	3812.62
485.336	3681.62
485.554	3750.62
485.772	4063.62
485.99	4533.62
486.209	4862.62
486.427	4152.62
486.645	3712.62
486.863	3479.62
487.081	3434.62
487.299	3443.62
487.517	3365.62
487.735	3370.62
