Data from SnStandardFlinnAPT0064_LampEnergy5.5_LIBS07252019.E.O._I.C._HRD10591_15-15-52-492.txt Node
Date: Thu Jul 25 15:15:52 EDT 2019
User: cochatt
Spectrometer: HR+D1059
Trigger mode: 1
Integration Time (sec): 1.000000E-1
Scans to average: 1
Electric dark correction enabled: true
Nonlinearity correction enabled: false
Boxcar width: 0
XAxis mode: Wavelengths
Number of Pixels in Spectrum: 2048
>>>>>Begin Spectral Data<<<<<
223.165	-17.44
223.4	-17.44
223.635	-17.44
223.869	-14.44
224.104	-28.44
224.338	-12.44
224.573	-12.44
224.808	-8.44
225.042	-3.44
225.277	-0.44
225.511	-5.44
225.746	8.56
225.98	-3.44
226.215	3.56
226.449	23.56
226.683	17.56
226.918	17.56
227.152	35.56
227.387	38.56
227.621	32.56
227.856	36.56
228.09	37.56
228.324	49.56
228.559	53.56
228.793	87.56
229.027	142.56
229.262	165.56
229.496	152.56
229.73	148.56
229.964	146.56
230.199	147.56
230.433	152.56
230.667	155.56
230.901	151.56
231.136	166.56
231.37	176.56
231.604	192.56
231.838	205.56
232.072	231.56
232.306	237.56
232.541	210.56
232.775	193.56
233.009	190.56
233.243	200.56
233.477	202.56
233.711	231.56
233.945	244.56
234.179	214.56
234.413	208.56
234.647	198.56
234.881	221.56
235.115	241.56
235.349	261.56
235.583	315.56
235.817	411.56
236.051	366.56
236.285	285.56
236.519	249.56
236.753	234.56
236.987	227.56
237.221	236.56
237.455	242.56
237.689	212.56
237.922	225.56
238.156	217.56
238.39	228.56
238.624	224.56
238.858	222.56
239.091	223.56
239.325	216.56
239.559	223.56
239.793	218.56
240.027	256.56
240.26	221.56
240.494	241.56
240.728	254.56
240.961	270.56
241.195	261.56
241.429	269.56
241.662	296.56
241.896	320.56
242.13	360.56
242.363	473.56
242.597	572.56
242.83	560.56
243.064	548.56
243.298	644.56
243.531	549.56
243.765	380.56
243.998	334.56
244.232	297.56
244.465	293.56
244.699	289.56
244.932	277.56
245.166	278.56
245.399	297.56
245.633	296.56
245.866	297.56
246.099	308.56
246.333	289.56
246.566	262.56
246.8	278.56
247.033	279.56
247.266	296.56
247.5	296.56
247.733	296.56
247.966	312.56
248.2	320.56
248.433	339.56
248.666	369.56
248.899	362.56
249.133	343.56
249.366	345.56
249.599	370.56
249.832	420.56
250.066	428.56
250.299	370.56
250.532	340.56
250.765	329.56
250.998	313.56
251.231	313.56
251.465	320.56
251.698	331.56
251.931	315.56
252.164	316.56
252.397	331.56
252.63	318.56
252.863	349.56
253.096	321.56
253.329	331.56
253.562	339.56
253.795	337.56
254.028	353.56
254.261	353.56
254.494	358.56
254.727	425.56
254.96	488.56
255.193	482.56
255.426	411.56
255.659	361.56
255.892	372.56
256.124	364.56
256.357	357.56
256.59	363.56
256.823	391.56
257.056	421.56
257.289	465.56
257.521	512.56
257.754	479.56
257.987	385.56
258.22	401.56
258.452	381.56
258.685	381.56
258.918	403.56
259.151	405.56
259.383	423.56
259.616	480.56
259.849	473.56
260.081	433.56
260.314	426.56
260.547	404.56
260.779	404.56
261.012	411.56
261.244	425.56
261.477	421.56
261.71	424.56
261.942	441.56
262.175	428.56
262.407	449.56
262.64	463.56
262.872	478.56
263.105	504.56
263.337	511.56
263.57	534.56
263.802	536.56
264.035	562.56
264.267	561.56
264.499	574.56
264.732	601.56
264.964	580.56
265.197	611.56
265.429	599.56
265.661	640.56
265.894	652.56
266.126	688.56
266.358	780.56
266.591	730.56
266.823	642.56
267.055	614.56
267.287	578.56
267.52	556.56
267.752	559.56
267.984	537.56
268.216	561.56
268.448	516.56
268.681	520.56
268.913	536.56
269.145	524.56
269.377	533.56
269.609	514.56
269.841	522.56
270.073	582.56
270.306	638.56
270.538	809.56
270.77	1109.56
271.002	1327.56
271.234	1026.56
271.466	680.56
271.698	603.56
271.93	584.56
272.162	532.56
272.394	553.56
272.626	537.56
272.858	518.56
273.09	507.56
273.322	514.56
273.553	506.56
273.785	495.56
274.017	520.56
274.249	516.56
274.481	526.56
274.713	494.56
274.945	516.56
275.176	514.56
275.408	501.56
275.64	502.56
275.872	521.56
276.104	503.56
276.335	543.56
276.567	517.56
276.799	546.56
277.031	549.56
277.262	539.56
277.494	563.56
277.726	582.56
277.957	655.56
278.189	732.56
278.421	697.56
278.652	630.56
278.884	620.56
279.115	609.56
279.347	578.56
279.579	575.56
279.81	573.56
280.042	587.56
280.273	553.56
280.505	563.56
280.736	590.56
280.968	614.56
281.199	666.56
281.431	715.56
281.662	737.56
281.894	686.56
282.125	633.56
282.356	654.56
282.588	654.56
282.819	634.56
283.051	681.56
283.282	735.56
283.513	926.56
283.745	1278.56
283.976	1991.56
284.207	2755.56
284.439	2454.56
284.67	1521.56
284.901	1268.56
285.132	1252.56
285.364	1161.56
285.595	934.56
285.826	878.56
286.057	1036.56
286.288	1355.56
286.52	1764.56
286.751	1616.56
286.982	1066.56
287.213	829.56
287.444	766.56
287.675	708.56
287.906	706.56
288.138	694.56
288.369	676.56
288.6	666.56
288.831	661.56
289.062	688.56
289.293	690.56
289.524	691.56
289.755	692.56
289.986	690.56
290.217	692.56
290.448	694.56
290.679	691.56
290.91	685.56
291.141	708.56
291.371	723.56
291.602	741.56
291.833	700.56
292.064	672.56
292.295	665.56
292.526	640.56
292.757	667.56
292.987	650.56
293.218	649.56
293.449	647.56
293.68	645.56
293.91	640.56
294.141	639.56
294.372	657.56
294.603	643.56
294.833	654.56
295.064	644.56
295.295	648.56
295.525	623.56
295.756	602.56
295.987	628.56
296.217	636.56
296.448	648.56
296.679	626.56
296.909	638.56
297.14	652.56
297.37	665.56
297.601	686.56
297.831	666.56
298.062	674.56
298.292	681.56
298.523	682.56
298.753	680.56
298.984	704.56
299.214	703.56
299.445	696.56
299.675	708.56
299.905	724.56
300.136	759.56
300.366	824.56
300.597	1002.56
300.827	1324.56
301.057	1724.56
301.288	1755.56
301.518	1184.56
301.748	936.56
301.979	886.56
302.209	854.56
302.439	856.56
302.669	889.56
302.9	1051.56
303.13	1390.56
303.36	2004.56
303.59	2617.56
303.82	2340.56
304.051	1422.56
304.281	1048.56
304.511	935.56
304.741	871.56
304.971	826.56
305.201	803.56
305.431	754.56
305.661	781.56
305.891	742.56
306.121	746.56
306.352	730.56
306.582	748.56
306.812	739.56
307.042	721.56
307.272	753.56
307.502	745.56
307.731	731.56
307.961	736.56
308.191	741.56
308.421	749.56
308.651	720.56
308.881	731.56
309.111	749.56
309.341	744.56
309.571	750.56
309.8	734.56
310.03	782.56
310.26	743.56
310.49	748.56
310.72	772.56
310.949	761.56
311.179	757.56
311.409	791.56
311.639	789.56
311.868	788.56
312.098	788.56
312.328	789.56
312.557	812.56
312.787	824.56
313.017	794.56
313.246	780.56
313.476	820.56
313.706	860.56
313.935	839.56
314.165	875.56
314.394	875.56
314.624	876.56
314.853	854.56
315.083	846.56
315.312	862.56
315.542	880.56
315.771	885.56
316.001	872.56
316.23	912.56
316.46	949.56
316.689	997.56
316.919	1174.56
317.148	1634.56
317.377	2413.56
317.607	3471.56
317.836	3626.56
318.065	2175.56
318.295	1462.56
318.524	1223.56
318.753	1053.56
318.983	1010.56
319.212	974.56
319.441	956.56
319.67	934.56
319.9	926.56
320.129	922.56
320.358	923.56
320.587	908.56
320.816	932.56
321.046	930.56
321.275	962.56
321.504	921.56
321.733	958.56
321.962	977.56
322.191	992.56
322.42	986.56
322.649	970.56
322.878	976.56
323.108	962.56
323.337	998.56
323.566	1010.56
323.795	1022.56
324.024	1035.56
324.253	1034.56
324.482	1091.56
324.71	1133.56
324.939	1175.56
325.168	1213.56
325.397	1233.56
325.626	1464.56
325.855	1956.56
326.084	2956.56
326.313	4254.56
326.542	4544.56
326.77	2969.56
326.999	2032.56
327.228	1748.56
327.457	1674.56
327.686	1665.56
327.914	1773.56
328.143	2026.56
328.372	2288.56
328.6	2430.56
328.829	2328.56
329.058	2059.56
329.287	1860.56
329.515	1705.56
329.744	1598.56
329.972	1568.56
330.201	1454.56
330.43	1402.56
330.658	1380.56
330.887	1347.56
331.115	1337.56
331.344	1341.56
331.572	1316.56
331.801	1301.56
332.03	1323.56
332.258	1389.56
332.486	1401.56
332.715	1573.56
332.943	1846.56
333.172	2174.56
333.4	2216.56
333.629	1778.56
333.857	1668.56
334.085	1658.56
334.314	1748.56
334.542	1870.56
334.771	2102.56
334.999	2484.56
335.227	2979.56
335.455	3264.56
335.684	3061.56
335.912	2668.56
336.14	2334.56
336.369	2144.56
336.597	1938.56
336.825	1808.56
337.053	1754.56
337.281	1615.56
337.51	1508.56
337.738	1474.56
337.966	1451.56
338.194	1425.56
338.422	1353.56
338.65	1318.56
338.878	1292.56
339.106	1271.56
339.334	1292.56
339.562	1236.56
339.79	1218.56
340.018	1224.56
340.246	1172.56
340.474	1164.56
340.702	1198.56
340.93	1196.56
341.158	1192.56
341.386	1167.56
341.614	1174.56
341.842	1167.56
342.07	1156.56
342.298	1129.56
342.526	1134.56
342.754	1086.56
342.981	1080.56
343.209	1086.56
343.437	1116.56
343.665	1140.56
343.893	1154.56
344.12	1133.56
344.348	1113.56
344.576	1119.56
344.804	1093.56
345.031	1074.56
345.259	1062.56
345.487	1042.56
345.714	1009.56
345.942	1030.56
346.17	1023.56
346.397	1000.56
346.625	1028.56
346.853	1009.56
347.08	1020.56
347.308	995.56
347.535	1003.56
347.763	1009.56
347.99	1004.56
348.218	1015.56
348.445	968.56
348.673	975.56
348.9	985.56
349.128	1012.56
349.355	987.56
349.583	1001.56
349.81	929.56
350.037	967.56
350.265	982.56
350.492	982.56
350.72	997.56
350.947	969.56
351.174	1004.56
351.402	982.56
351.629	987.56
351.856	972.56
352.083	972.56
352.311	984.56
352.538	936.56
352.765	974.56
352.992	978.56
353.22	975.56
353.447	976.56
353.674	966.56
353.901	988.56
354.128	1002.56
354.355	973.56
354.583	973.56
354.81	982.56
355.037	961.56
355.264	969.56
355.491	950.56
355.718	993.56
355.945	972.56
356.172	1025.56
356.399	1001.56
356.626	989.56
356.853	1011.56
357.08	1010.56
357.307	1023.56
357.534	1002.56
357.761	1017.56
357.988	1029.56
358.215	1037.56
358.441	1025.56
358.668	1045.56
358.895	1014.56
359.122	1001.56
359.349	995.56
359.576	1011.56
359.802	1024.56
360.029	1042.56
360.256	1023.56
360.483	1023.56
360.709	1001.56
360.936	1051.56
361.163	1035.56
361.39	1053.56
361.616	1014.56
361.843	1047.56
362.07	1026.56
362.296	1030.56
362.523	1039.56
362.749	1008.56
362.976	1046.56
363.203	1027.56
363.429	1024.56
363.656	1010.56
363.882	1043.56
364.109	1023.56
364.335	1028.56
364.562	1016.56
364.788	1009.56
365.015	1043.56
365.241	1057.56
365.468	1078.56
365.694	1150.56
365.92	1102.56
366.147	1035.56
366.373	1051.56
366.599	1043.56
366.826	1031.56
367.052	1059.56
367.278	1058.56
367.505	1066.56
367.731	1066.56
367.957	1062.56
368.184	1036.56
368.41	1066.56
368.636	1082.56
368.862	1060.56
369.089	1068.56
369.315	1072.56
369.541	1069.56
369.767	1056.56
369.993	1085.56
370.219	1091.56
370.445	1082.56
370.672	1096.56
370.898	1106.56
371.124	1116.56
371.35	1118.56
371.576	1113.56
371.802	1112.56
372.028	1099.56
372.254	1128.56
372.48	1105.56
372.706	1161.56
372.932	1129.56
373.158	1146.56
373.384	1144.56
373.61	1127.56
373.835	1138.56
374.061	1132.56
374.287	1158.56
374.513	1136.56
374.739	1150.56
374.965	1163.56
375.191	1171.56
375.416	1192.56
375.642	1154.56
375.868	1157.56
376.094	1164.56
376.319	1132.56
376.545	1145.56
376.771	1142.56
376.997	1108.56
377.222	1102.56
377.448	1119.56
377.674	1146.56
377.899	1070.56
378.125	1114.56
378.35	1112.56
378.576	1115.56
378.802	1130.56
379.027	1112.56
379.253	1160.56
379.478	1170.56
379.704	1346.56
379.929	1775.56
380.155	2585.56
380.38	2764.56
380.606	1814.56
380.831	1357.56
381.057	1266.56
381.282	1152.56
381.507	1121.56
381.733	1128.56
381.958	1101.56
382.184	1118.56
382.409	1097.56
382.634	1086.56
382.86	1076.56
383.085	1108.56
383.31	1085.56
383.535	1104.56
383.761	1083.56
383.986	1084.56
384.211	1137.56
384.436	1098.56
384.662	1130.56
384.887	1123.56
385.112	1142.56
385.337	1146.56
385.562	1147.56
385.787	1147.56
386.013	1137.56
386.238	1122.56
386.463	1164.56
386.688	1161.56
386.913	1155.56
387.138	1125.56
387.363	1149.56
387.588	1158.56
387.813	1173.56
388.038	1151.56
388.263	1157.56
388.488	1154.56
388.713	1134.56
388.938	1144.56
389.163	1113.56
389.387	1139.56
389.612	1156.56
389.837	1148.56
390.062	1156.56
390.287	1178.56
390.512	1151.56
390.736	1150.56
390.961	1212.56
391.186	1157.56
391.411	1178.56
391.636	1256.56
391.86	1204.56
392.085	1214.56
392.31	1203.56
392.534	1198.56
392.759	1179.56
392.984	1175.56
393.208	1190.56
393.433	1200.56
393.658	1180.56
393.882	1164.56
394.107	1172.56
394.331	1156.56
394.556	1172.56
394.78	1153.56
395.005	1136.56
395.229	1152.56
395.454	1174.56
395.678	1202.56
395.903	1187.56
396.127	1196.56
396.352	1152.56
396.576	1174.56
396.801	1155.56
397.025	1189.56
397.249	1207.56
397.474	1216.56
397.698	1188.56
397.922	1234.56
398.147	1197.56
398.371	1215.56
398.595	1271.56
398.82	1255.56
399.044	1358.56
399.268	1374.56
399.492	1499.56
399.717	1524.56
399.941	1523.56
400.165	1465.56
400.389	1400.56
400.613	1380.56
400.837	1296.56
401.062	1288.56
401.286	1281.56
401.51	1233.56
401.734	1241.56
401.958	1260.56
402.182	1248.56
402.406	1279.56
402.63	1268.56
402.854	1286.56
403.078	1264.56
403.302	1288.56
403.526	1330.56
403.75	1306.56
403.974	1370.56
404.198	1316.56
404.422	1334.56
404.645	1317.56
404.869	1342.56
405.093	1323.56
405.317	1316.56
405.541	1323.56
405.765	1339.56
405.988	1329.56
406.212	1350.56
406.436	1342.56
406.66	1361.56
406.883	1352.56
407.107	1404.56
407.331	1400.56
407.555	1440.56
407.778	1412.56
408.002	1390.56
408.226	1377.56
408.449	1410.56
408.673	1370.56
408.896	1341.56
409.12	1317.56
409.344	1338.56
409.567	1301.56
409.791	1332.56
410.014	1308.56
410.238	1299.56
410.461	1309.56
410.685	1308.56
410.908	1292.56
411.132	1284.56
411.355	1262.56
411.578	1249.56
411.802	1278.56
412.025	1288.56
412.249	1255.56
412.472	1266.56
412.695	1259.56
412.919	1247.56
413.142	1204.56
413.365	1250.56
413.589	1259.56
413.812	1266.56
414.035	1237.56
414.258	1251.56
414.482	1266.56
414.705	1260.56
414.928	1227.56
415.151	1252.56
415.374	1227.56
415.597	1220.56
415.821	1199.56
416.044	1216.56
416.267	1185.56
416.49	1184.56
416.713	1197.56
416.936	1203.56
417.159	1190.56
417.382	1173.56
417.605	1186.56
417.828	1200.56
418.051	1198.56
418.274	1226.56
418.497	1212.56
418.72	1235.56
418.943	1233.56
419.166	1276.56
419.389	1364.56
419.611	1339.56
419.834	1256.56
420.057	1259.56
420.28	1227.56
420.503	1201.56
420.726	1184.56
420.948	1222.56
421.171	1212.56
421.394	1209.56
421.617	1180.56
421.839	1196.56
422.062	1217.56
422.285	1173.56
422.507	1243.56
422.73	1209.56
422.953	1210.56
423.175	1251.56
423.398	1199.56
423.621	1215.56
423.843	1231.56
424.066	1212.56
424.288	1235.56
424.511	1254.56
424.733	1194.56
424.956	1179.56
425.178	1204.56
425.401	1193.56
425.623	1214.56
425.846	1176.56
426.068	1156.56
426.291	1162.56
426.513	1131.56
426.735	1177.56
426.958	1184.56
427.18	1136.56
427.402	1154.56
427.625	1108.56
427.847	1124.56
428.069	1125.56
428.292	1159.56
428.514	1112.56
428.736	1117.56
428.958	1088.56
429.181	1110.56
429.403	1108.56
429.625	1117.56
429.847	1092.56
430.069	1136.56
430.292	1146.56
430.514	1140.56
430.736	1167.56
430.958	1168.56
431.18	1108.56
431.402	1091.56
431.624	1115.56
431.846	1100.56
432.068	1079.56
432.29	1112.56
432.512	1086.56
432.734	1105.56
432.956	1129.56
433.178	1097.56
433.4	1140.56
433.622	1133.56
433.844	1104.56
434.066	1128.56
434.287	1113.56
434.509	1113.56
434.731	1120.56
434.953	1140.56
435.175	1175.56
435.397	1144.56
435.618	1106.56
435.84	1071.56
436.062	1092.56
436.284	1122.56
436.505	1092.56
436.727	1084.56
436.949	1112.56
437.17	1084.56
437.392	1121.56
437.614	1093.56
437.835	1038.56
438.057	1056.56
438.278	1073.56
438.5	1114.56
438.721	1111.56
438.943	1125.56
439.165	1087.56
439.386	1162.56
439.608	1148.56
439.829	1118.56
440.05	1147.56
440.272	1188.56
440.493	1152.56
440.715	1115.56
440.936	1152.56
441.158	1168.56
441.379	1178.56
441.6	1224.56
441.822	1189.56
442.043	1241.56
442.264	1260.56
442.486	1218.56
442.707	1198.56
442.928	1169.56
443.149	1204.56
443.371	1179.56
443.592	1216.56
443.813	1180.56
444.034	1200.56
444.255	1226.56
444.476	1235.56
444.698	1291.56
444.919	1276.56
445.14	1364.56
445.361	1256.56
445.582	1206.56
445.803	1187.56
446.024	1159.56
446.245	1178.56
446.466	1194.56
446.687	1145.56
446.908	1168.56
447.129	1125.56
447.35	1133.56
447.571	1120.56
447.792	1098.56
448.013	1089.56
448.234	1111.56
448.455	1091.56
448.675	1110.56
448.896	1114.56
449.117	1123.56
449.338	1229.56
449.559	1252.56
449.779	1144.56
450	1080.56
450.221	1078.56
450.442	1076.56
450.662	1043.56
450.883	1056.56
451.104	1055.56
451.324	1053.56
451.545	1077.56
451.766	1083.56
451.986	1062.56
452.207	1113.56
452.428	1335.56
452.648	1719.56
452.869	1540.56
453.089	1182.56
453.31	1172.56
453.53	1131.56
453.751	1155.56
453.971	1234.56
454.192	1231.56
454.412	1093.56
454.633	1052.56
454.853	1065.56
455.073	1033.56
455.294	1037.56
455.514	994.56
455.734	1024.56
455.955	976.56
456.175	1026.56
456.395	984.56
456.616	1030.56
456.836	1013.56
457.056	1014.56
457.276	1009.56
457.497	1061.56
457.717	1074.56
457.937	1069.56
458.157	1051.56
458.377	1028.56
458.598	1076.56
458.818	1078.56
459.038	1100.56
459.258	1076.56
459.478	1093.56
459.698	1115.56
459.918	1132.56
460.138	1148.56
460.358	1172.56
460.578	1186.56
460.798	1188.56
461.018	1188.56
461.238	1217.56
461.458	1197.56
461.678	1245.56
461.898	1231.56
462.118	1218.56
462.338	1270.56
462.558	1261.56
462.777	1296.56
462.997	1355.56
463.217	1380.56
463.437	1394.56
463.657	1412.56
463.876	1404.56
464.096	1339.56
464.316	1299.56
464.536	1289.56
464.755	1289.56
464.975	1270.56
465.195	1221.56
465.414	1194.56
465.634	1142.56
465.854	1138.56
466.073	1137.56
466.293	1148.56
466.512	1130.56
466.732	1125.56
466.951	1135.56
467.171	1213.56
467.391	1230.56
467.61	1128.56
467.829	1106.56
468.049	1116.56
468.268	1094.56
468.488	1072.56
468.707	1086.56
468.927	1102.56
469.146	1084.56
469.365	1041.56
469.585	1108.56
469.804	1122.56
470.023	1125.56
470.243	1157.56
470.462	1193.56
470.681	1228.56
470.901	1298.56
471.12	1412.56
471.339	1482.56
471.558	1274.56
471.777	1167.56
471.997	1179.56
472.216	1111.56
472.435	1115.56
472.654	1075.56
472.873	1077.56
473.092	1097.56
473.311	1078.56
473.53	1092.56
473.749	1106.56
473.968	1143.56
474.187	1117.56
474.406	1095.56
474.625	1100.56
474.844	1113.56
475.063	1092.56
475.282	1094.56
475.501	1093.56
475.72	1100.56
475.939	1113.56
476.158	1138.56
476.377	1176.56
476.596	1146.56
476.814	1143.56
477.033	1148.56
477.252	1161.56
477.471	1213.56
477.69	1213.56
477.908	1258.56
478.127	1252.56
478.346	1258.56
478.564	1266.56
478.783	1267.56
479.002	1273.56
479.22	1268.56
479.439	1298.56
479.658	1298.56
479.876	1261.56
480.095	1287.56
480.313	1350.56
480.532	1298.56
480.751	1349.56
480.969	1307.56
481.188	1322.56
481.406	1284.56
481.624	1292.56
481.843	1251.56
482.061	1283.56
482.28	1288.56
482.498	1270.56
482.717	1281.56
482.935	1294.56
483.153	1313.56
483.372	1336.56
483.59	1401.56
483.808	1345.56
484.027	1352.56
484.245	1436.56
484.463	1600.56
484.681	1736.56
484.9	1590.56
485.118	1497.56
485.336	1507.56
485.554	1508.56
485.772	1574.56
485.99	1748.56
486.209	1868.56
486.427	1593.56
486.645	1467.56
486.863	1428.56
487.081	1391.56
487.299	1407.56
487.517	1386.56
487.735	1437.56
487.953	1440.56
488.171	1402.56
488.389	1399.56
488.607	1388.56
488.825	1374.56
489.043	1314.56
489.261	1337.56
489.479	1332.56
489.696	1339.56
489.914	1311.56
490.132	1364.56
490.35	1384.56
490.568	1388.56
490.786	1373.56
491.003	1407.56
491.221	1404.56
491.439	1443.56
