Data from SnStandardFlinnAPT0064_QswitchEnergy10_LIBS07252019.E.O._I.C._HRD10591_15-29-04-974.txt Node
Date: Thu Jul 25 15:29:04 EDT 2019
User: cochatt
Spectrometer: HR+D1059
Trigger mode: 1
Integration Time (sec): 1.000000E-1
Scans to average: 1
Electric dark correction enabled: true
Nonlinearity correction enabled: false
Boxcar width: 0
XAxis mode: Wavelengths
Number of Pixels in Spectrum: 2048
>>>>>Begin Spectral Data<<<<<
223.165	-7.81
223.4	-7.81
223.635	-7.81
223.869	-37.81
224.104	-12.81
224.338	-20.81
224.573	-20.81
224.808	-14.81
225.042	-0.81
225.277	7.19
225.511	7.19
225.746	5.19
225.98	2.19
226.215	6.19
226.449	13.19
226.683	35.19
226.918	22.19
227.152	17.19
227.387	40.19
227.621	40.19
227.856	43.19
228.09	37.19
228.324	48.19
228.559	59.19
228.793	64.19
229.027	72.19
229.262	76.19
229.496	68.19
229.73	73.19
229.964	70.19
230.199	77.19
230.433	69.19
230.667	83.19
230.901	79.19
231.136	84.19
231.37	83.19
231.604	99.19
231.838	95.19
232.072	132.19
232.306	122.19
232.541	92.19
232.775	73.19
233.009	79.19
233.243	99.19
233.477	91.19
233.711	107.19
233.945	104.19
234.179	92.19
234.413	88.19
234.647	77.19
234.881	99.19
235.115	97.19
235.349	74.19
235.583	97.19
235.817	141.19
236.051	123.19
236.285	88.19
236.519	76.19
236.753	77.19
236.987	89.19
237.221	78.19
237.455	76.19
237.689	83.19
237.922	82.19
238.156	81.19
238.39	83.19
238.624	74.19
238.858	91.19
239.091	91.19
239.325	96.19
239.559	85.19
239.793	83.19
240.027	80.19
240.26	79.19
240.494	87.19
240.728	75.19
240.961	83.19
241.195	109.19
241.429	99.19
241.662	82.19
241.896	91.19
242.13	97.19
242.363	137.19
242.597	168.19
242.83	141.19
243.064	159.19
243.298	186.19
243.531	159.19
243.765	107.19
243.998	85.19
244.232	90.19
244.465	74.19
244.699	87.19
244.932	88.19
245.166	70.19
245.399	85.19
245.633	92.19
245.866	92.19
246.099	90.19
246.333	73.19
246.566	80.19
246.8	85.19
247.033	74.19
247.266	75.19
247.5	70.19
247.733	90.19
247.966	96.19
248.2	100.19
248.433	118.19
248.666	154.19
248.899	120.19
249.133	79.19
249.366	76.19
249.599	115.19
249.832	122.19
250.066	136.19
250.299	93.19
250.532	81.19
250.765	90.19
250.998	91.19
251.231	81.19
251.465	106.19
251.698	80.19
251.931	95.19
252.164	82.19
252.397	81.19
252.63	107.19
252.863	120.19
253.096	96.19
253.329	100.19
253.562	98.19
253.795	82.19
254.028	86.19
254.261	101.19
254.494	107.19
254.727	123.19
254.96	148.19
255.193	145.19
255.426	112.19
255.659	95.19
255.892	83.19
256.124	84.19
256.357	85.19
256.59	95.19
256.823	106.19
257.056	115.19
257.289	146.19
257.521	172.19
257.754	127.19
257.987	103.19
258.22	76.19
258.452	87.19
258.685	90.19
258.918	93.19
259.151	98.19
259.383	135.19
259.616	156.19
259.849	136.19
260.081	117.19
260.314	92.19
260.547	89.19
260.779	86.19
261.012	97.19
261.244	84.19
261.477	81.19
261.71	65.19
261.942	91.19
262.175	98.19
262.407	83.19
262.64	87.19
262.872	98.19
263.105	85.19
263.337	82.19
263.57	94.19
263.802	83.19
264.035	98.19
264.267	93.19
264.499	86.19
264.732	88.19
264.964	90.19
265.197	79.19
265.429	85.19
265.661	100.19
265.894	81.19
266.126	138.19
266.358	180.19
266.591	160.19
266.823	113.19
267.055	96.19
267.287	88.19
267.52	89.19
267.752	87.19
267.984	67.19
268.216	86.19
268.448	95.19
268.681	99.19
268.913	90.19
269.145	102.19
269.377	95.19
269.609	96.19
269.841	92.19
270.073	102.19
270.306	154.19
270.538	225.19
270.77	363.19
271.002	413.19
271.234	206.19
271.466	115.19
271.698	101.19
271.93	101.19
272.162	92.19
272.394	106.19
272.626	96.19
272.858	104.19
273.09	84.19
273.322	103.19
273.553	87.19
273.785	86.19
274.017	91.19
274.249	91.19
274.481	82.19
274.713	84.19
274.945	90.19
275.176	99.19
275.408	85.19
275.64	78.19
275.872	99.19
276.104	93.19
276.335	112.19
276.567	107.19
276.799	85.19
277.031	96.19
277.262	91.19
277.494	120.19
277.726	129.19
277.957	189.19
278.189	275.19
278.421	258.19
278.652	215.19
278.884	205.19
279.115	153.19
279.347	116.19
279.579	87.19
279.81	106.19
280.042	99.19
280.273	101.19
280.505	103.19
280.736	115.19
280.968	147.19
281.199	191.19
281.431	282.19
281.662	309.19
281.894	172.19
282.125	127.19
282.356	105.19
282.588	119.19
282.819	127.19
283.051	129.19
283.282	162.19
283.513	209.19
283.745	332.19
283.976	625.19
284.207	881.19
284.439	658.19
284.67	304.19
284.901	284.19
285.132	398.19
285.364	435.19
285.595	249.19
285.826	177.19
286.057	273.19
286.288	474.19
286.52	683.19
286.751	573.19
286.982	236.19
287.213	127.19
287.444	112.19
287.675	111.19
287.906	103.19
288.138	86.19
288.369	95.19
288.6	95.19
288.831	108.19
289.062	94.19
289.293	106.19
289.524	113.19
289.755	95.19
289.986	105.19
290.217	107.19
290.448	108.19
290.679	124.19
290.91	121.19
291.141	184.19
291.371	270.19
291.602	344.19
291.833	227.19
292.064	123.19
292.295	109.19
292.526	103.19
292.757	103.19
292.987	100.19
293.218	94.19
293.449	90.19
293.68	85.19
293.91	89.19
294.141	90.19
294.372	95.19
294.603	98.19
294.833	88.19
295.064	108.19
295.295	97.19
295.525	102.19
295.756	123.19
295.987	92.19
296.217	89.19
296.448	117.19
296.679	92.19
296.909	100.19
297.14	101.19
297.37	115.19
297.601	96.19
297.831	102.19
298.062	98.19
298.292	109.19
298.523	112.19
298.753	106.19
298.984	93.19
299.214	93.19
299.445	127.19
299.675	114.19
299.905	122.19
300.136	133.19
300.366	193.19
300.597	307.19
300.827	497.19
301.057	791.19
301.288	704.19
301.518	288.19
301.748	173.19
301.979	131.19
302.209	131.19
302.439	138.19
302.669	196.19
302.9	298.19
303.13	575.19
303.36	1026.19
303.59	1388.19
303.82	938.19
304.051	327.19
304.281	166.19
304.511	137.19
304.741	123.19
304.971	135.19
305.201	116.19
305.431	131.19
305.661	123.19
305.891	119.19
306.121	116.19
306.352	114.19
306.582	106.19
306.812	121.19
307.042	127.19
307.272	107.19
307.502	117.19
307.731	122.19
307.961	112.19
308.191	104.19
308.421	115.19
308.651	108.19
308.881	103.19
309.111	99.19
309.341	97.19
309.571	125.19
309.8	111.19
310.03	119.19
310.26	116.19
310.49	117.19
310.72	112.19
310.949	119.19
311.179	108.19
311.409	116.19
311.639	123.19
311.868	113.19
312.098	120.19
312.328	133.19
312.557	118.19
312.787	124.19
313.017	139.19
313.246	123.19
313.476	140.19
313.706	156.19
313.935	170.19
314.165	224.19
314.394	269.19
314.624	213.19
314.853	149.19
315.083	121.19
315.312	142.19
315.542	142.19
315.771	155.19
316.001	137.19
316.23	142.19
316.46	157.19
316.689	208.19
316.919	288.19
317.148	571.19
317.377	1055.19
317.607	1695.19
317.836	1568.19
318.065	626.19
318.295	240.19
318.524	168.19
318.753	148.19
318.983	135.19
319.212	134.19
319.441	127.19
319.67	133.19
319.9	130.19
320.129	139.19
320.358	133.19
320.587	134.19
320.816	128.19
321.046	150.19
321.275	149.19
321.504	140.19
321.733	175.19
321.962	171.19
322.191	185.19
322.42	142.19
322.649	145.19
322.878	136.19
323.108	135.19
323.337	136.19
323.566	133.19
323.795	151.19
324.024	154.19
324.253	186.19
324.482	202.19
324.71	244.19
324.939	295.19
325.168	253.19
325.397	220.19
325.626	290.19
325.855	569.19
326.084	1071.19
326.313	1821.19
326.542	1815.19
326.77	720.19
326.999	315.19
327.228	242.19
327.457	277.19
327.686	259.19
327.914	180.19
328.143	152.19
328.372	140.19
328.6	131.19
328.829	151.19
329.058	135.19
329.287	134.19
329.515	131.19
329.744	139.19
329.972	133.19
330.201	129.19
330.43	124.19
330.658	121.19
330.887	116.19
331.115	119.19
331.344	133.19
331.572	125.19
331.801	123.19
332.03	131.19
332.258	144.19
332.486	196.19
332.715	327.19
332.943	583.19
333.172	892.19
333.4	776.19
333.629	289.19
333.857	172.19
334.085	130.19
334.314	137.19
334.542	132.19
334.771	125.19
334.999	157.19
335.227	129.19
335.455	123.19
335.684	128.19
335.912	132.19
336.14	129.19
336.369	123.19
336.597	125.19
336.825	122.19
337.053	116.19
337.281	114.19
337.51	110.19
337.738	119.19
337.966	139.19
338.194	115.19
338.422	120.19
338.65	123.19
338.878	127.19
339.106	135.19
339.334	138.19
339.562	132.19
339.79	125.19
340.018	124.19
340.246	131.19
340.474	122.19
340.702	139.19
340.93	128.19
341.158	127.19
341.386	139.19
341.614	130.19
341.842	125.19
342.07	120.19
342.298	132.19
342.526	126.19
342.754	107.19
342.981	98.19
343.209	120.19
343.437	121.19
343.665	123.19
343.893	119.19
344.12	122.19
344.348	123.19
344.576	123.19
344.804	113.19
345.031	118.19
345.259	111.19
345.487	111.19
345.714	131.19
345.942	126.19
346.17	121.19
346.397	129.19
346.625	116.19
346.853	96.19
347.08	112.19
347.308	120.19
347.535	113.19
347.763	112.19
347.99	123.19
348.218	107.19
348.445	108.19
348.673	123.19
348.9	131.19
349.128	135.19
349.355	120.19
349.583	131.19
349.81	127.19
350.037	120.19
350.265	129.19
350.492	129.19
350.72	122.19
350.947	140.19
351.174	117.19
351.402	125.19
351.629	125.19
351.856	120.19
352.083	120.19
352.311	114.19
352.538	117.19
352.765	127.19
352.992	106.19
353.22	121.19
353.447	119.19
353.674	109.19
353.901	116.19
354.128	97.19
354.355	104.19
354.583	117.19
354.81	125.19
355.037	100.19
355.264	106.19
355.491	116.19
355.718	97.19
355.945	114.19
356.172	127.19
356.399	131.19
356.626	108.19
356.853	115.19
357.08	117.19
357.307	115.19
357.534	109.19
357.761	113.19
357.988	117.19
358.215	111.19
358.441	121.19
358.668	106.19
358.895	127.19
359.122	135.19
359.349	147.19
359.576	129.19
359.802	130.19
360.029	134.19
360.256	124.19
360.483	107.19
360.709	115.19
360.936	123.19
361.163	133.19
361.39	113.19
361.616	128.19
361.843	119.19
362.07	120.19
362.296	117.19
362.523	132.19
362.749	116.19
362.976	106.19
363.203	112.19
363.429	119.19
363.656	103.19
363.882	121.19
364.109	127.19
364.335	119.19
364.562	116.19
364.788	108.19
365.015	123.19
365.241	152.19
365.468	235.19
365.694	311.19
365.92	239.19
366.147	133.19
366.373	108.19
366.599	103.19
366.826	114.19
367.052	117.19
367.278	112.19
367.505	109.19
367.731	111.19
367.957	104.19
368.184	104.19
368.41	147.19
368.636	145.19
368.862	113.19
369.089	119.19
369.315	122.19
369.541	131.19
369.767	119.19
369.993	121.19
370.219	96.19
370.445	116.19
370.672	124.19
370.898	119.19
371.124	106.19
371.35	118.19
371.576	112.19
371.802	125.19
372.028	128.19
372.254	131.19
372.48	128.19
372.706	121.19
372.932	113.19
373.158	117.19
373.384	115.19
373.61	137.19
373.835	121.19
374.061	123.19
374.287	117.19
374.513	112.19
374.739	107.19
374.965	111.19
375.191	130.19
375.416	124.19
375.642	115.19
375.868	118.19
376.094	119.19
376.319	127.19
376.545	108.19
376.771	112.19
376.997	115.19
377.222	129.19
377.448	114.19
377.674	119.19
377.899	105.19
378.125	123.19
378.35	124.19
378.576	124.19
378.802	138.19
379.027	127.19
379.253	159.19
379.478	187.19
379.704	355.19
379.929	937.19
380.155	1831.19
380.38	1873.19
380.606	589.19
380.831	215.19
381.057	141.19
381.282	125.19
381.507	125.19
381.733	125.19
381.958	123.19
382.184	118.19
382.409	112.19
382.634	115.19
382.86	116.19
383.085	108.19
383.31	112.19
383.535	108.19
383.761	116.19
383.986	108.19
384.211	112.19
384.436	122.19
384.662	111.19
384.887	120.19
385.112	111.19
385.337	103.19
385.562	115.19
385.787	107.19
386.013	120.19
386.238	120.19
386.463	107.19
386.688	113.19
386.913	109.19
387.138	114.19
387.363	112.19
387.588	113.19
387.813	101.19
388.038	99.19
388.263	112.19
388.488	105.19
388.713	117.19
388.938	115.19
389.163	128.19
389.387	113.19
389.612	103.19
389.837	98.19
390.062	109.19
390.287	114.19
390.512	96.19
390.736	98.19
390.961	115.19
391.186	119.19
391.411	97.19
391.636	123.19
391.86	114.19
392.085	117.19
392.31	106.19
392.534	113.19
392.759	110.19
392.984	114.19
393.208	133.19
393.433	178.19
393.658	173.19
393.882	124.19
394.107	121.19
394.331	98.19
394.556	108.19
394.78	107.19
395.005	113.19
395.229	103.19
395.454	117.19
395.678	123.19
395.903	114.19
396.127	102.19
396.352	118.19
396.576	97.19
396.801	107.19
397.025	135.19
397.249	119.19
397.474	121.19
397.698	93.19
397.922	114.19
398.147	110.19
398.371	109.19
398.595	103.19
398.82	101.19
399.044	102.19
399.268	104.19
399.492	107.19
399.717	99.19
399.941	119.19
400.165	113.19
400.389	107.19
400.613	115.19
400.837	111.19
401.062	90.19
401.286	103.19
401.51	96.19
401.734	104.19
401.958	117.19
402.182	109.19
402.406	93.19
402.63	99.19
402.854	87.19
403.078	104.19
403.302	100.19
403.526	104.19
403.75	96.19
403.974	102.19
404.198	103.19
404.422	97.19
404.645	102.19
404.869	106.19
405.093	108.19
405.317	106.19
405.541	115.19
405.765	143.19
405.988	156.19
406.212	129.19
406.436	90.19
406.66	113.19
406.883	111.19
407.107	100.19
407.331	104.19
407.555	100.19
407.778	101.19
408.002	103.19
408.226	107.19
408.449	123.19
408.673	109.19
408.896	105.19
409.12	107.19
409.344	107.19
409.567	107.19
409.791	93.19
410.014	105.19
410.238	115.19
410.461	119.19
410.685	113.19
410.908	111.19
411.132	99.19
411.355	111.19
411.578	124.19
411.802	97.19
412.025	96.19
412.249	95.19
412.472	102.19
412.695	104.19
412.919	102.19
413.142	114.19
413.365	99.19
413.589	104.19
413.812	102.19
414.035	109.19
414.258	116.19
414.482	117.19
414.705	111.19
414.928	108.19
415.151	102.19
415.374	107.19
415.597	112.19
415.821	103.19
416.044	113.19
416.267	99.19
416.49	106.19
416.713	93.19
416.936	99.19
417.159	87.19
417.382	94.19
417.605	96.19
417.828	96.19
418.051	104.19
418.274	98.19
418.497	107.19
418.72	115.19
418.943	115.19
419.166	123.19
419.389	102.19
419.611	127.19
419.834	107.19
420.057	102.19
420.28	109.19
420.503	109.19
420.726	104.19
420.948	94.19
421.171	90.19
421.394	113.19
421.617	101.19
421.839	113.19
422.062	117.19
422.285	102.19
422.507	114.19
422.73	155.19
422.953	169.19
423.175	118.19
423.398	105.19
423.621	101.19
423.843	95.19
424.066	87.19
424.288	104.19
424.511	98.19
424.733	99.19
424.956	103.19
425.178	105.19
425.401	92.19
425.623	86.19
425.846	101.19
426.068	104.19
426.291	107.19
426.513	111.19
426.735	104.19
426.958	112.19
427.18	88.19
427.402	107.19
427.625	111.19
427.847	102.19
428.069	111.19
428.292	105.19
428.514	107.19
428.736	122.19
428.958	104.19
429.181	115.19
429.403	106.19
429.625	93.19
429.847	96.19
430.069	123.19
430.292	107.19
430.514	107.19
430.736	108.19
430.958	101.19
431.18	111.19
431.402	114.19
431.624	106.19
431.846	96.19
432.068	106.19
432.29	99.19
432.512	96.19
432.734	115.19
432.956	97.19
433.178	105.19
433.4	103.19
433.622	108.19
433.844	112.19
434.066	102.19
434.287	99.19
434.509	93.19
434.731	91.19
434.953	83.19
435.175	102.19
435.397	99.19
435.618	105.19
435.84	93.19
436.062	94.19
436.284	96.19
436.505	77.19
436.727	92.19
436.949	107.19
437.17	100.19
437.392	94.19
437.614	91.19
437.835	92.19
438.057	96.19
438.278	103.19
438.5	99.19
438.721	96.19
438.943	124.19
439.165	117.19
439.386	112.19
439.608	97.19
439.829	105.19
440.05	123.19
440.272	133.19
440.493	117.19
440.715	105.19
440.936	108.19
441.158	94.19
441.379	111.19
441.6	106.19
441.822	108.19
442.043	112.19
442.264	129.19
442.486	118.19
442.707	95.19
442.928	106.19
443.149	93.19
443.371	96.19
443.592	103.19
443.813	83.19
444.034	100.19
444.255	101.19
444.476	100.19
444.698	100.19
444.919	93.19
445.14	199.19
445.361	149.19
445.582	114.19
445.803	110.19
446.024	104.19
446.245	98.19
446.466	106.19
446.687	113.19
446.908	100.19
447.129	99.19
447.35	111.19
447.571	105.19
447.792	89.19
448.013	89.19
448.234	90.19
448.455	92.19
448.675	106.19
448.896	122.19
449.117	120.19
449.338	148.19
449.559	165.19
449.779	131.19
450	109.19
450.221	116.19
450.442	113.19
450.662	121.19
450.883	127.19
451.104	123.19
451.324	116.19
451.545	128.19
451.766	140.19
451.986	154.19
452.207	246.19
452.428	659.19
452.648	1571.19
452.869	884.19
453.089	239.19
453.31	131.19
453.53	131.19
453.751	159.19
453.971	191.19
454.192	167.19
454.412	123.19
454.633	107.19
454.853	92.19
455.073	100.19
455.294	95.19
455.514	103.19
455.734	102.19
455.955	110.19
456.175	103.19
456.395	105.19
456.616	115.19
456.836	118.19
457.056	118.19
457.276	117.19
457.497	128.19
457.717	126.19
457.937	103.19
458.157	89.19
458.377	107.19
458.598	98.19
458.818	95.19
459.038	94.19
459.258	94.19
459.478	93.19
459.698	90.19
459.918	89.19
460.138	103.19
460.358	110.19
460.578	97.19
460.798	96.19
461.018	108.19
461.238	109.19
461.458	103.19
461.678	91.19
461.898	86.19
462.118	93.19
462.338	97.19
462.558	91.19
462.777	122.19
462.997	101.19
463.217	118.19
463.437	127.19
463.657	183.19
463.876	194.19
464.096	123.19
464.316	98.19
464.536	93.19
464.755	89.19
464.975	99.19
465.195	95.19
465.414	87.19
465.634	103.19
465.854	96.19
466.073	95.19
466.293	99.19
466.512	93.19
466.732	106.19
466.951	125.19
467.171	154.19
467.391	148.19
467.61	125.19
467.829	99.19
468.049	105.19
468.268	102.19
468.488	103.19
468.707	104.19
468.927	109.19
469.146	106.19
469.365	92.19
469.585	94.19
469.804	116.19
470.023	97.19
470.243	96.19
470.462	112.19
470.681	115.19
470.901	147.19
471.12	216.19
471.339	231.19
471.558	138.19
471.777	119.19
471.997	114.19
472.216	98.19
472.435	92.19
472.654	106.19
472.873	108.19
473.092	107.19
473.311	97.19
473.53	98.19
473.749	105.19
473.968	110.19
474.187	101.19
474.406	97.19
474.625	96.19
474.844	106.19
475.063	101.19
475.282	94.19
475.501	98.19
475.72	96.19
475.939	112.19
476.158	103.19
476.377	120.19
476.596	113.19
476.814	109.19
477.033	108.19
477.252	111.19
477.471	111.19
477.69	111.19
477.908	92.19
478.127	116.19
478.346	83.19
478.564	112.19
478.783	100.19
479.002	109.19
479.22	88.19
479.439	104.19
479.658	92.19
479.876	92.19
480.095	107.19
480.313	108.19
480.532	95.19
480.751	108.19
480.969	111.19
481.188	101.19
481.406	111.19
481.624	109.19
481.843	126.19
482.061	124.19
482.28	102.19
482.498	100.19
482.717	100.19
482.935	92.19
483.153	106.19
483.372	110.19
483.59	111.19
483.808	114.19
484.027	123.19
484.245	131.19
484.463	194.19
484.681	244.19
484.9	149.19
485.118	121.19
485.336	125.19
485.554	125.19
485.772	150.19
485.99	215.19
486.209	266.19
486.427	192.19
486.645	115.19
486.863	113.19
487.081	114.19
487.299	99.19
487.517	102.19
487.735	106.19
487.953	104.19
488.171	90.19
488.389	100.19
488.607	97.19
488.825	84.19
489.043	93.19
489.261	103.19
489.479	106.19
489.696	93.19
489.914	100.19
490.132	109.19
490.35	97.19
490.568	92.19
490.786	112.19
491.003	106.19
491.221	113.19
491.439	124.19
491.657	105.19
491.874	115.19
492.092	108.19
492.31	116.19
492.527	117.19
492.745	93.19
492.963	116.19
493.18	103.19
493.398	107.19
493.615	102.19
493.833	104.19
494.05	89.19
494.268	107.19
494.485	111.19
494.703	99.19
494.92	95.19
495.138	108.19
495.355	105.19
495.573	116.19
495.79	111.19
496.008	108.19
496.225	102.19
496.442	125.19
496.66	121.19
496.877	169.19
497.094	179.19
497.312	119.19
497.529	103.19
497.746	97.19
497.963	107.19
498.181	118.19
498.398	103.19
498.615	115.19
498.832	90.19
499.049	108.19
499.267	139.19
499.484	165.19
499.701	132.19
499.918	123.19
500.135	110.19
500.352	111.19
500.569	96.19
500.786	108.19
501.003	102.19
501.22	94.19
501.437	111.19
501.654	100.19
501.871	102.19
502.088	100.19
502.305	113.19
502.522	108.19
502.739	93.19
502.956	100.19
503.172	88.19
503.389	114.19
503.606	98.19
503.823	120.19
504.04	102.19
504.256	109.19
504.473	115.19
504.69	118.19
504.907	117.19
505.123	133.19
505.34	107.19
505.557	102.19
505.773	101.19
505.99	107.19
506.207	106.19
