Data from SnStandardFlinnAPT0064_LampEnergy10_LIBS07252019.E.O._I.C._HRD10591_15-20-28-494.txt Node
Date: Thu Jul 25 15:20:28 EDT 2019
User: cochatt
Spectrometer: HR+D1059
Trigger mode: 1
Integration Time (sec): 1.000000E-1
Scans to average: 1
Electric dark correction enabled: true
Nonlinearity correction enabled: false
Boxcar width: 0
XAxis mode: Wavelengths
Number of Pixels in Spectrum: 2048
>>>>>Begin Spectral Data<<<<<
223.165	-13.12
223.4	-13.12
223.635	-13.12
223.869	-10.12
224.104	-23.12
224.338	-20.12
224.573	-15.12
224.808	-14.12
225.042	-16.12
225.277	-11.12
225.511	-0.12
225.746	3.88
225.98	2.88
226.215	22.88
226.449	12.88
226.683	27.88
226.918	11.88
227.152	40.88
227.387	37.88
227.621	37.88
227.856	41.88
228.09	41.88
228.324	53.88
228.559	52.88
228.793	135.88
229.027	318.88
229.262	339.88
229.496	322.88
229.73	317.88
229.964	313.88
230.199	307.88
230.433	318.88
230.667	331.88
230.901	327.88
231.136	329.88
231.37	367.88
231.604	397.88
231.838	455.88
232.072	539.88
232.306	579.88
232.541	490.88
232.775	423.88
233.009	425.88
233.243	459.88
233.477	461.88
233.711	546.88
233.945	626.88
234.179	515.88
234.413	458.88
234.647	460.88
234.881	486.88
235.115	519.88
235.349	640.88
235.583	776.88
235.817	1051.88
236.051	1051.88
236.285	694.88
236.519	534.88
236.753	478.88
236.987	512.88
237.221	570.88
237.455	515.88
237.689	474.88
237.922	482.88
238.156	476.88
238.39	495.88
238.624	508.88
238.858	517.88
239.091	483.88
239.325	503.88
239.559	513.88
239.793	527.88
240.027	538.88
240.26	553.88
240.494	555.88
240.728	608.88
240.961	634.88
241.195	655.88
241.429	703.88
241.662	743.88
241.896	808.88
242.13	967.88
242.363	1316.88
242.597	1687.88
242.83	1603.88
243.064	1607.88
243.298	1918.88
243.531	1566.88
243.765	1027.88
243.998	831.88
244.232	725.88
244.465	693.88
244.699	677.88
244.932	673.88
245.166	676.88
245.399	699.88
245.633	719.88
245.866	697.88
246.099	666.88
246.333	641.88
246.566	647.88
246.8	651.88
247.033	679.88
247.266	653.88
247.5	670.88
247.733	675.88
247.966	714.88
248.2	812.88
248.433	903.88
248.666	1012.88
248.899	968.88
249.133	866.88
249.366	901.88
249.599	1018.88
249.832	1124.88
250.066	1130.88
250.299	909.88
250.532	772.88
250.765	775.88
250.998	733.88
251.231	743.88
251.465	726.88
251.698	724.88
251.931	743.88
252.164	736.88
252.397	770.88
252.63	781.88
252.863	795.88
253.096	800.88
253.329	807.88
253.562	783.88
253.795	777.88
254.028	822.88
254.261	811.88
254.494	877.88
254.727	1053.88
254.96	1250.88
255.193	1266.88
255.426	988.88
255.659	934.88
255.892	888.88
256.124	883.88
256.357	900.88
256.59	934.88
256.823	992.88
257.056	1139.88
257.289	1423.88
257.521	1512.88
257.754	1237.88
257.987	996.88
258.22	923.88
258.452	935.88
258.685	934.88
258.918	951.88
259.151	1023.88
259.383	1103.88
259.616	1251.88
259.849	1336.88
260.081	1097.88
260.314	1021.88
260.547	980.88
260.779	957.88
261.012	969.88
261.244	993.88
261.477	972.88
261.71	1003.88
261.942	1011.88
262.175	1021.88
262.407	1033.88
262.64	1018.88
262.872	1113.88
263.105	1146.88
263.337	1195.88
263.57	1274.88
263.802	1323.88
264.035	1347.88
264.267	1370.88
264.499	1370.88
264.732	1412.88
264.964	1443.88
265.197	1442.88
265.429	1449.88
265.661	1492.88
265.894	1563.88
266.126	1730.88
266.358	2007.88
266.591	1941.88
266.823	1643.88
267.055	1468.88
267.287	1389.88
267.52	1359.88
267.752	1302.88
267.984	1251.88
268.216	1281.88
268.448	1252.88
268.681	1279.88
268.913	1223.88
269.145	1238.88
269.377	1204.88
269.609	1307.88
269.841	1297.88
270.073	1393.88
270.306	1663.88
270.538	2258.88
270.77	3379.88
271.002	4127.88
271.234	2920.88
271.466	1955.88
271.698	1587.88
271.93	1430.88
272.162	1327.88
272.394	1329.88
272.626	1279.88
272.858	1248.88
273.09	1243.88
273.322	1181.88
273.553	1230.88
273.785	1235.88
274.017	1244.88
274.249	1228.88
274.481	1226.88
274.713	1222.88
274.945	1216.88
275.176	1184.88
275.408	1249.88
275.64	1224.88
275.872	1224.88
276.104	1256.88
276.335	1243.88
276.567	1255.88
276.799	1277.88
277.031	1311.88
277.262	1372.88
277.494	1413.88
277.726	1599.88
277.957	1935.88
278.189	2215.88
278.421	2046.88
278.652	1847.88
278.884	1715.88
279.115	1515.88
279.347	1440.88
279.579	1408.88
279.81	1406.88
280.042	1409.88
280.273	1427.88
280.505	1468.88
280.736	1517.88
280.968	1596.88
281.199	1815.88
281.431	2089.88
281.662	2174.88
281.894	1862.88
282.125	1662.88
282.356	1652.88
282.588	1717.88
282.819	1747.88
283.051	1868.88
283.282	2060.88
283.513	2549.88
283.745	3772.88
283.976	5950.88
284.207	8527.88
284.439	7708.88
284.67	4732.88
284.901	3880.88
285.132	3905.88
285.364	3722.88
285.595	2825.88
285.826	2556.88
286.057	2945.88
286.288	4071.88
286.52	5508.88
286.751	5102.88
286.982	3168.88
287.213	2339.88
287.444	2033.88
287.675	1919.88
287.906	1835.88
288.138	1752.88
288.369	1764.88
288.6	1720.88
288.831	1697.88
289.062	1717.88
289.293	1704.88
289.524	1721.88
289.755	1728.88
289.986	1717.88
290.217	1746.88
290.448	1754.88
290.679	1773.88
290.91	1819.88
291.141	1926.88
291.371	2079.88
291.602	2188.88
291.833	1961.88
292.064	1806.88
292.295	1722.88
292.526	1629.88
292.757	1649.88
292.987	1611.88
293.218	1589.88
293.449	1630.88
293.68	1609.88
293.91	1608.88
294.141	1564.88
294.372	1564.88
294.603	1592.88
294.833	1586.88
295.064	1607.88
295.295	1603.88
295.525	1538.88
295.756	1571.88
295.987	1545.88
296.217	1556.88
296.448	1585.88
296.679	1608.88
296.909	1610.88
297.14	1613.88
297.37	1656.88
297.601	1643.88
297.831	1659.88
298.062	1645.88
298.292	1669.88
298.523	1681.88
298.753	1741.88
298.984	1744.88
299.214	1785.88
299.445	1770.88
299.675	1793.88
299.905	1884.88
300.136	1955.88
300.366	2195.88
300.597	2889.88
300.827	4008.88
301.057	5476.88
301.288	5470.88
301.518	3543.88
301.748	2695.88
301.979	2423.88
302.209	2321.88
302.439	2363.88
302.669	2514.88
302.9	3028.88
303.13	4328.88
303.36	6455.88
303.59	8715.88
303.82	7597.88
304.051	4402.88
304.281	3127.88
304.511	2571.88
304.741	2399.88
304.971	2239.88
305.201	2093.88
305.431	2083.88
305.661	1973.88
305.891	1967.88
306.121	1918.88
306.352	1884.88
306.582	1900.88
306.812	1866.88
307.042	1907.88
307.272	1868.88
307.502	1850.88
307.731	1867.88
307.961	1865.88
308.191	1812.88
308.421	1869.88
308.651	1820.88
308.881	1801.88
309.111	1829.88
309.341	1807.88
309.571	1863.88
309.8	1850.88
310.03	1886.88
310.26	1886.88
310.49	1888.88
310.72	1868.88
310.949	1881.88
311.179	1923.88
311.409	1961.88
311.639	1939.88
311.868	1946.88
312.098	1953.88
312.328	2001.88
312.557	1989.88
312.787	1977.88
313.017	2035.88
313.246	2041.88
313.476	2027.88
313.706	2107.88
313.935	2260.88
314.165	2374.88
314.394	2515.88
314.624	2391.88
314.853	2185.88
315.083	2146.88
315.312	2186.88
315.542	2213.88
315.771	2234.88
316.001	2263.88
316.23	2363.88
316.46	2488.88
316.689	2751.88
316.919	3330.88
317.148	4780.88
317.377	7441.88
317.607	10997.88
317.836	11461.88
318.065	6964.88
318.295	4385.88
318.524	3503.88
318.753	3022.88
318.983	2755.88
319.212	2598.88
319.441	2550.88
319.67	2480.88
319.9	2413.88
320.129	2419.88
320.358	2424.88
320.587	2345.88
320.816	2408.88
321.046	2373.88
321.275	2372.88
321.504	2433.88
321.733	2447.88
321.962	2524.88
322.191	2561.88
322.42	2529.88
322.649	2530.88
322.878	2544.88
323.108	2528.88
323.337	2545.88
323.566	2581.88
323.795	2645.88
324.024	2729.88
324.253	2791.88
324.482	2841.88
324.71	3102.88
324.939	3290.88
325.168	3339.88
325.397	3453.88
325.626	4153.88
325.855	5912.88
326.084	9079.88
326.313	13221.88
326.542	13899.88
326.77	9573.88
326.999	6139.88
327.228	5103.88
327.457	4911.88
327.686	4965.88
327.914	5287.88
328.143	6161.88
328.372	7416.88
328.6	8164.88
328.829	7213.88
329.058	6000.88
329.287	5171.88
329.515	4682.88
329.744	4371.88
329.972	4121.88
330.201	3897.88
330.43	3784.88
330.658	3642.88
330.887	3570.88
331.115	3529.88
331.344	3549.88
331.572	3516.88
331.801	3524.88
332.03	3529.88
332.258	3580.88
332.486	3789.88
332.715	4368.88
332.943	5387.88
333.172	6849.88
333.4	6854.88
333.629	5109.88
333.857	4611.88
334.085	4631.88
334.314	4821.88
334.542	5205.88
334.771	6207.88
334.999	7644.88
335.227	9695.88
335.455	10847.88
335.684	9688.88
335.912	7877.88
336.14	6643.88
336.369	5830.88
336.597	5346.88
336.825	4884.88
337.053	4610.88
337.281	4295.88
337.51	4073.88
337.738	3882.88
337.966	3719.88
338.194	3654.88
338.422	3519.88
338.65	3399.88
338.878	3405.88
339.106	3232.88
339.334	3223.88
339.562	3166.88
339.79	3125.88
340.018	3050.88
340.246	3071.88
340.474	3031.88
340.702	3028.88
340.93	3011.88
341.158	3058.88
341.386	3029.88
341.614	3023.88
341.842	2941.88
342.07	2925.88
342.298	2848.88
342.526	2749.88
342.754	2767.88
342.981	2751.88
343.209	2745.88
343.437	2718.88
343.665	2809.88
343.893	2827.88
344.12	2885.88
344.348	2833.88
344.576	2712.88
344.804	2697.88
345.031	2630.88
345.259	2649.88
345.487	2583.88
345.714	2596.88
345.942	2533.88
346.17	2574.88
346.397	2569.88
346.625	2527.88
346.853	2569.88
347.08	2531.88
347.308	2561.88
347.535	2549.88
347.763	2587.88
347.99	2471.88
348.218	2449.88
348.445	2492.88
348.673	2500.88
348.9	2470.88
349.128	2474.88
349.355	2477.88
349.583	2479.88
349.81	2389.88
350.037	2395.88
350.265	2441.88
350.492	2451.88
350.72	2404.88
350.947	2396.88
351.174	2417.88
351.402	2419.88
351.629	2424.88
351.856	2427.88
352.083	2433.88
352.311	2388.88
352.538	2389.88
352.765	2415.88
352.992	2406.88
353.22	2435.88
353.447	2407.88
353.674	2391.88
353.901	2420.88
354.128	2419.88
354.355	2435.88
354.583	2406.88
354.81	2405.88
355.037	2445.88
355.264	2469.88
355.491	2443.88
355.718	2421.88
355.945	2375.88
356.172	2477.88
356.399	2445.88
356.626	2489.88
356.853	2542.88
357.08	2544.88
357.307	2610.88
357.534	2587.88
357.761	2630.88
357.988	2593.88
358.215	2584.88
358.441	2604.88
358.668	2555.88
358.895	2581.88
359.122	2554.88
359.349	2545.88
359.576	2545.88
359.802	2552.88
360.029	2543.88
360.256	2524.88
360.483	2560.88
360.709	2548.88
360.936	2557.88
361.163	2552.88
361.39	2577.88
361.616	2621.88
361.843	2600.88
362.07	2582.88
362.296	2575.88
362.523	2565.88
362.749	2577.88
362.976	2557.88
363.203	2548.88
363.429	2545.88
363.656	2566.88
363.882	2577.88
364.109	2584.88
364.335	2532.88
364.562	2556.88
364.788	2568.88
365.015	2636.88
365.241	2691.88
365.468	2847.88
365.694	2959.88
365.92	2855.88
366.147	2633.88
366.373	2629.88
366.599	2658.88
366.826	2610.88
367.052	2591.88
367.278	2683.88
367.505	2571.88
367.731	2577.88
367.957	2619.88
368.184	2626.88
368.41	2667.88
368.636	2681.88
368.862	2667.88
369.089	2668.88
369.315	2636.88
369.541	2660.88
369.767	2694.88
369.993	2625.88
370.219	2639.88
370.445	2621.88
370.672	2684.88
370.898	2656.88
371.124	2644.88
371.35	2747.88
371.576	2725.88
371.802	2756.88
372.028	2743.88
372.254	2756.88
372.48	2732.88
372.706	2770.88
372.932	2863.88
373.158	2801.88
373.384	2794.88
373.61	2807.88
373.835	2788.88
374.061	2797.88
374.287	2799.88
374.513	2871.88
374.739	2936.88
374.965	2978.88
375.191	2915.88
375.416	2904.88
375.642	2863.88
375.868	2854.88
376.094	2787.88
376.319	2767.88
376.545	2764.88
376.771	2772.88
376.997	2772.88
377.222	2710.88
377.448	2749.88
377.674	2727.88
377.899	2755.88
378.125	2755.88
378.35	2764.88
378.576	2772.88
378.802	2756.88
379.027	2855.88
379.253	2893.88
379.478	3050.88
379.704	3656.88
379.929	5306.88
380.155	8241.88
380.38	9012.88
380.606	5467.88
380.831	3749.88
381.057	3318.88
381.282	3015.88
381.507	2917.88
381.733	2842.88
381.958	2722.88
382.184	2722.88
382.409	2751.88
382.634	2716.88
382.86	2699.88
383.085	2705.88
383.31	2744.88
383.535	2762.88
383.761	2716.88
383.986	2696.88
384.211	2736.88
384.436	2759.88
384.662	2799.88
384.887	2776.88
385.112	2761.88
385.337	2799.88
385.562	2809.88
385.787	2765.88
386.013	2797.88
386.238	2832.88
386.463	2804.88
386.688	2735.88
386.913	2747.88
387.138	2762.88
387.363	2752.88
387.588	2740.88
387.813	2771.88
388.038	2788.88
388.263	2746.88
388.488	2807.88
388.713	2749.88
388.938	2741.88
389.163	2748.88
389.387	2799.88
389.612	2753.88
389.837	2796.88
390.062	2762.88
390.287	2750.88
390.512	2814.88
390.736	2839.88
390.961	2837.88
391.186	2920.88
391.411	2875.88
391.636	2893.88
391.86	2920.88
392.085	2964.88
392.31	2889.88
392.534	2918.88
392.759	2908.88
392.984	2850.88
393.208	2851.88
393.433	2896.88
393.658	2836.88
393.882	2786.88
394.107	2843.88
394.331	2834.88
394.556	2820.88
394.78	2832.88
395.005	2877.88
395.229	2815.88
395.454	2895.88
395.678	2893.88
395.903	2874.88
396.127	2872.88
396.352	2863.88
396.576	2845.88
396.801	2902.88
397.025	2982.88
397.249	2912.88
397.474	2858.88
397.698	2909.88
397.922	2931.88
398.147	2910.88
398.371	2974.88
398.595	3005.88
398.82	3071.88
399.044	3240.88
399.268	3372.88
399.492	3539.88
399.717	3695.88
399.941	3670.88
400.165	3542.88
400.389	3418.88
400.613	3308.88
400.837	3217.88
401.062	3114.88
401.286	3157.88
401.51	3049.88
401.734	2995.88
401.958	3098.88
402.182	3046.88
402.406	3015.88
402.63	3091.88
402.854	3090.88
403.078	3118.88
403.302	3103.88
403.526	3188.88
403.75	3145.88
403.974	3179.88
404.198	3167.88
404.422	3200.88
404.645	3203.88
404.869	3252.88
405.093	3177.88
405.317	3149.88
405.541	3236.88
405.765	3226.88
405.988	3324.88
406.212	3293.88
406.436	3240.88
406.66	3272.88
406.883	3316.88
407.107	3421.88
407.331	3423.88
407.555	3429.88
407.778	3469.88
408.002	3437.88
408.226	3381.88
408.449	3434.88
408.673	3310.88
408.896	3303.88
409.12	3267.88
409.344	3284.88
409.567	3151.88
409.791	3158.88
410.014	3174.88
410.238	3144.88
410.461	3153.88
410.685	3141.88
410.908	3117.88
411.132	3074.88
411.355	3027.88
411.578	3040.88
411.802	3040.88
412.025	3036.88
412.249	3092.88
412.472	3123.88
412.695	2994.88
412.919	3022.88
413.142	2981.88
413.365	2959.88
413.589	3007.88
413.812	2954.88
414.035	2973.88
414.258	2999.88
414.482	3012.88
414.705	3032.88
414.928	3004.88
415.151	3001.88
415.374	2964.88
415.597	2964.88
415.821	2893.88
416.044	2908.88
416.267	2883.88
416.49	2859.88
416.713	2901.88
416.936	2919.88
417.159	2861.88
417.382	2832.88
417.605	2844.88
417.828	2886.88
418.051	2883.88
418.274	2882.88
418.497	2904.88
418.72	2996.88
418.943	2918.88
419.166	3057.88
419.389	3263.88
419.611	3205.88
419.834	3088.88
420.057	2983.88
420.28	2964.88
420.503	2897.88
420.726	2893.88
420.948	2906.88
421.171	2879.88
421.394	2920.88
421.617	2913.88
421.839	2893.88
422.062	2919.88
422.285	2871.88
422.507	2949.88
422.73	2945.88
422.953	3012.88
423.175	3008.88
423.398	3001.88
423.621	2936.88
423.843	2924.88
424.066	2895.88
424.288	2876.88
424.511	2853.88
424.733	2785.88
424.956	2847.88
425.178	2877.88
425.401	2862.88
425.623	2840.88
425.846	2797.88
426.068	2808.88
426.291	2755.88
426.513	2731.88
426.735	2784.88
426.958	2764.88
427.18	2699.88
427.402	2783.88
427.625	2731.88
427.847	2659.88
428.069	2691.88
428.292	2763.88
428.514	2657.88
428.736	2687.88
428.958	2722.88
429.181	2635.88
429.403	2636.88
429.625	2617.88
429.847	2664.88
430.069	2759.88
430.292	2824.88
430.514	2911.88
430.736	2881.88
430.958	2726.88
431.18	2647.88
431.402	2659.88
431.624	2597.88
431.846	2626.88
432.068	2652.88
432.29	2673.88
432.512	2609.88
432.734	2687.88
432.956	2635.88
433.178	2703.88
433.4	2668.88
433.622	2677.88
433.844	2715.88
434.066	2623.88
434.287	2661.88
434.509	2636.88
434.731	2759.88
434.953	2806.88
435.175	2746.88
435.397	2761.88
435.618	2687.88
435.84	2721.88
436.062	2680.88
436.284	2653.88
436.505	2636.88
436.727	2627.88
436.949	2609.88
437.17	2574.88
437.392	2552.88
437.614	2611.88
437.835	2507.88
438.057	2611.88
438.278	2520.88
438.5	2557.88
438.721	2635.88
438.943	2710.88
439.165	2756.88
439.386	2801.88
439.608	2721.88
439.829	2753.88
440.05	2882.88
440.272	2867.88
440.493	2757.88
440.715	2699.88
440.936	2749.88
441.158	2735.88
441.379	2825.88
441.6	2922.88
441.822	2994.88
442.043	3133.88
442.264	3208.88
442.486	3003.88
442.707	2892.88
442.928	2867.88
443.149	2885.88
443.371	2865.88
443.592	2840.88
443.813	2863.88
444.034	2886.88
444.255	2870.88
444.476	2939.88
444.698	2961.88
444.919	3027.88
445.14	3028.88
445.361	2965.88
445.582	2900.88
445.803	2825.88
446.024	2788.88
446.245	2838.88
446.466	2827.88
446.687	2804.88
446.908	2765.88
447.129	2729.88
447.35	2663.88
447.571	2659.88
447.792	2607.88
448.013	2611.88
448.234	2582.88
448.455	2611.88
448.675	2622.88
448.896	2707.88
449.117	2788.88
449.338	2992.88
449.559	3148.88
449.779	2852.88
450	2638.88
450.221	2586.88
450.442	2579.88
450.662	2574.88
450.883	2541.88
451.104	2545.88
451.324	2546.88
451.545	2519.88
451.766	2597.88
451.986	2628.88
452.207	2882.88
452.428	3751.88
452.648	5643.88
452.869	4758.88
453.089	3231.88
453.31	2997.88
453.53	3057.88
453.751	3099.88
453.971	3265.88
454.192	3202.88
454.412	2728.88
454.633	2557.88
454.853	2535.88
455.073	2476.88
455.294	2494.88
455.514	2449.88
455.734	2434.88
455.955	2400.88
456.175	2404.88
456.395	2424.88
456.616	2480.88
456.836	2482.88
457.056	2495.88
457.276	2487.88
457.497	2677.88
457.717	2697.88
457.937	2565.88
458.157	2585.88
458.377	2567.88
458.598	2617.88
458.818	2604.88
459.038	2606.88
459.258	2655.88
459.478	2692.88
459.698	2664.88
459.918	2767.88
460.138	2737.88
460.358	2820.88
460.578	2833.88
460.798	2867.88
461.018	2902.88
461.238	2886.88
461.458	2861.88
461.678	2915.88
461.898	3014.88
462.118	3059.88
462.338	3114.88
462.558	3044.88
462.777	3141.88
462.997	3357.88
463.217	3369.88
463.437	3515.88
463.657	3617.88
463.876	3623.88
464.096	3364.88
464.316	3246.88
464.536	3195.88
464.755	3121.88
464.975	3059.88
465.195	2963.88
465.414	2845.88
465.634	2743.88
465.854	2747.88
466.073	2716.88
466.293	2679.88
466.512	2644.88
466.732	2744.88
466.951	2891.88
467.171	3023.88
467.391	2973.88
467.61	2669.88
467.829	2643.88
468.049	2621.88
468.268	2588.88
468.488	2537.88
468.707	2590.88
468.927	2591.88
469.146	2585.88
469.365	2625.88
469.585	2626.88
469.804	2713.88
470.023	2795.88
470.243	2801.88
470.462	2837.88
470.681	3051.88
470.901	3370.88
471.12	3883.88
471.339	3880.88
471.558	3220.88
471.777	2893.88
471.997	2817.88
472.216	2780.88
472.435	2693.88
472.654	2631.88
472.873	2601.88
473.092	2635.88
473.311	2619.88
473.53	2631.88
473.749	2728.88
473.968	2830.88
474.187	2679.88
474.406	2639.88
474.625	2636.88
474.844	2659.88
475.063	2650.88
475.282	2625.88
475.501	2663.88
475.72	2644.88
475.939	2689.88
476.158	2719.88
476.377	2828.88
476.596	2771.88
476.814	2777.88
477.033	2745.88
477.252	2802.88
477.471	2821.88
477.69	2842.88
477.908	2959.88
478.127	2985.88
478.346	2985.88
478.564	2999.88
478.783	3026.88
479.002	3162.88
479.22	3088.88
479.439	3164.88
479.658	3119.88
479.876	3156.88
480.095	3156.88
480.313	3230.88
480.532	3228.88
480.751	3274.88
480.969	3185.88
481.188	3104.88
481.406	3164.88
481.624	3155.88
481.843	3226.88
482.061	3221.88
482.28	3192.88
482.498	3153.88
482.717	3100.88
482.935	3217.88
483.153	3253.88
483.372	3289.88
483.59	3365.88
483.808	3382.88
484.027	3449.88
484.245	3657.88
484.463	4131.88
484.681	4649.88
484.9	4263.88
485.118	3885.88
485.336	3818.88
485.554	3886.88
485.772	4095.88
485.99	4678.88
486.209	5014.88
486.427	4153.88
486.645	3750.88
486.863	3579.88
487.081	3502.88
487.299	3396.88
487.517	3425.88
487.735	3399.88
