Data from SnStandardFlinnAPT0064_LampEnergy10_LIBS07252019.E.O._I.C._HRD10591_15-22-24-494.txt Node
Date: Thu Jul 25 15:22:24 EDT 2019
User: cochatt
Spectrometer: HR+D1059
Trigger mode: 1
Integration Time (sec): 1.000000E-1
Scans to average: 1
Electric dark correction enabled: true
Nonlinearity correction enabled: false
Boxcar width: 0
XAxis mode: Wavelengths
Number of Pixels in Spectrum: 2048
>>>>>Begin Spectral Data<<<<<
223.165	-15.12
223.4	-15.12
223.635	-15.12
223.869	-3.12
224.104	-8.12
224.338	-17.12
224.573	-13.12
224.808	-11.12
225.042	-21.12
225.277	-14.12
225.511	0.88
225.746	9.88
225.98	4.88
226.215	6.88
226.449	15.88
226.683	12.88
226.918	20.88
227.152	30.88
227.387	35.88
227.621	39.88
227.856	33.88
228.09	41.88
228.324	33.88
228.559	59.88
228.793	117.88
229.027	295.88
229.262	325.88
229.496	300.88
229.73	304.88
229.964	309.88
230.199	304.88
230.433	286.88
230.667	310.88
230.901	335.88
231.136	336.88
231.37	342.88
231.604	389.88
231.838	442.88
232.072	510.88
232.306	547.88
232.541	454.88
232.775	426.88
233.009	399.88
233.243	419.88
233.477	442.88
233.711	506.88
233.945	573.88
234.179	500.88
234.413	452.88
234.647	449.88
234.881	458.88
235.115	532.88
235.349	615.88
235.583	740.88
235.817	961.88
236.051	940.88
236.285	630.88
236.519	506.88
236.753	483.88
236.987	519.88
237.221	518.88
237.455	514.88
237.689	449.88
237.922	442.88
238.156	474.88
238.39	477.88
238.624	466.88
238.858	471.88
239.091	475.88
239.325	483.88
239.559	480.88
239.793	509.88
240.027	528.88
240.26	521.88
240.494	528.88
240.728	562.88
240.961	611.88
241.195	644.88
241.429	654.88
241.662	696.88
241.896	796.88
242.13	913.88
242.363	1184.88
242.597	1523.88
242.83	1462.88
243.064	1444.88
243.298	1736.88
243.531	1389.88
243.765	894.88
243.998	723.88
244.232	657.88
244.465	669.88
244.699	649.88
244.932	616.88
245.166	645.88
245.399	660.88
245.633	664.88
245.866	674.88
246.099	669.88
246.333	645.88
246.566	642.88
246.8	640.88
247.033	635.88
247.266	653.88
247.5	647.88
247.733	673.88
247.966	709.88
248.2	759.88
248.433	850.88
248.666	954.88
248.899	892.88
249.133	806.88
249.366	848.88
249.599	952.88
249.832	1030.88
250.066	1057.88
250.299	853.88
250.532	798.88
250.765	745.88
250.998	740.88
251.231	713.88
251.465	730.88
251.698	733.88
251.931	740.88
252.164	748.88
252.397	730.88
252.63	768.88
252.863	816.88
253.096	799.88
253.329	769.88
253.562	786.88
253.795	780.88
254.028	787.88
254.261	837.88
254.494	881.88
254.727	1024.88
254.96	1204.88
255.193	1172.88
255.426	944.88
255.659	859.88
255.892	868.88
256.124	848.88
256.357	876.88
256.59	898.88
256.823	969.88
257.056	1097.88
257.289	1314.88
257.521	1463.88
257.754	1156.88
257.987	968.88
258.22	932.88
258.452	920.88
258.685	896.88
258.918	935.88
259.151	963.88
259.383	1078.88
259.616	1194.88
259.849	1252.88
260.081	1092.88
260.314	960.88
260.547	929.88
260.779	942.88
261.012	952.88
261.244	961.88
261.477	996.88
261.71	972.88
261.942	1012.88
262.175	1031.88
262.407	1042.88
262.64	1040.88
262.872	1080.88
263.105	1117.88
263.337	1180.88
263.57	1282.88
263.802	1266.88
264.035	1334.88
264.267	1330.88
264.499	1354.88
264.732	1416.88
264.964	1404.88
265.197	1429.88
265.429	1444.88
265.661	1497.88
265.894	1602.88
266.126	1752.88
266.358	1944.88
266.591	1900.88
266.823	1637.88
267.055	1446.88
267.287	1409.88
267.52	1361.88
267.752	1297.88
267.984	1250.88
268.216	1236.88
268.448	1273.88
268.681	1224.88
268.913	1237.88
269.145	1237.88
269.377	1206.88
269.609	1263.88
269.841	1284.88
270.073	1337.88
270.306	1615.88
270.538	2108.88
270.77	3086.88
271.002	3737.88
271.234	2687.88
271.466	1826.88
271.698	1521.88
271.93	1368.88
272.162	1335.88
272.394	1280.88
272.626	1208.88
272.858	1204.88
273.09	1187.88
273.322	1230.88
273.553	1202.88
273.785	1198.88
274.017	1189.88
274.249	1245.88
274.481	1192.88
274.713	1203.88
274.945	1210.88
275.176	1243.88
275.408	1192.88
275.64	1207.88
275.872	1233.88
276.104	1233.88
276.335	1293.88
276.567	1272.88
276.799	1318.88
277.031	1310.88
277.262	1322.88
277.494	1383.88
277.726	1512.88
277.957	1817.88
278.189	2032.88
278.421	1940.88
278.652	1723.88
278.884	1621.88
279.115	1500.88
279.347	1413.88
279.579	1362.88
279.81	1394.88
280.042	1393.88
280.273	1416.88
280.505	1473.88
280.736	1466.88
280.968	1537.88
281.199	1702.88
281.431	1976.88
281.662	2129.88
281.894	1733.88
282.125	1612.88
282.356	1635.88
282.588	1644.88
282.819	1683.88
283.051	1808.88
283.282	1980.88
283.513	2407.88
283.745	3445.88
283.976	5354.88
284.207	7602.88
284.439	7014.88
284.67	4391.88
284.901	3594.88
285.132	3596.88
285.364	3486.88
285.595	2615.88
285.826	2347.88
286.057	2772.88
286.288	3703.88
286.52	4932.88
286.751	4638.88
286.982	2909.88
287.213	2274.88
287.444	1992.88
287.675	1808.88
287.906	1750.88
288.138	1702.88
288.369	1704.88
288.6	1687.88
288.831	1696.88
289.062	1647.88
289.293	1665.88
289.524	1651.88
289.755	1705.88
289.986	1691.88
290.217	1724.88
290.448	1738.88
290.679	1758.88
290.91	1764.88
291.141	1869.88
291.371	2028.88
291.602	2087.88
291.833	1886.88
292.064	1724.88
292.295	1698.88
292.526	1624.88
292.757	1625.88
292.987	1605.88
293.218	1564.88
293.449	1607.88
293.68	1588.88
293.91	1549.88
294.141	1562.88
294.372	1532.88
294.603	1517.88
294.833	1560.88
295.064	1555.88
295.295	1556.88
295.525	1540.88
295.756	1535.88
295.987	1557.88
296.217	1556.88
296.448	1577.88
296.679	1557.88
296.909	1566.88
297.14	1612.88
297.37	1615.88
297.601	1646.88
297.831	1632.88
298.062	1609.88
298.292	1634.88
298.523	1692.88
298.753	1683.88
298.984	1693.88
299.214	1715.88
299.445	1734.88
299.675	1792.88
299.905	1858.88
300.136	1880.88
300.366	2137.88
300.597	2633.88
300.827	3695.88
301.057	4943.88
301.288	5006.88
301.518	3215.88
301.748	2531.88
301.979	2348.88
302.209	2256.88
302.439	2259.88
302.669	2405.88
302.9	2874.88
303.13	3980.88
303.36	5850.88
303.59	7706.88
303.82	6793.88
304.051	4046.88
304.281	2976.88
304.511	2488.88
304.741	2277.88
304.971	2204.88
305.201	2048.88
305.431	2033.88
305.661	1962.88
305.891	1907.88
306.121	1875.88
306.352	1879.88
306.582	1853.88
306.812	1822.88
307.042	1830.88
307.272	1814.88
307.502	1802.88
307.731	1819.88
307.961	1802.88
308.191	1828.88
308.421	1760.88
308.651	1837.88
308.881	1844.88
309.111	1799.88
309.341	1816.88
309.571	1815.88
309.8	1828.88
310.03	1829.88
310.26	1882.88
310.49	1866.88
310.72	1887.88
310.949	1869.88
311.179	1876.88
311.409	1930.88
311.639	1924.88
311.868	1983.88
312.098	1934.88
312.328	1932.88
312.557	1958.88
312.787	1950.88
313.017	1962.88
313.246	1984.88
313.476	2010.88
313.706	2089.88
313.935	2198.88
314.165	2307.88
314.394	2433.88
314.624	2343.88
314.853	2139.88
315.083	2139.88
315.312	2155.88
315.542	2160.88
315.771	2201.88
316.001	2230.88
316.23	2340.88
316.46	2412.88
316.689	2614.88
316.919	3190.88
317.148	4519.88
317.377	6743.88
317.607	9825.88
317.836	10264.88
318.065	6379.88
318.295	4161.88
318.524	3340.88
318.753	2860.88
318.983	2697.88
319.212	2542.88
319.441	2466.88
319.67	2459.88
319.9	2346.88
320.129	2371.88
320.358	2323.88
320.587	2324.88
320.816	2388.88
321.046	2355.88
321.275	2336.88
321.504	2416.88
321.733	2390.88
321.962	2521.88
322.191	2494.88
322.42	2531.88
322.649	2462.88
322.878	2466.88
323.108	2492.88
323.337	2516.88
323.566	2577.88
323.795	2604.88
324.024	2627.88
324.253	2628.88
324.482	2808.88
324.71	2997.88
324.939	3167.88
325.168	3224.88
325.397	3348.88
325.626	3946.88
325.855	5451.88
326.084	8446.88
326.313	12178.88
326.542	12867.88
326.77	8736.88
326.999	5811.88
327.228	4860.88
327.457	4666.88
327.686	4714.88
327.914	5006.88
328.143	5860.88
328.372	6872.88
328.6	7414.88
328.829	6747.88
329.058	5646.88
329.287	4980.88
329.515	4574.88
329.744	4230.88
329.972	4057.88
330.201	3849.88
330.43	3735.88
330.658	3560.88
330.887	3578.88
331.115	3464.88
331.344	3555.88
331.572	3398.88
331.801	3446.88
332.03	3464.88
332.258	3532.88
332.486	3712.88
332.715	4182.88
332.943	5120.88
333.172	6352.88
333.4	6245.88
333.629	4816.88
333.857	4441.88
334.085	4449.88
334.314	4613.88
334.542	5052.88
334.771	5880.88
334.999	7110.88
335.227	9074.88
335.455	10047.88
335.684	8998.88
335.912	7499.88
336.14	6448.88
336.369	5620.88
336.597	5125.88
336.825	4736.88
337.053	4450.88
337.281	4180.88
337.51	4054.88
337.738	3890.88
337.966	3724.88
338.194	3555.88
338.422	3450.88
338.65	3436.88
338.878	3351.88
339.106	3226.88
339.334	3232.88
339.562	3121.88
339.79	3133.88
340.018	3066.88
340.246	3003.88
340.474	3022.88
340.702	3008.88
340.93	3010.88
341.158	3014.88
341.386	3018.88
341.614	2976.88
341.842	2892.88
342.07	2832.88
342.298	2848.88
342.526	2790.88
342.754	2785.88
342.981	2694.88
343.209	2715.88
343.437	2764.88
343.665	2785.88
343.893	2865.88
344.12	2865.88
344.348	2824.88
344.576	2780.88
344.804	2737.88
345.031	2620.88
345.259	2614.88
345.487	2612.88
345.714	2549.88
345.942	2567.88
346.17	2533.88
346.397	2558.88
346.625	2562.88
346.853	2509.88
347.08	2488.88
347.308	2533.88
347.535	2527.88
347.763	2533.88
347.99	2486.88
348.218	2467.88
348.445	2465.88
348.673	2456.88
348.9	2451.88
349.128	2416.88
349.355	2394.88
349.583	2480.88
349.81	2444.88
350.037	2410.88
350.265	2396.88
350.492	2405.88
350.72	2401.88
350.947	2395.88
351.174	2423.88
351.402	2451.88
351.629	2358.88
351.856	2375.88
352.083	2398.88
352.311	2366.88
352.538	2363.88
352.765	2387.88
352.992	2369.88
353.22	2376.88
353.447	2405.88
353.674	2398.88
353.901	2423.88
354.128	2398.88
354.355	2406.88
354.583	2421.88
354.81	2409.88
355.037	2404.88
355.264	2424.88
355.491	2388.88
355.718	2475.88
355.945	2452.88
356.172	2462.88
356.399	2426.88
356.626	2417.88
356.853	2493.88
357.08	2537.88
357.307	2564.88
357.534	2558.88
357.761	2576.88
357.988	2577.88
358.215	2619.88
358.441	2564.88
358.668	2522.88
358.895	2554.88
359.122	2580.88
359.349	2525.88
359.576	2534.88
359.802	2509.88
360.029	2503.88
360.256	2494.88
360.483	2530.88
360.709	2594.88
360.936	2555.88
361.163	2568.88
361.39	2562.88
361.616	2596.88
361.843	2556.88
362.07	2591.88
362.296	2657.88
362.523	2601.88
362.749	2534.88
362.976	2556.88
363.203	2553.88
363.429	2540.88
363.656	2557.88
363.882	2565.88
364.109	2532.88
364.335	2505.88
364.562	2558.88
364.788	2578.88
365.015	2610.88
365.241	2644.88
365.468	2785.88
365.694	2945.88
365.92	2818.88
366.147	2653.88
366.373	2652.88
366.599	2643.88
366.826	2569.88
367.052	2628.88
367.278	2623.88
367.505	2668.88
367.731	2614.88
367.957	2626.88
368.184	2643.88
368.41	2709.88
368.636	2649.88
368.862	2652.88
369.089	2708.88
369.315	2646.88
369.541	2640.88
369.767	2655.88
369.993	2633.88
370.219	2665.88
370.445	2656.88
370.672	2676.88
370.898	2694.88
371.124	2697.88
371.35	2751.88
371.576	2726.88
371.802	2716.88
372.028	2753.88
372.254	2825.88
372.48	2770.88
372.706	2834.88
372.932	2804.88
373.158	2800.88
373.384	2817.88
373.61	2825.88
373.835	2786.88
374.061	2825.88
374.287	2820.88
374.513	2845.88
374.739	2895.88
374.965	2914.88
375.191	2922.88
375.416	2960.88
375.642	2844.88
375.868	2862.88
376.094	2849.88
376.319	2791.88
376.545	2815.88
376.771	2765.88
376.997	2706.88
377.222	2735.88
377.448	2727.88
377.674	2706.88
377.899	2681.88
378.125	2719.88
378.35	2698.88
378.576	2784.88
378.802	2730.88
379.027	2812.88
379.253	2856.88
379.478	3058.88
379.704	3531.88
379.929	5078.88
380.155	7638.88
380.38	8276.88
380.606	5125.88
380.831	3620.88
381.057	3236.88
381.282	2975.88
381.507	2873.88
381.733	2823.88
381.958	2803.88
382.184	2751.88
382.409	2716.88
382.634	2739.88
382.86	2677.88
383.085	2689.88
383.31	2708.88
383.535	2705.88
383.761	2720.88
383.986	2750.88
384.211	2725.88
384.436	2760.88
384.662	2746.88
384.887	2837.88
385.112	2768.88
385.337	2792.88
385.562	2802.88
385.787	2786.88
386.013	2805.88
386.238	2814.88
386.463	2793.88
386.688	2835.88
386.913	2751.88
387.138	2835.88
387.363	2757.88
387.588	2778.88
387.813	2785.88
388.038	2749.88
388.263	2796.88
388.488	2783.88
388.713	2779.88
388.938	2762.88
389.163	2766.88
389.387	2785.88
389.612	2793.88
389.837	2804.88
390.062	2776.88
390.287	2824.88
390.512	2876.88
390.736	2831.88
390.961	2885.88
391.186	2885.88
391.411	2909.88
391.636	2866.88
391.86	2940.88
392.085	2958.88
392.31	2895.88
392.534	2918.88
392.759	2836.88
392.984	2822.88
393.208	2838.88
393.433	2900.88
393.658	2856.88
393.882	2819.88
394.107	2810.88
394.331	2789.88
394.556	2824.88
394.78	2815.88
395.005	2835.88
395.229	2841.88
395.454	2865.88
395.678	2926.88
395.903	2936.88
396.127	2909.88
396.352	2885.88
396.576	2905.88
396.801	2910.88
397.025	2919.88
397.249	2919.88
397.474	2900.88
397.698	2936.88
397.922	2965.88
398.147	2972.88
398.371	3008.88
398.595	3049.88
398.82	3092.88
399.044	3208.88
399.268	3324.88
399.492	3569.88
399.717	3678.88
399.941	3670.88
400.165	3576.88
400.389	3385.88
400.613	3302.88
400.837	3193.88
401.062	3135.88
401.286	3057.88
401.51	3047.88
401.734	3025.88
401.958	3099.88
402.182	3058.88
402.406	3041.88
402.63	3098.88
402.854	3092.88
403.078	3038.88
403.302	3169.88
403.526	3177.88
403.75	3206.88
403.974	3196.88
404.198	3176.88
404.422	3196.88
404.645	3181.88
404.869	3172.88
405.093	3182.88
405.317	3161.88
405.541	3259.88
405.765	3309.88
405.988	3287.88
406.212	3294.88
406.436	3237.88
406.66	3314.88
406.883	3279.88
407.107	3410.88
407.331	3436.88
407.555	3482.88
407.778	3481.88
408.002	3497.88
408.226	3441.88
408.449	3358.88
408.673	3271.88
408.896	3286.88
409.12	3233.88
409.344	3224.88
409.567	3178.88
409.791	3233.88
410.014	3185.88
410.238	3149.88
410.461	3152.88
410.685	3166.88
410.908	3131.88
411.132	3149.88
411.355	3132.88
411.578	3120.88
411.802	3005.88
412.025	3070.88
412.249	3045.88
412.472	3092.88
412.695	2978.88
412.919	2990.88
413.142	3011.88
413.365	3028.88
413.589	3072.88
413.812	3054.88
414.035	2984.88
414.258	3057.88
414.482	3012.88
414.705	3014.88
414.928	3005.88
415.151	3069.88
415.374	2951.88
415.597	2981.88
415.821	2885.88
416.044	2887.88
416.267	2890.88
416.49	2895.88
416.713	2887.88
416.936	2880.88
417.159	2781.88
417.382	2825.88
417.605	2810.88
417.828	2871.88
418.051	2890.88
418.274	2872.88
418.497	2902.88
418.72	2965.88
418.943	2955.88
419.166	3109.88
419.389	3218.88
419.611	3161.88
419.834	3072.88
420.057	2971.88
420.28	2959.88
420.503	2876.88
420.726	2883.88
420.948	2856.88
421.171	2884.88
421.394	2911.88
421.617	2846.88
421.839	2848.88
422.062	2905.88
422.285	2884.88
422.507	2900.88
422.73	2927.88
422.953	2946.88
423.175	2977.88
423.398	2996.88
423.621	2931.88
423.843	2925.88
424.066	2912.88
424.288	2890.88
424.511	2853.88
424.733	2865.88
424.956	2852.88
425.178	2835.88
425.401	2872.88
425.623	2850.88
425.846	2814.88
426.068	2809.88
426.291	2780.88
426.513	2788.88
426.735	2768.88
426.958	2796.88
427.18	2659.88
427.402	2715.88
427.625	2759.88
427.847	2705.88
428.069	2670.88
428.292	2687.88
428.514	2700.88
428.736	2684.88
428.958	2669.88
429.181	2624.88
429.403	2640.88
429.625	2652.88
429.847	2663.88
430.069	2709.88
430.292	2800.88
430.514	2898.88
430.736	2850.88
430.958	2776.88
431.18	2632.88
431.402	2631.88
431.624	2620.88
431.846	2642.88
432.068	2540.88
432.29	2619.88
432.512	2605.88
432.734	2632.88
432.956	2624.88
433.178	2650.88
433.4	2659.88
433.622	2657.88
433.844	2700.88
434.066	2670.88
434.287	2651.88
434.509	2708.88
434.731	2737.88
434.953	2762.88
435.175	2802.88
435.397	2780.88
435.618	2690.88
435.84	2729.88
436.062	2659.88
436.284	2628.88
436.505	2655.88
436.727	2597.88
436.949	2643.88
437.17	2633.88
437.392	2538.88
437.614	2592.88
437.835	2513.88
438.057	2565.88
438.278	2550.88
438.5	2566.88
438.721	2614.88
438.943	2663.88
439.165	2704.88
439.386	2746.88
439.608	2718.88
439.829	2706.88
440.05	2832.88
440.272	2866.88
440.493	2774.88
440.715	2676.88
440.936	2675.88
441.158	2797.88
441.379	2771.88
441.6	2871.88
441.822	2938.88
442.043	3083.88
442.264	3158.88
442.486	2913.88
442.707	2894.88
442.928	2836.88
443.149	2842.88
443.371	2841.88
443.592	2830.88
443.813	2826.88
444.034	2858.88
444.255	2879.88
444.476	2940.88
444.698	3003.88
444.919	3046.88
445.14	3143.88
445.361	3008.88
445.582	2914.88
445.803	2835.88
446.024	2783.88
446.245	2860.88
446.466	2773.88
446.687	2757.88
446.908	2753.88
447.129	2673.88
447.35	2653.88
447.571	2653.88
447.792	2627.88
448.013	2606.88
448.234	2615.88
448.455	2581.88
448.675	2699.88
448.896	2727.88
449.117	2714.88
449.338	2930.88
449.559	3091.88
449.779	2824.88
450	2639.88
450.221	2540.88
450.442	2553.88
450.662	2516.88
450.883	2533.88
451.104	2542.88
451.324	2527.88
451.545	2544.88
451.766	2556.88
451.986	2633.88
452.207	2800.88
452.428	3563.88
452.648	5360.88
452.869	4560.88
453.089	3157.88
453.31	2950.88
453.53	2930.88
453.751	3005.88
453.971	3096.88
454.192	3076.88
454.412	2674.88
454.633	2585.88
454.853	2493.88
455.073	2473.88
455.294	2437.88
455.514	2389.88
455.734	2417.88
455.955	2393.88
456.175	2416.88
456.395	2424.88
456.616	2456.88
456.836	2487.88
457.056	2449.88
457.276	2477.88
457.497	2663.88
457.717	2632.88
457.937	2556.88
458.157	2545.88
458.377	2600.88
458.598	2640.88
458.818	2597.88
459.038	2615.88
459.258	2655.88
459.478	2601.88
459.698	2672.88
459.918	2710.88
460.138	2780.88
460.358	2852.88
460.578	2828.88
460.798	2877.88
461.018	2839.88
461.238	2877.88
461.458	2894.88
461.678	2943.88
461.898	2992.88
462.118	3012.88
462.338	3101.88
462.558	3104.88
462.777	3136.88
462.997	3273.88
463.217	3333.88
463.437	3474.88
463.657	3542.88
463.876	3576.88
464.096	3354.88
464.316	3230.88
464.536	3140.88
464.755	3113.88
464.975	3041.88
465.195	2962.88
465.414	2840.88
465.634	2766.88
465.854	2750.88
466.073	2688.88
466.293	2664.88
466.512	2647.88
466.732	2680.88
466.951	2830.88
467.171	2967.88
467.391	2920.88
467.61	2763.88
467.829	2680.88
468.049	2639.88
468.268	2576.88
468.488	2569.88
468.707	2582.88
468.927	2574.88
469.146	2617.88
469.365	2638.88
469.585	2640.88
469.804	2695.88
470.023	2692.88
470.243	2772.88
470.462	2855.88
470.681	2993.88
470.901	3256.88
471.12	3684.88
471.339	3631.88
471.558	3145.88
471.777	2888.88
471.997	2748.88
472.216	2734.88
472.435	2640.88
472.654	2612.88
472.873	2600.88
473.092	2600.88
473.311	2629.88
473.53	2588.88
473.749	2680.88
473.968	2802.88
474.187	2677.88
474.406	2596.88
474.625	2626.88
474.844	2632.88
475.063	2643.88
475.282	2630.88
475.501	2644.88
475.72	2683.88
475.939	2673.88
476.158	2736.88
476.377	2788.88
476.596	2761.88
476.814	2745.88
477.033	2773.88
477.252	2765.88
477.471	2854.88
477.69	2873.88
477.908	2935.88
478.127	2962.88
478.346	2970.88
478.564	3044.88
478.783	2974.88
479.002	3063.88
479.22	3122.88
479.439	3189.88
479.658	3128.88
479.876	3091.88
480.095	3144.88
480.313	3221.88
480.532	3227.88
480.751	3192.88
480.969	3184.88
481.188	3162.88
481.406	3141.88
481.624	3129.88
481.843	3207.88
482.061	3160.88
482.28	3138.88
482.498	3138.88
482.717	3111.88
482.935	3226.88
483.153	3229.88
483.372	3271.88
483.59	3303.88
483.808	3362.88
484.027	3414.88
484.245	3572.88
484.463	4061.88
484.681	4396.88
484.9	4076.88
485.118	3840.88
485.336	3692.88
485.554	3803.88
485.772	3979.88
485.99	4444.88
486.209	4769.88
486.427	4084.88
486.645	3636.88
486.863	3515.88
487.081	3431.88
487.299	3352.88
487.517	3399.88
487.735	3364.88
