Data from SnStandardFlinnAPT0064_LampEnergy10_LIBS07252019.E.O._I.C._HRD10591_15-19-31-493.txt Node
Date: Thu Jul 25 15:19:31 EDT 2019
User: cochatt
Spectrometer: HR+D1059
Trigger mode: 1
Integration Time (sec): 1.000000E-1
Scans to average: 1
Electric dark correction enabled: true
Nonlinearity correction enabled: false
Boxcar width: 0
XAxis mode: Wavelengths
Number of Pixels in Spectrum: 2048
>>>>>Begin Spectral Data<<<<<
223.165	-2.44
223.4	-2.44
223.635	-2.44
223.869	-19.44
224.104	-11.44
224.338	-15.44
224.573	-18.44
224.808	-20.44
225.042	-14.44
225.277	4.56
225.511	-6.44
225.746	11.56
225.98	10.56
226.215	4.56
226.449	14.56
226.683	10.56
226.918	17.56
227.152	34.56
227.387	34.56
227.621	23.56
227.856	31.56
228.09	39.56
228.324	53.56
228.559	53.56
228.793	131.56
229.027	322.56
229.262	340.56
229.496	337.56
229.73	319.56
229.964	310.56
230.199	307.56
230.433	321.56
230.667	308.56
230.901	324.56
231.136	334.56
231.37	360.56
231.604	400.56
231.838	451.56
232.072	534.56
232.306	604.56
232.541	502.56
232.775	457.56
233.009	423.56
233.243	430.56
233.477	473.56
233.711	544.56
233.945	616.56
234.179	535.56
234.413	468.56
234.647	470.56
234.881	473.56
235.115	534.56
235.349	656.56
235.583	786.56
235.817	1070.56
236.051	1029.56
236.285	683.56
236.519	563.56
236.753	523.56
236.987	527.56
237.221	551.56
237.455	520.56
237.689	466.56
237.922	481.56
238.156	500.56
238.39	494.56
238.624	517.56
238.858	511.56
239.091	491.56
239.325	498.56
239.559	509.56
239.793	525.56
240.027	539.56
240.26	563.56
240.494	587.56
240.728	625.56
240.961	642.56
241.195	687.56
241.429	721.56
241.662	726.56
241.896	842.56
242.13	1031.56
242.363	1322.56
242.597	1707.56
242.83	1646.56
243.064	1656.56
243.298	1929.56
243.531	1592.56
243.765	1017.56
243.998	807.56
244.232	720.56
244.465	699.56
244.699	655.56
244.932	660.56
245.166	691.56
245.399	677.56
245.633	710.56
245.866	726.56
246.099	692.56
246.333	636.56
246.566	648.56
246.8	668.56
247.033	645.56
247.266	648.56
247.5	661.56
247.733	680.56
247.966	733.56
248.2	769.56
248.433	915.56
248.666	1041.56
248.899	973.56
249.133	880.56
249.366	917.56
249.599	1008.56
249.832	1123.56
250.066	1126.56
250.299	896.56
250.532	819.56
250.765	754.56
250.998	729.56
251.231	759.56
251.465	739.56
251.698	734.56
251.931	722.56
252.164	760.56
252.397	763.56
252.63	814.56
252.863	824.56
253.096	802.56
253.329	775.56
253.562	773.56
253.795	830.56
254.028	811.56
254.261	845.56
254.494	911.56
254.727	1068.56
254.96	1306.56
255.193	1253.56
255.426	1031.56
255.659	914.56
255.892	894.56
256.124	866.56
256.357	897.56
256.59	928.56
256.823	1007.56
257.056	1138.56
257.289	1401.56
257.521	1568.56
257.754	1259.56
257.987	1011.56
258.22	936.56
258.452	914.56
258.685	911.56
258.918	973.56
259.151	1017.56
259.383	1125.56
259.616	1231.56
259.849	1341.56
260.081	1106.56
260.314	996.56
260.547	957.56
260.779	939.56
261.012	947.56
261.244	973.56
261.477	983.56
261.71	991.56
261.942	993.56
262.175	1010.56
262.407	1050.56
262.64	1077.56
262.872	1062.56
263.105	1118.56
263.337	1172.56
263.57	1244.56
263.802	1234.56
264.035	1253.56
264.267	1292.56
264.499	1298.56
264.732	1395.56
264.964	1429.56
265.197	1391.56
265.429	1395.56
265.661	1456.56
265.894	1536.56
266.126	1696.56
266.358	1997.56
266.591	1896.56
266.823	1592.56
267.055	1435.56
267.287	1342.56
267.52	1328.56
267.752	1275.56
267.984	1239.56
268.216	1236.56
268.448	1228.56
268.681	1233.56
268.913	1200.56
269.145	1227.56
269.377	1220.56
269.609	1244.56
269.841	1268.56
270.073	1403.56
270.306	1662.56
270.538	2240.56
270.77	3419.56
271.002	4185.56
271.234	2965.56
271.466	2004.56
271.698	1584.56
271.93	1454.56
272.162	1365.56
272.394	1309.56
272.626	1265.56
272.858	1239.56
273.09	1249.56
273.322	1224.56
273.553	1212.56
273.785	1211.56
274.017	1199.56
274.249	1183.56
274.481	1202.56
274.713	1200.56
274.945	1217.56
275.176	1194.56
275.408	1187.56
275.64	1233.56
275.872	1229.56
276.104	1211.56
276.335	1290.56
276.567	1288.56
276.799	1285.56
277.031	1345.56
277.262	1323.56
277.494	1448.56
277.726	1620.56
277.957	1897.56
278.189	2223.56
278.421	2023.56
278.652	1793.56
278.884	1705.56
279.115	1518.56
279.347	1426.56
279.579	1450.56
279.81	1402.56
280.042	1397.56
280.273	1430.56
280.505	1499.56
280.736	1536.56
280.968	1612.56
281.199	1813.56
281.431	2150.56
281.662	2154.56
281.894	1849.56
282.125	1675.56
282.356	1674.56
282.588	1714.56
282.819	1748.56
283.051	1889.56
283.282	2099.56
283.513	2598.56
283.745	3781.56
283.976	5977.56
284.207	8549.56
284.439	7772.56
284.67	4885.56
284.901	4051.56
285.132	3998.56
285.364	3824.56
285.595	2846.56
285.826	2589.56
286.057	3000.56
286.288	4162.56
286.52	5526.56
286.751	5206.56
286.982	3287.56
287.213	2432.56
287.444	2114.56
287.675	1932.56
287.906	1818.56
288.138	1799.56
288.369	1750.56
288.6	1722.56
288.831	1710.56
289.062	1692.56
289.293	1686.56
289.524	1700.56
289.755	1716.56
289.986	1706.56
290.217	1737.56
290.448	1719.56
290.679	1733.56
290.91	1746.56
291.141	1902.56
291.371	2034.56
291.602	2184.56
291.833	1925.56
292.064	1771.56
292.295	1688.56
292.526	1718.56
292.757	1633.56
292.987	1662.56
293.218	1616.56
293.449	1628.56
293.68	1556.56
293.91	1558.56
294.141	1548.56
294.372	1575.56
294.603	1538.56
294.833	1550.56
295.064	1568.56
295.295	1580.56
295.525	1555.56
295.756	1562.56
295.987	1531.56
296.217	1558.56
296.448	1563.56
296.679	1587.56
296.909	1606.56
297.14	1588.56
297.37	1600.56
297.601	1619.56
297.831	1614.56
298.062	1604.56
298.292	1662.56
298.523	1714.56
298.753	1698.56
298.984	1723.56
299.214	1754.56
299.445	1777.56
299.675	1795.56
299.905	1878.56
300.136	1959.56
300.366	2206.56
300.597	2788.56
300.827	4092.56
301.057	5569.56
301.288	5634.56
301.518	3616.56
301.748	2704.56
301.979	2456.56
302.209	2351.56
302.439	2412.56
302.669	2575.56
302.9	3098.56
303.13	4375.56
303.36	6580.56
303.59	8760.56
303.82	7740.56
304.051	4594.56
304.281	3227.56
304.511	2618.56
304.741	2453.56
304.971	2216.56
305.201	2110.56
305.431	2008.56
305.661	2002.56
305.891	1923.56
306.121	1902.56
306.352	1855.56
306.582	1834.56
306.812	1806.56
307.042	1841.56
307.272	1838.56
307.502	1808.56
307.731	1805.56
307.961	1814.56
308.191	1793.56
308.421	1764.56
308.651	1779.56
308.881	1825.56
309.111	1824.56
309.341	1830.56
309.571	1826.56
309.8	1846.56
310.03	1840.56
310.26	1791.56
310.49	1839.56
310.72	1880.56
310.949	1884.56
311.179	1865.56
311.409	1874.56
311.639	1934.56
311.868	1908.56
312.098	1957.56
312.328	1946.56
312.557	1948.56
312.787	1956.56
313.017	1960.56
313.246	2010.56
313.476	2001.56
313.706	2071.56
313.935	2191.56
314.165	2398.56
314.394	2494.56
314.624	2377.56
314.853	2196.56
315.083	2132.56
315.312	2191.56
315.542	2250.56
315.771	2245.56
316.001	2294.56
316.23	2353.56
316.46	2474.56
316.689	2776.56
316.919	3302.56
317.148	4896.56
317.377	7499.56
317.607	11024.56
317.836	11549.56
318.065	7079.56
318.295	4593.56
318.524	3643.56
318.753	3152.56
318.983	2854.56
319.212	2660.56
319.441	2608.56
319.67	2529.56
319.9	2390.56
320.129	2414.56
320.358	2382.56
320.587	2399.56
320.816	2386.56
321.046	2311.56
321.275	2402.56
321.504	2412.56
321.733	2446.56
321.962	2480.56
322.191	2518.56
322.42	2505.56
322.649	2488.56
322.878	2484.56
323.108	2478.56
323.337	2577.56
323.566	2570.56
323.795	2654.56
324.024	2667.56
324.253	2764.56
324.482	2914.56
324.71	3043.56
324.939	3308.56
325.168	3348.56
325.397	3533.56
325.626	4199.56
325.855	5861.56
326.084	9173.56
326.313	13188.56
326.542	13916.56
326.77	9878.56
326.999	6386.56
327.228	5238.56
327.457	5012.56
327.686	5015.56
327.914	5266.56
328.143	6177.56
328.372	7364.56
328.6	8078.56
328.829	7195.56
329.058	5996.56
329.287	5266.56
329.515	4717.56
329.744	4308.56
329.972	4103.56
330.201	3942.56
330.43	3742.56
330.658	3662.56
330.887	3526.56
331.115	3496.56
331.344	3487.56
331.572	3487.56
331.801	3450.56
332.03	3503.56
332.258	3569.56
332.486	3781.56
332.715	4360.56
332.943	5467.56
333.172	6843.56
333.4	6871.56
333.629	5177.56
333.857	4621.56
334.085	4616.56
334.314	4768.56
334.542	5206.56
334.771	6128.56
334.999	7590.56
335.227	9558.56
335.455	10775.56
335.684	9594.56
335.912	7769.56
336.14	6673.56
336.369	5779.56
336.597	5314.56
336.825	4774.56
337.053	4535.56
337.281	4328.56
337.51	4088.56
337.738	3879.56
337.966	3662.56
338.194	3585.56
338.422	3451.56
338.65	3390.56
338.878	3258.56
339.106	3220.56
339.334	3197.56
339.562	3150.56
339.79	3054.56
340.018	3030.56
340.246	3034.56
340.474	3015.56
340.702	3006.56
340.93	2980.56
341.158	2937.56
341.386	2954.56
341.614	2927.56
341.842	2918.56
342.07	2822.56
342.298	2818.56
342.526	2716.56
342.754	2679.56
342.981	2675.56
343.209	2736.56
343.437	2754.56
343.665	2716.56
343.893	2769.56
344.12	2776.56
344.348	2727.56
344.576	2691.56
344.804	2644.56
345.031	2598.56
345.259	2603.56
345.487	2541.56
345.714	2546.56
345.942	2515.56
346.17	2530.56
346.397	2475.56
346.625	2517.56
346.853	2514.56
347.08	2519.56
347.308	2508.56
347.535	2512.56
347.763	2487.56
347.99	2453.56
348.218	2429.56
348.445	2435.56
348.673	2415.56
348.9	2432.56
349.128	2432.56
349.355	2429.56
349.583	2424.56
349.81	2378.56
350.037	2373.56
350.265	2398.56
350.492	2371.56
350.72	2393.56
350.947	2357.56
351.174	2416.56
351.402	2399.56
351.629	2370.56
351.856	2308.56
352.083	2387.56
352.311	2345.56
352.538	2369.56
352.765	2370.56
352.992	2311.56
353.22	2352.56
353.447	2304.56
353.674	2368.56
353.901	2378.56
354.128	2353.56
354.355	2307.56
354.583	2374.56
354.81	2392.56
355.037	2415.56
355.264	2403.56
355.491	2413.56
355.718	2446.56
355.945	2440.56
356.172	2425.56
356.399	2430.56
356.626	2409.56
356.853	2494.56
357.08	2506.56
357.307	2527.56
357.534	2530.56
357.761	2562.56
357.988	2533.56
358.215	2531.56
358.441	2546.56
358.668	2502.56
358.895	2532.56
359.122	2529.56
359.349	2531.56
359.576	2511.56
359.802	2518.56
360.029	2497.56
360.256	2505.56
360.483	2509.56
360.709	2518.56
360.936	2500.56
361.163	2508.56
361.39	2467.56
361.616	2515.56
361.843	2518.56
362.07	2531.56
362.296	2530.56
362.523	2491.56
362.749	2499.56
362.976	2514.56
363.203	2480.56
363.429	2427.56
363.656	2484.56
363.882	2532.56
364.109	2487.56
364.335	2479.56
364.562	2484.56
364.788	2488.56
365.015	2574.56
365.241	2592.56
365.468	2798.56
365.694	2938.56
365.92	2846.56
366.147	2609.56
366.373	2595.56
366.599	2580.56
366.826	2580.56
367.052	2557.56
367.278	2551.56
367.505	2580.56
367.731	2534.56
367.957	2572.56
368.184	2584.56
368.41	2644.56
368.636	2635.56
368.862	2610.56
369.089	2614.56
369.315	2587.56
369.541	2559.56
369.767	2564.56
369.993	2569.56
370.219	2583.56
370.445	2592.56
370.672	2611.56
370.898	2623.56
371.124	2651.56
371.35	2621.56
371.576	2632.56
371.802	2695.56
372.028	2679.56
372.254	2718.56
372.48	2696.56
372.706	2734.56
372.932	2754.56
373.158	2734.56
373.384	2759.56
373.61	2682.56
373.835	2738.56
374.061	2696.56
374.287	2763.56
374.513	2788.56
374.739	2848.56
374.965	2869.56
375.191	2839.56
375.416	2837.56
375.642	2763.56
375.868	2789.56
376.094	2752.56
376.319	2748.56
376.545	2698.56
376.771	2719.56
376.997	2670.56
377.222	2606.56
377.448	2676.56
377.674	2673.56
377.899	2630.56
378.125	2720.56
378.35	2627.56
378.576	2710.56
378.802	2697.56
379.027	2729.56
379.253	2848.56
379.478	2976.56
379.704	3663.56
379.929	5280.56
380.155	8289.56
380.38	9098.56
380.606	5590.56
380.831	3847.56
381.057	3266.56
381.282	2991.56
381.507	2899.56
381.733	2840.56
381.958	2722.56
382.184	2674.56
382.409	2721.56
382.634	2673.56
382.86	2599.56
383.085	2630.56
383.31	2670.56
383.535	2683.56
383.761	2664.56
383.986	2638.56
384.211	2658.56
384.436	2726.56
384.662	2742.56
384.887	2734.56
385.112	2724.56
385.337	2760.56
385.562	2713.56
385.787	2778.56
386.013	2753.56
386.238	2730.56
386.463	2718.56
386.688	2771.56
386.913	2673.56
387.138	2727.56
387.363	2670.56
387.588	2707.56
387.813	2720.56
388.038	2698.56
388.263	2684.56
388.488	2722.56
388.713	2695.56
388.938	2678.56
389.163	2696.56
389.387	2732.56
389.612	2670.56
389.837	2715.56
390.062	2702.56
390.287	2752.56
390.512	2767.56
390.736	2775.56
390.961	2760.56
391.186	2828.56
391.411	2839.56
391.636	2874.56
391.86	2900.56
392.085	2832.56
392.31	2823.56
392.534	2833.56
392.759	2797.56
392.984	2755.56
393.208	2820.56
393.433	2828.56
393.658	2848.56
393.882	2715.56
394.107	2736.56
394.331	2744.56
394.556	2811.56
394.78	2798.56
395.005	2789.56
395.229	2756.56
395.454	2783.56
395.678	2845.56
395.903	2838.56
396.127	2848.56
396.352	2788.56
396.576	2803.56
396.801	2834.56
397.025	2898.56
397.249	2856.56
397.474	2846.56
397.698	2832.56
397.922	2922.56
398.147	2860.56
398.371	2906.56
398.595	2974.56
398.82	3008.56
399.044	3149.56
399.268	3311.56
399.492	3461.56
399.717	3562.56
399.941	3553.56
400.165	3395.56
400.389	3295.56
400.613	3123.56
400.837	3064.56
401.062	3041.56
401.286	3010.56
401.51	3003.56
401.734	2963.56
401.958	3018.56
402.182	3025.56
402.406	2976.56
402.63	2997.56
402.854	3000.56
403.078	3006.56
403.302	3013.56
403.526	3049.56
403.75	3095.56
403.974	3134.56
404.198	3088.56
404.422	3100.56
404.645	3071.56
404.869	3096.56
405.093	3139.56
405.317	3113.56
405.541	3174.56
405.765	3193.56
405.988	3247.56
406.212	3156.56
406.436	3203.56
406.66	3239.56
406.883	3231.56
407.107	3359.56
407.331	3371.56
407.555	3360.56
407.778	3364.56
408.002	3310.56
408.226	3301.56
408.449	3369.56
408.673	3250.56
408.896	3228.56
409.12	3163.56
409.344	3158.56
409.567	3122.56
409.791	3133.56
410.014	3098.56
410.238	3089.56
410.461	3106.56
410.685	3094.56
410.908	3076.56
411.132	3095.56
411.355	2976.56
411.578	2956.56
411.802	2966.56
412.025	2979.56
412.249	3028.56
412.472	3016.56
412.695	2984.56
412.919	2891.56
413.142	2953.56
413.365	2938.56
413.589	2936.56
413.812	2891.56
414.035	2952.56
414.258	2946.56
414.482	2938.56
414.705	2948.56
414.928	2956.56
415.151	2938.56
415.374	2940.56
415.597	2871.56
415.821	2822.56
416.044	2814.56
416.267	2782.56
416.49	2865.56
416.713	2809.56
416.936	2829.56
417.159	2806.56
417.382	2841.56
417.605	2827.56
417.828	2805.56
418.051	2810.56
418.274	2861.56
418.497	2838.56
418.72	2869.56
418.943	2882.56
419.166	2987.56
419.389	3171.56
419.611	3033.56
419.834	2944.56
420.057	2910.56
420.28	2868.56
420.503	2778.56
420.726	2810.56
420.948	2809.56
421.171	2793.56
421.394	2840.56
421.617	2837.56
421.839	2857.56
422.062	2814.56
422.285	2780.56
422.507	2878.56
422.73	2886.56
422.953	2940.56
423.175	2926.56
423.398	2894.56
423.621	2822.56
423.843	2827.56
424.066	2834.56
424.288	2801.56
424.511	2876.56
424.733	2836.56
424.956	2754.56
425.178	2788.56
425.401	2761.56
425.623	2784.56
425.846	2690.56
426.068	2731.56
426.291	2729.56
426.513	2715.56
426.735	2694.56
426.958	2690.56
427.18	2673.56
427.402	2707.56
427.625	2675.56
427.847	2619.56
428.069	2597.56
428.292	2691.56
428.514	2646.56
428.736	2674.56
428.958	2620.56
429.181	2550.56
429.403	2632.56
429.625	2649.56
429.847	2621.56
430.069	2641.56
430.292	2826.56
430.514	2850.56
430.736	2814.56
430.958	2697.56
431.18	2584.56
431.402	2617.56
431.624	2505.56
431.846	2585.56
432.068	2568.56
432.29	2582.56
432.512	2538.56
432.734	2622.56
432.956	2595.56
433.178	2604.56
433.4	2603.56
433.622	2578.56
433.844	2595.56
434.066	2561.56
434.287	2605.56
434.509	2692.56
434.731	2706.56
434.953	2709.56
435.175	2706.56
435.397	2735.56
435.618	2656.56
435.84	2630.56
436.062	2619.56
436.284	2577.56
436.505	2571.56
436.727	2593.56
436.949	2598.56
437.17	2527.56
437.392	2539.56
437.614	2538.56
437.835	2472.56
438.057	2479.56
438.278	2495.56
438.5	2547.56
438.721	2558.56
438.943	2616.56
439.165	2712.56
439.386	2714.56
439.608	2688.56
439.829	2730.56
440.05	2775.56
440.272	2879.56
440.493	2706.56
440.715	2674.56
440.936	2710.56
441.158	2722.56
441.379	2748.56
441.6	2828.56
441.822	2911.56
442.043	3072.56
442.264	3163.56
442.486	2937.56
442.707	2826.56
442.928	2809.56
443.149	2792.56
443.371	2744.56
443.592	2808.56
443.813	2782.56
444.034	2794.56
444.255	2832.56
444.476	2832.56
444.698	2889.56
444.919	2970.56
445.14	2990.56
445.361	2904.56
445.582	2856.56
445.803	2815.56
446.024	2791.56
446.245	2768.56
446.466	2771.56
446.687	2697.56
446.908	2733.56
447.129	2672.56
447.35	2646.56
447.571	2642.56
447.792	2571.56
448.013	2536.56
448.234	2518.56
448.455	2588.56
448.675	2645.56
448.896	2718.56
449.117	2758.56
449.338	3029.56
449.559	3066.56
449.779	2798.56
450	2690.56
450.221	2559.56
450.442	2564.56
450.662	2566.56
450.883	2500.56
451.104	2491.56
451.324	2532.56
451.545	2491.56
451.766	2548.56
451.986	2617.56
452.207	2770.56
452.428	3671.56
452.648	5784.56
452.869	4812.56
453.089	3305.56
453.31	3000.56
453.53	2954.56
453.751	3118.56
453.971	3236.56
454.192	3174.56
454.412	2700.56
454.633	2569.56
454.853	2462.56
455.073	2428.56
455.294	2426.56
455.514	2392.56
455.734	2408.56
455.955	2387.56
456.175	2411.56
456.395	2384.56
456.616	2391.56
456.836	2466.56
457.056	2440.56
457.276	2468.56
457.497	2651.56
457.717	2619.56
457.937	2536.56
458.157	2550.56
458.377	2508.56
458.598	2533.56
458.818	2562.56
459.038	2562.56
459.258	2547.56
459.478	2582.56
459.698	2612.56
459.918	2648.56
460.138	2704.56
460.358	2763.56
460.578	2798.56
460.798	2820.56
461.018	2800.56
461.238	2816.56
461.458	2790.56
461.678	2871.56
461.898	2962.56
462.118	2982.56
462.338	3056.56
462.558	2970.56
462.777	3109.56
462.997	3161.56
463.217	3362.56
463.437	3472.56
463.657	3514.56
463.876	3546.56
464.096	3343.56
464.316	3138.56
464.536	3150.56
464.755	3008.56
464.975	2997.56
465.195	2874.56
465.414	2808.56
465.634	2782.56
465.854	2681.56
466.073	2683.56
466.293	2687.56
466.512	2630.56
466.732	2706.56
466.951	2816.56
467.171	3032.56
467.391	2906.56
467.61	2659.56
467.829	2633.56
468.049	2619.56
468.268	2561.56
468.488	2580.56
468.707	2552.56
468.927	2552.56
469.146	2582.56
469.365	2586.56
469.585	2602.56
469.804	2697.56
470.023	2736.56
470.243	2779.56
470.462	2862.56
470.681	3013.56
470.901	3328.56
471.12	3814.56
471.339	3769.56
471.558	3178.56
471.777	2917.56
471.997	2752.56
472.216	2672.56
472.435	2657.56
472.654	2586.56
472.873	2560.56
473.092	2593.56
473.311	2593.56
473.53	2631.56
473.749	2672.56
473.968	2789.56
474.187	2646.56
474.406	2587.56
474.625	2555.56
474.844	2618.56
475.063	2595.56
475.282	2607.56
475.501	2612.56
475.72	2655.56
475.939	2611.56
476.158	2696.56
476.377	2786.56
476.596	2685.56
476.814	2731.56
477.033	2760.56
477.252	2720.56
477.471	2843.56
477.69	2864.56
477.908	2879.56
478.127	2968.56
478.346	2951.56
478.564	2917.56
478.783	3030.56
479.002	3046.56
479.22	3049.56
479.439	3108.56
479.658	3097.56
479.876	3096.56
480.095	3082.56
480.313	3172.56
480.532	3180.56
480.751	3154.56
480.969	3150.56
481.188	3131.56
481.406	3112.56
481.624	3093.56
481.843	3196.56
482.061	3136.56
482.28	3152.56
482.498	3164.56
482.717	3087.56
482.935	3163.56
483.153	3247.56
483.372	3238.56
483.59	3283.56
483.808	3359.56
484.027	3401.56
484.245	3652.56
484.463	4104.56
484.681	4533.56
484.9	4129.56
485.118	3854.56
485.336	3803.56
485.554	3852.56
485.772	4080.56
485.99	4579.56
486.209	4942.56
486.427	4168.56
486.645	3708.56
486.863	3590.56
487.081	3446.56
487.299	3365.56
487.517	3375.56
487.735	3371.56
