Data from SnStandardFlinnAPT0064_LampEnergy10_LIBS07252019.E.O._I.C._HRD10591_15-19-34-492.txt Node
Date: Thu Jul 25 15:19:34 EDT 2019
User: cochatt
Spectrometer: HR+D1059
Trigger mode: 1
Integration Time (sec): 1.000000E-1
Scans to average: 1
Electric dark correction enabled: true
Nonlinearity correction enabled: false
Boxcar width: 0
XAxis mode: Wavelengths
Number of Pixels in Spectrum: 2048
>>>>>Begin Spectral Data<<<<<
223.165	-25.44
223.4	-25.44
223.635	-25.44
223.869	-13.44
224.104	-17.44
224.338	-23.44
224.573	-30.44
224.808	-12.44
225.042	-7.44
225.277	-4.44
225.511	-6.44
225.746	15.56
225.98	20.56
226.215	5.56
226.449	18.56
226.683	32.56
226.918	19.56
227.152	28.56
227.387	42.56
227.621	35.56
227.856	34.56
228.09	45.56
228.324	56.56
228.559	58.56
228.793	118.56
229.027	327.56
229.262	377.56
229.496	325.56
229.73	313.56
229.964	313.56
230.199	322.56
230.433	316.56
230.667	334.56
230.901	328.56
231.136	348.56
231.37	388.56
231.604	416.56
231.838	454.56
232.072	552.56
232.306	596.56
232.541	485.56
232.775	439.56
233.009	443.56
233.243	451.56
233.477	484.56
233.711	548.56
233.945	615.56
234.179	534.56
234.413	475.56
234.647	450.56
234.881	505.56
235.115	574.56
235.349	636.56
235.583	849.56
235.817	1070.56
236.051	1038.56
236.285	703.56
236.519	558.56
236.753	531.56
236.987	532.56
237.221	546.56
237.455	527.56
237.689	476.56
237.922	470.56
238.156	488.56
238.39	505.56
238.624	522.56
238.858	530.56
239.091	491.56
239.325	501.56
239.559	512.56
239.793	531.56
240.027	553.56
240.26	560.56
240.494	582.56
240.728	602.56
240.961	658.56
241.195	686.56
241.429	713.56
241.662	754.56
241.896	812.56
242.13	1014.56
242.363	1332.56
242.597	1714.56
242.83	1676.56
243.064	1639.56
243.298	1895.56
243.531	1561.56
243.765	1009.56
243.998	818.56
244.232	739.56
244.465	708.56
244.699	699.56
244.932	671.56
245.166	708.56
245.399	695.56
245.633	707.56
245.866	699.56
246.099	680.56
246.333	674.56
246.566	643.56
246.8	632.56
247.033	664.56
247.266	665.56
247.5	674.56
247.733	702.56
247.966	743.56
248.2	780.56
248.433	904.56
248.666	1027.56
248.899	987.56
249.133	878.56
249.366	912.56
249.599	982.56
249.832	1170.56
250.066	1118.56
250.299	899.56
250.532	808.56
250.765	784.56
250.998	778.56
251.231	747.56
251.465	736.56
251.698	756.56
251.931	758.56
252.164	756.56
252.397	779.56
252.63	801.56
252.863	822.56
253.096	806.56
253.329	799.56
253.562	795.56
253.795	796.56
254.028	800.56
254.261	875.56
254.494	912.56
254.727	1067.56
254.96	1260.56
255.193	1265.56
255.426	1024.56
255.659	923.56
255.892	900.56
256.124	918.56
256.357	892.56
256.59	950.56
256.823	1027.56
257.056	1158.56
257.289	1412.56
257.521	1568.56
257.754	1284.56
257.987	1013.56
258.22	943.56
258.452	921.56
258.685	945.56
258.918	983.56
259.151	1040.56
259.383	1114.56
259.616	1246.56
259.849	1298.56
260.081	1114.56
260.314	1034.56
260.547	987.56
260.779	983.56
261.012	1017.56
261.244	958.56
261.477	992.56
261.71	1018.56
261.942	1045.56
262.175	1012.56
262.407	1048.56
262.64	1052.56
262.872	1129.56
263.105	1131.56
263.337	1177.56
263.57	1262.56
263.802	1310.56
264.035	1312.56
264.267	1343.56
264.499	1352.56
264.732	1444.56
264.964	1451.56
265.197	1423.56
265.429	1412.56
265.661	1479.56
265.894	1594.56
266.126	1755.56
266.358	1980.56
266.591	1939.56
266.823	1619.56
267.055	1464.56
267.287	1376.56
267.52	1310.56
267.752	1300.56
267.984	1302.56
268.216	1262.56
268.448	1252.56
268.681	1259.56
268.913	1220.56
269.145	1244.56
269.377	1222.56
269.609	1274.56
269.841	1332.56
270.073	1400.56
270.306	1660.56
270.538	2247.56
270.77	3388.56
271.002	4138.56
271.234	3000.56
271.466	1983.56
271.698	1590.56
271.93	1477.56
272.162	1392.56
272.394	1316.56
272.626	1316.56
272.858	1268.56
273.09	1285.56
273.322	1242.56
273.553	1202.56
273.785	1209.56
274.017	1224.56
274.249	1224.56
274.481	1225.56
274.713	1214.56
274.945	1241.56
275.176	1228.56
275.408	1270.56
275.64	1267.56
275.872	1255.56
276.104	1267.56
276.335	1274.56
276.567	1298.56
276.799	1288.56
277.031	1294.56
277.262	1376.56
277.494	1495.56
277.726	1620.56
277.957	1933.56
278.189	2212.56
278.421	2070.56
278.652	1809.56
278.884	1727.56
279.115	1572.56
279.347	1492.56
279.579	1454.56
279.81	1418.56
280.042	1418.56
280.273	1460.56
280.505	1503.56
280.736	1510.56
280.968	1642.56
281.199	1854.56
281.431	2118.56
281.662	2170.56
281.894	1862.56
282.125	1708.56
282.356	1701.56
282.588	1691.56
282.819	1799.56
283.051	1911.56
283.282	2083.56
283.513	2572.56
283.745	3770.56
283.976	5902.56
284.207	8354.56
284.439	7666.56
284.67	4909.56
284.901	4001.56
285.132	4049.56
285.364	3793.56
285.595	2863.56
285.826	2587.56
286.057	3023.56
286.288	4101.56
286.52	5458.56
286.751	5218.56
286.982	3310.56
287.213	2403.56
287.444	2107.56
287.675	1946.56
287.906	1836.56
288.138	1792.56
288.369	1769.56
288.6	1745.56
288.831	1721.56
289.062	1742.56
289.293	1711.56
289.524	1731.56
289.755	1699.56
289.986	1721.56
290.217	1726.56
290.448	1780.56
290.679	1776.56
290.91	1816.56
291.141	1891.56
291.371	2098.56
291.602	2200.56
291.833	1948.56
292.064	1804.56
292.295	1722.56
292.526	1686.56
292.757	1681.56
292.987	1619.56
293.218	1612.56
293.449	1627.56
293.68	1612.56
293.91	1601.56
294.141	1626.56
294.372	1601.56
294.603	1566.56
294.833	1578.56
295.064	1611.56
295.295	1591.56
295.525	1548.56
295.756	1585.56
295.987	1572.56
296.217	1582.56
296.448	1635.56
296.679	1590.56
296.909	1602.56
297.14	1654.56
297.37	1664.56
297.601	1641.56
297.831	1637.56
298.062	1690.56
298.292	1678.56
298.523	1707.56
298.753	1722.56
298.984	1670.56
299.214	1792.56
299.445	1817.56
299.675	1828.56
299.905	1868.56
300.136	2019.56
300.366	2247.56
300.597	2836.56
300.827	3996.56
301.057	5501.56
301.288	5554.56
301.518	3615.56
301.748	2753.56
301.979	2471.56
302.209	2362.56
302.439	2408.56
302.669	2579.56
302.9	3095.56
303.13	4358.56
303.36	6469.56
303.59	8636.56
303.82	7600.56
304.051	4547.56
304.281	3226.56
304.511	2696.56
304.741	2424.56
304.971	2343.56
305.201	2161.56
305.431	2108.56
305.661	1985.56
305.891	1974.56
306.121	1978.56
306.352	1930.56
306.582	1862.56
306.812	1864.56
307.042	1873.56
307.272	1891.56
307.502	1828.56
307.731	1850.56
307.961	1861.56
308.191	1877.56
308.421	1833.56
308.651	1862.56
308.881	1858.56
309.111	1864.56
309.341	1805.56
309.571	1832.56
309.8	1944.56
310.03	1910.56
310.26	1896.56
310.49	1857.56
310.72	1906.56
310.949	1922.56
311.179	1912.56
311.409	1930.56
311.639	1931.56
311.868	1962.56
312.098	2003.56
312.328	1973.56
312.557	1986.56
312.787	1985.56
313.017	2004.56
313.246	2016.56
313.476	2032.56
313.706	2150.56
313.935	2259.56
314.165	2432.56
314.394	2548.56
314.624	2449.56
314.853	2226.56
315.083	2197.56
315.312	2182.56
315.542	2270.56
315.771	2246.56
316.001	2281.56
316.23	2384.56
316.46	2497.56
316.689	2812.56
316.919	3384.56
317.148	4797.56
317.377	7319.56
317.607	10742.56
317.836	11293.56
318.065	7079.56
318.295	4632.56
318.524	3676.56
318.753	3171.56
318.983	2890.56
319.212	2698.56
319.441	2618.56
319.67	2548.56
319.9	2436.56
320.129	2450.56
320.358	2437.56
320.587	2395.56
320.816	2362.56
321.046	2406.56
321.275	2392.56
321.504	2453.56
321.733	2486.56
321.962	2561.56
322.191	2633.56
322.42	2526.56
322.649	2546.56
322.878	2581.56
323.108	2541.56
323.337	2567.56
323.566	2633.56
323.795	2718.56
324.024	2762.56
324.253	2828.56
324.482	2900.56
324.71	3125.56
324.939	3290.56
325.168	3379.56
325.397	3588.56
325.626	4195.56
325.855	5820.56
326.084	9145.56
326.313	13086.56
326.542	13850.56
326.77	9732.56
326.999	6504.56
327.228	5377.56
327.457	5059.56
327.686	5091.56
327.914	5416.56
328.143	6304.56
328.372	7519.56
328.6	8135.56
328.829	7247.56
329.058	6107.56
329.287	5316.56
329.515	4803.56
329.744	4448.56
329.972	4181.56
330.201	3945.56
330.43	3846.56
330.658	3674.56
330.887	3662.56
331.115	3583.56
331.344	3608.56
331.572	3507.56
331.801	3551.56
332.03	3557.56
332.258	3676.56
332.486	3856.56
332.715	4372.56
332.943	5512.56
333.172	6860.56
333.4	6822.56
333.629	5158.56
333.857	4712.56
334.085	4664.56
334.314	4811.56
334.542	5261.56
334.771	6242.56
334.999	7732.56
335.227	9680.56
335.455	10898.56
335.684	9820.56
335.912	8036.56
336.14	6702.56
336.369	5906.56
336.597	5390.56
336.825	4950.56
337.053	4648.56
337.281	4266.56
337.51	4122.56
337.738	3957.56
337.966	3736.56
338.194	3590.56
338.422	3540.56
338.65	3435.56
338.878	3347.56
339.106	3240.56
339.334	3303.56
339.562	3161.56
339.79	3150.56
340.018	3086.56
340.246	3097.56
340.474	3026.56
340.702	3019.56
340.93	3049.56
341.158	3057.56
341.386	3019.56
341.614	3033.56
341.842	2934.56
342.07	2860.56
342.298	2843.56
342.526	2816.56
342.754	2764.56
342.981	2668.56
343.209	2723.56
343.437	2750.56
343.665	2768.56
343.893	2777.56
344.12	2801.56
344.348	2740.56
344.576	2752.56
344.804	2738.56
345.031	2672.56
345.259	2654.56
345.487	2647.56
345.714	2588.56
345.942	2566.56
346.17	2603.56
346.397	2578.56
346.625	2562.56
346.853	2588.56
347.08	2526.56
347.308	2507.56
347.535	2537.56
347.763	2593.56
347.99	2502.56
348.218	2494.56
348.445	2480.56
348.673	2476.56
348.9	2504.56
349.128	2482.56
349.355	2489.56
349.583	2463.56
349.81	2466.56
350.037	2438.56
350.265	2403.56
350.492	2442.56
350.72	2450.56
350.947	2412.56
351.174	2422.56
351.402	2475.56
351.629	2430.56
351.856	2478.56
352.083	2384.56
352.311	2394.56
352.538	2386.56
352.765	2399.56
352.992	2370.56
353.22	2396.56
353.447	2416.56
353.674	2418.56
353.901	2444.56
354.128	2392.56
354.355	2388.56
354.583	2431.56
354.81	2384.56
355.037	2443.56
355.264	2456.56
355.491	2443.56
355.718	2468.56
355.945	2470.56
356.172	2476.56
356.399	2487.56
356.626	2467.56
356.853	2500.56
357.08	2518.56
357.307	2577.56
357.534	2576.56
357.761	2589.56
357.988	2583.56
358.215	2540.56
358.441	2604.56
358.668	2559.56
358.895	2533.56
359.122	2533.56
359.349	2555.56
359.576	2566.56
359.802	2528.56
360.029	2518.56
360.256	2560.56
360.483	2603.56
360.709	2527.56
360.936	2561.56
361.163	2528.56
361.39	2550.56
361.616	2550.56
361.843	2556.56
362.07	2575.56
362.296	2606.56
362.523	2574.56
362.749	2592.56
362.976	2560.56
363.203	2517.56
363.429	2552.56
363.656	2539.56
363.882	2571.56
364.109	2498.56
364.335	2526.56
364.562	2562.56
364.788	2520.56
365.015	2638.56
365.241	2673.56
365.468	2824.56
365.694	2963.56
365.92	2846.56
366.147	2648.56
366.373	2641.56
366.599	2576.56
366.826	2612.56
367.052	2572.56
367.278	2632.56
367.505	2628.56
367.731	2614.56
367.957	2635.56
368.184	2624.56
368.41	2657.56
368.636	2649.56
368.862	2693.56
369.089	2673.56
369.315	2675.56
369.541	2657.56
369.767	2648.56
369.993	2706.56
370.219	2631.56
370.445	2650.56
370.672	2608.56
370.898	2651.56
371.124	2652.56
371.35	2696.56
371.576	2675.56
371.802	2708.56
372.028	2755.56
372.254	2740.56
372.48	2709.56
372.706	2724.56
372.932	2762.56
373.158	2795.56
373.384	2743.56
373.61	2728.56
373.835	2839.56
374.061	2881.56
374.287	2823.56
374.513	2798.56
374.739	2891.56
374.965	2908.56
375.191	2898.56
375.416	2905.56
375.642	2850.56
375.868	2820.56
376.094	2840.56
376.319	2804.56
376.545	2805.56
376.771	2767.56
376.997	2731.56
377.222	2749.56
377.448	2729.56
377.674	2727.56
377.899	2703.56
378.125	2775.56
378.35	2725.56
378.576	2761.56
378.802	2776.56
379.027	2827.56
379.253	2896.56
379.478	3022.56
379.704	3674.56
379.929	5250.56
380.155	8156.56
380.38	9017.56
380.606	5581.56
380.831	3847.56
381.057	3353.56
381.282	3084.56
381.507	2876.56
381.733	2828.56
381.958	2791.56
382.184	2733.56
382.409	2721.56
382.634	2686.56
382.86	2682.56
383.085	2697.56
383.31	2686.56
383.535	2744.56
383.761	2713.56
383.986	2682.56
384.211	2750.56
384.436	2734.56
384.662	2738.56
384.887	2817.56
385.112	2758.56
385.337	2770.56
385.562	2777.56
385.787	2764.56
386.013	2753.56
386.238	2774.56
386.463	2796.56
386.688	2864.56
386.913	2782.56
387.138	2776.56
387.363	2759.56
387.588	2754.56
387.813	2796.56
388.038	2795.56
388.263	2767.56
388.488	2796.56
388.713	2741.56
388.938	2752.56
389.163	2702.56
389.387	2722.56
389.612	2754.56
389.837	2721.56
390.062	2725.56
390.287	2811.56
390.512	2744.56
390.736	2842.56
390.961	2849.56
391.186	2899.56
391.411	2886.56
391.636	2850.56
391.86	2897.56
392.085	2899.56
392.31	2903.56
392.534	2879.56
392.759	2859.56
392.984	2822.56
393.208	2828.56
393.433	2838.56
393.658	2860.56
393.882	2785.56
394.107	2775.56
394.331	2819.56
394.556	2782.56
394.78	2805.56
395.005	2875.56
395.229	2842.56
395.454	2871.56
395.678	2905.56
395.903	2877.56
396.127	2888.56
396.352	2896.56
396.576	2835.56
396.801	2883.56
397.025	2962.56
397.249	2836.56
397.474	2895.56
397.698	2950.56
397.922	2914.56
398.147	2928.56
398.371	2919.56
398.595	2985.56
398.82	3066.56
399.044	3223.56
399.268	3304.56
399.492	3460.56
399.717	3598.56
399.941	3598.56
400.165	3494.56
400.389	3326.56
400.613	3194.56
400.837	3213.56
401.062	3024.56
401.286	3086.56
401.51	3056.56
401.734	3047.56
401.958	3031.56
402.182	3021.56
402.406	3007.56
402.63	3060.56
402.854	3082.56
403.078	3055.56
403.302	3092.56
403.526	3124.56
403.75	3172.56
403.974	3148.56
404.198	3081.56
404.422	3150.56
404.645	3120.56
404.869	3143.56
405.093	3162.56
405.317	3167.56
405.541	3184.56
405.765	3265.56
405.988	3248.56
406.212	3248.56
406.436	3278.56
406.66	3322.56
406.883	3235.56
407.107	3366.56
407.331	3406.56
407.555	3499.56
407.778	3417.56
408.002	3400.56
408.226	3368.56
408.449	3370.56
408.673	3318.56
408.896	3233.56
409.12	3239.56
409.344	3248.56
409.567	3169.56
409.791	3194.56
410.014	3144.56
410.238	3112.56
410.461	3180.56
410.685	3139.56
410.908	3054.56
411.132	3139.56
411.355	3034.56
411.578	3047.56
411.802	3039.56
412.025	3005.56
412.249	3041.56
412.472	3061.56
412.695	3024.56
412.919	2964.56
413.142	2936.56
413.365	2988.56
413.589	2983.56
413.812	3039.56
414.035	2998.56
414.258	3003.56
414.482	3001.56
414.705	3010.56
414.928	2936.56
415.151	2960.56
415.374	2899.56
415.597	2926.56
415.821	2844.56
416.044	2869.56
416.267	2867.56
416.49	2852.56
416.713	2911.56
416.936	2891.56
417.159	2890.56
417.382	2839.56
417.605	2785.56
417.828	2846.56
418.051	2857.56
418.274	2886.56
418.497	2953.56
418.72	3001.56
418.943	2855.56
419.166	3020.56
419.389	3191.56
419.611	3135.56
419.834	3062.56
420.057	2947.56
420.28	2908.56
420.503	2834.56
420.726	2821.56
420.948	2852.56
421.171	2881.56
421.394	2885.56
421.617	2844.56
421.839	2920.56
422.062	2895.56
422.285	2846.56
422.507	2939.56
422.73	2919.56
422.953	2942.56
423.175	3018.56
423.398	2963.56
423.621	2880.56
423.843	2908.56
424.066	2902.56
424.288	2838.56
424.511	2902.56
424.733	2848.56
424.956	2869.56
425.178	2835.56
425.401	2836.56
425.623	2841.56
425.846	2778.56
426.068	2778.56
426.291	2809.56
426.513	2786.56
426.735	2688.56
426.958	2754.56
427.18	2684.56
427.402	2738.56
427.625	2772.56
427.847	2670.56
428.069	2631.56
428.292	2736.56
428.514	2631.56
428.736	2648.56
428.958	2662.56
429.181	2615.56
429.403	2614.56
429.625	2610.56
429.847	2644.56
430.069	2735.56
430.292	2789.56
430.514	2870.56
430.736	2847.56
430.958	2736.56
431.18	2561.56
431.402	2629.56
431.624	2635.56
431.846	2659.56
432.068	2634.56
432.29	2646.56
432.512	2552.56
432.734	2626.56
432.956	2599.56
433.178	2654.56
433.4	2650.56
433.622	2665.56
433.844	2656.56
434.066	2687.56
434.287	2634.56
434.509	2703.56
434.731	2742.56
434.953	2727.56
435.175	2755.56
435.397	2811.56
435.618	2697.56
435.84	2690.56
436.062	2654.56
436.284	2668.56
436.505	2598.56
436.727	2621.56
436.949	2655.56
437.17	2599.56
437.392	2618.56
437.614	2570.56
437.835	2544.56
438.057	2532.56
438.278	2534.56
438.5	2576.56
438.721	2699.56
438.943	2698.56
439.165	2719.56
439.386	2762.56
439.608	2741.56
439.829	2759.56
440.05	2858.56
440.272	2915.56
440.493	2785.56
440.715	2755.56
440.936	2719.56
441.158	2755.56
441.379	2785.56
441.6	2857.56
441.822	2943.56
442.043	3158.56
442.264	3190.56
442.486	3002.56
442.707	2908.56
442.928	2823.56
443.149	2782.56
443.371	2799.56
443.592	2825.56
443.813	2823.56
444.034	2859.56
444.255	2915.56
444.476	2950.56
444.698	3019.56
444.919	3008.56
445.14	3026.56
445.361	2946.56
445.582	2863.56
445.803	2797.56
446.024	2753.56
446.245	2821.56
446.466	2815.56
446.687	2776.56
446.908	2742.56
447.129	2688.56
447.35	2681.56
447.571	2635.56
447.792	2628.56
448.013	2651.56
448.234	2598.56
448.455	2613.56
448.675	2677.56
448.896	2731.56
449.117	2826.56
449.338	3056.56
449.559	3174.56
449.779	2900.56
450	2634.56
450.221	2606.56
450.442	2603.56
450.662	2569.56
450.883	2503.56
451.104	2516.56
451.324	2517.56
451.545	2585.56
451.766	2601.56
451.986	2648.56
452.207	2878.56
452.428	3742.56
452.648	5640.56
452.869	4770.56
453.089	3318.56
453.31	3063.56
453.53	3038.56
453.751	3090.56
453.971	3252.56
454.192	3172.56
454.412	2777.56
454.633	2572.56
454.853	2566.56
455.073	2473.56
455.294	2495.56
455.514	2434.56
455.734	2416.56
455.955	2416.56
456.175	2408.56
456.395	2449.56
456.616	2434.56
456.836	2496.56
457.056	2498.56
457.276	2499.56
457.497	2650.56
457.717	2665.56
457.937	2610.56
458.157	2555.56
458.377	2592.56
458.598	2646.56
458.818	2600.56
459.038	2588.56
459.258	2602.56
459.478	2657.56
459.698	2674.56
459.918	2734.56
460.138	2731.56
460.358	2834.56
460.578	2841.56
460.798	2856.56
461.018	2877.56
461.238	2878.56
461.458	2878.56
461.678	2948.56
461.898	3044.56
462.118	2983.56
462.338	3150.56
462.558	3110.56
462.777	3164.56
462.997	3222.56
463.217	3383.56
463.437	3514.56
463.657	3563.56
463.876	3524.56
464.096	3367.56
464.316	3206.56
464.536	3190.56
464.755	3121.56
464.975	3032.56
465.195	2969.56
465.414	2840.56
465.634	2758.56
465.854	2719.56
466.073	2716.56
466.293	2664.56
466.512	2670.56
466.732	2712.56
466.951	2889.56
467.171	3046.56
467.391	2992.56
467.61	2724.56
467.829	2682.56
468.049	2624.56
468.268	2578.56
468.488	2554.56
468.707	2598.56
468.927	2628.56
469.146	2606.56
469.365	2684.56
469.585	2632.56
469.804	2727.56
470.023	2777.56
470.243	2827.56
470.462	2904.56
470.681	3062.56
470.901	3340.56
471.12	3844.56
471.339	3814.56
471.558	3186.56
471.777	2945.56
471.997	2795.56
472.216	2699.56
472.435	2672.56
472.654	2663.56
472.873	2633.56
473.092	2590.56
473.311	2650.56
473.53	2664.56
473.749	2695.56
473.968	2902.56
474.187	2676.56
474.406	2630.56
474.625	2631.56
474.844	2626.56
475.063	2661.56
475.282	2595.56
475.501	2684.56
475.72	2678.56
475.939	2714.56
476.158	2753.56
476.377	2802.56
476.596	2746.56
476.814	2720.56
477.033	2758.56
477.252	2756.56
477.471	2888.56
477.69	2914.56
477.908	2938.56
478.127	2984.56
478.346	2940.56
478.564	3078.56
478.783	3108.56
479.002	3095.56
479.22	3130.56
479.439	3157.56
479.658	3144.56
479.876	3124.56
480.095	3198.56
480.313	3222.56
480.532	3296.56
480.751	3276.56
480.969	3195.56
481.188	3171.56
481.406	3182.56
481.624	3203.56
481.843	3270.56
482.061	3232.56
482.28	3211.56
482.498	3196.56
482.717	3185.56
482.935	3217.56
483.153	3231.56
483.372	3272.56
483.59	3331.56
483.808	3374.56
484.027	3470.56
484.245	3700.56
484.463	4171.56
484.681	4583.56
484.9	4279.56
485.118	3938.56
485.336	3806.56
485.554	3876.56
485.772	4154.56
485.99	4683.56
486.209	4999.56
486.427	4233.56
486.645	3748.56
486.863	3602.56
487.081	3497.56
487.299	3454.56
487.517	3472.56
