Data from SnStandardFlinnAPT0064_LampEnergy5.5_LIBS07252019.E.O._I.C._HRD10591_15-16-33-492.txt Node
Date: Thu Jul 25 15:16:33 EDT 2019
User: cochatt
Spectrometer: HR+D1059
Trigger mode: 1
Integration Time (sec): 1.000000E-1
Scans to average: 1
Electric dark correction enabled: true
Nonlinearity correction enabled: false
Boxcar width: 0
XAxis mode: Wavelengths
Number of Pixels in Spectrum: 2048
>>>>>Begin Spectral Data<<<<<
223.165	2.12
223.4	2.12
223.635	2.12
223.869	-21.88
224.104	-3.88
224.338	-15.88
224.573	-16.88
224.808	-13.88
225.042	-24.88
225.277	-11.88
225.511	-8.88
225.746	23.12
225.98	4.12
226.215	13.12
226.449	11.12
226.683	13.12
226.918	16.12
227.152	35.12
227.387	44.12
227.621	26.12
227.856	59.12
228.09	50.12
228.324	60.12
228.559	60.12
228.793	86.12
229.027	176.12
229.262	160.12
229.496	152.12
229.73	160.12
229.964	162.12
230.199	164.12
230.433	160.12
230.667	170.12
230.901	160.12
231.136	182.12
231.37	188.12
231.604	193.12
231.838	190.12
232.072	240.12
232.306	256.12
232.541	221.12
232.775	219.12
233.009	228.12
233.243	215.12
233.477	227.12
233.711	254.12
233.945	286.12
234.179	237.12
234.413	217.12
234.647	211.12
234.881	233.12
235.115	228.12
235.349	291.12
235.583	359.12
235.817	463.12
236.051	449.12
236.285	307.12
236.519	258.12
236.753	250.12
236.987	236.12
237.221	246.12
237.455	241.12
237.689	221.12
237.922	225.12
238.156	250.12
238.39	229.12
238.624	236.12
238.858	220.12
239.091	233.12
239.325	234.12
239.559	264.12
239.793	240.12
240.027	261.12
240.26	249.12
240.494	258.12
240.728	249.12
240.961	284.12
241.195	293.12
241.429	293.12
241.662	319.12
241.896	347.12
242.13	404.12
242.363	518.12
242.597	680.12
242.83	632.12
243.064	640.12
243.298	725.12
243.531	622.12
243.765	397.12
243.998	341.12
244.232	311.12
244.465	301.12
244.699	298.12
244.932	299.12
245.166	291.12
245.399	315.12
245.633	334.12
245.866	310.12
246.099	306.12
246.333	295.12
246.566	302.12
246.8	280.12
247.033	296.12
247.266	293.12
247.5	299.12
247.733	302.12
247.966	321.12
248.2	337.12
248.433	363.12
248.666	427.12
248.899	414.12
249.133	360.12
249.366	380.12
249.599	401.12
249.832	456.12
250.066	436.12
250.299	369.12
250.532	363.12
250.765	318.12
250.998	318.12
251.231	338.12
251.465	331.12
251.698	343.12
251.931	337.12
252.164	341.12
252.397	355.12
252.63	369.12
252.863	368.12
253.096	360.12
253.329	372.12
253.562	360.12
253.795	344.12
254.028	355.12
254.261	374.12
254.494	398.12
254.727	457.12
254.96	516.12
255.193	516.12
255.426	411.12
255.659	388.12
255.892	380.12
256.124	377.12
256.357	414.12
256.59	408.12
256.823	423.12
257.056	466.12
257.289	543.12
257.521	603.12
257.754	497.12
257.987	436.12
258.22	416.12
258.452	421.12
258.685	413.12
258.918	418.12
259.151	438.12
259.383	492.12
259.616	510.12
259.849	526.12
260.081	490.12
260.314	434.12
260.547	434.12
260.779	426.12
261.012	425.12
261.244	449.12
261.477	428.12
261.71	456.12
261.942	449.12
262.175	441.12
262.407	460.12
262.64	470.12
262.872	503.12
263.105	489.12
263.337	516.12
263.57	546.12
263.802	578.12
264.035	575.12
264.267	597.12
264.499	592.12
264.732	618.12
264.964	635.12
265.197	635.12
265.429	637.12
265.661	630.12
265.894	678.12
266.126	763.12
266.358	830.12
266.591	789.12
266.823	694.12
267.055	639.12
267.287	621.12
267.52	601.12
267.752	578.12
267.984	543.12
268.216	568.12
268.448	542.12
268.681	552.12
268.913	529.12
269.145	546.12
269.377	565.12
269.609	554.12
269.841	564.12
270.073	610.12
270.306	710.12
270.538	925.12
270.77	1348.12
271.002	1600.12
271.234	1137.12
271.466	781.12
271.698	628.12
271.93	604.12
272.162	603.12
272.394	558.12
272.626	546.12
272.858	540.12
273.09	556.12
273.322	554.12
273.553	529.12
273.785	501.12
274.017	518.12
274.249	544.12
274.481	542.12
274.713	539.12
274.945	532.12
275.176	547.12
275.408	525.12
275.64	528.12
275.872	530.12
276.104	548.12
276.335	544.12
276.567	571.12
276.799	551.12
277.031	544.12
277.262	580.12
277.494	595.12
277.726	637.12
277.957	762.12
278.189	817.12
278.421	788.12
278.652	704.12
278.884	678.12
279.115	631.12
279.347	597.12
279.579	598.12
279.81	599.12
280.042	600.12
280.273	616.12
280.505	640.12
280.736	649.12
280.968	660.12
281.199	682.12
281.431	822.12
281.662	839.12
281.894	734.12
282.125	706.12
282.356	686.12
282.588	674.12
282.819	706.12
283.051	736.12
283.282	833.12
283.513	1031.12
283.745	1469.12
283.976	2340.12
284.207	3325.12
284.439	2890.12
284.67	1736.12
284.901	1381.12
285.132	1424.12
285.364	1342.12
285.595	1071.12
285.826	972.12
286.057	1147.12
286.288	1569.12
286.52	2120.12
286.751	1918.12
286.982	1195.12
287.213	926.12
287.444	779.12
287.675	760.12
287.906	755.12
288.138	723.12
288.369	714.12
288.6	707.12
288.831	728.12
289.062	714.12
289.293	698.12
289.524	716.12
289.755	729.12
289.986	724.12
290.217	731.12
290.448	683.12
290.679	706.12
290.91	716.12
291.141	748.12
291.371	797.12
291.602	819.12
291.833	779.12
292.064	729.12
292.295	705.12
292.526	702.12
292.757	696.12
292.987	700.12
293.218	674.12
293.449	680.12
293.68	686.12
293.91	673.12
294.141	680.12
294.372	667.12
294.603	674.12
294.833	688.12
295.064	681.12
295.295	672.12
295.525	658.12
295.756	674.12
295.987	659.12
296.217	671.12
296.448	698.12
296.679	660.12
296.909	683.12
297.14	698.12
297.37	689.12
297.601	681.12
297.831	700.12
298.062	707.12
298.292	717.12
298.523	726.12
298.753	736.12
298.984	738.12
299.214	743.12
299.445	725.12
299.675	754.12
299.905	800.12
300.136	794.12
300.366	888.12
300.597	1098.12
300.827	1552.12
301.057	2067.12
301.288	2053.12
301.518	1341.12
301.748	1046.12
301.979	945.12
302.209	936.12
302.439	937.12
302.669	998.12
302.9	1188.12
303.13	1665.12
303.36	2408.12
303.59	3220.12
303.82	2794.12
304.051	1618.12
304.281	1190.12
304.511	1006.12
304.741	902.12
304.971	882.12
305.201	825.12
305.431	834.12
305.661	834.12
305.891	804.12
306.121	808.12
306.352	818.12
306.582	776.12
306.812	767.12
307.042	773.12
307.272	799.12
307.502	747.12
307.731	786.12
307.961	758.12
308.191	783.12
308.421	764.12
308.651	771.12
308.881	786.12
309.111	788.12
309.341	785.12
309.571	780.12
309.8	792.12
310.03	796.12
310.26	804.12
310.49	804.12
310.72	805.12
310.949	812.12
311.179	810.12
311.409	807.12
311.639	807.12
311.868	833.12
312.098	824.12
312.328	826.12
312.557	812.12
312.787	864.12
313.017	838.12
313.246	860.12
313.476	846.12
313.706	889.12
313.935	905.12
314.165	961.12
314.394	989.12
314.624	982.12
314.853	911.12
315.083	907.12
315.312	936.12
315.542	929.12
315.771	937.12
316.001	953.12
316.23	962.12
316.46	988.12
316.689	1074.12
316.919	1329.12
317.148	1876.12
317.377	2876.12
317.607	4258.12
317.836	4317.12
318.065	2501.12
318.295	1642.12
318.524	1306.12
318.753	1157.12
318.983	1113.12
319.212	1067.12
319.441	1039.12
319.67	1022.12
319.9	1007.12
320.129	962.12
320.358	973.12
320.587	956.12
320.816	986.12
321.046	979.12
321.275	986.12
321.504	997.12
321.733	1016.12
321.962	1024.12
322.191	1076.12
322.42	1023.12
322.649	1035.12
322.878	1030.12
323.108	1034.12
323.337	1048.12
323.566	1045.12
323.795	1084.12
324.024	1129.12
324.253	1140.12
324.482	1144.12
324.71	1214.12
324.939	1269.12
325.168	1332.12
325.397	1368.12
325.626	1602.12
325.855	2213.12
326.084	3587.12
326.313	5208.12
326.542	5547.12
326.77	3444.12
326.999	2248.12
327.228	1874.12
327.457	1762.12
327.686	1830.12
327.914	1937.12
328.143	2272.12
328.372	2572.12
328.6	2790.12
328.829	2545.12
329.058	2212.12
329.287	1960.12
329.515	1786.12
329.744	1694.12
329.972	1634.12
330.201	1544.12
330.43	1532.12
330.658	1452.12
330.887	1463.12
331.115	1429.12
331.344	1400.12
331.572	1389.12
331.801	1423.12
332.03	1430.12
332.258	1451.12
332.486	1514.12
332.715	1722.12
332.943	2068.12
333.172	2521.12
333.4	2490.12
333.629	1893.12
333.857	1795.12
334.085	1728.12
334.314	1839.12
334.542	2004.12
334.771	2274.12
334.999	2773.12
335.227	3392.12
335.455	3684.12
335.684	3424.12
335.912	2886.12
336.14	2546.12
336.369	2247.12
336.597	2095.12
336.825	1878.12
337.053	1771.12
337.281	1705.12
337.51	1622.12
337.738	1574.12
337.966	1513.12
338.194	1432.12
338.422	1415.12
338.65	1421.12
338.878	1379.12
339.106	1362.12
339.334	1353.12
339.562	1338.12
339.79	1260.12
340.018	1229.12
340.246	1260.12
340.474	1283.12
340.702	1260.12
340.93	1243.12
341.158	1273.12
341.386	1260.12
341.614	1229.12
341.842	1198.12
342.07	1204.12
342.298	1163.12
342.526	1158.12
342.754	1145.12
342.981	1189.12
343.209	1152.12
343.437	1155.12
343.665	1164.12
343.893	1167.12
344.12	1230.12
344.348	1200.12
344.576	1132.12
344.804	1144.12
345.031	1100.12
345.259	1107.12
345.487	1091.12
345.714	1072.12
345.942	1089.12
346.17	1107.12
346.397	1062.12
346.625	1058.12
346.853	1057.12
347.08	1095.12
347.308	1072.12
347.535	1055.12
347.763	1054.12
347.99	1059.12
348.218	1061.12
348.445	1085.12
348.673	1045.12
348.9	1049.12
349.128	1058.12
349.355	1009.12
349.583	1035.12
349.81	1039.12
350.037	1044.12
350.265	1015.12
350.492	1011.12
350.72	1052.12
350.947	1051.12
351.174	1032.12
351.402	1042.12
351.629	1026.12
351.856	1040.12
352.083	1022.12
352.311	1013.12
352.538	979.12
352.765	1020.12
352.992	1011.12
353.22	1026.12
353.447	1040.12
353.674	1025.12
353.901	1027.12
354.128	1030.12
354.355	1026.12
354.583	1029.12
354.81	1036.12
355.037	1029.12
355.264	1034.12
355.491	1036.12
355.718	1053.12
355.945	1068.12
356.172	1072.12
356.399	1042.12
356.626	1056.12
356.853	1060.12
357.08	1085.12
357.307	1080.12
357.534	1070.12
357.761	1068.12
357.988	1130.12
358.215	1102.12
358.441	1070.12
358.668	1067.12
358.895	1064.12
359.122	1069.12
359.349	1061.12
359.576	1077.12
359.802	1074.12
360.029	1061.12
360.256	1091.12
360.483	1078.12
360.709	1060.12
360.936	1085.12
361.163	1080.12
361.39	1123.12
361.616	1074.12
361.843	1086.12
362.07	1078.12
362.296	1107.12
362.523	1089.12
362.749	1053.12
362.976	1088.12
363.203	1111.12
363.429	1069.12
363.656	1079.12
363.882	1077.12
364.109	1103.12
364.335	1084.12
364.562	1097.12
364.788	1094.12
365.015	1108.12
365.241	1092.12
365.468	1158.12
365.694	1177.12
365.92	1181.12
366.147	1093.12
366.373	1102.12
366.599	1113.12
366.826	1101.12
367.052	1104.12
367.278	1128.12
367.505	1127.12
367.731	1123.12
367.957	1110.12
368.184	1144.12
368.41	1127.12
368.636	1115.12
368.862	1120.12
369.089	1133.12
369.315	1111.12
369.541	1109.12
369.767	1129.12
369.993	1136.12
370.219	1128.12
370.445	1116.12
370.672	1150.12
370.898	1124.12
371.124	1128.12
371.35	1162.12
371.576	1180.12
371.802	1154.12
372.028	1174.12
372.254	1152.12
372.48	1157.12
372.706	1161.12
372.932	1164.12
373.158	1166.12
373.384	1191.12
373.61	1182.12
373.835	1224.12
374.061	1182.12
374.287	1216.12
374.513	1198.12
374.739	1236.12
374.965	1244.12
375.191	1234.12
375.416	1178.12
375.642	1212.12
375.868	1209.12
376.094	1198.12
376.319	1172.12
376.545	1174.12
376.771	1187.12
376.997	1177.12
377.222	1181.12
377.448	1164.12
377.674	1171.12
377.899	1184.12
378.125	1152.12
378.35	1154.12
378.576	1165.12
378.802	1191.12
379.027	1189.12
379.253	1240.12
379.478	1269.12
379.704	1506.12
379.929	2086.12
380.155	3125.12
380.38	3337.12
380.606	2042.12
380.831	1491.12
381.057	1312.12
381.282	1254.12
381.507	1193.12
381.733	1165.12
381.958	1169.12
382.184	1127.12
382.409	1166.12
382.634	1168.12
382.86	1181.12
383.085	1179.12
383.31	1177.12
383.535	1166.12
383.761	1174.12
383.986	1198.12
384.211	1165.12
384.436	1198.12
384.662	1168.12
384.887	1206.12
385.112	1209.12
385.337	1206.12
385.562	1185.12
385.787	1213.12
386.013	1234.12
386.238	1197.12
386.463	1178.12
386.688	1200.12
386.913	1204.12
387.138	1176.12
387.363	1179.12
387.588	1202.12
387.813	1189.12
388.038	1176.12
388.263	1212.12
388.488	1214.12
388.713	1183.12
388.938	1180.12
389.163	1190.12
389.387	1197.12
389.612	1192.12
389.837	1191.12
390.062	1166.12
390.287	1204.12
390.512	1194.12
390.736	1235.12
390.961	1252.12
391.186	1250.12
391.411	1256.12
391.636	1232.12
391.86	1238.12
392.085	1300.12
392.31	1240.12
392.534	1243.12
392.759	1236.12
392.984	1239.12
393.208	1304.12
393.433	1288.12
393.658	1284.12
393.882	1221.12
394.107	1197.12
394.331	1238.12
394.556	1214.12
394.78	1224.12
395.005	1234.12
395.229	1210.12
395.454	1262.12
395.678	1283.12
395.903	1233.12
396.127	1236.12
396.352	1205.12
396.576	1238.12
396.801	1300.12
397.025	1296.12
397.249	1264.12
397.474	1273.12
397.698	1290.12
397.922	1287.12
398.147	1270.12
398.371	1289.12
398.595	1302.12
398.82	1344.12
399.044	1417.12
399.268	1462.12
399.492	1550.12
399.717	1610.12
399.941	1590.12
400.165	1512.12
400.389	1481.12
400.613	1414.12
400.837	1353.12
401.062	1357.12
401.286	1360.12
401.51	1352.12
401.734	1309.12
401.958	1360.12
402.182	1338.12
402.406	1349.12
402.63	1357.12
402.854	1354.12
403.078	1301.12
403.302	1380.12
403.526	1352.12
403.75	1391.12
403.974	1403.12
404.198	1347.12
404.422	1384.12
404.645	1377.12
404.869	1390.12
405.093	1386.12
405.317	1368.12
405.541	1379.12
405.765	1404.12
405.988	1392.12
406.212	1370.12
406.436	1388.12
406.66	1413.12
406.883	1402.12
407.107	1453.12
407.331	1442.12
407.555	1515.12
407.778	1470.12
408.002	1468.12
408.226	1461.12
408.449	1469.12
408.673	1429.12
408.896	1408.12
409.12	1395.12
409.344	1371.12
409.567	1405.12
409.791	1372.12
410.014	1356.12
410.238	1367.12
410.461	1364.12
410.685	1388.12
410.908	1381.12
411.132	1315.12
411.355	1357.12
411.578	1354.12
411.802	1338.12
412.025	1297.12
412.249	1314.12
412.472	1318.12
412.695	1286.12
412.919	1316.12
413.142	1301.12
413.365	1298.12
413.589	1314.12
413.812	1291.12
414.035	1285.12
414.258	1321.12
414.482	1306.12
414.705	1313.12
414.928	1277.12
415.151	1314.12
415.374	1288.12
415.597	1264.12
415.821	1278.12
416.044	1257.12
416.267	1276.12
416.49	1233.12
416.713	1272.12
416.936	1247.12
417.159	1277.12
417.382	1256.12
417.605	1212.12
417.828	1241.12
418.051	1249.12
418.274	1255.12
418.497	1269.12
418.72	1296.12
418.943	1298.12
419.166	1293.12
419.389	1426.12
419.611	1366.12
419.834	1316.12
420.057	1317.12
420.28	1289.12
420.503	1274.12
420.726	1233.12
420.948	1216.12
421.171	1248.12
421.394	1250.12
421.617	1277.12
421.839	1276.12
422.062	1299.12
422.285	1264.12
422.507	1318.12
422.73	1305.12
422.953	1306.12
423.175	1297.12
423.398	1312.12
423.621	1273.12
423.843	1288.12
424.066	1282.12
424.288	1270.12
424.511	1248.12
424.733	1269.12
424.956	1239.12
425.178	1243.12
425.401	1226.12
425.623	1234.12
425.846	1243.12
426.068	1209.12
426.291	1257.12
426.513	1210.12
426.735	1236.12
426.958	1242.12
427.18	1207.12
427.402	1191.12
427.625	1155.12
427.847	1148.12
428.069	1186.12
428.292	1180.12
428.514	1161.12
428.736	1169.12
428.958	1196.12
429.181	1151.12
429.403	1156.12
429.625	1169.12
429.847	1149.12
430.069	1178.12
430.292	1209.12
430.514	1231.12
430.736	1256.12
430.958	1206.12
431.18	1153.12
431.402	1166.12
431.624	1117.12
431.846	1148.12
432.068	1116.12
432.29	1154.12
432.512	1146.12
432.734	1152.12
432.956	1142.12
433.178	1165.12
433.4	1171.12
433.622	1156.12
433.844	1209.12
434.066	1148.12
434.287	1110.12
434.509	1156.12
434.731	1152.12
434.953	1205.12
435.175	1208.12
435.397	1193.12
435.618	1181.12
435.84	1188.12
436.062	1137.12
436.284	1148.12
436.505	1168.12
436.727	1170.12
436.949	1160.12
437.17	1158.12
437.392	1120.12
437.614	1120.12
437.835	1109.12
438.057	1125.12
438.278	1098.12
438.5	1127.12
438.721	1164.12
438.943	1150.12
439.165	1179.12
439.386	1178.12
439.608	1182.12
439.829	1215.12
440.05	1230.12
440.272	1258.12
440.493	1189.12
440.715	1176.12
440.936	1218.12
441.158	1220.12
441.379	1224.12
441.6	1265.12
441.822	1309.12
442.043	1343.12
442.264	1402.12
442.486	1319.12
442.707	1232.12
442.928	1271.12
443.149	1239.12
443.371	1246.12
443.592	1236.12
443.813	1234.12
444.034	1263.12
444.255	1312.12
444.476	1294.12
444.698	1333.12
444.919	1317.12
445.14	1410.12
445.361	1356.12
445.582	1243.12
445.803	1282.12
446.024	1240.12
446.245	1253.12
446.466	1244.12
446.687	1212.12
446.908	1210.12
447.129	1196.12
447.35	1216.12
447.571	1189.12
447.792	1180.12
448.013	1154.12
448.234	1134.12
448.455	1137.12
448.675	1156.12
448.896	1174.12
449.117	1212.12
449.338	1300.12
449.559	1357.12
449.779	1212.12
450	1144.12
450.221	1114.12
450.442	1143.12
450.662	1114.12
450.883	1091.12
451.104	1127.12
451.324	1086.12
451.545	1121.12
451.766	1104.12
451.986	1145.12
452.207	1229.12
452.428	1445.12
452.648	2036.12
452.869	1717.12
453.089	1281.12
453.31	1220.12
453.53	1245.12
453.751	1269.12
453.971	1332.12
454.192	1326.12
454.412	1152.12
454.633	1105.12
454.853	1090.12
455.073	1082.12
455.294	1042.12
455.514	1053.12
455.734	1073.12
455.955	1052.12
456.175	1064.12
456.395	1060.12
456.616	1101.12
456.836	1062.12
457.056	1094.12
457.276	1085.12
457.497	1115.12
457.717	1152.12
457.937	1136.12
458.157	1122.12
458.377	1141.12
458.598	1096.12
458.818	1100.12
459.038	1083.12
459.258	1185.12
459.478	1139.12
459.698	1139.12
459.918	1186.12
460.138	1195.12
460.358	1222.12
460.578	1206.12
460.798	1254.12
461.018	1233.12
461.238	1239.12
461.458	1273.12
461.678	1268.12
461.898	1267.12
462.118	1302.12
462.338	1317.12
462.558	1352.12
462.777	1364.12
462.997	1385.12
463.217	1442.12
463.437	1498.12
463.657	1485.12
463.876	1512.12
464.096	1428.12
464.316	1384.12
464.536	1341.12
464.755	1336.12
464.975	1298.12
465.195	1289.12
465.414	1265.12
465.634	1219.12
465.854	1166.12
466.073	1202.12
466.293	1166.12
466.512	1153.12
466.732	1152.12
466.951	1249.12
467.171	1314.12
467.391	1272.12
467.61	1200.12
467.829	1186.12
468.049	1134.12
468.268	1147.12
468.488	1131.12
468.707	1126.12
468.927	1125.12
469.146	1128.12
469.365	1124.12
469.585	1160.12
469.804	1173.12
470.023	1158.12
470.243	1229.12
470.462	1217.12
470.681	1300.12
470.901	1422.12
471.12	1624.12
471.339	1637.12
471.558	1317.12
471.777	1262.12
471.997	1205.12
472.216	1170.12
472.435	1154.12
472.654	1106.12
472.873	1154.12
473.092	1131.12
473.311	1133.12
473.53	1164.12
473.749	1192.12
473.968	1192.12
474.187	1126.12
474.406	1130.12
474.625	1138.12
474.844	1184.12
475.063	1121.12
475.282	1142.12
475.501	1156.12
475.72	1174.12
475.939	1193.12
476.158	1190.12
476.377	1212.12
476.596	1196.12
476.814	1199.12
477.033	1206.12
477.252	1216.12
477.471	1238.12
477.69	1241.12
477.908	1261.12
478.127	1301.12
478.346	1299.12
478.564	1325.12
478.783	1338.12
479.002	1339.12
479.22	1362.12
479.439	1335.12
479.658	1364.12
479.876	1374.12
480.095	1373.12
480.313	1377.12
480.532	1384.12
480.751	1413.12
480.969	1368.12
481.188	1352.12
481.406	1321.12
481.624	1341.12
481.843	1321.12
482.061	1350.12
482.28	1375.12
482.498	1337.12
482.717	1352.12
482.935	1371.12
483.153	1367.12
483.372	1432.12
483.59	1456.12
483.808	1418.12
484.027	1444.12
484.245	1556.12
484.463	1686.12
484.681	1918.12
484.9	1718.12
485.118	1604.12
485.336	1607.12
485.554	1602.12
485.772	1696.12
485.99	1895.12
486.209	2068.12
486.427	1688.12
486.645	1534.12
486.863	1524.12
487.081	1493.12
487.299	1481.12
487.517	1472.12
487.735	1495.12
487.953	1459.12
488.171	1468.12
488.389	1454.12
488.607	1488.12
488.825	1433.12
489.043	1422.12
489.261	1403.12
489.479	1390.12
489.696	1399.12
489.914	1408.12
490.132	1413.12
490.35	1419.12
490.568	1445.12
490.786	1450.12
