Data from SnStandardFlinnAPT0064_LampEnergy5.5_LIBS07252019.E.O._I.C._HRD10591_15-17-25-492.txt Node
Date: Thu Jul 25 15:17:25 EDT 2019
User: cochatt
Spectrometer: HR+D1059
Trigger mode: 1
Integration Time (sec): 1.000000E-1
Scans to average: 1
Electric dark correction enabled: true
Nonlinearity correction enabled: false
Boxcar width: 0
XAxis mode: Wavelengths
Number of Pixels in Spectrum: 2048
>>>>>Begin Spectral Data<<<<<
223.165	-23.31
223.4	-23.31
223.635	-23.31
223.869	-12.31
224.104	-25.31
224.338	-13.31
224.573	-11.31
224.808	-23.31
225.042	-5.31
225.277	4.69
225.511	-18.31
225.746	13.69
225.98	10.69
226.215	4.69
226.449	14.69
226.683	25.69
226.918	35.69
227.152	22.69
227.387	39.69
227.621	39.69
227.856	46.69
228.09	55.69
228.324	54.69
228.559	43.69
228.793	92.69
229.027	158.69
229.262	179.69
229.496	157.69
229.73	131.69
229.964	160.69
230.199	157.69
230.433	157.69
230.667	172.69
230.901	180.69
231.136	178.69
231.37	180.69
231.604	190.69
231.838	220.69
232.072	238.69
232.306	284.69
232.541	240.69
232.775	211.69
233.009	217.69
233.243	226.69
233.477	238.69
233.711	278.69
233.945	295.69
234.179	250.69
234.413	227.69
234.647	232.69
234.881	238.69
235.115	265.69
235.349	292.69
235.583	363.69
235.817	485.69
236.051	473.69
236.285	331.69
236.519	279.69
236.753	232.69
236.987	255.69
237.221	261.69
237.455	256.69
237.689	235.69
237.922	246.69
238.156	232.69
238.39	235.69
238.624	234.69
238.858	242.69
239.091	253.69
239.325	254.69
239.559	245.69
239.793	250.69
240.027	253.69
240.26	240.69
240.494	260.69
240.728	289.69
240.961	300.69
241.195	304.69
241.429	333.69
241.662	324.69
241.896	352.69
242.13	443.69
242.363	553.69
242.597	734.69
242.83	669.69
243.064	685.69
243.298	849.69
243.531	690.69
243.765	408.69
243.998	341.69
244.232	326.69
244.465	325.69
244.699	310.69
244.932	306.69
245.166	306.69
245.399	322.69
245.633	315.69
245.866	333.69
246.099	319.69
246.333	315.69
246.566	308.69
246.8	290.69
247.033	321.69
247.266	323.69
247.5	332.69
247.733	327.69
247.966	326.69
248.2	339.69
248.433	386.69
248.666	456.69
248.899	411.69
249.133	364.69
249.366	408.69
249.599	410.69
249.832	474.69
250.066	484.69
250.299	406.69
250.532	370.69
250.765	351.69
250.998	324.69
251.231	350.69
251.465	348.69
251.698	348.69
251.931	356.69
252.164	331.69
252.397	372.69
252.63	356.69
252.863	367.69
253.096	378.69
253.329	353.69
253.562	350.69
253.795	372.69
254.028	374.69
254.261	397.69
254.494	425.69
254.727	471.69
254.96	527.69
255.193	540.69
255.426	446.69
255.659	412.69
255.892	392.69
256.124	384.69
256.357	396.69
256.59	409.69
256.823	429.69
257.056	489.69
257.289	609.69
257.521	642.69
257.754	512.69
257.987	438.69
258.22	430.69
258.452	429.69
258.685	404.69
258.918	416.69
259.151	437.69
259.383	481.69
259.616	544.69
259.849	546.69
260.081	494.69
260.314	456.69
260.547	454.69
260.779	446.69
261.012	439.69
261.244	442.69
261.477	441.69
261.71	449.69
261.942	471.69
262.175	473.69
262.407	504.69
262.64	485.69
262.872	490.69
263.105	512.69
263.337	546.69
263.57	576.69
263.802	587.69
264.035	600.69
264.267	610.69
264.499	634.69
264.732	646.69
264.964	691.69
265.197	638.69
265.429	643.69
265.661	677.69
265.894	725.69
266.126	805.69
266.358	852.69
266.591	844.69
266.823	725.69
267.055	658.69
267.287	634.69
267.52	627.69
267.752	587.69
267.984	598.69
268.216	582.69
268.448	577.69
268.681	564.69
268.913	566.69
269.145	555.69
269.377	576.69
269.609	570.69
269.841	587.69
270.073	612.69
270.306	713.69
270.538	936.69
270.77	1422.69
271.002	1710.69
271.234	1225.69
271.466	798.69
271.698	664.69
271.93	633.69
272.162	608.69
272.394	555.69
272.626	569.69
272.858	554.69
273.09	546.69
273.322	574.69
273.553	564.69
273.785	554.69
274.017	539.69
274.249	571.69
274.481	544.69
274.713	557.69
274.945	541.69
275.176	575.69
275.408	568.69
275.64	556.69
275.872	564.69
276.104	563.69
276.335	585.69
276.567	574.69
276.799	590.69
277.031	581.69
277.262	601.69
277.494	611.69
277.726	686.69
277.957	799.69
278.189	874.69
278.421	834.69
278.652	755.69
278.884	704.69
279.115	635.69
279.347	602.69
279.579	624.69
279.81	615.69
280.042	637.69
280.273	648.69
280.505	654.69
280.736	668.69
280.968	694.69
281.199	757.69
281.431	859.69
281.662	855.69
281.894	766.69
282.125	695.69
282.356	723.69
282.588	730.69
282.819	765.69
283.051	778.69
283.282	850.69
283.513	1068.69
283.745	1586.69
283.976	2534.69
284.207	3666.69
284.439	3175.69
284.67	1871.69
284.901	1509.69
285.132	1497.69
285.364	1434.69
285.595	1108.69
285.826	1043.69
286.057	1243.69
286.288	1701.69
286.52	2299.69
286.751	2102.69
286.982	1297.69
287.213	936.69
287.444	850.69
287.675	782.69
287.906	783.69
288.138	774.69
288.369	739.69
288.6	730.69
288.831	701.69
289.062	743.69
289.293	760.69
289.524	752.69
289.755	768.69
289.986	754.69
290.217	754.69
290.448	773.69
290.679	740.69
290.91	786.69
291.141	818.69
291.371	856.69
291.602	888.69
291.833	822.69
292.064	777.69
292.295	738.69
292.526	717.69
292.757	719.69
292.987	724.69
293.218	698.69
293.449	699.69
293.68	701.69
293.91	702.69
294.141	686.69
294.372	697.69
294.603	695.69
294.833	692.69
295.064	717.69
295.295	702.69
295.525	695.69
295.756	690.69
295.987	683.69
296.217	692.69
296.448	722.69
296.679	685.69
296.909	701.69
297.14	734.69
297.37	709.69
297.601	710.69
297.831	717.69
298.062	733.69
298.292	743.69
298.523	756.69
298.753	728.69
298.984	741.69
299.214	779.69
299.445	766.69
299.675	748.69
299.905	788.69
300.136	832.69
300.366	923.69
300.597	1200.69
300.827	1673.69
301.057	2268.69
301.288	2201.69
301.518	1392.69
301.748	1100.69
301.979	973.69
302.209	979.69
302.439	982.69
302.669	1044.69
302.9	1248.69
303.13	1772.69
303.36	2661.69
303.59	3564.69
303.82	3056.69
304.051	1730.69
304.281	1221.69
304.511	1042.69
304.741	949.69
304.971	921.69
305.201	884.69
305.431	854.69
305.661	858.69
305.891	853.69
306.121	817.69
306.352	809.69
306.582	821.69
306.812	778.69
307.042	803.69
307.272	793.69
307.502	796.69
307.731	802.69
307.961	816.69
308.191	786.69
308.421	793.69
308.651	821.69
308.881	781.69
309.111	817.69
309.341	811.69
309.571	814.69
309.8	797.69
310.03	851.69
310.26	818.69
310.49	811.69
310.72	804.69
310.949	841.69
311.179	846.69
311.409	819.69
311.639	836.69
311.868	841.69
312.098	864.69
312.328	861.69
312.557	860.69
312.787	869.69
313.017	868.69
313.246	892.69
313.476	872.69
313.706	906.69
313.935	960.69
314.165	977.69
314.394	1046.69
314.624	992.69
314.853	952.69
315.083	936.69
315.312	951.69
315.542	950.69
315.771	947.69
316.001	997.69
316.23	1008.69
316.46	1076.69
316.689	1149.69
316.919	1394.69
317.148	1993.69
317.377	3124.69
317.607	4652.69
317.836	4716.69
318.065	2684.69
318.295	1740.69
318.524	1386.69
318.753	1247.69
318.983	1148.69
319.212	1078.69
319.441	1081.69
319.67	1030.69
319.9	1016.69
320.129	1015.69
320.358	988.69
320.587	1027.69
320.816	1019.69
321.046	992.69
321.275	1015.69
321.504	1022.69
321.733	1042.69
321.962	1065.69
322.191	1092.69
322.42	1078.69
322.649	1075.69
322.878	1086.69
323.108	1080.69
323.337	1075.69
323.566	1100.69
323.795	1144.69
324.024	1149.69
324.253	1167.69
324.482	1252.69
324.71	1250.69
324.939	1331.69
325.168	1344.69
325.397	1415.69
325.626	1703.69
325.855	2370.69
326.084	3808.69
326.313	5657.69
326.542	6044.69
326.77	3714.69
326.999	2352.69
327.228	1970.69
327.457	1925.69
327.686	1889.69
327.914	1989.69
328.143	2307.69
328.372	2667.69
328.6	2918.69
328.829	2664.69
329.058	2340.69
329.287	2059.69
329.515	1885.69
329.744	1765.69
329.972	1732.69
330.201	1609.69
330.43	1559.69
330.658	1529.69
330.887	1487.69
331.115	1481.69
331.344	1458.69
331.572	1482.69
331.801	1480.69
332.03	1479.69
332.258	1514.69
332.486	1542.69
332.715	1797.69
332.943	2196.69
333.172	2752.69
333.4	2697.69
333.629	2028.69
333.857	1844.69
334.085	1812.69
334.314	1938.69
334.542	2061.69
334.771	2402.69
334.999	2883.69
335.227	3536.69
335.455	3942.69
335.684	3607.69
335.912	3013.69
336.14	2604.69
336.369	2317.69
336.597	2160.69
336.825	1963.69
337.053	1886.69
337.281	1781.69
337.51	1683.69
337.738	1613.69
337.966	1560.69
338.194	1522.69
338.422	1464.69
338.65	1422.69
338.878	1378.69
339.106	1430.69
339.334	1389.69
339.562	1355.69
339.79	1335.69
340.018	1317.69
340.246	1300.69
340.474	1314.69
340.702	1276.69
340.93	1316.69
341.158	1317.69
341.386	1296.69
341.614	1295.69
341.842	1286.69
342.07	1249.69
342.298	1221.69
342.526	1217.69
342.754	1227.69
342.981	1198.69
343.209	1201.69
343.437	1189.69
343.665	1243.69
343.893	1237.69
344.12	1211.69
344.348	1198.69
344.576	1186.69
344.804	1200.69
345.031	1152.69
345.259	1129.69
345.487	1144.69
345.714	1101.69
345.942	1140.69
346.17	1121.69
346.397	1119.69
346.625	1143.69
346.853	1074.69
347.08	1077.69
347.308	1104.69
347.535	1139.69
347.763	1088.69
347.99	1080.69
348.218	1093.69
348.445	1083.69
348.673	1103.69
348.9	1108.69
349.128	1081.69
349.355	1035.69
349.583	1067.69
349.81	1066.69
350.037	1020.69
350.265	1091.69
350.492	1050.69
350.72	1055.69
350.947	1065.69
351.174	1086.69
351.402	1060.69
351.629	1065.69
351.856	1066.69
352.083	1053.69
352.311	1058.69
352.538	1032.69
352.765	1048.69
352.992	1070.69
353.22	1059.69
353.447	1079.69
353.674	1060.69
353.901	1048.69
354.128	1034.69
354.355	1098.69
354.583	1076.69
354.81	1064.69
355.037	1082.69
355.264	1066.69
355.491	1057.69
355.718	1061.69
355.945	1085.69
356.172	1083.69
356.399	1082.69
356.626	1106.69
356.853	1106.69
357.08	1086.69
357.307	1137.69
357.534	1110.69
357.761	1115.69
357.988	1158.69
358.215	1097.69
358.441	1124.69
358.668	1107.69
358.895	1104.69
359.122	1101.69
359.349	1120.69
359.576	1110.69
359.802	1090.69
360.029	1132.69
360.256	1113.69
360.483	1098.69
360.709	1120.69
360.936	1093.69
361.163	1091.69
361.39	1117.69
361.616	1125.69
361.843	1137.69
362.07	1129.69
362.296	1134.69
362.523	1116.69
362.749	1136.69
362.976	1132.69
363.203	1126.69
363.429	1109.69
363.656	1106.69
363.882	1106.69
364.109	1135.69
364.335	1128.69
364.562	1114.69
364.788	1131.69
365.015	1134.69
365.241	1117.69
365.468	1185.69
365.694	1246.69
365.92	1190.69
366.147	1131.69
366.373	1160.69
366.599	1155.69
366.826	1124.69
367.052	1137.69
367.278	1133.69
367.505	1143.69
367.731	1154.69
367.957	1149.69
368.184	1161.69
368.41	1178.69
368.636	1188.69
368.862	1156.69
369.089	1175.69
369.315	1164.69
369.541	1183.69
369.767	1153.69
369.993	1181.69
370.219	1183.69
370.445	1187.69
370.672	1186.69
370.898	1170.69
371.124	1146.69
371.35	1174.69
371.576	1197.69
371.802	1222.69
372.028	1188.69
372.254	1220.69
372.48	1209.69
372.706	1288.69
372.932	1214.69
373.158	1232.69
373.384	1261.69
373.61	1204.69
373.835	1219.69
374.061	1229.69
374.287	1238.69
374.513	1253.69
374.739	1279.69
374.965	1284.69
375.191	1268.69
375.416	1268.69
375.642	1249.69
375.868	1258.69
376.094	1229.69
376.319	1221.69
376.545	1233.69
376.771	1240.69
376.997	1208.69
377.222	1234.69
377.448	1206.69
377.674	1225.69
377.899	1221.69
378.125	1223.69
378.35	1200.69
378.576	1204.69
378.802	1220.69
379.027	1257.69
379.253	1279.69
379.478	1316.69
379.704	1560.69
379.929	2195.69
380.155	3319.69
380.38	3630.69
380.606	2209.69
380.831	1537.69
381.057	1357.69
381.282	1261.69
381.507	1234.69
381.733	1247.69
381.958	1216.69
382.184	1217.69
382.409	1233.69
382.634	1209.69
382.86	1195.69
383.085	1166.69
383.31	1203.69
383.535	1172.69
383.761	1202.69
383.986	1232.69
384.211	1194.69
384.436	1234.69
384.662	1223.69
384.887	1212.69
385.112	1222.69
385.337	1249.69
385.562	1235.69
385.787	1234.69
386.013	1274.69
386.238	1264.69
386.463	1238.69
386.688	1270.69
386.913	1213.69
387.138	1216.69
387.363	1245.69
387.588	1222.69
387.813	1220.69
388.038	1242.69
388.263	1203.69
388.488	1219.69
388.713	1249.69
388.938	1218.69
389.163	1209.69
389.387	1254.69
389.612	1227.69
389.837	1196.69
390.062	1237.69
390.287	1268.69
390.512	1256.69
390.736	1251.69
390.961	1302.69
391.186	1305.69
391.411	1268.69
391.636	1328.69
391.86	1300.69
392.085	1296.69
392.31	1328.69
392.534	1318.69
392.759	1289.69
392.984	1290.69
393.208	1295.69
393.433	1304.69
393.658	1274.69
393.882	1287.69
394.107	1264.69
394.331	1237.69
394.556	1257.69
394.78	1242.69
395.005	1246.69
395.229	1250.69
395.454	1312.69
395.678	1293.69
395.903	1280.69
396.127	1286.69
396.352	1267.69
396.576	1298.69
396.801	1275.69
397.025	1322.69
397.249	1314.69
397.474	1308.69
397.698	1296.69
397.922	1316.69
398.147	1300.69
398.371	1314.69
398.595	1374.69
398.82	1379.69
399.044	1436.69
399.268	1483.69
399.492	1617.69
399.717	1618.69
399.941	1644.69
400.165	1588.69
400.389	1517.69
400.613	1481.69
400.837	1425.69
401.062	1401.69
401.286	1377.69
401.51	1357.69
401.734	1357.69
401.958	1364.69
402.182	1397.69
402.406	1353.69
402.63	1372.69
402.854	1404.69
403.078	1400.69
403.302	1394.69
403.526	1413.69
403.75	1422.69
403.974	1454.69
404.198	1413.69
404.422	1416.69
404.645	1428.69
404.869	1424.69
405.093	1422.69
405.317	1402.69
405.541	1409.69
405.765	1427.69
405.988	1447.69
406.212	1445.69
406.436	1443.69
406.66	1472.69
406.883	1494.69
407.107	1524.69
407.331	1509.69
407.555	1536.69
407.778	1536.69
408.002	1493.69
408.226	1502.69
408.449	1498.69
408.673	1448.69
408.896	1395.69
409.12	1422.69
409.344	1420.69
409.567	1426.69
409.791	1420.69
410.014	1399.69
410.238	1405.69
410.461	1399.69
410.685	1431.69
410.908	1378.69
411.132	1398.69
411.355	1340.69
411.578	1382.69
411.802	1335.69
412.025	1364.69
412.249	1373.69
412.472	1365.69
412.695	1321.69
412.919	1336.69
413.142	1364.69
413.365	1374.69
413.589	1366.69
413.812	1307.69
414.035	1321.69
414.258	1365.69
414.482	1343.69
414.705	1373.69
414.928	1341.69
415.151	1335.69
415.374	1316.69
415.597	1282.69
415.821	1301.69
416.044	1297.69
416.267	1281.69
416.49	1299.69
416.713	1271.69
416.936	1334.69
417.159	1272.69
417.382	1283.69
417.605	1282.69
417.828	1282.69
418.051	1266.69
418.274	1302.69
418.497	1280.69
418.72	1308.69
418.943	1324.69
419.166	1377.69
419.389	1446.69
419.611	1434.69
419.834	1373.69
420.057	1360.69
420.28	1332.69
420.503	1291.69
420.726	1291.69
420.948	1285.69
421.171	1308.69
421.394	1306.69
421.617	1295.69
421.839	1320.69
422.062	1323.69
422.285	1284.69
422.507	1284.69
422.73	1350.69
422.953	1337.69
423.175	1317.69
423.398	1306.69
423.621	1289.69
423.843	1320.69
424.066	1283.69
424.288	1308.69
424.511	1310.69
424.733	1290.69
424.956	1272.69
425.178	1295.69
425.401	1285.69
425.623	1284.69
425.846	1251.69
426.068	1268.69
426.291	1252.69
426.513	1257.69
426.735	1256.69
426.958	1264.69
427.18	1234.69
427.402	1234.69
427.625	1234.69
427.847	1224.69
428.069	1205.69
428.292	1207.69
428.514	1197.69
428.736	1233.69
428.958	1220.69
429.181	1175.69
429.403	1192.69
429.625	1163.69
429.847	1178.69
430.069	1197.69
430.292	1242.69
430.514	1262.69
430.736	1311.69
430.958	1227.69
431.18	1181.69
431.402	1200.69
431.624	1181.69
431.846	1192.69
432.068	1159.69
432.29	1156.69
432.512	1179.69
432.734	1195.69
432.956	1165.69
433.178	1187.69
433.4	1222.69
433.622	1219.69
433.844	1186.69
434.066	1200.69
434.287	1175.69
434.509	1187.69
434.731	1214.69
434.953	1226.69
435.175	1256.69
435.397	1234.69
435.618	1210.69
435.84	1209.69
436.062	1179.69
436.284	1192.69
436.505	1190.69
436.727	1184.69
436.949	1189.69
437.17	1176.69
437.392	1178.69
437.614	1157.69
437.835	1156.69
438.057	1105.69
438.278	1138.69
438.5	1184.69
438.721	1189.69
438.943	1260.69
439.165	1266.69
439.386	1249.69
439.608	1220.69
439.829	1233.69
440.05	1276.69
440.272	1308.69
440.493	1268.69
440.715	1208.69
440.936	1236.69
441.158	1249.69
441.379	1246.69
441.6	1340.69
441.822	1350.69
442.043	1371.69
442.264	1408.69
442.486	1347.69
442.707	1290.69
442.928	1271.69
443.149	1300.69
443.371	1269.69
443.592	1270.69
443.813	1270.69
444.034	1279.69
444.255	1312.69
444.476	1328.69
444.698	1340.69
444.919	1387.69
445.14	1476.69
445.361	1380.69
445.582	1339.69
445.803	1257.69
446.024	1280.69
446.245	1280.69
446.466	1278.69
446.687	1271.69
446.908	1264.69
447.129	1235.69
447.35	1227.69
447.571	1222.69
447.792	1197.69
448.013	1186.69
448.234	1203.69
448.455	1166.69
448.675	1224.69
448.896	1236.69
449.117	1283.69
449.338	1372.69
449.559	1402.69
449.779	1264.69
450	1215.69
450.221	1145.69
450.442	1170.69
450.662	1162.69
450.883	1154.69
451.104	1134.69
451.324	1115.69
451.545	1130.69
451.766	1164.69
451.986	1173.69
452.207	1212.69
452.428	1550.69
452.648	2210.69
452.869	1868.69
453.089	1355.69
453.31	1268.69
453.53	1280.69
453.751	1326.69
453.971	1402.69
454.192	1370.69
454.412	1195.69
454.633	1139.69
454.853	1138.69
455.073	1110.69
455.294	1108.69
455.514	1109.69
455.734	1083.69
455.955	1067.69
456.175	1084.69
456.395	1080.69
456.616	1095.69
456.836	1111.69
457.056	1099.69
457.276	1072.69
457.497	1148.69
457.717	1168.69
457.937	1150.69
458.157	1125.69
458.377	1123.69
458.598	1135.69
458.818	1164.69
459.038	1149.69
459.258	1146.69
459.478	1150.69
459.698	1192.69
459.918	1165.69
460.138	1235.69
460.358	1266.69
460.578	1283.69
460.798	1304.69
461.018	1307.69
461.238	1270.69
461.458	1297.69
461.678	1296.69
461.898	1330.69
462.118	1357.69
462.338	1353.69
462.558	1381.69
462.777	1394.69
462.997	1442.69
463.217	1514.69
463.437	1549.69
463.657	1574.69
463.876	1536.69
464.096	1480.69
464.316	1414.69
464.536	1432.69
464.755	1380.69
464.975	1342.69
465.195	1297.69
465.414	1274.69
465.634	1266.69
465.854	1229.69
466.073	1229.69
466.293	1201.69
466.512	1195.69
466.732	1236.69
466.951	1300.69
467.171	1321.69
467.391	1308.69
467.61	1225.69
467.829	1199.69
468.049	1192.69
468.268	1125.69
468.488	1173.69
468.707	1129.69
468.927	1143.69
469.146	1151.69
469.365	1200.69
469.585	1185.69
469.804	1220.69
470.023	1242.69
470.243	1247.69
470.462	1286.69
470.681	1331.69
470.901	1442.69
471.12	1712.69
471.339	1743.69
471.558	1374.69
471.777	1313.69
471.997	1234.69
472.216	1240.69
472.435	1164.69
472.654	1168.69
472.873	1132.69
473.092	1170.69
473.311	1149.69
473.53	1165.69
473.749	1215.69
473.968	1239.69
474.187	1188.69
474.406	1197.69
474.625	1161.69
474.844	1179.69
475.063	1218.69
475.282	1174.69
475.501	1203.69
475.72	1185.69
475.939	1186.69
476.158	1221.69
476.377	1236.69
476.596	1210.69
476.814	1241.69
477.033	1237.69
477.252	1210.69
477.471	1235.69
477.69	1307.69
477.908	1341.69
478.127	1340.69
478.346	1349.69
478.564	1385.69
478.783	1350.69
479.002	1380.69
479.22	1377.69
479.439	1386.69
479.658	1348.69
479.876	1394.69
480.095	1424.69
480.313	1429.69
480.532	1408.69
480.751	1460.69
480.969	1390.69
481.188	1375.69
481.406	1384.69
481.624	1349.69
481.843	1387.69
482.061	1386.69
482.28	1411.69
482.498	1378.69
482.717	1367.69
482.935	1364.69
483.153	1442.69
483.372	1451.69
483.59	1456.69
483.808	1515.69
484.027	1484.69
484.245	1555.69
484.463	1776.69
484.681	2024.69
484.9	1783.69
485.118	1675.69
485.336	1652.69
485.554	1645.69
485.772	1781.69
485.99	1985.69
486.209	2240.69
486.427	1806.69
486.645	1630.69
486.863	1581.69
487.081	1568.69
487.299	1527.69
487.517	1492.69
487.735	1502.69
487.953	1507.69
488.171	1498.69
488.389	1488.69
488.607	1462.69
488.825	1458.69
489.043	1426.69
489.261	1390.69
489.479	1474.69
489.696	1474.69
489.914	1443.69
490.132	1473.69
490.35	1484.69
490.568	1437.69
490.786	1517.69
