Data from SnStandardFlinnAPT0064_QswitchEnergy10_LIBS07252019.E.O._I.C._HRD10591_15-28-02-974.txt Node
Date: Thu Jul 25 15:28:02 EDT 2019
User: cochatt
Spectrometer: HR+D1059
Trigger mode: 1
Integration Time (sec): 1.000000E-1
Scans to average: 1
Electric dark correction enabled: true
Nonlinearity correction enabled: false
Boxcar width: 0
XAxis mode: Wavelengths
Number of Pixels in Spectrum: 2048
>>>>>Begin Spectral Data<<<<<
223.165	-6.5
223.4	-6.5
223.635	-6.5
223.869	-37.5
224.104	-16.5
224.338	-11.5
224.573	-11.5
224.808	-9.5
225.042	-5.5
225.277	-20.5
225.511	-6.5
225.746	11.5
225.98	12.5
226.215	11.5
226.449	24.5
226.683	12.5
226.918	22.5
227.152	30.5
227.387	44.5
227.621	39.5
227.856	38.5
228.09	39.5
228.324	57.5
228.559	54.5
228.793	50.5
229.027	69.5
229.262	78.5
229.496	78.5
229.73	69.5
229.964	78.5
230.199	71.5
230.433	68.5
230.667	65.5
230.901	89.5
231.136	78.5
231.37	91.5
231.604	96.5
231.838	94.5
232.072	111.5
232.306	122.5
232.541	87.5
232.775	74.5
233.009	97.5
233.243	92.5
233.477	94.5
233.711	88.5
233.945	112.5
234.179	85.5
234.413	78.5
234.647	89.5
234.881	82.5
235.115	80.5
235.349	87.5
235.583	99.5
235.817	123.5
236.051	118.5
236.285	104.5
236.519	91.5
236.753	81.5
236.987	82.5
237.221	88.5
237.455	97.5
237.689	92.5
237.922	73.5
238.156	73.5
238.39	77.5
238.624	89.5
238.858	97.5
239.091	91.5
239.325	93.5
239.559	93.5
239.793	80.5
240.027	81.5
240.26	86.5
240.494	83.5
240.728	83.5
240.961	97.5
241.195	112.5
241.429	110.5
241.662	95.5
241.896	91.5
242.13	98.5
242.363	120.5
242.597	156.5
242.83	140.5
243.064	134.5
243.298	177.5
243.531	149.5
243.765	97.5
243.998	85.5
244.232	98.5
244.465	76.5
244.699	81.5
244.932	101.5
245.166	81.5
245.399	76.5
245.633	80.5
245.866	81.5
246.099	96.5
246.333	89.5
246.566	79.5
246.8	70.5
247.033	90.5
247.266	83.5
247.5	85.5
247.733	94.5
247.966	83.5
248.2	97.5
248.433	106.5
248.666	123.5
248.899	124.5
249.133	86.5
249.366	96.5
249.599	106.5
249.832	123.5
250.066	140.5
250.299	98.5
250.532	100.5
250.765	92.5
250.998	84.5
251.231	90.5
251.465	83.5
251.698	89.5
251.931	97.5
252.164	93.5
252.397	98.5
252.63	91.5
252.863	108.5
253.096	102.5
253.329	85.5
253.562	91.5
253.795	85.5
254.028	92.5
254.261	84.5
254.494	106.5
254.727	128.5
254.96	154.5
255.193	135.5
255.426	115.5
255.659	96.5
255.892	91.5
256.124	94.5
256.357	83.5
256.59	101.5
256.823	86.5
257.056	113.5
257.289	148.5
257.521	180.5
257.754	129.5
257.987	104.5
258.22	92.5
258.452	81.5
258.685	84.5
258.918	86.5
259.151	93.5
259.383	116.5
259.616	134.5
259.849	125.5
260.081	109.5
260.314	93.5
260.547	95.5
260.779	87.5
261.012	90.5
261.244	77.5
261.477	94.5
261.71	78.5
261.942	80.5
262.175	88.5
262.407	94.5
262.64	90.5
262.872	96.5
263.105	92.5
263.337	108.5
263.57	83.5
263.802	92.5
264.035	96.5
264.267	102.5
264.499	89.5
264.732	79.5
264.964	88.5
265.197	85.5
265.429	92.5
265.661	105.5
265.894	110.5
266.126	131.5
266.358	151.5
266.591	142.5
266.823	100.5
267.055	84.5
267.287	82.5
267.52	99.5
267.752	82.5
267.984	95.5
268.216	83.5
268.448	100.5
268.681	113.5
268.913	93.5
269.145	78.5
269.377	83.5
269.609	77.5
269.841	101.5
270.073	108.5
270.306	139.5
270.538	189.5
270.77	301.5
271.002	372.5
271.234	207.5
271.466	112.5
271.698	96.5
271.93	100.5
272.162	89.5
272.394	92.5
272.626	92.5
272.858	101.5
273.09	97.5
273.322	78.5
273.553	83.5
273.785	87.5
274.017	93.5
274.249	95.5
274.481	92.5
274.713	86.5
274.945	96.5
275.176	84.5
275.408	94.5
275.64	85.5
275.872	99.5
276.104	104.5
276.335	110.5
276.567	105.5
276.799	98.5
277.031	101.5
277.262	100.5
277.494	98.5
277.726	123.5
277.957	164.5
278.189	240.5
278.421	229.5
278.652	184.5
278.884	184.5
279.115	141.5
279.347	118.5
279.579	94.5
279.81	101.5
280.042	99.5
280.273	107.5
280.505	93.5
280.736	100.5
280.968	130.5
281.199	168.5
281.431	228.5
281.662	236.5
281.894	139.5
282.125	109.5
282.356	96.5
282.588	122.5
282.819	115.5
283.051	127.5
283.282	138.5
283.513	191.5
283.745	309.5
283.976	506.5
284.207	786.5
284.439	582.5
284.67	278.5
284.901	241.5
285.132	338.5
285.364	368.5
285.595	218.5
285.826	176.5
286.057	246.5
286.288	406.5
286.52	585.5
286.751	482.5
286.982	198.5
287.213	125.5
287.444	110.5
287.675	109.5
287.906	98.5
288.138	93.5
288.369	105.5
288.6	103.5
288.831	91.5
289.062	94.5
289.293	94.5
289.524	91.5
289.755	88.5
289.986	82.5
290.217	97.5
290.448	108.5
290.679	108.5
290.91	133.5
291.141	155.5
291.371	210.5
291.602	264.5
291.833	173.5
292.064	110.5
292.295	93.5
292.526	107.5
292.757	100.5
292.987	91.5
293.218	94.5
293.449	91.5
293.68	99.5
293.91	84.5
294.141	96.5
294.372	84.5
294.603	111.5
294.833	94.5
295.064	94.5
295.295	91.5
295.525	86.5
295.756	102.5
295.987	96.5
296.217	99.5
296.448	94.5
296.679	105.5
296.909	106.5
297.14	87.5
297.37	126.5
297.601	105.5
297.831	91.5
298.062	88.5
298.292	103.5
298.523	96.5
298.753	98.5
298.984	91.5
299.214	101.5
299.445	91.5
299.675	97.5
299.905	120.5
300.136	135.5
300.366	169.5
300.597	266.5
300.827	430.5
301.057	680.5
301.288	606.5
301.518	248.5
301.748	152.5
301.979	135.5
302.209	139.5
302.439	141.5
302.669	182.5
302.9	271.5
303.13	453.5
303.36	830.5
303.59	1190.5
303.82	823.5
304.051	285.5
304.281	156.5
304.511	120.5
304.741	122.5
304.971	113.5
305.201	115.5
305.431	108.5
305.661	121.5
305.891	126.5
306.121	104.5
306.352	103.5
306.582	122.5
306.812	124.5
307.042	116.5
307.272	102.5
307.502	113.5
307.731	105.5
307.961	107.5
308.191	89.5
308.421	109.5
308.651	104.5
308.881	123.5
309.111	99.5
309.341	100.5
309.571	119.5
309.8	125.5
310.03	105.5
310.26	92.5
310.49	105.5
310.72	125.5
310.949	110.5
311.179	106.5
311.409	106.5
311.639	106.5
311.868	102.5
312.098	101.5
312.328	105.5
312.557	109.5
312.787	108.5
313.017	123.5
313.246	124.5
313.476	122.5
313.706	130.5
313.935	157.5
314.165	178.5
314.394	220.5
314.624	168.5
314.853	141.5
315.083	125.5
315.312	142.5
315.542	131.5
315.771	135.5
316.001	127.5
316.23	150.5
316.46	156.5
316.689	175.5
316.919	264.5
317.148	481.5
317.377	885.5
317.607	1444.5
317.836	1392.5
318.065	521.5
318.295	212.5
318.524	146.5
318.753	125.5
318.983	133.5
319.212	131.5
319.441	120.5
319.67	141.5
319.9	121.5
320.129	108.5
320.358	114.5
320.587	125.5
320.816	128.5
321.046	122.5
321.275	132.5
321.504	125.5
321.733	146.5
321.962	160.5
322.191	160.5
322.42	145.5
322.649	133.5
322.878	133.5
323.108	110.5
323.337	110.5
323.566	125.5
323.795	136.5
324.024	128.5
324.253	140.5
324.482	182.5
324.71	211.5
324.939	264.5
325.168	227.5
325.397	179.5
325.626	262.5
325.855	475.5
326.084	934.5
326.313	1569.5
326.542	1523.5
326.77	596.5
326.999	262.5
327.228	208.5
327.457	225.5
327.686	227.5
327.914	150.5
328.143	132.5
328.372	136.5
328.6	124.5
328.829	119.5
329.058	118.5
329.287	130.5
329.515	115.5
329.744	123.5
329.972	112.5
330.201	125.5
330.43	111.5
330.658	121.5
330.887	118.5
331.115	120.5
331.344	127.5
331.572	132.5
331.801	116.5
332.03	121.5
332.258	131.5
332.486	164.5
332.715	294.5
332.943	483.5
333.172	733.5
333.4	657.5
333.629	260.5
333.857	140.5
334.085	121.5
334.314	115.5
334.542	114.5
334.771	122.5
334.999	124.5
335.227	138.5
335.455	123.5
335.684	122.5
335.912	124.5
336.14	118.5
336.369	113.5
336.597	114.5
336.825	119.5
337.053	114.5
337.281	113.5
337.51	125.5
337.738	114.5
337.966	112.5
338.194	115.5
338.422	116.5
338.65	114.5
338.878	118.5
339.106	123.5
339.334	116.5
339.562	116.5
339.79	132.5
340.018	113.5
340.246	100.5
340.474	140.5
340.702	113.5
340.93	118.5
341.158	122.5
341.386	120.5
341.614	123.5
341.842	118.5
342.07	124.5
342.298	114.5
342.526	113.5
342.754	109.5
342.981	112.5
343.209	104.5
343.437	126.5
343.665	108.5
343.893	107.5
344.12	101.5
344.348	116.5
344.576	122.5
344.804	113.5
345.031	118.5
345.259	118.5
345.487	108.5
345.714	122.5
345.942	120.5
346.17	96.5
346.397	108.5
346.625	109.5
346.853	106.5
347.08	112.5
347.308	99.5
347.535	117.5
347.763	116.5
347.99	123.5
348.218	107.5
348.445	100.5
348.673	104.5
348.9	118.5
349.128	126.5
349.355	112.5
349.583	126.5
349.81	120.5
350.037	113.5
350.265	121.5
350.492	102.5
350.72	116.5
350.947	106.5
351.174	110.5
351.402	120.5
351.629	124.5
351.856	112.5
352.083	110.5
352.311	115.5
352.538	119.5
352.765	114.5
352.992	109.5
353.22	108.5
353.447	104.5
353.674	115.5
353.901	103.5
354.128	103.5
354.355	104.5
354.583	101.5
354.81	114.5
355.037	105.5
355.264	101.5
355.491	103.5
355.718	92.5
355.945	116.5
356.172	113.5
356.399	91.5
356.626	92.5
356.853	117.5
357.08	104.5
357.307	114.5
357.534	111.5
357.761	89.5
357.988	107.5
358.215	114.5
358.441	118.5
358.668	104.5
358.895	124.5
359.122	114.5
359.349	100.5
359.576	132.5
359.802	121.5
360.029	133.5
360.256	124.5
360.483	116.5
360.709	108.5
360.936	121.5
361.163	116.5
361.39	107.5
361.616	106.5
361.843	121.5
362.07	123.5
362.296	118.5
362.523	117.5
362.749	99.5
362.976	109.5
363.203	110.5
363.429	102.5
363.656	105.5
363.882	104.5
364.109	115.5
364.335	102.5
364.562	106.5
364.788	109.5
365.015	127.5
365.241	137.5
365.468	192.5
365.694	246.5
365.92	208.5
366.147	103.5
366.373	100.5
366.599	101.5
366.826	93.5
367.052	113.5
367.278	90.5
367.505	84.5
367.731	99.5
367.957	91.5
368.184	100.5
368.41	118.5
368.636	113.5
368.862	88.5
369.089	115.5
369.315	108.5
369.541	114.5
369.767	104.5
369.993	100.5
370.219	118.5
370.445	105.5
370.672	112.5
370.898	104.5
371.124	109.5
371.35	106.5
371.576	97.5
371.802	108.5
372.028	101.5
372.254	116.5
372.48	92.5
372.706	110.5
372.932	102.5
373.158	109.5
373.384	113.5
373.61	117.5
373.835	114.5
374.061	125.5
374.287	115.5
374.513	101.5
374.739	97.5
374.965	117.5
375.191	107.5
375.416	118.5
375.642	104.5
375.868	107.5
376.094	114.5
376.319	101.5
376.545	93.5
376.771	124.5
376.997	120.5
377.222	113.5
377.448	122.5
377.674	107.5
377.899	114.5
378.125	124.5
378.35	119.5
378.576	132.5
378.802	127.5
379.027	134.5
379.253	129.5
379.478	173.5
379.704	321.5
379.929	734.5
380.155	1508.5
380.38	1584.5
380.606	519.5
380.831	184.5
381.057	120.5
381.282	126.5
381.507	114.5
381.733	109.5
381.958	102.5
382.184	100.5
382.409	112.5
382.634	100.5
382.86	108.5
383.085	100.5
383.31	104.5
383.535	112.5
383.761	105.5
383.986	101.5
384.211	130.5
384.436	116.5
384.662	106.5
384.887	105.5
385.112	100.5
385.337	102.5
385.562	117.5
385.787	119.5
386.013	96.5
386.238	105.5
386.463	120.5
386.688	108.5
386.913	90.5
387.138	109.5
387.363	104.5
387.588	107.5
387.813	110.5
388.038	107.5
388.263	109.5
388.488	89.5
388.713	97.5
388.938	113.5
389.163	93.5
389.387	103.5
389.612	105.5
389.837	92.5
390.062	100.5
390.287	96.5
390.512	96.5
390.736	94.5
390.961	102.5
391.186	100.5
391.411	92.5
391.636	113.5
391.86	109.5
392.085	89.5
392.31	84.5
392.534	121.5
392.759	100.5
392.984	112.5
393.208	123.5
393.433	120.5
393.658	128.5
393.882	97.5
394.107	96.5
394.331	96.5
394.556	105.5
394.78	95.5
395.005	100.5
395.229	84.5
395.454	109.5
395.678	99.5
395.903	102.5
396.127	121.5
396.352	98.5
396.576	96.5
396.801	101.5
397.025	126.5
397.249	122.5
397.474	100.5
397.698	106.5
397.922	114.5
398.147	99.5
398.371	101.5
398.595	101.5
398.82	107.5
399.044	103.5
399.268	83.5
399.492	97.5
399.717	118.5
399.941	105.5
400.165	91.5
400.389	93.5
400.613	98.5
400.837	88.5
401.062	105.5
401.286	93.5
401.51	93.5
401.734	117.5
401.958	87.5
402.182	104.5
402.406	93.5
402.63	99.5
402.854	74.5
403.078	102.5
403.302	103.5
403.526	90.5
403.75	90.5
403.974	102.5
404.198	86.5
404.422	93.5
404.645	99.5
404.869	89.5
405.093	102.5
405.317	100.5
405.541	118.5
405.765	116.5
405.988	155.5
406.212	124.5
406.436	100.5
406.66	103.5
406.883	90.5
407.107	90.5
407.331	93.5
407.555	112.5
407.778	110.5
408.002	119.5
408.226	99.5
408.449	96.5
408.673	98.5
408.896	107.5
409.12	97.5
409.344	99.5
409.567	93.5
409.791	97.5
410.014	103.5
410.238	99.5
410.461	107.5
410.685	110.5
410.908	91.5
411.132	112.5
411.355	102.5
411.578	114.5
411.802	99.5
412.025	111.5
412.249	94.5
412.472	96.5
412.695	105.5
412.919	97.5
413.142	105.5
413.365	97.5
413.589	100.5
413.812	108.5
414.035	105.5
414.258	103.5
414.482	93.5
414.705	108.5
414.928	100.5
415.151	102.5
415.374	100.5
415.597	100.5
415.821	109.5
416.044	88.5
416.267	104.5
416.49	95.5
416.713	89.5
416.936	102.5
417.159	106.5
417.382	86.5
417.605	102.5
417.828	108.5
418.051	97.5
418.274	90.5
418.497	89.5
418.72	107.5
418.943	114.5
419.166	109.5
419.389	108.5
419.611	106.5
419.834	107.5
420.057	107.5
420.28	116.5
420.503	100.5
420.726	108.5
420.948	90.5
421.171	110.5
421.394	90.5
421.617	92.5
421.839	109.5
422.062	107.5
422.285	96.5
422.507	91.5
422.73	124.5
422.953	109.5
423.175	114.5
423.398	95.5
423.621	108.5
423.843	104.5
424.066	103.5
424.288	99.5
424.511	102.5
424.733	101.5
424.956	90.5
425.178	96.5
425.401	99.5
425.623	102.5
425.846	97.5
426.068	86.5
426.291	83.5
426.513	109.5
426.735	98.5
426.958	88.5
427.18	99.5
427.402	105.5
427.625	97.5
427.847	105.5
428.069	99.5
428.292	82.5
428.514	107.5
428.736	112.5
428.958	98.5
429.181	100.5
429.403	98.5
429.625	91.5
429.847	97.5
430.069	105.5
430.292	107.5
430.514	99.5
430.736	102.5
430.958	101.5
431.18	83.5
431.402	87.5
431.624	103.5
431.846	83.5
432.068	99.5
432.29	101.5
432.512	94.5
432.734	96.5
432.956	86.5
433.178	95.5
433.4	101.5
433.622	93.5
433.844	91.5
434.066	93.5
434.287	89.5
434.509	102.5
434.731	85.5
434.953	84.5
435.175	93.5
435.397	93.5
435.618	86.5
435.84	96.5
436.062	91.5
436.284	99.5
436.505	82.5
436.727	97.5
436.949	83.5
437.17	89.5
437.392	88.5
437.614	79.5
437.835	78.5
438.057	84.5
438.278	84.5
438.5	87.5
438.721	99.5
438.943	105.5
439.165	108.5
439.386	108.5
439.608	98.5
439.829	96.5
440.05	120.5
440.272	128.5
440.493	109.5
440.715	107.5
440.936	119.5
441.158	101.5
441.379	80.5
441.6	93.5
441.822	96.5
442.043	112.5
442.264	132.5
442.486	118.5
442.707	102.5
442.928	92.5
443.149	100.5
443.371	90.5
443.592	101.5
443.813	91.5
444.034	88.5
444.255	114.5
444.476	110.5
444.698	108.5
444.919	110.5
445.14	201.5
445.361	148.5
445.582	107.5
445.803	98.5
446.024	92.5
446.245	98.5
446.466	100.5
446.687	120.5
446.908	110.5
447.129	103.5
447.35	96.5
447.571	94.5
447.792	101.5
448.013	89.5
448.234	103.5
448.455	91.5
448.675	102.5
448.896	113.5
449.117	108.5
449.338	136.5
449.559	165.5
449.779	133.5
450	93.5
450.221	114.5
450.442	117.5
450.662	108.5
450.883	105.5
451.104	97.5
451.324	120.5
451.545	116.5
451.766	110.5
451.986	140.5
452.207	222.5
452.428	545.5
452.648	1272.5
452.869	711.5
453.089	195.5
453.31	124.5
453.53	124.5
453.751	142.5
453.971	165.5
454.192	165.5
454.412	119.5
454.633	101.5
454.853	100.5
455.073	109.5
455.294	97.5
455.514	102.5
455.734	92.5
455.955	96.5
456.175	86.5
456.395	91.5
456.616	97.5
456.836	98.5
457.056	103.5
457.276	99.5
457.497	108.5
457.717	132.5
457.937	103.5
458.157	110.5
458.377	104.5
458.598	110.5
458.818	98.5
459.038	100.5
459.258	88.5
459.478	103.5
459.698	94.5
459.918	92.5
460.138	88.5
460.358	105.5
460.578	91.5
460.798	105.5
461.018	102.5
461.238	86.5
461.458	102.5
461.678	97.5
461.898	97.5
462.118	101.5
462.338	97.5
462.558	113.5
462.777	86.5
462.997	104.5
463.217	104.5
463.437	145.5
463.657	178.5
463.876	172.5
464.096	117.5
464.316	114.5
464.536	92.5
464.755	96.5
464.975	91.5
465.195	98.5
465.414	107.5
465.634	100.5
465.854	100.5
466.073	98.5
466.293	96.5
466.512	90.5
466.732	100.5
466.951	123.5
467.171	152.5
467.391	120.5
467.61	115.5
467.829	94.5
468.049	96.5
468.268	103.5
468.488	83.5
468.707	97.5
468.927	100.5
469.146	109.5
469.365	92.5
469.585	98.5
469.804	100.5
470.023	104.5
470.243	106.5
470.462	104.5
470.681	119.5
470.901	139.5
471.12	200.5
471.339	213.5
471.558	138.5
471.777	116.5
471.997	107.5
472.216	98.5
472.435	83.5
472.654	103.5
472.873	95.5
473.092	78.5
473.311	105.5
473.53	109.5
473.749	92.5
473.968	102.5
474.187	106.5
474.406	100.5
474.625	92.5
474.844	89.5
475.063	88.5
475.282	82.5
475.501	91.5
475.72	99.5
475.939	91.5
476.158	95.5
476.377	117.5
476.596	117.5
476.814	97.5
477.033	100.5
477.252	90.5
477.471	110.5
477.69	105.5
477.908	94.5
478.127	100.5
478.346	100.5
478.564	89.5
478.783	90.5
479.002	105.5
479.22	77.5
479.439	89.5
479.658	95.5
479.876	102.5
480.095	108.5
480.313	104.5
480.532	98.5
480.751	104.5
480.969	91.5
481.188	96.5
481.406	99.5
481.624	104.5
481.843	110.5
482.061	113.5
482.28	100.5
482.498	96.5
482.717	88.5
482.935	106.5
483.153	106.5
483.372	104.5
483.59	100.5
483.808	91.5
484.027	104.5
484.245	121.5
484.463	157.5
484.681	234.5
484.9	156.5
485.118	113.5
485.336	110.5
485.554	107.5
485.772	118.5
485.99	193.5
486.209	229.5
486.427	160.5
486.645	115.5
486.863	116.5
487.081	100.5
487.299	108.5
487.517	98.5
487.735	105.5
487.953	105.5
488.171	100.5
488.389	101.5
488.607	100.5
488.825	87.5
489.043	88.5
489.261	106.5
489.479	108.5
489.696	90.5
489.914	104.5
490.132	96.5
490.35	103.5
490.568	99.5
490.786	97.5
491.003	112.5
491.221	106.5
491.439	114.5
491.657	105.5
491.874	108.5
492.092	96.5
492.31	115.5
492.527	104.5
492.745	111.5
492.963	106.5
493.18	106.5
493.398	108.5
493.615	109.5
493.833	124.5
494.05	105.5
494.268	100.5
494.485	98.5
494.703	95.5
494.92	87.5
495.138	94.5
495.355	113.5
495.573	115.5
495.79	107.5
496.008	118.5
496.225	103.5
496.442	94.5
496.66	133.5
496.877	142.5
497.094	141.5
497.312	107.5
497.529	109.5
497.746	98.5
497.963	95.5
498.181	106.5
498.398	106.5
498.615	110.5
498.832	103.5
499.049	106.5
499.267	139.5
499.484	154.5
499.701	118.5
499.918	105.5
500.135	102.5
500.352	97.5
500.569	101.5
500.786	95.5
501.003	97.5
501.22	109.5
501.437	110.5
501.654	105.5
501.871	92.5
502.088	100.5
502.305	101.5
502.522	94.5
502.739	104.5
502.956	102.5
503.172	105.5
503.389	93.5
503.606	94.5
503.823	86.5
504.04	105.5
504.256	116.5
504.473	104.5
504.69	92.5
504.907	104.5
505.123	112.5
505.34	106.5
505.557	104.5
505.773	89.5
505.99	98.5
506.207	110.5
506.423	119.5
506.64	113.5
506.856	101.5
507.073	115.5
507.289	113.5
507.506	97.5
507.722	90.5
507.939	104.5
508.155	82.5
508.372	100.5
508.588	91.5
508.805	106.5
509.021	96.5
509.238	119.5
509.454	145.5
509.67	162.5
509.887	101.5
510.103	100.5
510.319	102.5
510.536	116.5
510.752	109.5
510.968	100.5
511.184	100.5
511.401	103.5
511.617	102.5
511.833	101.5
512.049	99.5
512.265	100.5
512.481	98.5
512.698	102.5
512.914	104.5
513.13	100.5
513.346	90.5
513.562	91.5
513.778	100.5
513.994	93.5
514.21	118.5
514.426	140.5
514.642	184.5
514.858	122.5
515.074	96.5
515.29	105.5
515.506	95.5
515.721	89.5
515.937	102.5
516.153	101.5
516.369	99.5
516.585	97.5
516.801	99.5
517.016	99.5
517.232	101.5
517.448	86.5
517.664	97.5
517.879	112.5
518.095	111.5
518.311	90.5
518.527	104.5
518.742	99.5
518.958	131.5
519.173	157.5
519.389	123.5
519.605	99.5
519.82	91.5
520.036	105.5
520.251	89.5
520.467	100.5
520.682	82.5
520.898	92.5
521.113	88.5
521.329	99.5
521.544	99.5
521.76	97.5
521.975	116.5
522.19	113.5
522.406	97.5
522.621	94.5
522.836	106.5
523.052	107.5
523.267	107.5
523.482	93.5
523.698	97.5
523.913	95.5
524.128	106.5
524.343	106.5
524.559	110.5
524.774	108.5
524.989	92.5
525.204	103.5
525.419	108.5
525.634	90.5
525.849	89.5
526.064	103.5
526.28	96.5
