Data from SnStandardFlinnAPT0064_LampEnergy10_LIBS07252019.E.O._I.C._HRD10591_15-20-08-493.txt Node
Date: Thu Jul 25 15:20:08 EDT 2019
User: cochatt
Spectrometer: HR+D1059
Trigger mode: 1
Integration Time (sec): 1.000000E-1
Scans to average: 1
Electric dark correction enabled: true
Nonlinearity correction enabled: false
Boxcar width: 0
XAxis mode: Wavelengths
Number of Pixels in Spectrum: 2048
>>>>>Begin Spectral Data<<<<<
223.165	-14.69
223.4	-14.69
223.635	-14.69
223.869	-15.69
224.104	-14.69
224.338	-15.69
224.573	1.31
224.808	-0.69
225.042	-4.69
225.277	-2.69
225.511	-8.69
225.746	-10.69
225.98	3.31
226.215	14.31
226.449	10.31
226.683	8.31
226.918	15.31
227.152	35.31
227.387	27.31
227.621	36.31
227.856	24.31
228.09	41.31
228.324	51.31
228.559	61.31
228.793	142.31
229.027	303.31
229.262	346.31
229.496	290.31
229.73	303.31
229.964	311.31
230.199	292.31
230.433	319.31
230.667	314.31
230.901	324.31
231.136	348.31
231.37	359.31
231.604	410.31
231.838	463.31
232.072	543.31
232.306	599.31
232.541	475.31
232.775	438.31
233.009	419.31
233.243	433.31
233.477	466.31
233.711	521.31
233.945	573.31
234.179	541.31
234.413	457.31
234.647	449.31
234.881	477.31
235.115	527.31
235.349	600.31
235.583	781.31
235.817	1001.31
236.051	998.31
236.285	673.31
236.519	539.31
236.753	513.31
236.987	511.31
237.221	539.31
237.455	522.31
237.689	478.31
237.922	463.31
238.156	445.31
238.39	502.31
238.624	529.31
238.858	493.31
239.091	479.31
239.325	497.31
239.559	532.31
239.793	511.31
240.027	526.31
240.26	537.31
240.494	556.31
240.728	581.31
240.961	615.31
241.195	648.31
241.429	690.31
241.662	705.31
241.896	799.31
242.13	943.31
242.363	1293.31
242.597	1699.31
242.83	1586.31
243.064	1567.31
243.298	1848.31
243.531	1519.31
243.765	975.31
243.998	773.31
244.232	687.31
244.465	707.31
244.699	651.31
244.932	658.31
245.166	648.31
245.399	697.31
245.633	674.31
245.866	721.31
246.099	674.31
246.333	647.31
246.566	650.31
246.8	681.31
247.033	659.31
247.266	620.31
247.5	669.31
247.733	674.31
247.966	714.31
248.2	771.31
248.433	875.31
248.666	1041.31
248.899	959.31
249.133	853.31
249.366	831.31
249.599	976.31
249.832	1103.31
250.066	1114.31
250.299	879.31
250.532	769.31
250.765	772.31
250.998	748.31
251.231	743.31
251.465	724.31
251.698	744.31
251.931	730.31
252.164	773.31
252.397	779.31
252.63	770.31
252.863	794.31
253.096	784.31
253.329	775.31
253.562	775.31
253.795	787.31
254.028	790.31
254.261	815.31
254.494	881.31
254.727	1043.31
254.96	1260.31
255.193	1221.31
255.426	986.31
255.659	884.31
255.892	865.31
256.124	881.31
256.357	907.31
256.59	897.31
256.823	967.31
257.056	1115.31
257.289	1405.31
257.521	1521.31
257.754	1192.31
257.987	967.31
258.22	929.31
258.452	918.31
258.685	920.31
258.918	944.31
259.151	1010.31
259.383	1073.31
259.616	1219.31
259.849	1279.31
260.081	1092.31
260.314	1017.31
260.547	937.31
260.779	959.31
261.012	953.31
261.244	943.31
261.477	969.31
261.71	986.31
261.942	1009.31
262.175	1023.31
262.407	1035.31
262.64	1053.31
262.872	1061.31
263.105	1149.31
263.337	1183.31
263.57	1221.31
263.802	1263.31
264.035	1319.31
264.267	1283.31
264.499	1337.31
264.732	1411.31
264.964	1409.31
265.197	1404.31
265.429	1409.31
265.661	1432.31
265.894	1537.31
266.126	1706.31
266.358	1932.31
266.591	1882.31
266.823	1617.31
267.055	1395.31
267.287	1378.31
267.52	1315.31
267.752	1293.31
267.984	1260.31
268.216	1247.31
268.448	1244.31
268.681	1284.31
268.913	1245.31
269.145	1237.31
269.377	1235.31
269.609	1277.31
269.841	1261.31
270.073	1380.31
270.306	1595.31
270.538	2194.31
270.77	3227.31
271.002	4006.31
271.234	2782.31
271.466	1903.31
271.698	1540.31
271.93	1376.31
272.162	1334.31
272.394	1261.31
272.626	1235.31
272.858	1213.31
273.09	1236.31
273.322	1208.31
273.553	1179.31
273.785	1234.31
274.017	1196.31
274.249	1199.31
274.481	1187.31
274.713	1209.31
274.945	1185.31
275.176	1215.31
275.408	1191.31
275.64	1222.31
275.872	1196.31
276.104	1257.31
276.335	1292.31
276.567	1289.31
276.799	1290.31
277.031	1311.31
277.262	1307.31
277.494	1412.31
277.726	1567.31
277.957	1849.31
278.189	2177.31
278.421	2037.31
278.652	1751.31
278.884	1666.31
279.115	1544.31
279.347	1425.31
279.579	1398.31
279.81	1394.31
280.042	1399.31
280.273	1436.31
280.505	1451.31
280.736	1457.31
280.968	1558.31
281.199	1804.31
281.431	2059.31
281.662	2132.31
281.894	1771.31
282.125	1675.31
282.356	1656.31
282.588	1661.31
282.819	1676.31
283.051	1796.31
283.282	2026.31
283.513	2503.31
283.745	3615.31
283.976	5760.31
284.207	8032.31
284.439	7380.31
284.67	4650.31
284.901	3773.31
285.132	3889.31
285.364	3684.31
285.595	2761.31
285.826	2471.31
286.057	2905.31
286.288	3941.31
286.52	5288.31
286.751	4956.31
286.982	3127.31
287.213	2317.31
287.444	2008.31
287.675	1885.31
287.906	1829.31
288.138	1724.31
288.369	1683.31
288.6	1655.31
288.831	1663.31
289.062	1667.31
289.293	1671.31
289.524	1673.31
289.755	1667.31
289.986	1701.31
290.217	1718.31
290.448	1750.31
290.679	1751.31
290.91	1745.31
291.141	1887.31
291.371	2073.31
291.602	2161.31
291.833	1969.31
292.064	1743.31
292.295	1661.31
292.526	1633.31
292.757	1607.31
292.987	1597.31
293.218	1609.31
293.449	1603.31
293.68	1564.31
293.91	1595.31
294.141	1547.31
294.372	1556.31
294.603	1545.31
294.833	1555.31
295.064	1533.31
295.295	1548.31
295.525	1559.31
295.756	1570.31
295.987	1548.31
296.217	1559.31
296.448	1575.31
296.679	1589.31
296.909	1555.31
297.14	1585.31
297.37	1595.31
297.601	1640.31
297.831	1599.31
298.062	1618.31
298.292	1642.31
298.523	1697.31
298.753	1700.31
298.984	1706.31
299.214	1745.31
299.445	1750.31
299.675	1815.31
299.905	1856.31
300.136	1922.31
300.366	2188.31
300.597	2771.31
300.827	3868.31
301.057	5329.31
301.288	5332.31
301.518	3404.31
301.748	2687.31
301.979	2410.31
302.209	2277.31
302.439	2314.31
302.669	2455.31
302.9	2968.31
303.13	4235.31
303.36	6311.31
303.59	8390.31
303.82	7285.31
304.051	4277.31
304.281	3092.31
304.511	2601.31
304.741	2324.31
304.971	2204.31
305.201	2091.31
305.431	2018.31
305.661	1963.31
305.891	1930.31
306.121	1892.31
306.352	1867.31
306.582	1875.31
306.812	1848.31
307.042	1842.31
307.272	1827.31
307.502	1796.31
307.731	1769.31
307.961	1806.31
308.191	1795.31
308.421	1777.31
308.651	1816.31
308.881	1780.31
309.111	1769.31
309.341	1779.31
309.571	1836.31
309.8	1838.31
310.03	1868.31
310.26	1863.31
310.49	1814.31
310.72	1874.31
310.949	1817.31
311.179	1896.31
311.409	1903.31
311.639	1923.31
311.868	1914.31
312.098	1913.31
312.328	1929.31
312.557	1971.31
312.787	1957.31
313.017	1929.31
313.246	1962.31
313.476	2019.31
313.706	2122.31
313.935	2185.31
314.165	2346.31
314.394	2513.31
314.624	2423.31
314.853	2176.31
315.083	2114.31
315.312	2166.31
315.542	2178.31
315.771	2210.31
316.001	2228.31
316.23	2270.31
316.46	2427.31
316.689	2643.31
316.919	3227.31
317.148	4650.31
317.377	7233.31
317.607	10489.31
317.836	11002.31
318.065	6801.31
318.295	4340.31
318.524	3491.31
318.753	3048.31
318.983	2754.31
319.212	2571.31
319.441	2490.31
319.67	2441.31
319.9	2379.31
320.129	2387.31
320.358	2363.31
320.587	2319.31
320.816	2340.31
321.046	2387.31
321.275	2274.31
321.504	2355.31
321.733	2422.31
321.962	2491.31
322.191	2538.31
322.42	2501.31
322.649	2449.31
322.878	2458.31
323.108	2428.31
323.337	2481.31
323.566	2557.31
323.795	2580.31
324.024	2663.31
324.253	2715.31
324.482	2839.31
324.71	3036.31
324.939	3253.31
325.168	3292.31
325.397	3434.31
325.626	4092.31
325.855	5669.31
326.084	8836.31
326.313	12737.31
326.542	13506.31
326.77	9304.31
326.999	6059.31
327.228	5060.31
327.457	4835.31
327.686	4819.31
327.914	5137.31
328.143	5988.31
328.372	7137.31
328.6	7747.31
328.829	6939.31
329.058	5824.31
329.287	5089.31
329.515	4615.31
329.744	4265.31
329.972	4035.31
330.201	3817.31
330.43	3680.31
330.658	3573.31
330.887	3505.31
331.115	3486.31
331.344	3485.31
331.572	3393.31
331.801	3476.31
332.03	3538.31
332.258	3551.31
332.486	3714.31
332.715	4248.31
332.943	5309.31
333.172	6755.31
333.4	6722.31
333.629	4994.31
333.857	4499.31
334.085	4478.31
334.314	4689.31
334.542	5043.31
334.771	5989.31
334.999	7343.31
335.227	9167.31
335.455	10316.31
335.684	9366.31
335.912	7683.31
336.14	6420.31
336.369	5715.31
336.597	5219.31
336.825	4743.31
337.053	4463.31
337.281	4277.31
337.51	4018.31
337.738	3895.31
337.966	3652.31
338.194	3548.31
338.422	3422.31
338.65	3368.31
338.878	3276.31
339.106	3197.31
339.334	3175.31
339.562	3153.31
339.79	3079.31
340.018	3023.31
340.246	2977.31
340.474	2998.31
340.702	2947.31
340.93	3029.31
341.158	2979.31
341.386	2970.31
341.614	2880.31
341.842	2847.31
342.07	2797.31
342.298	2810.31
342.526	2746.31
342.754	2725.31
342.981	2719.31
343.209	2685.31
343.437	2702.31
343.665	2759.31
343.893	2816.31
344.12	2786.31
344.348	2773.31
344.576	2716.31
344.804	2663.31
345.031	2583.31
345.259	2582.31
345.487	2601.31
345.714	2537.31
345.942	2531.31
346.17	2503.31
346.397	2519.31
346.625	2513.31
346.853	2488.31
347.08	2524.31
347.308	2469.31
347.535	2501.31
347.763	2519.31
347.99	2445.31
348.218	2462.31
348.445	2469.31
348.673	2455.31
348.9	2442.31
349.128	2450.31
349.355	2393.31
349.583	2387.31
349.81	2417.31
350.037	2342.31
350.265	2380.31
350.492	2385.31
350.72	2375.31
350.947	2381.31
351.174	2337.31
351.402	2372.31
351.629	2336.31
351.856	2365.31
352.083	2382.31
352.311	2367.31
352.538	2337.31
352.765	2312.31
352.992	2366.31
353.22	2315.31
353.447	2338.31
353.674	2342.31
353.901	2364.31
354.128	2410.31
354.355	2374.31
354.583	2361.31
354.81	2357.31
355.037	2362.31
355.264	2388.31
355.491	2437.31
355.718	2426.31
355.945	2435.31
356.172	2403.31
356.399	2406.31
356.626	2475.31
356.853	2429.31
357.08	2489.31
357.307	2552.31
357.534	2553.31
357.761	2537.31
357.988	2544.31
358.215	2523.31
358.441	2555.31
358.668	2492.31
358.895	2515.31
359.122	2509.31
359.349	2528.31
359.576	2514.31
359.802	2488.31
360.029	2463.31
360.256	2529.31
360.483	2523.31
360.709	2492.31
360.936	2499.31
361.163	2506.31
361.39	2506.31
361.616	2515.31
361.843	2524.31
362.07	2528.31
362.296	2546.31
362.523	2479.31
362.749	2531.31
362.976	2506.31
363.203	2481.31
363.429	2495.31
363.656	2474.31
363.882	2503.31
364.109	2466.31
364.335	2449.31
364.562	2477.31
364.788	2553.31
365.015	2556.31
365.241	2645.31
365.468	2769.31
365.694	2883.31
365.92	2836.31
366.147	2609.31
366.373	2547.31
366.599	2574.31
366.826	2555.31
367.052	2560.31
367.278	2571.31
367.505	2569.31
367.731	2566.31
367.957	2561.31
368.184	2569.31
368.41	2626.31
368.636	2622.31
368.862	2667.31
369.089	2628.31
369.315	2588.31
369.541	2599.31
369.767	2600.31
369.993	2557.31
370.219	2591.31
370.445	2608.31
370.672	2643.31
370.898	2646.31
371.124	2602.31
371.35	2644.31
371.576	2652.31
371.802	2635.31
372.028	2666.31
372.254	2695.31
372.48	2759.31
372.706	2700.31
372.932	2738.31
373.158	2767.31
373.384	2742.31
373.61	2668.31
373.835	2727.31
374.061	2744.31
374.287	2749.31
374.513	2797.31
374.739	2826.31
374.965	2828.31
375.191	2876.31
375.416	2845.31
375.642	2768.31
375.868	2746.31
376.094	2759.31
376.319	2785.31
376.545	2715.31
376.771	2715.31
376.997	2700.31
377.222	2740.31
377.448	2722.31
377.674	2719.31
377.899	2711.31
378.125	2668.31
378.35	2708.31
378.576	2719.31
378.802	2756.31
379.027	2843.31
379.253	2789.31
379.478	3007.31
379.704	3524.31
379.929	5185.31
380.155	8095.31
380.38	8855.31
380.606	5406.31
380.831	3729.31
381.057	3272.31
381.282	2912.31
381.507	2865.31
381.733	2771.31
381.958	2707.31
382.184	2674.31
382.409	2684.31
382.634	2687.31
382.86	2677.31
383.085	2647.31
383.31	2660.31
383.535	2658.31
383.761	2630.31
383.986	2687.31
384.211	2747.31
384.436	2699.31
384.662	2761.31
384.887	2707.31
385.112	2732.31
385.337	2789.31
385.562	2747.31
385.787	2702.31
386.013	2759.31
386.238	2723.31
386.463	2695.31
386.688	2767.31
386.913	2699.31
387.138	2663.31
387.363	2747.31
387.588	2719.31
387.813	2687.31
388.038	2730.31
388.263	2735.31
388.488	2781.31
388.713	2739.31
388.938	2715.31
389.163	2706.31
389.387	2739.31
389.612	2691.31
389.837	2714.31
390.062	2694.31
390.287	2771.31
390.512	2823.31
390.736	2787.31
390.961	2866.31
391.186	2851.31
391.411	2859.31
391.636	2809.31
391.86	2862.31
392.085	2891.31
392.31	2887.31
392.534	2820.31
392.759	2861.31
392.984	2771.31
393.208	2832.31
393.433	2813.31
393.658	2839.31
393.882	2770.31
394.107	2789.31
394.331	2783.31
394.556	2788.31
394.78	2821.31
395.005	2773.31
395.229	2824.31
395.454	2831.31
395.678	2899.31
395.903	2864.31
396.127	2857.31
396.352	2851.31
396.576	2837.31
396.801	2858.31
397.025	2891.31
397.249	2856.31
397.474	2894.31
397.698	2829.31
397.922	2876.31
398.147	2901.31
398.371	2943.31
398.595	3025.31
398.82	3079.31
399.044	3142.31
399.268	3301.31
399.492	3500.31
399.717	3617.31
399.941	3647.31
400.165	3479.31
400.389	3369.31
400.613	3213.31
400.837	3109.31
401.062	3091.31
401.286	3031.31
401.51	3017.31
401.734	2969.31
401.958	3023.31
402.182	2964.31
402.406	2949.31
402.63	3028.31
402.854	3074.31
403.078	3064.31
403.302	3095.31
403.526	3131.31
403.75	3159.31
403.974	3149.31
404.198	3090.31
404.422	3108.31
404.645	3119.31
404.869	3145.31
405.093	3200.31
405.317	3133.31
405.541	3139.31
405.765	3212.31
405.988	3241.31
406.212	3244.31
406.436	3189.31
406.66	3316.31
406.883	3245.31
407.107	3345.31
407.331	3366.31
407.555	3469.31
407.778	3411.31
408.002	3316.31
408.226	3340.31
408.449	3385.31
408.673	3296.31
408.896	3183.31
409.12	3203.31
409.344	3172.31
409.567	3118.31
409.791	3137.31
410.014	3150.31
410.238	3137.31
410.461	3108.31
410.685	3105.31
410.908	3086.31
411.132	3021.31
411.355	3028.31
411.578	3012.31
411.802	2960.31
412.025	2944.31
412.249	3032.31
412.472	3040.31
412.695	2969.31
412.919	2927.31
413.142	2957.31
413.365	2930.31
413.589	2961.31
413.812	2923.31
414.035	2974.31
414.258	2971.31
414.482	2997.31
414.705	2978.31
414.928	3002.31
415.151	2937.31
415.374	2948.31
415.597	2933.31
415.821	2879.31
416.044	2859.31
416.267	2857.31
416.49	2770.31
416.713	2808.31
416.936	2817.31
417.159	2821.31
417.382	2829.31
417.605	2747.31
417.828	2821.31
418.051	2846.31
418.274	2866.31
418.497	2839.31
418.72	2943.31
418.943	2886.31
419.166	3001.31
419.389	3123.31
419.611	3117.31
419.834	3026.31
420.057	2948.31
420.28	2865.31
420.503	2828.31
420.726	2857.31
420.948	2830.31
421.171	2849.31
421.394	2847.31
421.617	2832.31
421.839	2812.31
422.062	2879.31
422.285	2840.31
422.507	2859.31
422.73	2917.31
422.953	2971.31
423.175	2948.31
423.398	2941.31
423.621	2887.31
423.843	2851.31
424.066	2868.31
424.288	2858.31
424.511	2840.31
424.733	2841.31
424.956	2755.31
425.178	2829.31
425.401	2799.31
425.623	2815.31
425.846	2722.31
426.068	2752.31
426.291	2744.31
426.513	2732.31
426.735	2710.31
426.958	2696.31
427.18	2659.31
427.402	2706.31
427.625	2661.31
427.847	2657.31
428.069	2646.31
428.292	2679.31
428.514	2628.31
428.736	2641.31
428.958	2672.31
429.181	2566.31
429.403	2565.31
429.625	2573.31
429.847	2644.31
430.069	2732.31
430.292	2801.31
430.514	2853.31
430.736	2869.31
430.958	2649.31
431.18	2679.31
431.402	2603.31
431.624	2585.31
431.846	2547.31
432.068	2570.31
432.29	2613.31
432.512	2584.31
432.734	2638.31
432.956	2637.31
433.178	2615.31
433.4	2611.31
433.622	2636.31
433.844	2637.31
434.066	2608.31
434.287	2619.31
434.509	2645.31
434.731	2689.31
434.953	2717.31
435.175	2746.31
435.397	2713.31
435.618	2681.31
435.84	2656.31
436.062	2617.31
436.284	2608.31
436.505	2541.31
436.727	2563.31
436.949	2580.31
437.17	2579.31
437.392	2516.31
437.614	2576.31
437.835	2507.31
438.057	2531.31
438.278	2518.31
438.5	2529.31
438.721	2569.31
438.943	2665.31
439.165	2745.31
439.386	2688.31
439.608	2713.31
439.829	2742.31
440.05	2821.31
440.272	2851.31
440.493	2709.31
440.715	2721.31
440.936	2716.31
441.158	2732.31
441.379	2771.31
441.6	2855.31
441.822	2923.31
442.043	3044.31
442.264	3153.31
442.486	2951.31
442.707	2845.31
442.928	2831.31
443.149	2832.31
443.371	2788.31
443.592	2826.31
443.813	2847.31
444.034	2842.31
444.255	2845.31
444.476	2909.31
444.698	2929.31
444.919	2995.31
445.14	2977.31
445.361	2919.31
445.582	2822.31
445.803	2774.31
446.024	2732.31
446.245	2777.31
446.466	2811.31
446.687	2730.31
446.908	2736.31
447.129	2668.31
447.35	2609.31
447.571	2639.31
447.792	2533.31
448.013	2531.31
448.234	2551.31
448.455	2565.31
448.675	2600.31
448.896	2664.31
449.117	2769.31
449.338	2993.31
449.559	3116.31
449.779	2796.31
450	2598.31
450.221	2597.31
450.442	2527.31
450.662	2534.31
450.883	2515.31
451.104	2484.31
451.324	2537.31
451.545	2523.31
451.766	2535.31
451.986	2587.31
452.207	2781.31
452.428	3638.31
452.648	5652.31
452.869	4649.31
453.089	3190.31
453.31	2930.31
453.53	2966.31
453.751	3064.31
453.971	3143.31
454.192	3077.31
454.412	2685.31
454.633	2552.31
454.853	2462.31
455.073	2403.31
455.294	2408.31
455.514	2361.31
455.734	2384.31
455.955	2362.31
456.175	2377.31
456.395	2391.31
456.616	2433.31
456.836	2463.31
457.056	2468.31
457.276	2507.31
457.497	2589.31
457.717	2651.31
457.937	2551.31
458.157	2559.31
458.377	2523.31
458.598	2547.31
458.818	2564.31
459.038	2568.31
459.258	2627.31
459.478	2630.31
459.698	2677.31
459.918	2683.31
460.138	2700.31
460.358	2788.31
460.578	2791.31
460.798	2807.31
461.018	2840.31
461.238	2843.31
461.458	2898.31
461.678	2873.31
461.898	2931.31
462.118	2940.31
462.338	3063.31
462.558	3056.31
462.777	3016.31
462.997	3220.31
463.217	3324.31
463.437	3445.31
463.657	3505.31
463.876	3529.31
464.096	3378.31
464.316	3193.31
464.536	3101.31
464.755	3082.31
464.975	2986.31
465.195	2882.31
465.414	2804.31
465.634	2741.31
465.854	2717.31
466.073	2657.31
466.293	2671.31
466.512	2647.31
466.732	2691.31
466.951	2744.31
467.171	2938.31
467.391	2916.31
467.61	2683.31
467.829	2596.31
468.049	2613.31
468.268	2570.31
468.488	2552.31
468.707	2540.31
468.927	2585.31
469.146	2547.31
469.365	2592.31
469.585	2622.31
469.804	2629.31
470.023	2749.31
470.243	2731.31
470.462	2860.31
470.681	2960.31
470.901	3280.31
471.12	3730.31
471.339	3717.31
471.558	3161.31
471.777	2881.31
471.997	2777.31
472.216	2686.31
472.435	2609.31
472.654	2561.31
472.873	2569.31
473.092	2560.31
473.311	2587.31
473.53	2602.31
473.749	2641.31
473.968	2824.31
474.187	2647.31
474.406	2590.31
474.625	2607.31
474.844	2592.31
475.063	2610.31
475.282	2597.31
475.501	2625.31
475.72	2655.31
475.939	2691.31
476.158	2722.31
476.377	2721.31
476.596	2789.31
476.814	2738.31
477.033	2708.31
477.252	2753.31
477.471	2756.31
477.69	2828.31
477.908	2908.31
478.127	2958.31
478.346	2946.31
478.564	2965.31
478.783	3039.31
479.002	3074.31
479.22	3056.31
479.439	3077.31
479.658	3120.31
479.876	3110.31
480.095	3130.31
480.313	3206.31
480.532	3247.31
480.751	3251.31
480.969	3130.31
481.188	3127.31
481.406	3113.31
481.624	3110.31
481.843	3147.31
482.061	3122.31
482.28	3094.31
482.498	3155.31
482.717	3122.31
482.935	3178.31
483.153	3158.31
483.372	3214.31
483.59	3307.31
483.808	3324.31
484.027	3385.31
484.245	3595.31
484.463	4067.31
484.681	4493.31
484.9	4127.31
485.118	3829.31
485.336	3728.31
485.554	3797.31
485.772	4005.31
485.99	4528.31
486.209	4825.31
486.427	4155.31
486.645	3593.31
486.863	3490.31
487.081	3443.31
487.299	3382.31
487.517	3324.31
487.735	3371.31
