Data from SnStandardFlinnAPT0064_LampEnergy10_LIBS07252019.E.O._I.C._HRD10591_15-21-52-494.txt Node
Date: Thu Jul 25 15:21:52 EDT 2019
User: cochatt
Spectrometer: HR+D1059
Trigger mode: 1
Integration Time (sec): 1.000000E-1
Scans to average: 1
Electric dark correction enabled: true
Nonlinearity correction enabled: false
Boxcar width: 0
XAxis mode: Wavelengths
Number of Pixels in Spectrum: 2048
>>>>>Begin Spectral Data<<<<<
223.165	-22.88
223.4	-22.88
223.635	-22.88
223.869	-8.88
224.104	-27.88
224.338	-14.88
224.573	-9.88
224.808	1.12
225.042	-11.88
225.277	-2.88
225.511	-9.88
225.746	-0.88
225.98	0.12
226.215	16.12
226.449	19.12
226.683	12.12
226.918	18.12
227.152	43.12
227.387	39.12
227.621	42.12
227.856	31.12
228.09	29.12
228.324	35.12
228.559	49.12
228.793	123.12
229.027	298.12
229.262	338.12
229.496	282.12
229.73	273.12
229.964	291.12
230.199	294.12
230.433	317.12
230.667	305.12
230.901	302.12
231.136	310.12
231.37	356.12
231.604	387.12
231.838	432.12
232.072	524.12
232.306	564.12
232.541	456.12
232.775	404.12
233.009	415.12
233.243	413.12
233.477	462.12
233.711	519.12
233.945	590.12
234.179	498.12
234.413	410.12
234.647	436.12
234.881	438.12
235.115	496.12
235.349	611.12
235.583	772.12
235.817	1008.12
236.051	1023.12
236.285	654.12
236.519	534.12
236.753	471.12
236.987	486.12
237.221	505.12
237.455	503.12
237.689	469.12
237.922	459.12
238.156	468.12
238.39	481.12
238.624	497.12
238.858	454.12
239.091	453.12
239.325	475.12
239.559	483.12
239.793	504.12
240.027	510.12
240.26	521.12
240.494	535.12
240.728	542.12
240.961	630.12
241.195	601.12
241.429	680.12
241.662	683.12
241.896	760.12
242.13	977.12
242.363	1310.12
242.597	1658.12
242.83	1582.12
243.064	1564.12
243.298	1905.12
243.531	1524.12
243.765	922.12
243.998	738.12
244.232	667.12
244.465	656.12
244.699	629.12
244.932	646.12
245.166	642.12
245.399	677.12
245.633	653.12
245.866	670.12
246.099	634.12
246.333	622.12
246.566	634.12
246.8	616.12
247.033	618.12
247.266	642.12
247.5	636.12
247.733	662.12
247.966	678.12
248.2	738.12
248.433	863.12
248.666	986.12
248.899	942.12
249.133	806.12
249.366	846.12
249.599	927.12
249.832	1069.12
250.066	1057.12
250.299	846.12
250.532	746.12
250.765	749.12
250.998	729.12
251.231	709.12
251.465	730.12
251.698	711.12
251.931	715.12
252.164	707.12
252.397	746.12
252.63	758.12
252.863	787.12
253.096	782.12
253.329	763.12
253.562	766.12
253.795	766.12
254.028	784.12
254.261	786.12
254.494	896.12
254.727	998.12
254.96	1264.12
255.193	1209.12
255.426	975.12
255.659	862.12
255.892	843.12
256.124	865.12
256.357	849.12
256.59	913.12
256.823	934.12
257.056	1086.12
257.289	1328.12
257.521	1526.12
257.754	1200.12
257.987	944.12
258.22	886.12
258.452	891.12
258.685	901.12
258.918	908.12
259.151	944.12
259.383	1050.12
259.616	1194.12
259.849	1318.12
260.081	1066.12
260.314	979.12
260.547	940.12
260.779	914.12
261.012	918.12
261.244	917.12
261.477	951.12
261.71	996.12
261.942	999.12
262.175	984.12
262.407	991.12
262.64	1053.12
262.872	1047.12
263.105	1115.12
263.337	1165.12
263.57	1221.12
263.802	1278.12
264.035	1282.12
264.267	1342.12
264.499	1346.12
264.732	1382.12
264.964	1387.12
265.197	1406.12
265.429	1430.12
265.661	1434.12
265.894	1540.12
266.126	1747.12
266.358	1881.12
266.591	1859.12
266.823	1545.12
267.055	1409.12
267.287	1351.12
267.52	1328.12
267.752	1274.12
267.984	1239.12
268.216	1238.12
268.448	1227.12
268.681	1210.12
268.913	1180.12
269.145	1192.12
269.377	1256.12
269.609	1208.12
269.841	1276.12
270.073	1364.12
270.306	1572.12
270.538	2212.12
270.77	3311.12
271.002	4056.12
271.234	2783.12
271.466	1799.12
271.698	1503.12
271.93	1371.12
272.162	1303.12
272.394	1240.12
272.626	1213.12
272.858	1211.12
273.09	1198.12
273.322	1198.12
273.553	1177.12
273.785	1156.12
274.017	1176.12
274.249	1196.12
274.481	1184.12
274.713	1169.12
274.945	1195.12
275.176	1205.12
275.408	1186.12
275.64	1222.12
275.872	1222.12
276.104	1240.12
276.335	1232.12
276.567	1250.12
276.799	1261.12
277.031	1302.12
277.262	1315.12
277.494	1400.12
277.726	1570.12
277.957	1820.12
278.189	2094.12
278.421	1996.12
278.652	1731.12
278.884	1637.12
279.115	1453.12
279.347	1378.12
279.579	1358.12
279.81	1358.12
280.042	1353.12
280.273	1397.12
280.505	1454.12
280.736	1485.12
280.968	1564.12
281.199	1790.12
281.431	2055.12
281.662	2076.12
281.894	1778.12
282.125	1599.12
282.356	1605.12
282.588	1591.12
282.819	1670.12
283.051	1776.12
283.282	1961.12
283.513	2462.12
283.745	3690.12
283.976	5914.12
284.207	8490.12
284.439	7600.12
284.67	4509.12
284.901	3642.12
285.132	3750.12
285.364	3607.12
285.595	2681.12
285.826	2388.12
286.057	2915.12
286.288	3961.12
286.52	5437.12
286.751	5020.12
286.982	2973.12
287.213	2214.12
287.444	1922.12
287.675	1804.12
287.906	1750.12
288.138	1712.12
288.369	1630.12
288.6	1650.12
288.831	1645.12
289.062	1623.12
289.293	1604.12
289.524	1645.12
289.755	1660.12
289.986	1695.12
290.217	1686.12
290.448	1688.12
290.679	1700.12
290.91	1743.12
291.141	1831.12
291.371	1988.12
291.602	2107.12
291.833	1903.12
292.064	1713.12
292.295	1669.12
292.526	1589.12
292.757	1549.12
292.987	1574.12
293.218	1540.12
293.449	1589.12
293.68	1544.12
293.91	1554.12
294.141	1533.12
294.372	1511.12
294.603	1533.12
294.833	1528.12
295.064	1521.12
295.295	1539.12
295.525	1539.12
295.756	1517.12
295.987	1549.12
296.217	1546.12
296.448	1562.12
296.679	1557.12
296.909	1554.12
297.14	1548.12
297.37	1567.12
297.601	1582.12
297.831	1572.12
298.062	1617.12
298.292	1599.12
298.523	1606.12
298.753	1648.12
298.984	1621.12
299.214	1676.12
299.445	1659.12
299.675	1752.12
299.905	1775.12
300.136	1868.12
300.366	2079.12
300.597	2776.12
300.827	3974.12
301.057	5415.12
301.288	5363.12
301.518	3370.12
301.748	2544.12
301.979	2285.12
302.209	2220.12
302.439	2226.12
302.669	2431.12
302.9	2977.12
303.13	4172.12
303.36	6455.12
303.59	8673.12
303.82	7385.12
304.051	4150.12
304.281	2978.12
304.511	2476.12
304.741	2284.12
304.971	2170.12
305.201	2048.12
305.431	1967.12
305.661	1912.12
305.891	1858.12
306.121	1788.12
306.352	1851.12
306.582	1814.12
306.812	1816.12
307.042	1789.12
307.272	1806.12
307.502	1774.12
307.731	1800.12
307.961	1824.12
308.191	1718.12
308.421	1765.12
308.651	1762.12
308.881	1757.12
309.111	1806.12
309.341	1784.12
309.571	1822.12
309.8	1780.12
310.03	1813.12
310.26	1827.12
310.49	1862.12
310.72	1838.12
310.949	1837.12
311.179	1872.12
311.409	1860.12
311.639	1891.12
311.868	1896.12
312.098	1918.12
312.328	1954.12
312.557	1910.12
312.787	1903.12
313.017	1922.12
313.246	1975.12
313.476	1927.12
313.706	2044.12
313.935	2169.12
314.165	2319.12
314.394	2434.12
314.624	2324.12
314.853	2139.12
315.083	2100.12
315.312	2124.12
315.542	2106.12
315.771	2176.12
316.001	2191.12
316.23	2276.12
316.46	2368.12
316.689	2642.12
316.919	3186.12
317.148	4718.12
317.377	7363.12
317.607	11088.12
317.836	11340.12
318.065	6635.12
318.295	4194.12
318.524	3314.12
318.753	2863.12
318.983	2645.12
319.212	2508.12
319.441	2429.12
319.67	2359.12
319.9	2306.12
320.129	2310.12
320.358	2293.12
320.587	2292.12
320.816	2282.12
321.046	2295.12
321.275	2332.12
321.504	2329.12
321.733	2354.12
321.962	2451.12
322.191	2480.12
322.42	2446.12
322.649	2374.12
322.878	2414.12
323.108	2429.12
323.337	2463.12
323.566	2523.12
323.795	2592.12
324.024	2592.12
324.253	2661.12
324.482	2749.12
324.71	2926.12
324.939	3122.12
325.168	3204.12
325.397	3346.12
325.626	3949.12
325.855	5589.12
326.084	8971.12
326.313	13169.12
326.542	13885.12
326.77	9125.12
326.999	5792.12
327.228	4799.12
327.457	4571.12
327.686	4664.12
327.914	4927.12
328.143	5806.12
328.372	6934.12
328.6	7552.12
328.829	6656.12
329.058	5539.12
329.287	4833.12
329.515	4444.12
329.744	4152.12
329.972	3888.12
330.201	3714.12
330.43	3631.12
330.658	3517.12
330.887	3460.12
331.115	3436.12
331.344	3370.12
331.572	3380.12
331.801	3427.12
332.03	3368.12
332.258	3508.12
332.486	3671.12
332.715	4206.12
332.943	5296.12
333.172	6685.12
333.4	6524.12
333.629	4866.12
333.857	4301.12
334.085	4351.12
334.314	4569.12
334.542	4950.12
334.771	5734.12
334.999	7114.12
335.227	8998.12
335.455	10124.12
335.684	8942.12
335.912	7306.12
336.14	6115.12
336.369	5467.12
336.597	4963.12
336.825	4612.12
337.053	4342.12
337.281	4115.12
337.51	3870.12
337.738	3739.12
337.966	3612.12
338.194	3485.12
338.422	3353.12
338.65	3330.12
338.878	3258.12
339.106	3178.12
339.334	3163.12
339.562	3097.12
339.79	2999.12
340.018	2972.12
340.246	2957.12
340.474	2956.12
340.702	2974.12
340.93	2910.12
341.158	2979.12
341.386	2892.12
341.614	2942.12
341.842	2838.12
342.07	2769.12
342.298	2764.12
342.526	2761.12
342.754	2686.12
342.981	2667.12
343.209	2638.12
343.437	2678.12
343.665	2737.12
343.893	2763.12
344.12	2748.12
344.348	2736.12
344.576	2598.12
344.804	2612.12
345.031	2559.12
345.259	2583.12
345.487	2544.12
345.714	2514.12
345.942	2470.12
346.17	2504.12
346.397	2479.12
346.625	2456.12
346.853	2489.12
347.08	2494.12
347.308	2496.12
347.535	2492.12
347.763	2490.12
347.99	2421.12
348.218	2424.12
348.445	2399.12
348.673	2436.12
348.9	2385.12
349.128	2430.12
349.355	2392.12
349.583	2397.12
349.81	2349.12
350.037	2313.12
350.265	2372.12
350.492	2309.12
350.72	2370.12
350.947	2341.12
351.174	2368.12
351.402	2370.12
351.629	2331.12
351.856	2343.12
352.083	2343.12
352.311	2305.12
352.538	2314.12
352.765	2354.12
352.992	2307.12
353.22	2307.12
353.447	2313.12
353.674	2331.12
353.901	2373.12
354.128	2335.12
354.355	2348.12
354.583	2324.12
354.81	2350.12
355.037	2384.12
355.264	2414.12
355.491	2404.12
355.718	2399.12
355.945	2432.12
356.172	2444.12
356.399	2446.12
356.626	2397.12
356.853	2409.12
357.08	2471.12
357.307	2514.12
357.534	2524.12
357.761	2498.12
357.988	2556.12
358.215	2477.12
358.441	2511.12
358.668	2507.12
358.895	2495.12
359.122	2525.12
359.349	2459.12
359.576	2483.12
359.802	2470.12
360.029	2484.12
360.256	2472.12
360.483	2490.12
360.709	2488.12
360.936	2521.12
361.163	2529.12
361.39	2477.12
361.616	2500.12
361.843	2517.12
362.07	2546.12
362.296	2526.12
362.523	2495.12
362.749	2504.12
362.976	2506.12
363.203	2482.12
363.429	2493.12
363.656	2515.12
363.882	2507.12
364.109	2466.12
364.335	2440.12
364.562	2483.12
364.788	2485.12
365.015	2550.12
365.241	2628.12
365.468	2745.12
365.694	2859.12
365.92	2767.12
366.147	2554.12
366.373	2576.12
366.599	2544.12
366.826	2555.12
367.052	2548.12
367.278	2561.12
367.505	2586.12
367.731	2547.12
367.957	2549.12
368.184	2572.12
368.41	2627.12
368.636	2630.12
368.862	2605.12
369.089	2638.12
369.315	2604.12
369.541	2643.12
369.767	2578.12
369.993	2551.12
370.219	2542.12
370.445	2612.12
370.672	2614.12
370.898	2590.12
371.124	2668.12
371.35	2639.12
371.576	2630.12
371.802	2668.12
372.028	2664.12
372.254	2702.12
372.48	2731.12
372.706	2700.12
372.932	2783.12
373.158	2736.12
373.384	2723.12
373.61	2711.12
373.835	2748.12
374.061	2742.12
374.287	2754.12
374.513	2773.12
374.739	2834.12
374.965	2850.12
375.191	2816.12
375.416	2810.12
375.642	2813.12
375.868	2821.12
376.094	2779.12
376.319	2725.12
376.545	2745.12
376.771	2696.12
376.997	2752.12
377.222	2677.12
377.448	2661.12
377.674	2708.12
377.899	2668.12
378.125	2658.12
378.35	2670.12
378.576	2692.12
378.802	2669.12
379.027	2789.12
379.253	2837.12
379.478	3076.12
379.704	3567.12
379.929	5236.12
380.155	8169.12
380.38	8822.12
380.606	5268.12
380.831	3584.12
381.057	3138.12
381.282	2919.12
381.507	2796.12
381.733	2733.12
381.958	2739.12
382.184	2686.12
382.409	2656.12
382.634	2602.12
382.86	2618.12
383.085	2636.12
383.31	2666.12
383.535	2666.12
383.761	2632.12
383.986	2669.12
384.211	2721.12
384.436	2710.12
384.662	2730.12
384.887	2725.12
385.112	2709.12
385.337	2767.12
385.562	2775.12
385.787	2705.12
386.013	2798.12
386.238	2750.12
386.463	2714.12
386.688	2750.12
386.913	2681.12
387.138	2728.12
387.363	2730.12
387.588	2680.12
387.813	2730.12
388.038	2724.12
388.263	2747.12
388.488	2705.12
388.713	2766.12
388.938	2772.12
389.163	2708.12
389.387	2735.12
389.612	2768.12
389.837	2712.12
390.062	2749.12
390.287	2746.12
390.512	2756.12
390.736	2767.12
390.961	2816.12
391.186	2822.12
391.411	2851.12
391.636	2906.12
391.86	2928.12
392.085	2864.12
392.31	2787.12
392.534	2799.12
392.759	2814.12
392.984	2773.12
393.208	2778.12
393.433	2827.12
393.658	2771.12
393.882	2735.12
394.107	2727.12
394.331	2736.12
394.556	2755.12
394.78	2767.12
395.005	2773.12
395.229	2798.12
395.454	2854.12
395.678	2860.12
395.903	2858.12
396.127	2840.12
396.352	2774.12
396.576	2809.12
396.801	2872.12
397.025	2855.12
397.249	2906.12
397.474	2908.12
397.698	2895.12
397.922	2959.12
398.147	2907.12
398.371	2937.12
398.595	3038.12
398.82	3068.12
399.044	3204.12
399.268	3316.12
399.492	3516.12
399.717	3615.12
399.941	3631.12
400.165	3482.12
400.389	3338.12
400.613	3190.12
400.837	3132.12
401.062	3106.12
401.286	3045.12
401.51	3022.12
401.734	3060.12
401.958	3027.12
402.182	3046.12
402.406	3002.12
402.63	3029.12
402.854	3045.12
403.078	3068.12
403.302	3117.12
403.526	3139.12
403.75	3124.12
403.974	3103.12
404.198	3096.12
404.422	3135.12
404.645	3120.12
404.869	3124.12
405.093	3156.12
405.317	3118.12
405.541	3187.12
405.765	3222.12
405.988	3263.12
406.212	3232.12
406.436	3220.12
406.66	3234.12
406.883	3238.12
407.107	3310.12
407.331	3382.12
407.555	3443.12
407.778	3398.12
408.002	3354.12
408.226	3271.12
408.449	3397.12
408.673	3306.12
408.896	3233.12
409.12	3244.12
409.344	3248.12
409.567	3171.12
409.791	3185.12
410.014	3109.12
410.238	3139.12
410.461	3129.12
410.685	3090.12
410.908	3141.12
411.132	3067.12
411.355	3022.12
411.578	3011.12
411.802	2992.12
412.025	3038.12
412.249	3052.12
412.472	3012.12
412.695	3027.12
412.919	2963.12
413.142	2960.12
413.365	2956.12
413.589	2973.12
413.812	2952.12
414.035	3013.12
414.258	2963.12
414.482	2979.12
414.705	2999.12
414.928	2999.12
415.151	2924.12
415.374	2975.12
415.597	2938.12
415.821	2823.12
416.044	2828.12
416.267	2846.12
416.49	2794.12
416.713	2843.12
416.936	2877.12
417.159	2824.12
417.382	2811.12
417.605	2851.12
417.828	2794.12
418.051	2856.12
418.274	2919.12
418.497	2862.12
418.72	2966.12
418.943	2858.12
419.166	2996.12
419.389	3186.12
419.611	3107.12
419.834	3012.12
420.057	2973.12
420.28	2887.12
420.503	2888.12
420.726	2854.12
420.948	2859.12
421.171	2890.12
421.394	2848.12
421.617	2821.12
421.839	2855.12
422.062	2879.12
422.285	2859.12
422.507	2905.12
422.73	2914.12
422.953	2899.12
423.175	2950.12
423.398	2951.12
423.621	2838.12
423.843	2878.12
424.066	2838.12
424.288	2891.12
424.511	2843.12
424.733	2878.12
424.956	2774.12
425.178	2768.12
425.401	2775.12
425.623	2810.12
425.846	2740.12
426.068	2786.12
426.291	2746.12
426.513	2728.12
426.735	2718.12
426.958	2728.12
427.18	2728.12
427.402	2691.12
427.625	2692.12
427.847	2643.12
428.069	2636.12
428.292	2660.12
428.514	2672.12
428.736	2674.12
428.958	2645.12
429.181	2631.12
429.403	2571.12
429.625	2599.12
429.847	2630.12
430.069	2661.12
430.292	2794.12
430.514	2865.12
430.736	2832.12
430.958	2668.12
431.18	2597.12
431.402	2633.12
431.624	2608.12
431.846	2631.12
432.068	2550.12
432.29	2635.12
432.512	2559.12
432.734	2613.12
432.956	2613.12
433.178	2610.12
433.4	2616.12
433.622	2587.12
433.844	2611.12
434.066	2626.12
434.287	2591.12
434.509	2671.12
434.731	2691.12
434.953	2720.12
435.175	2738.12
435.397	2766.12
435.618	2694.12
435.84	2620.12
436.062	2606.12
436.284	2588.12
436.505	2583.12
436.727	2599.12
436.949	2550.12
437.17	2590.12
437.392	2558.12
437.614	2505.12
437.835	2461.12
438.057	2554.12
438.278	2532.12
438.5	2528.12
438.721	2566.12
438.943	2660.12
439.165	2679.12
439.386	2672.12
439.608	2657.12
439.829	2694.12
440.05	2810.12
440.272	2867.12
440.493	2720.12
440.715	2673.12
440.936	2667.12
441.158	2684.12
441.379	2740.12
441.6	2798.12
441.822	2898.12
442.043	3092.12
442.264	3213.12
442.486	2935.12
442.707	2851.12
442.928	2801.12
443.149	2822.12
443.371	2753.12
443.592	2809.12
443.813	2770.12
444.034	2864.12
444.255	2883.12
444.476	2896.12
444.698	2955.12
444.919	3009.12
445.14	3057.12
445.361	2933.12
445.582	2824.12
445.803	2820.12
446.024	2730.12
446.245	2797.12
446.466	2773.12
446.687	2734.12
446.908	2704.12
447.129	2621.12
447.35	2659.12
447.571	2602.12
447.792	2583.12
448.013	2618.12
448.234	2513.12
448.455	2535.12
448.675	2608.12
448.896	2663.12
449.117	2720.12
449.338	3007.12
449.559	3136.12
449.779	2787.12
450	2598.12
450.221	2510.12
450.442	2528.12
450.662	2508.12
450.883	2491.12
451.104	2489.12
451.324	2505.12
451.545	2490.12
451.766	2509.12
451.986	2605.12
452.207	2803.12
452.428	3569.12
452.648	5496.12
452.869	4581.12
453.089	3126.12
453.31	2926.12
453.53	2914.12
453.751	3037.12
453.971	3224.12
454.192	3177.12
454.412	2714.12
454.633	2495.12
454.853	2478.12
455.073	2403.12
455.294	2404.12
455.514	2392.12
455.734	2407.12
455.955	2374.12
456.175	2373.12
456.395	2407.12
456.616	2381.12
456.836	2463.12
457.056	2465.12
457.276	2457.12
457.497	2636.12
457.717	2649.12
457.937	2517.12
458.157	2557.12
458.377	2560.12
458.598	2565.12
458.818	2602.12
459.038	2535.12
459.258	2576.12
459.478	2620.12
459.698	2610.12
459.918	2656.12
460.138	2700.12
460.358	2868.12
460.578	2810.12
460.798	2786.12
461.018	2852.12
461.238	2803.12
461.458	2846.12
461.678	2881.12
461.898	2922.12
462.118	2960.12
462.338	2999.12
462.558	3028.12
462.777	3071.12
462.997	3223.12
463.217	3362.12
463.437	3496.12
463.657	3644.12
463.876	3580.12
464.096	3341.12
464.316	3210.12
464.536	3186.12
464.755	3052.12
464.975	2968.12
465.195	2879.12
465.414	2829.12
465.634	2721.12
465.854	2720.12
466.073	2693.12
466.293	2654.12
466.512	2562.12
466.732	2663.12
466.951	2824.12
467.171	2986.12
467.391	2978.12
467.61	2673.12
467.829	2581.12
468.049	2586.12
468.268	2611.12
468.488	2516.12
468.707	2528.12
468.927	2542.12
469.146	2544.12
469.365	2619.12
469.585	2583.12
469.804	2615.12
470.023	2672.12
470.243	2718.12
470.462	2847.12
470.681	2962.12
470.901	3306.12
471.12	3819.12
471.339	3870.12
471.558	3178.12
471.777	2872.12
471.997	2712.12
472.216	2677.12
472.435	2626.12
472.654	2631.12
472.873	2578.12
473.092	2554.12
473.311	2550.12
473.53	2595.12
473.749	2677.12
473.968	2724.12
474.187	2631.12
474.406	2581.12
474.625	2592.12
474.844	2559.12
475.063	2572.12
475.282	2564.12
475.501	2582.12
475.72	2606.12
475.939	2640.12
476.158	2682.12
476.377	2739.12
476.596	2698.12
476.814	2750.12
477.033	2692.12
477.252	2728.12
477.471	2816.12
477.69	2854.12
477.908	2871.12
478.127	2916.12
478.346	2959.12
478.564	2947.12
478.783	3020.12
479.002	3037.12
479.22	3019.12
479.439	3100.12
479.658	3062.12
479.876	3093.12
480.095	3107.12
480.313	3163.12
480.532	3206.12
480.751	3220.12
480.969	3126.12
481.188	3106.12
481.406	3110.12
481.624	3108.12
481.843	3143.12
482.061	3147.12
482.28	3127.12
482.498	3116.12
482.717	3094.12
482.935	3163.12
483.153	3210.12
483.372	3214.12
483.59	3239.12
483.808	3320.12
484.027	3412.12
484.245	3590.12
484.463	4100.12
484.681	4624.12
484.9	4096.12
485.118	3748.12
485.336	3692.12
485.554	3730.12
485.772	4020.12
485.99	4570.12
486.209	5034.12
486.427	4138.12
486.645	3661.12
486.863	3482.12
487.081	3441.12
487.299	3363.12
487.517	3340.12
487.735	3364.12
