Data from SnStandardFlinnAPT0064_QswitchEnergy10_LIBS07252019.E.O._I.C._HRD10591_15-28-28-973.txt Node
Date: Thu Jul 25 15:28:28 EDT 2019
User: cochatt
Spectrometer: HR+D1059
Trigger mode: 1
Integration Time (sec): 1.000000E-1
Scans to average: 1
Electric dark correction enabled: true
Nonlinearity correction enabled: false
Boxcar width: 0
XAxis mode: Wavelengths
Number of Pixels in Spectrum: 2048
>>>>>Begin Spectral Data<<<<<
223.165	-4.75
223.4	-4.75
223.635	-4.75
223.869	-18.75
224.104	-19.75
224.338	-1.75
224.573	-19.75
224.808	-23.75
225.042	-7.75
225.277	-11.75
225.511	-3.75
225.746	15.25
225.98	0.25
226.215	6.25
226.449	24.25
226.683	17.25
226.918	21.25
227.152	27.25
227.387	38.25
227.621	36.25
227.856	65.25
228.09	45.25
228.324	65.25
228.559	54.25
228.793	62.25
229.027	75.25
229.262	80.25
229.496	73.25
229.73	63.25
229.964	74.25
230.199	69.25
230.433	72.25
230.667	89.25
230.901	97.25
231.136	78.25
231.37	93.25
231.604	98.25
231.838	104.25
232.072	119.25
232.306	133.25
232.541	87.25
232.775	84.25
233.009	87.25
233.243	88.25
233.477	100.25
233.711	91.25
233.945	109.25
234.179	91.25
234.413	90.25
234.647	81.25
234.881	89.25
235.115	87.25
235.349	94.25
235.583	106.25
235.817	140.25
236.051	126.25
236.285	101.25
236.519	94.25
236.753	79.25
236.987	76.25
237.221	74.25
237.455	74.25
237.689	78.25
237.922	92.25
238.156	72.25
238.39	76.25
238.624	90.25
238.858	76.25
239.091	78.25
239.325	85.25
239.559	86.25
239.793	86.25
240.027	88.25
240.26	78.25
240.494	91.25
240.728	89.25
240.961	85.25
241.195	95.25
241.429	100.25
241.662	89.25
241.896	105.25
242.13	105.25
242.363	141.25
242.597	167.25
242.83	148.25
243.064	131.25
243.298	180.25
243.531	155.25
243.765	104.25
243.998	93.25
244.232	97.25
244.465	84.25
244.699	78.25
244.932	85.25
245.166	89.25
245.399	85.25
245.633	91.25
245.866	94.25
246.099	90.25
246.333	76.25
246.566	90.25
246.8	86.25
247.033	72.25
247.266	75.25
247.5	90.25
247.733	83.25
247.966	92.25
248.2	93.25
248.433	115.25
248.666	148.25
248.899	119.25
249.133	98.25
249.366	98.25
249.599	101.25
249.832	125.25
250.066	128.25
250.299	102.25
250.532	89.25
250.765	82.25
250.998	92.25
251.231	94.25
251.465	82.25
251.698	93.25
251.931	86.25
252.164	84.25
252.397	92.25
252.63	96.25
252.863	120.25
253.096	88.25
253.329	102.25
253.562	99.25
253.795	76.25
254.028	86.25
254.261	94.25
254.494	94.25
254.727	133.25
254.96	149.25
255.193	146.25
255.426	92.25
255.659	86.25
255.892	78.25
256.124	100.25
256.357	81.25
256.59	90.25
256.823	102.25
257.056	105.25
257.289	133.25
257.521	169.25
257.754	133.25
257.987	95.25
258.22	79.25
258.452	77.25
258.685	92.25
258.918	91.25
259.151	96.25
259.383	106.25
259.616	146.25
259.849	148.25
260.081	106.25
260.314	88.25
260.547	78.25
260.779	90.25
261.012	91.25
261.244	87.25
261.477	93.25
261.71	97.25
261.942	62.25
262.175	87.25
262.407	88.25
262.64	79.25
262.872	86.25
263.105	85.25
263.337	92.25
263.57	94.25
263.802	78.25
264.035	104.25
264.267	81.25
264.499	89.25
264.732	85.25
264.964	88.25
265.197	89.25
265.429	100.25
265.661	80.25
265.894	104.25
266.126	127.25
266.358	168.25
266.591	160.25
266.823	101.25
267.055	89.25
267.287	90.25
267.52	86.25
267.752	94.25
267.984	85.25
268.216	91.25
268.448	85.25
268.681	96.25
268.913	91.25
269.145	95.25
269.377	92.25
269.609	99.25
269.841	94.25
270.073	98.25
270.306	122.25
270.538	212.25
270.77	322.25
271.002	406.25
271.234	206.25
271.466	97.25
271.698	96.25
271.93	92.25
272.162	92.25
272.394	79.25
272.626	87.25
272.858	77.25
273.09	101.25
273.322	96.25
273.553	81.25
273.785	85.25
274.017	87.25
274.249	91.25
274.481	97.25
274.713	105.25
274.945	76.25
275.176	90.25
275.408	102.25
275.64	110.25
275.872	100.25
276.104	100.25
276.335	115.25
276.567	95.25
276.799	96.25
277.031	87.25
277.262	95.25
277.494	116.25
277.726	139.25
277.957	196.25
278.189	263.25
278.421	258.25
278.652	204.25
278.884	201.25
279.115	151.25
279.347	114.25
279.579	97.25
279.81	107.25
280.042	97.25
280.273	103.25
280.505	118.25
280.736	103.25
280.968	138.25
281.199	202.25
281.431	256.25
281.662	301.25
281.894	177.25
282.125	138.25
282.356	120.25
282.588	107.25
282.819	132.25
283.051	131.25
283.282	126.25
283.513	194.25
283.745	332.25
283.976	589.25
284.207	837.25
284.439	652.25
284.67	304.25
284.901	274.25
285.132	355.25
285.364	396.25
285.595	239.25
285.826	190.25
286.057	249.25
286.288	449.25
286.52	666.25
286.751	506.25
286.982	200.25
287.213	133.25
287.444	105.25
287.675	92.25
287.906	116.25
288.138	99.25
288.369	102.25
288.6	112.25
288.831	114.25
289.062	109.25
289.293	100.25
289.524	116.25
289.755	105.25
289.986	97.25
290.217	107.25
290.448	88.25
290.679	104.25
290.91	129.25
291.141	170.25
291.371	257.25
291.602	325.25
291.833	214.25
292.064	130.25
292.295	102.25
292.526	96.25
292.757	114.25
292.987	94.25
293.218	106.25
293.449	97.25
293.68	96.25
293.91	99.25
294.141	104.25
294.372	82.25
294.603	91.25
294.833	89.25
295.064	85.25
295.295	99.25
295.525	96.25
295.756	87.25
295.987	102.25
296.217	103.25
296.448	89.25
296.679	97.25
296.909	112.25
297.14	99.25
297.37	94.25
297.601	110.25
297.831	84.25
298.062	99.25
298.292	117.25
298.523	118.25
298.753	104.25
298.984	114.25
299.214	106.25
299.445	116.25
299.675	118.25
299.905	125.25
300.136	138.25
300.366	202.25
300.597	309.25
300.827	487.25
301.057	739.25
301.288	650.25
301.518	274.25
301.748	162.25
301.979	145.25
302.209	136.25
302.439	154.25
302.669	188.25
302.9	297.25
303.13	565.25
303.36	946.25
303.59	1310.25
303.82	887.25
304.051	332.25
304.281	178.25
304.511	139.25
304.741	119.25
304.971	120.25
305.201	128.25
305.431	107.25
305.661	120.25
305.891	102.25
306.121	120.25
306.352	112.25
306.582	121.25
306.812	113.25
307.042	138.25
307.272	110.25
307.502	105.25
307.731	107.25
307.961	123.25
308.191	112.25
308.421	105.25
308.651	116.25
308.881	116.25
309.111	108.25
309.341	102.25
309.571	108.25
309.8	109.25
310.03	109.25
310.26	114.25
310.49	120.25
310.72	122.25
310.949	101.25
311.179	109.25
311.409	123.25
311.639	109.25
311.868	121.25
312.098	126.25
312.328	128.25
312.557	120.25
312.787	131.25
313.017	114.25
313.246	114.25
313.476	136.25
313.706	131.25
313.935	168.25
314.165	213.25
314.394	260.25
314.624	188.25
314.853	130.25
315.083	138.25
315.312	127.25
315.542	132.25
315.771	149.25
316.001	132.25
316.23	143.25
316.46	179.25
316.689	192.25
316.919	280.25
317.148	536.25
317.377	1010.25
317.607	1600.25
317.836	1468.25
318.065	577.25
318.295	266.25
318.524	180.25
318.753	146.25
318.983	139.25
319.212	154.25
319.441	131.25
319.67	126.25
319.9	133.25
320.129	129.25
320.358	121.25
320.587	137.25
320.816	134.25
321.046	128.25
321.275	133.25
321.504	151.25
321.733	164.25
321.962	184.25
322.191	190.25
322.42	169.25
322.649	150.25
322.878	146.25
323.108	126.25
323.337	144.25
323.566	152.25
323.795	132.25
324.024	139.25
324.253	140.25
324.482	200.25
324.71	252.25
324.939	313.25
325.168	246.25
325.397	201.25
325.626	283.25
325.855	538.25
326.084	1034.25
326.313	1744.25
326.542	1682.25
326.77	669.25
326.999	277.25
327.228	231.25
327.457	267.25
327.686	245.25
327.914	165.25
328.143	142.25
328.372	129.25
328.6	145.25
328.829	125.25
329.058	129.25
329.287	128.25
329.515	136.25
329.744	132.25
329.972	117.25
330.201	125.25
330.43	112.25
330.658	128.25
330.887	122.25
331.115	132.25
331.344	113.25
331.572	126.25
331.801	127.25
332.03	140.25
332.258	146.25
332.486	201.25
332.715	321.25
332.943	582.25
333.172	831.25
333.4	735.25
333.629	284.25
333.857	146.25
334.085	123.25
334.314	132.25
334.542	118.25
334.771	132.25
334.999	132.25
335.227	135.25
335.455	122.25
335.684	129.25
335.912	118.25
336.14	129.25
336.369	128.25
336.597	128.25
336.825	121.25
337.053	122.25
337.281	123.25
337.51	115.25
337.738	124.25
337.966	104.25
338.194	103.25
338.422	130.25
338.65	127.25
338.878	128.25
339.106	126.25
339.334	135.25
339.562	109.25
339.79	132.25
340.018	125.25
340.246	112.25
340.474	122.25
340.702	135.25
340.93	128.25
341.158	117.25
341.386	120.25
341.614	126.25
341.842	132.25
342.07	108.25
342.298	127.25
342.526	124.25
342.754	136.25
342.981	124.25
343.209	120.25
343.437	120.25
343.665	86.25
343.893	132.25
344.12	117.25
344.348	108.25
344.576	100.25
344.804	113.25
345.031	122.25
345.259	128.25
345.487	123.25
345.714	107.25
345.942	113.25
346.17	118.25
346.397	122.25
346.625	103.25
346.853	114.25
347.08	88.25
347.308	123.25
347.535	115.25
347.763	98.25
347.99	98.25
348.218	114.25
348.445	118.25
348.673	110.25
348.9	141.25
349.128	136.25
349.355	134.25
349.583	128.25
349.81	116.25
350.037	128.25
350.265	122.25
350.492	98.25
350.72	118.25
350.947	120.25
351.174	101.25
351.402	125.25
351.629	127.25
351.856	107.25
352.083	115.25
352.311	116.25
352.538	120.25
352.765	120.25
352.992	103.25
353.22	124.25
353.447	101.25
353.674	116.25
353.901	110.25
354.128	97.25
354.355	115.25
354.583	116.25
354.81	115.25
355.037	106.25
355.264	110.25
355.491	104.25
355.718	109.25
355.945	109.25
356.172	102.25
356.399	105.25
356.626	114.25
356.853	106.25
357.08	115.25
357.307	124.25
357.534	113.25
357.761	102.25
357.988	112.25
358.215	94.25
358.441	123.25
358.668	124.25
358.895	122.25
359.122	124.25
359.349	114.25
359.576	132.25
359.802	146.25
360.029	116.25
360.256	121.25
360.483	107.25
360.709	124.25
360.936	121.25
361.163	124.25
361.39	119.25
361.616	110.25
361.843	120.25
362.07	124.25
362.296	119.25
362.523	117.25
362.749	112.25
362.976	121.25
363.203	123.25
363.429	124.25
363.656	122.25
363.882	128.25
364.109	129.25
364.335	119.25
364.562	113.25
364.788	110.25
365.015	113.25
365.241	146.25
365.468	216.25
365.694	284.25
365.92	245.25
366.147	121.25
366.373	107.25
366.599	105.25
366.826	100.25
367.052	97.25
367.278	101.25
367.505	112.25
367.731	95.25
367.957	122.25
368.184	118.25
368.41	132.25
368.636	133.25
368.862	120.25
369.089	108.25
369.315	117.25
369.541	107.25
369.767	108.25
369.993	124.25
370.219	117.25
370.445	107.25
370.672	123.25
370.898	119.25
371.124	113.25
371.35	116.25
371.576	96.25
371.802	107.25
372.028	126.25
372.254	124.25
372.48	116.25
372.706	127.25
372.932	108.25
373.158	105.25
373.384	120.25
373.61	128.25
373.835	131.25
374.061	125.25
374.287	119.25
374.513	122.25
374.739	130.25
374.965	112.25
375.191	136.25
375.416	115.25
375.642	115.25
375.868	126.25
376.094	112.25
376.319	117.25
376.545	111.25
376.771	121.25
376.997	115.25
377.222	124.25
377.448	120.25
377.674	108.25
377.899	121.25
378.125	112.25
378.35	124.25
378.576	131.25
378.802	146.25
379.027	144.25
379.253	164.25
379.478	205.25
379.704	349.25
379.929	862.25
380.155	1774.25
380.38	1799.25
380.606	560.25
380.831	204.25
381.057	141.25
381.282	126.25
381.507	128.25
381.733	111.25
381.958	118.25
382.184	122.25
382.409	107.25
382.634	108.25
382.86	118.25
383.085	112.25
383.31	113.25
383.535	109.25
383.761	122.25
383.986	112.25
384.211	104.25
384.436	107.25
384.662	95.25
384.887	119.25
385.112	120.25
385.337	109.25
385.562	124.25
385.787	100.25
386.013	110.25
386.238	123.25
386.463	105.25
386.688	128.25
386.913	134.25
387.138	125.25
387.363	125.25
387.588	112.25
387.813	112.25
388.038	103.25
388.263	110.25
388.488	123.25
388.713	116.25
388.938	113.25
389.163	100.25
389.387	101.25
389.612	104.25
389.837	106.25
390.062	105.25
390.287	113.25
390.512	104.25
390.736	107.25
390.961	92.25
391.186	122.25
391.411	103.25
391.636	92.25
391.86	116.25
392.085	105.25
392.31	100.25
392.534	104.25
392.759	105.25
392.984	105.25
393.208	131.25
393.433	170.25
393.658	160.25
393.882	95.25
394.107	91.25
394.331	106.25
394.556	103.25
394.78	96.25
395.005	99.25
395.229	107.25
395.454	112.25
395.678	96.25
395.903	97.25
396.127	116.25
396.352	107.25
396.576	104.25
396.801	125.25
397.025	137.25
397.249	128.25
397.474	112.25
397.698	102.25
397.922	114.25
398.147	105.25
398.371	93.25
398.595	105.25
398.82	108.25
399.044	105.25
399.268	101.25
399.492	104.25
399.717	102.25
399.941	97.25
400.165	106.25
400.389	92.25
400.613	119.25
400.837	93.25
401.062	103.25
401.286	90.25
401.51	97.25
401.734	92.25
401.958	105.25
402.182	113.25
402.406	113.25
402.63	109.25
402.854	117.25
403.078	118.25
403.302	102.25
403.526	112.25
403.75	102.25
403.974	103.25
404.198	99.25
404.422	109.25
404.645	112.25
404.869	118.25
405.093	109.25
405.317	106.25
405.541	120.25
405.765	131.25
405.988	162.25
406.212	137.25
406.436	103.25
406.66	88.25
406.883	112.25
407.107	101.25
407.331	97.25
407.555	120.25
407.778	100.25
408.002	102.25
408.226	112.25
408.449	106.25
408.673	100.25
408.896	92.25
409.12	104.25
409.344	85.25
409.567	96.25
409.791	116.25
410.014	97.25
410.238	108.25
410.461	117.25
410.685	107.25
410.908	100.25
411.132	106.25
411.355	99.25
411.578	114.25
411.802	106.25
412.025	94.25
412.249	110.25
412.472	101.25
412.695	105.25
412.919	105.25
413.142	111.25
413.365	101.25
413.589	90.25
413.812	102.25
414.035	111.25
414.258	102.25
414.482	106.25
414.705	114.25
414.928	119.25
415.151	114.25
415.374	105.25
415.597	102.25
415.821	99.25
416.044	110.25
416.267	115.25
416.49	116.25
416.713	95.25
416.936	117.25
417.159	89.25
417.382	111.25
417.605	104.25
417.828	106.25
418.051	106.25
418.274	100.25
418.497	99.25
418.72	90.25
418.943	119.25
419.166	132.25
419.389	103.25
419.611	121.25
419.834	121.25
420.057	114.25
420.28	112.25
420.503	97.25
420.726	105.25
420.948	99.25
421.171	90.25
421.394	92.25
421.617	110.25
421.839	101.25
422.062	105.25
422.285	91.25
422.507	118.25
422.73	152.25
422.953	152.25
423.175	122.25
423.398	107.25
423.621	96.25
423.843	89.25
424.066	115.25
424.288	112.25
424.511	93.25
424.733	114.25
424.956	95.25
425.178	116.25
425.401	87.25
425.623	101.25
425.846	81.25
426.068	97.25
426.291	92.25
426.513	118.25
426.735	93.25
426.958	105.25
427.18	100.25
427.402	110.25
427.625	101.25
427.847	96.25
428.069	106.25
428.292	92.25
428.514	110.25
428.736	124.25
428.958	112.25
429.181	122.25
429.403	106.25
429.625	118.25
429.847	105.25
430.069	114.25
430.292	114.25
430.514	109.25
430.736	101.25
430.958	98.25
431.18	96.25
431.402	88.25
431.624	103.25
431.846	97.25
432.068	83.25
432.29	98.25
432.512	114.25
432.734	99.25
432.956	95.25
433.178	100.25
433.4	97.25
433.622	87.25
433.844	102.25
434.066	90.25
434.287	90.25
434.509	95.25
434.731	96.25
434.953	99.25
435.175	95.25
435.397	104.25
435.618	104.25
435.84	88.25
436.062	99.25
436.284	99.25
436.505	100.25
436.727	84.25
436.949	102.25
437.17	104.25
437.392	94.25
437.614	96.25
437.835	92.25
438.057	108.25
438.278	103.25
438.5	109.25
438.721	96.25
438.943	98.25
439.165	122.25
439.386	116.25
439.608	108.25
439.829	109.25
440.05	114.25
440.272	139.25
440.493	101.25
440.715	95.25
440.936	108.25
441.158	97.25
441.379	108.25
441.6	104.25
441.822	98.25
442.043	124.25
442.264	146.25
442.486	121.25
442.707	108.25
442.928	99.25
443.149	107.25
443.371	102.25
443.592	92.25
443.813	119.25
444.034	93.25
444.255	92.25
444.476	93.25
444.698	97.25
444.919	104.25
445.14	192.25
445.361	133.25
445.582	104.25
445.803	109.25
446.024	92.25
446.245	109.25
446.466	103.25
446.687	122.25
446.908	94.25
447.129	116.25
447.35	91.25
447.571	96.25
447.792	92.25
448.013	102.25
448.234	112.25
448.455	114.25
448.675	114.25
448.896	115.25
449.117	123.25
449.338	138.25
449.559	134.25
449.779	127.25
450	97.25
450.221	100.25
450.442	111.25
450.662	132.25
450.883	111.25
451.104	123.25
451.324	138.25
451.545	132.25
451.766	129.25
451.986	148.25
452.207	236.25
452.428	628.25
452.648	1524.25
452.869	847.25
453.089	215.25
453.31	137.25
453.53	135.25
453.751	141.25
453.971	162.25
454.192	160.25
454.412	110.25
454.633	106.25
454.853	101.25
455.073	106.25
455.294	105.25
455.514	98.25
455.734	100.25
455.955	102.25
456.175	93.25
456.395	106.25
456.616	101.25
456.836	102.25
457.056	101.25
457.276	111.25
457.497	117.25
457.717	124.25
457.937	115.25
458.157	104.25
458.377	97.25
458.598	105.25
458.818	89.25
459.038	103.25
459.258	100.25
459.478	109.25
459.698	99.25
459.918	93.25
460.138	98.25
460.358	93.25
460.578	97.25
460.798	105.25
461.018	103.25
461.238	91.25
461.458	105.25
461.678	99.25
461.898	97.25
462.118	93.25
462.338	100.25
462.558	102.25
462.777	101.25
462.997	93.25
463.217	121.25
463.437	149.25
463.657	200.25
463.876	192.25
464.096	126.25
464.316	108.25
464.536	103.25
464.755	102.25
464.975	91.25
465.195	105.25
465.414	101.25
465.634	106.25
465.854	108.25
466.073	98.25
466.293	91.25
466.512	91.25
466.732	108.25
466.951	123.25
467.171	147.25
467.391	138.25
467.61	121.25
467.829	112.25
468.049	108.25
468.268	92.25
468.488	93.25
468.707	89.25
468.927	92.25
469.146	88.25
469.365	92.25
469.585	98.25
469.804	106.25
470.023	103.25
470.243	112.25
470.462	122.25
470.681	138.25
470.901	136.25
471.12	193.25
471.339	216.25
471.558	143.25
471.777	120.25
471.997	116.25
472.216	103.25
472.435	97.25
472.654	108.25
472.873	113.25
473.092	97.25
473.311	104.25
473.53	92.25
473.749	100.25
473.968	99.25
474.187	100.25
474.406	99.25
474.625	88.25
474.844	91.25
475.063	95.25
475.282	104.25
475.501	95.25
475.72	106.25
475.939	106.25
476.158	106.25
476.377	118.25
476.596	125.25
476.814	104.25
477.033	105.25
477.252	107.25
477.471	94.25
477.69	94.25
477.908	100.25
478.127	115.25
478.346	97.25
478.564	107.25
478.783	97.25
479.002	94.25
479.22	111.25
479.439	98.25
479.658	106.25
479.876	84.25
480.095	101.25
480.313	109.25
480.532	106.25
480.751	105.25
480.969	121.25
481.188	114.25
481.406	101.25
481.624	117.25
481.843	140.25
482.061	109.25
482.28	106.25
482.498	97.25
482.717	105.25
482.935	112.25
483.153	109.25
483.372	112.25
483.59	112.25
483.808	112.25
484.027	117.25
484.245	133.25
484.463	189.25
484.681	237.25
484.9	165.25
485.118	124.25
485.336	123.25
485.554	129.25
485.772	152.25
485.99	184.25
486.209	261.25
486.427	196.25
486.645	134.25
486.863	117.25
487.081	101.25
487.299	103.25
487.517	111.25
487.735	109.25
487.953	120.25
488.171	114.25
488.389	86.25
488.607	92.25
488.825	109.25
489.043	106.25
489.261	99.25
489.479	96.25
489.696	97.25
489.914	100.25
490.132	98.25
490.35	99.25
490.568	108.25
490.786	98.25
491.003	98.25
491.221	122.25
491.439	124.25
491.657	115.25
491.874	106.25
492.092	110.25
492.31	107.25
492.527	113.25
492.745	109.25
492.963	105.25
493.18	111.25
493.398	104.25
493.615	103.25
493.833	113.25
494.05	103.25
494.268	101.25
494.485	103.25
494.703	116.25
494.92	107.25
495.138	113.25
495.355	114.25
495.573	118.25
495.79	100.25
496.008	104.25
496.225	126.25
496.442	117.25
496.66	130.25
496.877	186.25
497.094	153.25
497.312	122.25
497.529	92.25
497.746	109.25
497.963	112.25
498.181	108.25
498.398	115.25
498.615	100.25
498.832	114.25
499.049	109.25
499.267	143.25
499.484	164.25
499.701	125.25
499.918	97.25
500.135	105.25
500.352	93.25
500.569	95.25
500.786	92.25
501.003	101.25
501.22	96.25
501.437	116.25
501.654	104.25
501.871	109.25
502.088	109.25
502.305	94.25
502.522	115.25
502.739	112.25
502.956	113.25
503.172	114.25
503.389	99.25
503.606	103.25
503.823	101.25
504.04	115.25
504.256	95.25
504.473	106.25
504.69	97.25
504.907	108.25
505.123	130.25
505.34	108.25
505.557	114.25
505.773	98.25
505.99	112.25
506.207	116.25
