Data from SnStandardFlinnAPT0064_QswitchEnergy10_LIBS07252019.E.O._I.C._HRD10591_15-28-42-973.txt Node
Date: Thu Jul 25 15:28:42 EDT 2019
User: cochatt
Spectrometer: HR+D1059
Trigger mode: 1
Integration Time (sec): 1.000000E-1
Scans to average: 1
Electric dark correction enabled: true
Nonlinearity correction enabled: false
Boxcar width: 0
XAxis mode: Wavelengths
Number of Pixels in Spectrum: 2048
>>>>>Begin Spectral Data<<<<<
223.165	-16.19
223.4	-16.19
223.635	-16.19
223.869	-26.19
224.104	-15.19
224.338	-18.19
224.573	-9.19
224.808	-9.19
225.042	-11.19
225.277	12.81
225.511	-8.19
225.746	0.81
225.98	8.81
226.215	16.81
226.449	16.81
226.683	11.81
226.918	19.81
227.152	25.81
227.387	43.81
227.621	37.81
227.856	40.81
228.09	59.81
228.324	42.81
228.559	57.81
228.793	56.81
229.027	75.81
229.262	90.81
229.496	62.81
229.73	62.81
229.964	74.81
230.199	84.81
230.433	56.81
230.667	77.81
230.901	88.81
231.136	76.81
231.37	96.81
231.604	102.81
231.838	98.81
232.072	122.81
232.306	133.81
232.541	102.81
232.775	77.81
233.009	79.81
233.243	89.81
233.477	99.81
233.711	98.81
233.945	100.81
234.179	104.81
234.413	99.81
234.647	94.81
234.881	86.81
235.115	103.81
235.349	97.81
235.583	116.81
235.817	126.81
236.051	125.81
236.285	84.81
236.519	89.81
236.753	86.81
236.987	90.81
237.221	75.81
237.455	78.81
237.689	73.81
237.922	87.81
238.156	73.81
238.39	86.81
238.624	80.81
238.858	88.81
239.091	94.81
239.325	78.81
239.559	75.81
239.793	86.81
240.027	85.81
240.26	80.81
240.494	91.81
240.728	75.81
240.961	94.81
241.195	99.81
241.429	95.81
241.662	90.81
241.896	92.81
242.13	88.81
242.363	139.81
242.597	174.81
242.83	137.81
243.064	152.81
243.298	188.81
243.531	158.81
243.765	86.81
243.998	88.81
244.232	92.81
244.465	97.81
244.699	75.81
244.932	69.81
245.166	72.81
245.399	75.81
245.633	82.81
245.866	84.81
246.099	87.81
246.333	82.81
246.566	89.81
246.8	79.81
247.033	70.81
247.266	70.81
247.5	86.81
247.733	80.81
247.966	91.81
248.2	98.81
248.433	101.81
248.666	130.81
248.899	124.81
249.133	109.81
249.366	105.81
249.599	94.81
249.832	129.81
250.066	125.81
250.299	103.81
250.532	91.81
250.765	92.81
250.998	97.81
251.231	96.81
251.465	84.81
251.698	87.81
251.931	90.81
252.164	79.81
252.397	94.81
252.63	106.81
252.863	112.81
253.096	88.81
253.329	86.81
253.562	106.81
253.795	103.81
254.028	99.81
254.261	99.81
254.494	121.81
254.727	124.81
254.96	142.81
255.193	140.81
255.426	89.81
255.659	91.81
255.892	80.81
256.124	96.81
256.357	100.81
256.59	97.81
256.823	96.81
257.056	114.81
257.289	150.81
257.521	194.81
257.754	122.81
257.987	102.81
258.22	97.81
258.452	92.81
258.685	102.81
258.918	77.81
259.151	103.81
259.383	117.81
259.616	154.81
259.849	171.81
260.081	101.81
260.314	89.81
260.547	80.81
260.779	81.81
261.012	82.81
261.244	79.81
261.477	91.81
261.71	70.81
261.942	98.81
262.175	71.81
262.407	82.81
262.64	76.81
262.872	95.81
263.105	86.81
263.337	95.81
263.57	82.81
263.802	83.81
264.035	80.81
264.267	83.81
264.499	81.81
264.732	91.81
264.964	92.81
265.197	90.81
265.429	73.81
265.661	79.81
265.894	99.81
266.126	137.81
266.358	162.81
266.591	163.81
266.823	88.81
267.055	97.81
267.287	98.81
267.52	82.81
267.752	93.81
267.984	88.81
268.216	82.81
268.448	85.81
268.681	92.81
268.913	89.81
269.145	90.81
269.377	94.81
269.609	92.81
269.841	88.81
270.073	116.81
270.306	125.81
270.538	211.81
270.77	342.81
271.002	387.81
271.234	210.81
271.466	117.81
271.698	89.81
271.93	91.81
272.162	81.81
272.394	82.81
272.626	90.81
272.858	80.81
273.09	84.81
273.322	84.81
273.553	91.81
273.785	77.81
274.017	88.81
274.249	82.81
274.481	86.81
274.713	75.81
274.945	90.81
275.176	85.81
275.408	95.81
275.64	100.81
275.872	82.81
276.104	116.81
276.335	114.81
276.567	115.81
276.799	106.81
277.031	92.81
277.262	112.81
277.494	112.81
277.726	117.81
277.957	179.81
278.189	265.81
278.421	246.81
278.652	219.81
278.884	197.81
279.115	149.81
279.347	114.81
279.579	98.81
279.81	95.81
280.042	110.81
280.273	106.81
280.505	105.81
280.736	108.81
280.968	132.81
281.199	199.81
281.431	276.81
281.662	295.81
281.894	178.81
282.125	125.81
282.356	111.81
282.588	105.81
282.819	120.81
283.051	124.81
283.282	155.81
283.513	192.81
283.745	342.81
283.976	598.81
284.207	852.81
284.439	646.81
284.67	298.81
284.901	289.81
285.132	381.81
285.364	426.81
285.595	250.81
285.826	188.81
286.057	300.81
286.288	448.81
286.52	692.81
286.751	546.81
286.982	206.81
287.213	130.81
287.444	115.81
287.675	112.81
287.906	102.81
288.138	93.81
288.369	102.81
288.6	104.81
288.831	81.81
289.062	99.81
289.293	85.81
289.524	91.81
289.755	98.81
289.986	94.81
290.217	109.81
290.448	98.81
290.679	103.81
290.91	112.81
291.141	176.81
291.371	264.81
291.602	329.81
291.833	198.81
292.064	115.81
292.295	105.81
292.526	91.81
292.757	103.81
292.987	100.81
293.218	99.81
293.449	90.81
293.68	94.81
293.91	94.81
294.141	99.81
294.372	96.81
294.603	94.81
294.833	98.81
295.064	88.81
295.295	93.81
295.525	96.81
295.756	103.81
295.987	86.81
296.217	107.81
296.448	78.81
296.679	94.81
296.909	92.81
297.14	108.81
297.37	90.81
297.601	93.81
297.831	99.81
298.062	96.81
298.292	122.81
298.523	92.81
298.753	104.81
298.984	107.81
299.214	110.81
299.445	107.81
299.675	121.81
299.905	114.81
300.136	128.81
300.366	169.81
300.597	299.81
300.827	497.81
301.057	777.81
301.288	690.81
301.518	276.81
301.748	169.81
301.979	170.81
302.209	143.81
302.439	150.81
302.669	177.81
302.9	288.81
303.13	538.81
303.36	970.81
303.59	1349.81
303.82	950.81
304.051	319.81
304.281	170.81
304.511	138.81
304.741	124.81
304.971	128.81
305.201	118.81
305.431	115.81
305.661	108.81
305.891	103.81
306.121	104.81
306.352	118.81
306.582	108.81
306.812	128.81
307.042	124.81
307.272	116.81
307.502	101.81
307.731	115.81
307.961	116.81
308.191	93.81
308.421	94.81
308.651	110.81
308.881	97.81
309.111	89.81
309.341	112.81
309.571	114.81
309.8	126.81
310.03	102.81
310.26	124.81
310.49	119.81
310.72	105.81
310.949	105.81
311.179	105.81
311.409	108.81
311.639	118.81
311.868	106.81
312.098	110.81
312.328	115.81
312.557	127.81
312.787	96.81
313.017	126.81
313.246	122.81
313.476	130.81
313.706	138.81
313.935	180.81
314.165	232.81
314.394	250.81
314.624	185.81
314.853	150.81
315.083	131.81
315.312	136.81
315.542	126.81
315.771	124.81
316.001	148.81
316.23	157.81
316.46	163.81
316.689	194.81
316.919	281.81
317.148	546.81
317.377	1022.81
317.607	1692.81
317.836	1578.81
318.065	593.81
318.295	254.81
318.524	182.81
318.753	142.81
318.983	123.81
319.212	136.81
319.441	138.81
319.67	120.81
319.9	121.81
320.129	134.81
320.358	130.81
320.587	136.81
320.816	136.81
321.046	112.81
321.275	130.81
321.504	146.81
321.733	171.81
321.962	182.81
322.191	193.81
322.42	150.81
322.649	133.81
322.878	125.81
323.108	128.81
323.337	130.81
323.566	132.81
323.795	144.81
324.024	151.81
324.253	166.81
324.482	193.81
324.71	248.81
324.939	308.81
325.168	244.81
325.397	200.81
325.626	282.81
325.855	544.81
326.084	1036.81
326.313	1782.81
326.542	1730.81
326.77	693.81
326.999	289.81
327.228	237.81
327.457	276.81
327.686	275.81
327.914	165.81
328.143	166.81
328.372	138.81
328.6	137.81
328.829	127.81
329.058	124.81
329.287	129.81
329.515	120.81
329.744	135.81
329.972	132.81
330.201	114.81
330.43	125.81
330.658	114.81
330.887	127.81
331.115	116.81
331.344	135.81
331.572	120.81
331.801	114.81
332.03	126.81
332.258	134.81
332.486	188.81
332.715	317.81
332.943	581.81
333.172	848.81
333.4	750.81
333.629	288.81
333.857	166.81
334.085	146.81
334.314	120.81
334.542	153.81
334.771	122.81
334.999	145.81
335.227	137.81
335.455	130.81
335.684	133.81
335.912	132.81
336.14	127.81
336.369	112.81
336.597	112.81
336.825	104.81
337.053	119.81
337.281	122.81
337.51	115.81
337.738	113.81
337.966	122.81
338.194	115.81
338.422	126.81
338.65	128.81
338.878	121.81
339.106	136.81
339.334	130.81
339.562	118.81
339.79	132.81
340.018	112.81
340.246	138.81
340.474	126.81
340.702	110.81
340.93	115.81
341.158	127.81
341.386	120.81
341.614	118.81
341.842	125.81
342.07	129.81
342.298	129.81
342.526	123.81
342.754	115.81
342.981	111.81
343.209	101.81
343.437	113.81
343.665	126.81
343.893	118.81
344.12	110.81
344.348	107.81
344.576	89.81
344.804	117.81
345.031	114.81
345.259	118.81
345.487	123.81
345.714	105.81
345.942	92.81
346.17	132.81
346.397	122.81
346.625	118.81
346.853	116.81
347.08	96.81
347.308	105.81
347.535	111.81
347.763	106.81
347.99	110.81
348.218	112.81
348.445	121.81
348.673	118.81
348.9	128.81
349.128	127.81
349.355	123.81
349.583	134.81
349.81	126.81
350.037	129.81
350.265	124.81
350.492	102.81
350.72	105.81
350.947	123.81
351.174	136.81
351.402	123.81
351.629	104.81
351.856	104.81
352.083	122.81
352.311	112.81
352.538	135.81
352.765	112.81
352.992	126.81
353.22	116.81
353.447	101.81
353.674	102.81
353.901	117.81
354.128	96.81
354.355	112.81
354.583	124.81
354.81	107.81
355.037	95.81
355.264	111.81
355.491	128.81
355.718	112.81
355.945	107.81
356.172	110.81
356.399	114.81
356.626	115.81
356.853	110.81
357.08	125.81
357.307	126.81
357.534	111.81
357.761	102.81
357.988	123.81
358.215	125.81
358.441	111.81
358.668	116.81
358.895	126.81
359.122	116.81
359.349	123.81
359.576	118.81
359.802	128.81
360.029	129.81
360.256	132.81
360.483	130.81
360.709	122.81
360.936	124.81
361.163	114.81
361.39	113.81
361.616	106.81
361.843	119.81
362.07	114.81
362.296	110.81
362.523	95.81
362.749	123.81
362.976	126.81
363.203	123.81
363.429	102.81
363.656	118.81
363.882	116.81
364.109	138.81
364.335	122.81
364.562	110.81
364.788	106.81
365.015	118.81
365.241	138.81
365.468	223.81
365.694	294.81
365.92	258.81
366.147	129.81
366.373	110.81
366.599	96.81
366.826	116.81
367.052	117.81
367.278	101.81
367.505	93.81
367.731	107.81
367.957	113.81
368.184	110.81
368.41	141.81
368.636	126.81
368.862	119.81
369.089	123.81
369.315	103.81
369.541	109.81
369.767	112.81
369.993	114.81
370.219	126.81
370.445	103.81
370.672	118.81
370.898	120.81
371.124	110.81
371.35	106.81
371.576	113.81
371.802	124.81
372.028	111.81
372.254	124.81
372.48	117.81
372.706	111.81
372.932	132.81
373.158	121.81
373.384	112.81
373.61	120.81
373.835	124.81
374.061	122.81
374.287	121.81
374.513	119.81
374.739	119.81
374.965	113.81
375.191	114.81
375.416	118.81
375.642	104.81
375.868	127.81
376.094	112.81
376.319	121.81
376.545	106.81
376.771	106.81
376.997	106.81
377.222	110.81
377.448	94.81
377.674	116.81
377.899	102.81
378.125	122.81
378.35	121.81
378.576	119.81
378.802	120.81
379.027	132.81
379.253	156.81
379.478	202.81
379.704	340.81
379.929	826.81
380.155	1775.81
380.38	1815.81
380.606	575.81
380.831	209.81
381.057	138.81
381.282	126.81
381.507	115.81
381.733	134.81
381.958	124.81
382.184	118.81
382.409	104.81
382.634	113.81
382.86	114.81
383.085	101.81
383.31	120.81
383.535	118.81
383.761	122.81
383.986	99.81
384.211	119.81
384.436	126.81
384.662	104.81
384.887	100.81
385.112	117.81
385.337	103.81
385.562	114.81
385.787	103.81
386.013	121.81
386.238	102.81
386.463	98.81
386.688	111.81
386.913	112.81
387.138	103.81
387.363	126.81
387.588	102.81
387.813	119.81
388.038	106.81
388.263	111.81
388.488	99.81
388.713	124.81
388.938	103.81
389.163	105.81
389.387	105.81
389.612	104.81
389.837	114.81
390.062	110.81
390.287	107.81
390.512	110.81
390.736	96.81
390.961	113.81
391.186	99.81
391.411	97.81
391.636	91.81
391.86	103.81
392.085	111.81
392.31	108.81
392.534	112.81
392.759	111.81
392.984	110.81
393.208	153.81
393.433	197.81
393.658	185.81
393.882	133.81
394.107	102.81
394.331	92.81
394.556	100.81
394.78	103.81
395.005	90.81
395.229	86.81
395.454	99.81
395.678	107.81
395.903	104.81
396.127	95.81
396.352	115.81
396.576	114.81
396.801	128.81
397.025	160.81
397.249	127.81
397.474	112.81
397.698	98.81
397.922	104.81
398.147	101.81
398.371	96.81
398.595	106.81
398.82	111.81
399.044	91.81
399.268	94.81
399.492	108.81
399.717	94.81
399.941	98.81
400.165	106.81
400.389	98.81
400.613	97.81
400.837	101.81
401.062	98.81
401.286	106.81
401.51	107.81
401.734	110.81
401.958	110.81
402.182	111.81
402.406	115.81
402.63	95.81
402.854	94.81
403.078	98.81
403.302	88.81
403.526	104.81
403.75	102.81
403.974	93.81
404.198	98.81
404.422	119.81
404.645	103.81
404.869	98.81
405.093	90.81
405.317	96.81
405.541	108.81
405.765	135.81
405.988	158.81
406.212	132.81
406.436	108.81
406.66	107.81
406.883	103.81
407.107	98.81
407.331	93.81
407.555	104.81
407.778	94.81
408.002	95.81
408.226	116.81
408.449	100.81
408.673	99.81
408.896	111.81
409.12	111.81
409.344	111.81
409.567	99.81
409.791	92.81
410.014	101.81
410.238	116.81
410.461	124.81
410.685	94.81
410.908	106.81
411.132	114.81
411.355	93.81
411.578	89.81
411.802	102.81
412.025	113.81
412.249	102.81
412.472	100.81
412.695	99.81
412.919	103.81
413.142	102.81
413.365	105.81
413.589	102.81
413.812	111.81
414.035	110.81
414.258	103.81
414.482	102.81
414.705	126.81
414.928	103.81
415.151	103.81
415.374	115.81
415.597	88.81
415.821	86.81
416.044	103.81
416.267	95.81
416.49	95.81
416.713	88.81
416.936	92.81
417.159	110.81
417.382	105.81
417.605	110.81
417.828	106.81
418.051	111.81
418.274	111.81
418.497	109.81
418.72	113.81
418.943	94.81
419.166	110.81
419.389	112.81
419.611	115.81
419.834	98.81
420.057	95.81
420.28	108.81
420.503	93.81
420.726	89.81
420.948	82.81
421.171	93.81
421.394	103.81
421.617	95.81
421.839	94.81
422.062	94.81
422.285	96.81
422.507	111.81
422.73	133.81
422.953	149.81
423.175	120.81
423.398	100.81
423.621	92.81
423.843	92.81
424.066	101.81
424.288	105.81
424.511	98.81
424.733	96.81
424.956	88.81
425.178	101.81
425.401	111.81
425.623	92.81
425.846	113.81
426.068	98.81
426.291	83.81
426.513	89.81
426.735	102.81
426.958	93.81
427.18	113.81
427.402	111.81
427.625	100.81
427.847	94.81
428.069	89.81
428.292	104.81
428.514	103.81
428.736	112.81
428.958	82.81
429.181	108.81
429.403	101.81
429.625	102.81
429.847	118.81
430.069	111.81
430.292	109.81
430.514	111.81
430.736	98.81
430.958	117.81
431.18	91.81
431.402	93.81
431.624	93.81
431.846	96.81
432.068	103.81
432.29	94.81
432.512	110.81
432.734	98.81
432.956	111.81
433.178	105.81
433.4	92.81
433.622	96.81
433.844	96.81
434.066	91.81
434.287	102.81
434.509	97.81
434.731	103.81
434.953	94.81
435.175	87.81
435.397	94.81
435.618	94.81
435.84	98.81
436.062	100.81
436.284	103.81
436.505	91.81
436.727	95.81
436.949	80.81
437.17	96.81
437.392	106.81
437.614	97.81
437.835	89.81
438.057	102.81
438.278	85.81
438.5	101.81
438.721	101.81
438.943	102.81
439.165	123.81
439.386	115.81
439.608	108.81
439.829	99.81
440.05	126.81
440.272	126.81
440.493	101.81
440.715	111.81
440.936	90.81
441.158	107.81
441.379	101.81
441.6	99.81
441.822	98.81
442.043	123.81
442.264	128.81
442.486	116.81
442.707	104.81
442.928	98.81
443.149	101.81
443.371	97.81
443.592	99.81
443.813	88.81
444.034	96.81
444.255	95.81
444.476	111.81
444.698	111.81
444.919	106.81
445.14	167.81
445.361	124.81
445.582	107.81
445.803	100.81
446.024	106.81
446.245	116.81
446.466	116.81
446.687	111.81
446.908	101.81
447.129	100.81
447.35	94.81
447.571	87.81
447.792	90.81
448.013	96.81
448.234	98.81
448.455	106.81
448.675	93.81
448.896	123.81
449.117	110.81
449.338	139.81
449.559	155.81
449.779	127.81
450	123.81
450.221	103.81
450.442	113.81
450.662	130.81
450.883	112.81
451.104	125.81
451.324	134.81
451.545	127.81
451.766	116.81
451.986	139.81
452.207	234.81
452.428	635.81
452.648	1573.81
452.869	898.81
453.089	216.81
453.31	140.81
453.53	130.81
453.751	148.81
453.971	156.81
454.192	159.81
454.412	95.81
454.633	99.81
454.853	92.81
455.073	96.81
455.294	112.81
455.514	92.81
455.734	90.81
455.955	104.81
456.175	105.81
456.395	97.81
456.616	96.81
456.836	95.81
457.056	99.81
457.276	98.81
457.497	126.81
457.717	122.81
457.937	106.81
458.157	93.81
458.377	82.81
458.598	101.81
458.818	90.81
459.038	90.81
459.258	88.81
459.478	97.81
459.698	94.81
459.918	101.81
460.138	82.81
460.358	98.81
460.578	81.81
460.798	81.81
461.018	97.81
461.238	98.81
461.458	90.81
461.678	87.81
461.898	107.81
462.118	92.81
462.338	98.81
462.558	95.81
462.777	101.81
462.997	114.81
463.217	118.81
463.437	138.81
463.657	184.81
463.876	184.81
464.096	123.81
464.316	122.81
464.536	106.81
464.755	98.81
464.975	100.81
465.195	88.81
465.414	92.81
465.634	101.81
465.854	103.81
466.073	105.81
466.293	88.81
466.512	104.81
466.732	98.81
466.951	113.81
467.171	138.81
467.391	132.81
467.61	105.81
467.829	98.81
468.049	97.81
468.268	98.81
468.488	95.81
468.707	95.81
468.927	87.81
469.146	94.81
469.365	112.81
469.585	96.81
469.804	102.81
470.023	103.81
470.243	95.81
470.462	105.81
470.681	111.81
470.901	133.81
471.12	202.81
471.339	228.81
471.558	143.81
471.777	129.81
471.997	121.81
472.216	103.81
472.435	110.81
472.654	90.81
472.873	110.81
473.092	97.81
473.311	99.81
473.53	103.81
473.749	105.81
473.968	106.81
474.187	109.81
474.406	102.81
474.625	80.81
474.844	115.81
475.063	100.81
475.282	100.81
475.501	99.81
475.72	103.81
475.939	94.81
476.158	89.81
476.377	111.81
476.596	107.81
476.814	108.81
477.033	89.81
477.252	98.81
477.471	102.81
477.69	119.81
477.908	107.81
478.127	116.81
478.346	112.81
478.564	110.81
478.783	98.81
479.002	97.81
479.22	98.81
479.439	88.81
479.658	92.81
479.876	102.81
480.095	94.81
480.313	102.81
480.532	103.81
480.751	109.81
480.969	96.81
481.188	91.81
481.406	98.81
481.624	110.81
481.843	132.81
482.061	126.81
482.28	113.81
482.498	101.81
482.717	106.81
482.935	100.81
483.153	88.81
483.372	110.81
483.59	102.81
483.808	100.81
484.027	107.81
484.245	115.81
484.463	193.81
484.681	246.81
484.9	160.81
485.118	120.81
485.336	107.81
485.554	103.81
485.772	140.81
485.99	200.81
486.209	261.81
486.427	189.81
486.645	116.81
486.863	129.81
487.081	121.81
487.299	90.81
487.517	93.81
487.735	113.81
487.953	103.81
488.171	108.81
488.389	107.81
488.607	101.81
488.825	90.81
489.043	94.81
489.261	102.81
489.479	92.81
489.696	93.81
489.914	112.81
490.132	99.81
490.35	101.81
490.568	97.81
490.786	103.81
491.003	105.81
491.221	117.81
491.439	110.81
491.657	102.81
491.874	111.81
492.092	112.81
492.31	101.81
492.527	105.81
492.745	107.81
492.963	95.81
493.18	99.81
493.398	114.81
493.615	113.81
493.833	113.81
494.05	112.81
494.268	94.81
494.485	113.81
494.703	115.81
494.92	110.81
495.138	101.81
495.355	108.81
495.573	115.81
495.79	105.81
496.008	102.81
496.225	103.81
496.442	113.81
496.66	130.81
496.877	174.81
497.094	169.81
497.312	118.81
497.529	109.81
497.746	112.81
497.963	99.81
498.181	123.81
498.398	106.81
498.615	106.81
498.832	106.81
499.049	97.81
499.267	140.81
499.484	169.81
499.701	126.81
499.918	101.81
500.135	107.81
500.352	119.81
500.569	106.81
500.786	104.81
501.003	94.81
501.22	102.81
501.437	88.81
501.654	105.81
501.871	98.81
502.088	108.81
502.305	114.81
502.522	94.81
502.739	108.81
502.956	119.81
503.172	107.81
503.389	100.81
503.606	110.81
503.823	107.81
504.04	95.81
504.256	98.81
504.473	102.81
504.69	94.81
504.907	113.81
505.123	119.81
505.34	105.81
505.557	99.81
505.773	107.81
505.99	102.81
506.207	100.81
506.423	101.81
506.64	106.81
506.856	100.81
507.073	107.81
