Data from SnStandardFlinnAPT0064_QswitchEnergy10_LIBS07252019.E.O._I.C._HRD10591_15-27-01-973.txt Node
Date: Thu Jul 25 15:27:01 EDT 2019
User: cochatt
Spectrometer: HR+D1059
Trigger mode: 1
Integration Time (sec): 1.000000E-1
Scans to average: 1
Electric dark correction enabled: true
Nonlinearity correction enabled: false
Boxcar width: 0
XAxis mode: Wavelengths
Number of Pixels in Spectrum: 2048
>>>>>Begin Spectral Data<<<<<
223.165	-8.38
223.4	-8.38
223.635	-8.38
223.869	-30.38
224.104	-25.38
224.338	-19.38
224.573	-31.38
224.808	-2.38
225.042	-1.38
225.277	-8.38
225.511	-0.38
225.746	3.62
225.98	14.62
226.215	22.62
226.449	18.62
226.683	16.62
226.918	23.62
227.152	27.62
227.387	32.62
227.621	38.62
227.856	40.62
228.09	36.62
228.324	41.62
228.559	61.62
228.793	55.62
229.027	59.62
229.262	90.62
229.496	76.62
229.73	69.62
229.964	64.62
230.199	68.62
230.433	80.62
230.667	96.62
230.901	90.62
231.136	76.62
231.37	87.62
231.604	91.62
231.838	98.62
232.072	108.62
232.306	107.62
232.541	90.62
232.775	86.62
233.009	82.62
233.243	88.62
233.477	91.62
233.711	87.62
233.945	108.62
234.179	94.62
234.413	81.62
234.647	92.62
234.881	81.62
235.115	96.62
235.349	85.62
235.583	98.62
235.817	128.62
236.051	131.62
236.285	101.62
236.519	80.62
236.753	71.62
236.987	85.62
237.221	88.62
237.455	87.62
237.689	87.62
237.922	91.62
238.156	79.62
238.39	78.62
238.624	85.62
238.858	79.62
239.091	84.62
239.325	87.62
239.559	70.62
239.793	91.62
240.027	78.62
240.26	80.62
240.494	77.62
240.728	86.62
240.961	90.62
241.195	96.62
241.429	85.62
241.662	81.62
241.896	107.62
242.13	100.62
242.363	135.62
242.597	157.62
242.83	119.62
243.064	130.62
243.298	171.62
243.531	141.62
243.765	92.62
243.998	84.62
244.232	90.62
244.465	82.62
244.699	97.62
244.932	93.62
245.166	81.62
245.399	80.62
245.633	85.62
245.866	77.62
246.099	78.62
246.333	81.62
246.566	70.62
246.8	84.62
247.033	89.62
247.266	80.62
247.5	84.62
247.733	82.62
247.966	66.62
248.2	76.62
248.433	116.62
248.666	113.62
248.899	126.62
249.133	83.62
249.366	94.62
249.599	100.62
249.832	122.62
250.066	133.62
250.299	89.62
250.532	98.62
250.765	79.62
250.998	77.62
251.231	99.62
251.465	88.62
251.698	80.62
251.931	88.62
252.164	88.62
252.397	81.62
252.63	93.62
252.863	91.62
253.096	97.62
253.329	93.62
253.562	84.62
253.795	92.62
254.028	87.62
254.261	85.62
254.494	103.62
254.727	120.62
254.96	137.62
255.193	135.62
255.426	97.62
255.659	92.62
255.892	87.62
256.124	90.62
256.357	95.62
256.59	92.62
256.823	95.62
257.056	108.62
257.289	145.62
257.521	179.62
257.754	117.62
257.987	87.62
258.22	98.62
258.452	89.62
258.685	81.62
258.918	92.62
259.151	98.62
259.383	89.62
259.616	123.62
259.849	131.62
260.081	97.62
260.314	97.62
260.547	89.62
260.779	83.62
261.012	73.62
261.244	88.62
261.477	92.62
261.71	86.62
261.942	80.62
262.175	92.62
262.407	89.62
262.64	84.62
262.872	83.62
263.105	92.62
263.337	83.62
263.57	87.62
263.802	77.62
264.035	88.62
264.267	102.62
264.499	91.62
264.732	90.62
264.964	83.62
265.197	91.62
265.429	88.62
265.661	85.62
265.894	92.62
266.126	121.62
266.358	156.62
266.591	140.62
266.823	110.62
267.055	77.62
267.287	102.62
267.52	70.62
267.752	89.62
267.984	86.62
268.216	91.62
268.448	87.62
268.681	91.62
268.913	88.62
269.145	109.62
269.377	93.62
269.609	92.62
269.841	105.62
270.073	106.62
270.306	114.62
270.538	193.62
270.77	301.62
271.002	325.62
271.234	181.62
271.466	103.62
271.698	96.62
271.93	104.62
272.162	89.62
272.394	101.62
272.626	93.62
272.858	92.62
273.09	80.62
273.322	93.62
273.553	89.62
273.785	91.62
274.017	87.62
274.249	103.62
274.481	88.62
274.713	82.62
274.945	87.62
275.176	77.62
275.408	105.62
275.64	82.62
275.872	92.62
276.104	95.62
276.335	99.62
276.567	91.62
276.799	106.62
277.031	94.62
277.262	93.62
277.494	105.62
277.726	135.62
277.957	171.62
278.189	236.62
278.421	204.62
278.652	180.62
278.884	168.62
279.115	117.62
279.347	101.62
279.579	82.62
279.81	98.62
280.042	101.62
280.273	111.62
280.505	108.62
280.736	111.62
280.968	111.62
281.199	156.62
281.431	227.62
281.662	253.62
281.894	154.62
282.125	110.62
282.356	95.62
282.588	105.62
282.819	112.62
283.051	111.62
283.282	133.62
283.513	185.62
283.745	281.62
283.976	502.62
284.207	741.62
284.439	532.62
284.67	269.62
284.901	228.62
285.132	325.62
285.364	357.62
285.595	216.62
285.826	175.62
286.057	215.62
286.288	400.62
286.52	591.62
286.751	457.62
286.982	187.62
287.213	121.62
287.444	108.62
287.675	113.62
287.906	90.62
288.138	98.62
288.369	95.62
288.6	87.62
288.831	103.62
289.062	106.62
289.293	93.62
289.524	89.62
289.755	102.62
289.986	102.62
290.217	89.62
290.448	101.62
290.679	88.62
290.91	114.62
291.141	158.62
291.371	222.62
291.602	268.62
291.833	183.62
292.064	111.62
292.295	100.62
292.526	97.62
292.757	88.62
292.987	90.62
293.218	97.62
293.449	85.62
293.68	88.62
293.91	87.62
294.141	96.62
294.372	82.62
294.603	88.62
294.833	96.62
295.064	108.62
295.295	93.62
295.525	96.62
295.756	89.62
295.987	94.62
296.217	104.62
296.448	86.62
296.679	97.62
296.909	91.62
297.14	95.62
297.37	85.62
297.601	100.62
297.831	100.62
298.062	113.62
298.292	108.62
298.523	102.62
298.753	94.62
298.984	117.62
299.214	96.62
299.445	105.62
299.675	117.62
299.905	113.62
300.136	116.62
300.366	160.62
300.597	237.62
300.827	404.62
301.057	637.62
301.288	549.62
301.518	235.62
301.748	157.62
301.979	120.62
302.209	126.62
302.439	120.62
302.669	151.62
302.9	257.62
303.13	453.62
303.36	789.62
303.59	1099.62
303.82	751.62
304.051	267.62
304.281	134.62
304.511	118.62
304.741	96.62
304.971	110.62
305.201	117.62
305.431	117.62
305.661	106.62
305.891	88.62
306.121	99.62
306.352	102.62
306.582	101.62
306.812	111.62
307.042	122.62
307.272	111.62
307.502	99.62
307.731	113.62
307.961	111.62
308.191	98.62
308.421	105.62
308.651	117.62
308.881	107.62
309.111	113.62
309.341	119.62
309.571	92.62
309.8	108.62
310.03	92.62
310.26	104.62
310.49	114.62
310.72	112.62
310.949	107.62
311.179	102.62
311.409	112.62
311.639	111.62
311.868	115.62
312.098	111.62
312.328	111.62
312.557	127.62
312.787	107.62
313.017	120.62
313.246	112.62
313.476	120.62
313.706	109.62
313.935	133.62
314.165	182.62
314.394	211.62
314.624	152.62
314.853	120.62
315.083	108.62
315.312	131.62
315.542	131.62
315.771	137.62
316.001	138.62
316.23	133.62
316.46	132.62
316.689	161.62
316.919	232.62
317.148	466.62
317.377	848.62
317.607	1364.62
317.836	1258.62
318.065	488.62
318.295	183.62
318.524	148.62
318.753	138.62
318.983	127.62
319.212	125.62
319.441	105.62
319.67	118.62
319.9	90.62
320.129	107.62
320.358	120.62
320.587	111.62
320.816	119.62
321.046	115.62
321.275	137.62
321.504	124.62
321.733	137.62
321.962	143.62
322.191	137.62
322.42	132.62
322.649	120.62
322.878	119.62
323.108	119.62
323.337	119.62
323.566	117.62
323.795	133.62
324.024	125.62
324.253	135.62
324.482	177.62
324.71	218.62
324.939	260.62
325.168	209.62
325.397	177.62
325.626	240.62
325.855	455.62
326.084	870.62
326.313	1463.62
326.542	1427.62
326.77	561.62
326.999	239.62
327.228	210.62
327.457	210.62
327.686	212.62
327.914	136.62
328.143	134.62
328.372	128.62
328.6	123.62
328.829	125.62
329.058	117.62
329.287	116.62
329.515	100.62
329.744	119.62
329.972	117.62
330.201	108.62
330.43	119.62
330.658	103.62
330.887	116.62
331.115	117.62
331.344	115.62
331.572	108.62
331.801	120.62
332.03	118.62
332.258	130.62
332.486	158.62
332.715	271.62
332.943	474.62
333.172	705.62
333.4	608.62
333.629	241.62
333.857	149.62
334.085	125.62
334.314	125.62
334.542	127.62
334.771	123.62
334.999	116.62
335.227	116.62
335.455	117.62
335.684	112.62
335.912	114.62
336.14	116.62
336.369	119.62
336.597	95.62
336.825	102.62
337.053	107.62
337.281	104.62
337.51	105.62
337.738	101.62
337.966	116.62
338.194	102.62
338.422	115.62
338.65	114.62
338.878	123.62
339.106	124.62
339.334	121.62
339.562	117.62
339.79	107.62
340.018	121.62
340.246	103.62
340.474	121.62
340.702	107.62
340.93	115.62
341.158	111.62
341.386	122.62
341.614	113.62
341.842	123.62
342.07	110.62
342.298	125.62
342.526	111.62
342.754	94.62
342.981	113.62
343.209	104.62
343.437	112.62
343.665	115.62
343.893	116.62
344.12	94.62
344.348	102.62
344.576	107.62
344.804	118.62
345.031	117.62
345.259	108.62
345.487	111.62
345.714	107.62
345.942	124.62
346.17	109.62
346.397	106.62
346.625	105.62
346.853	100.62
347.08	107.62
347.308	100.62
347.535	85.62
347.763	102.62
347.99	105.62
348.218	112.62
348.445	96.62
348.673	104.62
348.9	123.62
349.128	115.62
349.355	123.62
349.583	118.62
349.81	107.62
350.037	128.62
350.265	121.62
350.492	111.62
350.72	116.62
350.947	116.62
351.174	96.62
351.402	105.62
351.629	108.62
351.856	111.62
352.083	108.62
352.311	104.62
352.538	101.62
352.765	103.62
352.992	116.62
353.22	99.62
353.447	109.62
353.674	114.62
353.901	106.62
354.128	107.62
354.355	105.62
354.583	107.62
354.81	119.62
355.037	103.62
355.264	107.62
355.491	105.62
355.718	109.62
355.945	105.62
356.172	102.62
356.399	96.62
356.626	105.62
356.853	112.62
357.08	105.62
357.307	95.62
357.534	113.62
357.761	121.62
357.988	119.62
358.215	107.62
358.441	102.62
358.668	129.62
358.895	113.62
359.122	106.62
359.349	109.62
359.576	125.62
359.802	115.62
360.029	107.62
360.256	119.62
360.483	108.62
360.709	116.62
360.936	107.62
361.163	112.62
361.39	111.62
361.616	95.62
361.843	95.62
362.07	103.62
362.296	115.62
362.523	90.62
362.749	118.62
362.976	103.62
363.203	102.62
363.429	111.62
363.656	100.62
363.882	113.62
364.109	115.62
364.335	88.62
364.562	100.62
364.788	110.62
365.015	108.62
365.241	131.62
365.468	180.62
365.694	221.62
365.92	191.62
366.147	111.62
366.373	88.62
366.599	97.62
366.826	88.62
367.052	113.62
367.278	98.62
367.505	108.62
367.731	100.62
367.957	105.62
368.184	111.62
368.41	115.62
368.636	120.62
368.862	103.62
369.089	113.62
369.315	101.62
369.541	121.62
369.767	105.62
369.993	102.62
370.219	103.62
370.445	101.62
370.672	113.62
370.898	103.62
371.124	107.62
371.35	99.62
371.576	120.62
371.802	107.62
372.028	119.62
372.254	114.62
372.48	111.62
372.706	116.62
372.932	122.62
373.158	107.62
373.384	119.62
373.61	114.62
373.835	112.62
374.061	106.62
374.287	115.62
374.513	115.62
374.739	108.62
374.965	93.62
375.191	104.62
375.416	118.62
375.642	108.62
375.868	107.62
376.094	92.62
376.319	101.62
376.545	98.62
376.771	106.62
376.997	92.62
377.222	112.62
377.448	116.62
377.674	113.62
377.899	100.62
378.125	98.62
378.35	100.62
378.576	101.62
378.802	124.62
379.027	115.62
379.253	137.62
379.478	165.62
379.704	297.62
379.929	686.62
380.155	1429.62
380.38	1484.62
380.606	481.62
380.831	186.62
381.057	137.62
381.282	112.62
381.507	115.62
381.733	108.62
381.958	113.62
382.184	104.62
382.409	99.62
382.634	105.62
382.86	108.62
383.085	94.62
383.31	108.62
383.535	105.62
383.761	107.62
383.986	95.62
384.211	95.62
384.436	89.62
384.662	98.62
384.887	104.62
385.112	100.62
385.337	117.62
385.562	107.62
385.787	96.62
386.013	123.62
386.238	92.62
386.463	108.62
386.688	107.62
386.913	102.62
387.138	92.62
387.363	101.62
387.588	114.62
387.813	87.62
388.038	105.62
388.263	93.62
388.488	88.62
388.713	89.62
388.938	102.62
389.163	85.62
389.387	112.62
389.612	112.62
389.837	116.62
390.062	116.62
390.287	94.62
390.512	94.62
390.736	89.62
390.961	103.62
391.186	112.62
391.411	102.62
391.636	95.62
391.86	92.62
392.085	90.62
392.31	91.62
392.534	108.62
392.759	98.62
392.984	90.62
393.208	111.62
393.433	129.62
393.658	129.62
393.882	92.62
394.107	91.62
394.331	89.62
394.556	87.62
394.78	96.62
395.005	79.62
395.229	84.62
395.454	107.62
395.678	85.62
395.903	96.62
396.127	91.62
396.352	111.62
396.576	89.62
396.801	102.62
397.025	114.62
397.249	111.62
397.474	92.62
397.698	100.62
397.922	92.62
398.147	97.62
398.371	109.62
398.595	93.62
398.82	84.62
399.044	106.62
399.268	111.62
399.492	85.62
399.717	93.62
399.941	101.62
400.165	89.62
400.389	84.62
400.613	91.62
400.837	92.62
401.062	101.62
401.286	95.62
401.51	92.62
401.734	92.62
401.958	99.62
402.182	97.62
402.406	90.62
402.63	94.62
402.854	107.62
403.078	93.62
403.302	94.62
403.526	98.62
403.75	108.62
403.974	97.62
404.198	79.62
404.422	93.62
404.645	93.62
404.869	100.62
405.093	90.62
405.317	85.62
405.541	101.62
405.765	126.62
405.988	132.62
406.212	96.62
406.436	104.62
406.66	99.62
406.883	100.62
407.107	89.62
407.331	96.62
407.555	101.62
407.778	97.62
408.002	101.62
408.226	84.62
408.449	109.62
408.673	96.62
408.896	100.62
409.12	97.62
409.344	105.62
409.567	96.62
409.791	94.62
410.014	90.62
410.238	104.62
410.461	103.62
410.685	87.62
410.908	91.62
411.132	98.62
411.355	107.62
411.578	92.62
411.802	98.62
412.025	95.62
412.249	64.62
412.472	95.62
412.695	98.62
412.919	100.62
413.142	106.62
413.365	90.62
413.589	101.62
413.812	96.62
414.035	104.62
414.258	101.62
414.482	110.62
414.705	104.62
414.928	98.62
415.151	105.62
415.374	98.62
415.597	107.62
415.821	102.62
416.044	91.62
416.267	87.62
416.49	97.62
416.713	87.62
416.936	77.62
417.159	88.62
417.382	93.62
417.605	93.62
417.828	95.62
418.051	95.62
418.274	98.62
418.497	99.62
418.72	99.62
418.943	93.62
419.166	101.62
419.389	104.62
419.611	101.62
419.834	103.62
420.057	103.62
420.28	93.62
420.503	107.62
420.726	96.62
420.948	100.62
421.171	95.62
421.394	78.62
421.617	104.62
421.839	90.62
422.062	99.62
422.285	87.62
422.507	99.62
422.73	118.62
422.953	119.62
423.175	101.62
423.398	106.62
423.621	95.62
423.843	83.62
424.066	96.62
424.288	91.62
424.511	98.62
424.733	99.62
424.956	90.62
425.178	86.62
425.401	92.62
425.623	97.62
425.846	88.62
426.068	99.62
426.291	97.62
426.513	103.62
426.735	93.62
426.958	99.62
427.18	108.62
427.402	95.62
427.625	98.62
427.847	88.62
428.069	103.62
428.292	91.62
428.514	88.62
428.736	95.62
428.958	109.62
429.181	95.62
429.403	100.62
429.625	97.62
429.847	98.62
430.069	86.62
430.292	92.62
430.514	97.62
430.736	96.62
430.958	98.62
431.18	98.62
431.402	90.62
431.624	91.62
431.846	89.62
432.068	91.62
432.29	92.62
432.512	97.62
432.734	92.62
432.956	88.62
433.178	103.62
433.4	97.62
433.622	99.62
433.844	85.62
434.066	86.62
434.287	84.62
434.509	99.62
434.731	97.62
434.953	92.62
435.175	90.62
435.397	100.62
435.618	93.62
435.84	96.62
436.062	86.62
436.284	90.62
436.505	98.62
436.727	93.62
436.949	95.62
437.17	96.62
437.392	88.62
437.614	90.62
437.835	87.62
438.057	99.62
438.278	92.62
438.5	103.62
438.721	106.62
438.943	105.62
439.165	108.62
439.386	115.62
439.608	100.62
439.829	103.62
440.05	97.62
440.272	117.62
440.493	114.62
440.715	93.62
440.936	99.62
441.158	102.62
441.379	91.62
441.6	103.62
441.822	103.62
442.043	119.62
442.264	119.62
442.486	128.62
442.707	107.62
442.928	85.62
443.149	96.62
443.371	106.62
443.592	90.62
443.813	88.62
444.034	88.62
444.255	100.62
444.476	106.62
444.698	109.62
444.919	87.62
445.14	211.62
445.361	143.62
445.582	97.62
445.803	90.62
446.024	123.62
446.245	101.62
446.466	107.62
446.687	108.62
446.908	104.62
447.129	83.62
447.35	96.62
447.571	90.62
447.792	81.62
448.013	99.62
448.234	96.62
448.455	98.62
448.675	91.62
448.896	95.62
449.117	116.62
449.338	108.62
449.559	147.62
449.779	133.62
450	100.62
450.221	119.62
450.442	133.62
450.662	120.62
450.883	113.62
451.104	104.62
451.324	103.62
451.545	120.62
451.766	106.62
451.986	140.62
452.207	193.62
452.428	486.62
452.648	1234.62
452.869	680.62
453.089	191.62
453.31	123.62
453.53	119.62
453.751	140.62
453.971	165.62
454.192	149.62
454.412	101.62
454.633	111.62
454.853	101.62
455.073	103.62
455.294	104.62
455.514	87.62
455.734	89.62
455.955	106.62
456.175	87.62
456.395	91.62
456.616	105.62
456.836	106.62
457.056	104.62
457.276	103.62
457.497	108.62
457.717	123.62
457.937	100.62
458.157	86.62
458.377	88.62
458.598	71.62
458.818	105.62
459.038	89.62
459.258	103.62
459.478	86.62
459.698	85.62
459.918	90.62
460.138	85.62
460.358	81.62
460.578	97.62
460.798	100.62
461.018	100.62
461.238	83.62
461.458	97.62
461.678	94.62
461.898	105.62
462.118	90.62
462.338	96.62
462.558	91.62
462.777	89.62
462.997	115.62
463.217	121.62
463.437	128.62
463.657	160.62
463.876	157.62
464.096	129.62
464.316	109.62
464.536	91.62
464.755	96.62
464.975	92.62
465.195	104.62
465.414	93.62
465.634	78.62
465.854	89.62
466.073	88.62
466.293	93.62
466.512	109.62
466.732	114.62
466.951	117.62
467.171	129.62
467.391	142.62
467.61	106.62
467.829	97.62
468.049	99.62
468.268	98.62
468.488	99.62
468.707	98.62
468.927	97.62
469.146	81.62
469.365	101.62
469.585	81.62
469.804	90.62
470.023	96.62
470.243	98.62
470.462	112.62
470.681	105.62
470.901	124.62
471.12	175.62
471.339	217.62
471.558	148.62
471.777	108.62
471.997	106.62
472.216	98.62
472.435	90.62
472.654	99.62
472.873	88.62
473.092	87.62
473.311	90.62
473.53	94.62
473.749	87.62
473.968	116.62
474.187	87.62
474.406	81.62
474.625	95.62
474.844	88.62
475.063	84.62
475.282	104.62
475.501	108.62
475.72	99.62
475.939	88.62
476.158	100.62
476.377	117.62
476.596	108.62
476.814	92.62
477.033	97.62
477.252	92.62
477.471	99.62
477.69	113.62
477.908	117.62
478.127	104.62
478.346	104.62
478.564	87.62
478.783	88.62
479.002	84.62
479.22	82.62
479.439	91.62
479.658	81.62
479.876	101.62
480.095	105.62
480.313	80.62
480.532	81.62
480.751	100.62
480.969	89.62
481.188	103.62
481.406	104.62
481.624	107.62
481.843	121.62
482.061	129.62
482.28	94.62
482.498	85.62
482.717	92.62
482.935	76.62
483.153	95.62
483.372	99.62
483.59	108.62
483.808	98.62
484.027	109.62
484.245	124.62
484.463	159.62
484.681	225.62
484.9	142.62
485.118	127.62
485.336	92.62
485.554	119.62
485.772	121.62
485.99	176.62
486.209	241.62
486.427	170.62
486.645	108.62
486.863	102.62
487.081	102.62
487.299	106.62
487.517	112.62
487.735	104.62
487.953	106.62
488.171	92.62
488.389	96.62
488.607	106.62
488.825	85.62
489.043	96.62
489.261	111.62
489.479	92.62
489.696	97.62
489.914	95.62
490.132	113.62
490.35	94.62
490.568	91.62
490.786	100.62
491.003	98.62
491.221	113.62
491.439	113.62
491.657	99.62
491.874	115.62
492.092	96.62
492.31	100.62
492.527	107.62
492.745	106.62
492.963	100.62
493.18	91.62
493.398	83.62
493.615	86.62
493.833	102.62
494.05	93.62
494.268	93.62
494.485	106.62
494.703	106.62
494.92	100.62
495.138	101.62
495.355	97.62
495.573	106.62
495.79	103.62
496.008	100.62
496.225	108.62
496.442	111.62
496.66	130.62
496.877	162.62
497.094	163.62
497.312	112.62
497.529	97.62
497.746	93.62
497.963	96.62
498.181	101.62
498.398	90.62
498.615	92.62
498.832	78.62
499.049	101.62
499.267	127.62
499.484	149.62
499.701	107.62
499.918	101.62
500.135	101.62
500.352	97.62
500.569	101.62
500.786	97.62
501.003	101.62
501.22	85.62
501.437	105.62
501.654	99.62
501.871	100.62
502.088	92.62
502.305	98.62
502.522	117.62
502.739	120.62
502.956	114.62
503.172	99.62
503.389	113.62
503.606	96.62
503.823	93.62
504.04	89.62
504.256	97.62
504.473	101.62
504.69	108.62
504.907	113.62
505.123	111.62
505.34	112.62
505.557	104.62
505.773	98.62
505.99	101.62
506.207	105.62
506.423	115.62
506.64	105.62
506.856	103.62
507.073	103.62
507.289	96.62
507.506	97.62
507.722	99.62
507.939	81.62
508.155	90.62
508.372	91.62
508.588	92.62
508.805	104.62
509.021	104.62
