Data from SnStandardFlinnAPT0064_QswitchEnergy10_LIBS07252019.E.O._I.C._HRD10591_15-26-32-973.txt Node
Date: Thu Jul 25 15:26:32 EDT 2019
User: cochatt
Spectrometer: HR+D1059
Trigger mode: 1
Integration Time (sec): 1.000000E-1
Scans to average: 1
Electric dark correction enabled: true
Nonlinearity correction enabled: false
Boxcar width: 0
XAxis mode: Wavelengths
Number of Pixels in Spectrum: 2048
>>>>>Begin Spectral Data<<<<<
223.165	-7.62
223.4	-7.62
223.635	-7.62
223.869	-26.62
224.104	-22.62
224.338	-25.62
224.573	-8.62
224.808	-6.62
225.042	-12.62
225.277	4.38
225.511	4.38
225.746	-2.62
225.98	10.38
226.215	10.38
226.449	16.38
226.683	18.38
226.918	18.38
227.152	30.38
227.387	30.38
227.621	23.38
227.856	47.38
228.09	38.38
228.324	52.38
228.559	42.38
228.793	57.38
229.027	61.38
229.262	75.38
229.496	76.38
229.73	64.38
229.964	75.38
230.199	64.38
230.433	81.38
230.667	87.38
230.901	82.38
231.136	68.38
231.37	90.38
231.604	103.38
231.838	94.38
232.072	95.38
232.306	114.38
232.541	90.38
232.775	75.38
233.009	86.38
233.243	86.38
233.477	85.38
233.711	90.38
233.945	111.38
234.179	110.38
234.413	90.38
234.647	79.38
234.881	83.38
235.115	88.38
235.349	103.38
235.583	90.38
235.817	122.38
236.051	132.38
236.285	91.38
236.519	80.38
236.753	80.38
236.987	88.38
237.221	84.38
237.455	83.38
237.689	78.38
237.922	82.38
238.156	88.38
238.39	93.38
238.624	85.38
238.858	77.38
239.091	85.38
239.325	71.38
239.559	67.38
239.793	79.38
240.027	75.38
240.26	86.38
240.494	75.38
240.728	80.38
240.961	86.38
241.195	92.38
241.429	93.38
241.662	88.38
241.896	89.38
242.13	91.38
242.363	139.38
242.597	159.38
242.83	133.38
243.064	125.38
243.298	171.38
243.531	142.38
243.765	71.38
243.998	77.38
244.232	85.38
244.465	83.38
244.699	84.38
244.932	82.38
245.166	90.38
245.399	102.38
245.633	84.38
245.866	80.38
246.099	82.38
246.333	79.38
246.566	80.38
246.8	87.38
247.033	77.38
247.266	82.38
247.5	64.38
247.733	73.38
247.966	83.38
248.2	100.38
248.433	99.38
248.666	138.38
248.899	105.38
249.133	74.38
249.366	93.38
249.599	96.38
249.832	116.38
250.066	125.38
250.299	82.38
250.532	83.38
250.765	73.38
250.998	68.38
251.231	87.38
251.465	79.38
251.698	82.38
251.931	91.38
252.164	94.38
252.397	83.38
252.63	88.38
252.863	96.38
253.096	83.38
253.329	99.38
253.562	100.38
253.795	86.38
254.028	82.38
254.261	82.38
254.494	84.38
254.727	114.38
254.96	153.38
255.193	116.38
255.426	99.38
255.659	82.38
255.892	83.38
256.124	91.38
256.357	81.38
256.59	73.38
256.823	95.38
257.056	111.38
257.289	147.38
257.521	184.38
257.754	120.38
257.987	82.38
258.22	88.38
258.452	75.38
258.685	88.38
258.918	90.38
259.151	101.38
259.383	97.38
259.616	139.38
259.849	141.38
260.081	103.38
260.314	91.38
260.547	84.38
260.779	77.38
261.012	85.38
261.244	86.38
261.477	101.38
261.71	92.38
261.942	89.38
262.175	82.38
262.407	80.38
262.64	89.38
262.872	84.38
263.105	85.38
263.337	90.38
263.57	85.38
263.802	95.38
264.035	85.38
264.267	66.38
264.499	83.38
264.732	83.38
264.964	73.38
265.197	92.38
265.429	71.38
265.661	89.38
265.894	91.38
266.126	137.38
266.358	145.38
266.591	146.38
266.823	88.38
267.055	81.38
267.287	100.38
267.52	88.38
267.752	81.38
267.984	83.38
268.216	90.38
268.448	80.38
268.681	96.38
268.913	95.38
269.145	89.38
269.377	102.38
269.609	87.38
269.841	95.38
270.073	109.38
270.306	119.38
270.538	174.38
270.77	305.38
271.002	374.38
271.234	202.38
271.466	117.38
271.698	98.38
271.93	77.38
272.162	79.38
272.394	92.38
272.626	85.38
272.858	94.38
273.09	101.38
273.322	86.38
273.553	88.38
273.785	84.38
274.017	93.38
274.249	88.38
274.481	87.38
274.713	82.38
274.945	76.38
275.176	64.38
275.408	86.38
275.64	87.38
275.872	93.38
276.104	83.38
276.335	89.38
276.567	90.38
276.799	81.38
277.031	95.38
277.262	89.38
277.494	107.38
277.726	119.38
277.957	176.38
278.189	257.38
278.421	241.38
278.652	182.38
278.884	140.38
279.115	128.38
279.347	102.38
279.579	105.38
279.81	88.38
280.042	99.38
280.273	90.38
280.505	93.38
280.736	101.38
280.968	102.38
281.199	171.38
281.431	212.38
281.662	246.38
281.894	146.38
282.125	113.38
282.356	101.38
282.588	106.38
282.819	107.38
283.051	115.38
283.282	145.38
283.513	193.38
283.745	300.38
283.976	538.38
284.207	777.38
284.439	593.38
284.67	268.38
284.901	266.38
285.132	345.38
285.364	362.38
285.595	212.38
285.826	159.38
286.057	217.38
286.288	400.38
286.52	605.38
286.751	483.38
286.982	190.38
287.213	115.38
287.444	115.38
287.675	112.38
287.906	100.38
288.138	98.38
288.369	105.38
288.6	88.38
288.831	98.38
289.062	82.38
289.293	94.38
289.524	107.38
289.755	89.38
289.986	98.38
290.217	89.38
290.448	102.38
290.679	104.38
290.91	109.38
291.141	154.38
291.371	228.38
291.602	279.38
291.833	177.38
292.064	104.38
292.295	98.38
292.526	96.38
292.757	82.38
292.987	90.38
293.218	98.38
293.449	83.38
293.68	97.38
293.91	84.38
294.141	80.38
294.372	89.38
294.603	102.38
294.833	100.38
295.064	88.38
295.295	90.38
295.525	99.38
295.756	87.38
295.987	91.38
296.217	102.38
296.448	102.38
296.679	98.38
296.909	97.38
297.14	95.38
297.37	93.38
297.601	104.38
297.831	95.38
298.062	90.38
298.292	102.38
298.523	94.38
298.753	104.38
298.984	100.38
299.214	112.38
299.445	102.38
299.675	98.38
299.905	118.38
300.136	128.38
300.366	156.38
300.597	248.38
300.827	437.38
301.057	666.38
301.288	595.38
301.518	254.38
301.748	153.38
301.979	129.38
302.209	140.38
302.439	147.38
302.669	158.38
302.9	253.38
303.13	480.38
303.36	826.38
303.59	1187.38
303.82	803.38
304.051	277.38
304.281	160.38
304.511	119.38
304.741	103.38
304.971	118.38
305.201	122.38
305.431	84.38
305.661	100.38
305.891	96.38
306.121	106.38
306.352	87.38
306.582	103.38
306.812	104.38
307.042	122.38
307.272	109.38
307.502	97.38
307.731	101.38
307.961	102.38
308.191	87.38
308.421	99.38
308.651	99.38
308.881	98.38
309.111	106.38
309.341	102.38
309.571	99.38
309.8	100.38
310.03	109.38
310.26	96.38
310.49	93.38
310.72	97.38
310.949	97.38
311.179	121.38
311.409	95.38
311.639	98.38
311.868	98.38
312.098	99.38
312.328	77.38
312.557	119.38
312.787	99.38
313.017	96.38
313.246	123.38
313.476	121.38
313.706	126.38
313.935	138.38
314.165	177.38
314.394	217.38
314.624	159.38
314.853	120.38
315.083	125.38
315.312	130.38
315.542	119.38
315.771	116.38
316.001	123.38
316.23	134.38
316.46	155.38
316.689	173.38
316.919	257.38
317.148	488.38
317.377	874.38
317.607	1416.38
317.836	1359.38
318.065	513.38
318.295	210.38
318.524	161.38
318.753	129.38
318.983	127.38
319.212	113.38
319.441	123.38
319.67	119.38
319.9	120.38
320.129	116.38
320.358	122.38
320.587	129.38
320.816	109.38
321.046	129.38
321.275	129.38
321.504	122.38
321.733	129.38
321.962	163.38
322.191	150.38
322.42	137.38
322.649	123.38
322.878	118.38
323.108	101.38
323.337	119.38
323.566	123.38
323.795	126.38
324.024	124.38
324.253	145.38
324.482	175.38
324.71	208.38
324.939	257.38
325.168	221.38
325.397	190.38
325.626	222.38
325.855	468.38
326.084	911.38
326.313	1538.38
326.542	1521.38
326.77	607.38
326.999	232.38
327.228	205.38
327.457	214.38
327.686	228.38
327.914	158.38
328.143	122.38
328.372	128.38
328.6	128.38
328.829	119.38
329.058	119.38
329.287	123.38
329.515	114.38
329.744	118.38
329.972	108.38
330.201	104.38
330.43	115.38
330.658	114.38
330.887	103.38
331.115	125.38
331.344	111.38
331.572	121.38
331.801	121.38
332.03	111.38
332.258	127.38
332.486	157.38
332.715	299.38
332.943	471.38
333.172	731.38
333.4	651.38
333.629	237.38
333.857	125.38
334.085	128.38
334.314	115.38
334.542	108.38
334.771	120.38
334.999	114.38
335.227	137.38
335.455	130.38
335.684	117.38
335.912	106.38
336.14	120.38
336.369	108.38
336.597	102.38
336.825	104.38
337.053	111.38
337.281	105.38
337.51	102.38
337.738	107.38
337.966	112.38
338.194	110.38
338.422	112.38
338.65	118.38
338.878	113.38
339.106	126.38
339.334	104.38
339.562	108.38
339.79	119.38
340.018	115.38
340.246	112.38
340.474	102.38
340.702	109.38
340.93	121.38
341.158	112.38
341.386	105.38
341.614	109.38
341.842	110.38
342.07	121.38
342.298	109.38
342.526	115.38
342.754	125.38
342.981	112.38
343.209	122.38
343.437	98.38
343.665	109.38
343.893	111.38
344.12	113.38
344.348	97.38
344.576	109.38
344.804	114.38
345.031	97.38
345.259	111.38
345.487	105.38
345.714	97.38
345.942	113.38
346.17	97.38
346.397	99.38
346.625	84.38
346.853	94.38
347.08	99.38
347.308	99.38
347.535	107.38
347.763	110.38
347.99	119.38
348.218	100.38
348.445	109.38
348.673	103.38
348.9	114.38
349.128	103.38
349.355	115.38
349.583	117.38
349.81	102.38
350.037	115.38
350.265	108.38
350.492	110.38
350.72	113.38
350.947	105.38
351.174	99.38
351.402	106.38
351.629	122.38
351.856	109.38
352.083	104.38
352.311	113.38
352.538	102.38
352.765	118.38
352.992	103.38
353.22	97.38
353.447	106.38
353.674	109.38
353.901	102.38
354.128	92.38
354.355	110.38
354.583	100.38
354.81	95.38
355.037	103.38
355.264	97.38
355.491	103.38
355.718	106.38
355.945	100.38
356.172	116.38
356.399	103.38
356.626	117.38
356.853	113.38
357.08	113.38
357.307	107.38
357.534	84.38
357.761	102.38
357.988	105.38
358.215	101.38
358.441	102.38
358.668	102.38
358.895	120.38
359.122	108.38
359.349	111.38
359.576	112.38
359.802	126.38
360.029	111.38
360.256	108.38
360.483	114.38
360.709	98.38
360.936	104.38
361.163	117.38
361.39	97.38
361.616	104.38
361.843	100.38
362.07	95.38
362.296	110.38
362.523	109.38
362.749	94.38
362.976	117.38
363.203	109.38
363.429	110.38
363.656	112.38
363.882	105.38
364.109	119.38
364.335	116.38
364.562	105.38
364.788	104.38
365.015	102.38
365.241	120.38
365.468	184.38
365.694	228.38
365.92	199.38
366.147	102.38
366.373	110.38
366.599	105.38
366.826	88.38
367.052	97.38
367.278	93.38
367.505	96.38
367.731	96.38
367.957	110.38
368.184	102.38
368.41	115.38
368.636	109.38
368.862	112.38
369.089	102.38
369.315	93.38
369.541	114.38
369.767	107.38
369.993	108.38
370.219	114.38
370.445	106.38
370.672	106.38
370.898	101.38
371.124	95.38
371.35	86.38
371.576	100.38
371.802	115.38
372.028	97.38
372.254	119.38
372.48	117.38
372.706	119.38
372.932	110.38
373.158	106.38
373.384	125.38
373.61	116.38
373.835	99.38
374.061	117.38
374.287	95.38
374.513	103.38
374.739	99.38
374.965	104.38
375.191	116.38
375.416	100.38
375.642	119.38
375.868	103.38
376.094	96.38
376.319	101.38
376.545	95.38
376.771	83.38
376.997	98.38
377.222	104.38
377.448	103.38
377.674	105.38
377.899	99.38
378.125	111.38
378.35	109.38
378.576	114.38
378.802	111.38
379.027	137.38
379.253	146.38
379.478	181.38
379.704	303.38
379.929	715.38
380.155	1513.38
380.38	1558.38
380.606	511.38
380.831	182.38
381.057	123.38
381.282	117.38
381.507	112.38
381.733	99.38
381.958	121.38
382.184	101.38
382.409	102.38
382.634	100.38
382.86	98.38
383.085	101.38
383.31	93.38
383.535	105.38
383.761	98.38
383.986	86.38
384.211	99.38
384.436	101.38
384.662	102.38
384.887	101.38
385.112	114.38
385.337	99.38
385.562	103.38
385.787	93.38
386.013	100.38
386.238	92.38
386.463	101.38
386.688	97.38
386.913	94.38
387.138	106.38
387.363	106.38
387.588	111.38
387.813	92.38
388.038	91.38
388.263	109.38
388.488	94.38
388.713	96.38
388.938	115.38
389.163	107.38
389.387	87.38
389.612	108.38
389.837	115.38
390.062	106.38
390.287	105.38
390.512	105.38
390.736	95.38
390.961	96.38
391.186	98.38
391.411	94.38
391.636	91.38
391.86	99.38
392.085	93.38
392.31	95.38
392.534	105.38
392.759	95.38
392.984	104.38
393.208	121.38
393.433	119.38
393.658	140.38
393.882	112.38
394.107	101.38
394.331	117.38
394.556	100.38
394.78	85.38
395.005	98.38
395.229	93.38
395.454	91.38
395.678	99.38
395.903	103.38
396.127	109.38
396.352	104.38
396.576	95.38
396.801	122.38
397.025	121.38
397.249	111.38
397.474	104.38
397.698	105.38
397.922	99.38
398.147	86.38
398.371	99.38
398.595	97.38
398.82	110.38
399.044	107.38
399.268	123.38
399.492	87.38
399.717	105.38
399.941	91.38
400.165	79.38
400.389	95.38
400.613	87.38
400.837	85.38
401.062	98.38
401.286	90.38
401.51	98.38
401.734	95.38
401.958	90.38
402.182	84.38
402.406	95.38
402.63	101.38
402.854	95.38
403.078	86.38
403.302	86.38
403.526	92.38
403.75	99.38
403.974	96.38
404.198	91.38
404.422	76.38
404.645	80.38
404.869	94.38
405.093	94.38
405.317	95.38
405.541	110.38
405.765	122.38
405.988	129.38
406.212	109.38
406.436	80.38
406.66	87.38
406.883	92.38
407.107	93.38
407.331	98.38
407.555	89.38
407.778	99.38
408.002	100.38
408.226	95.38
408.449	103.38
408.673	111.38
408.896	98.38
409.12	99.38
409.344	112.38
409.567	98.38
409.791	91.38
410.014	89.38
410.238	94.38
410.461	99.38
410.685	101.38
410.908	102.38
411.132	114.38
411.355	111.38
411.578	99.38
411.802	103.38
412.025	103.38
412.249	86.38
412.472	85.38
412.695	96.38
412.919	102.38
413.142	103.38
413.365	91.38
413.589	104.38
413.812	104.38
414.035	95.38
414.258	98.38
414.482	95.38
414.705	99.38
414.928	103.38
415.151	97.38
415.374	105.38
415.597	92.38
415.821	94.38
416.044	94.38
416.267	93.38
416.49	98.38
416.713	81.38
416.936	89.38
417.159	93.38
417.382	86.38
417.605	90.38
417.828	84.38
418.051	89.38
418.274	92.38
418.497	108.38
418.72	101.38
418.943	98.38
419.166	102.38
419.389	104.38
419.611	101.38
419.834	99.38
420.057	88.38
420.28	92.38
420.503	95.38
420.726	103.38
420.948	87.38
421.171	106.38
421.394	99.38
421.617	110.38
421.839	86.38
422.062	85.38
422.285	100.38
422.507	91.38
422.73	113.38
422.953	137.38
423.175	101.38
423.398	94.38
423.621	90.38
423.843	97.38
424.066	100.38
424.288	102.38
424.511	110.38
424.733	96.38
424.956	95.38
425.178	98.38
425.401	85.38
425.623	98.38
425.846	81.38
426.068	88.38
426.291	91.38
426.513	95.38
426.735	104.38
426.958	86.38
427.18	84.38
427.402	97.38
427.625	104.38
427.847	102.38
428.069	97.38
428.292	101.38
428.514	88.38
428.736	111.38
428.958	93.38
429.181	94.38
429.403	83.38
429.625	89.38
429.847	99.38
430.069	93.38
430.292	100.38
430.514	103.38
430.736	119.38
430.958	103.38
431.18	89.38
431.402	101.38
431.624	93.38
431.846	91.38
432.068	87.38
432.29	77.38
432.512	92.38
432.734	81.38
432.956	102.38
433.178	104.38
433.4	99.38
433.622	94.38
433.844	98.38
434.066	98.38
434.287	102.38
434.509	81.38
434.731	96.38
434.953	82.38
435.175	88.38
435.397	73.38
435.618	92.38
435.84	87.38
436.062	72.38
436.284	101.38
436.505	88.38
436.727	88.38
436.949	99.38
437.17	105.38
437.392	112.38
437.614	87.38
437.835	96.38
438.057	93.38
438.278	88.38
438.5	101.38
438.721	95.38
438.943	118.38
439.165	109.38
439.386	101.38
439.608	105.38
439.829	102.38
440.05	113.38
440.272	125.38
440.493	103.38
440.715	96.38
440.936	95.38
441.158	99.38
441.379	99.38
441.6	93.38
441.822	93.38
442.043	99.38
442.264	139.38
442.486	123.38
442.707	101.38
442.928	88.38
443.149	107.38
443.371	92.38
443.592	94.38
443.813	95.38
444.034	92.38
444.255	97.38
444.476	100.38
444.698	103.38
444.919	87.38
445.14	211.38
445.361	137.38
445.582	106.38
445.803	99.38
446.024	101.38
446.245	95.38
446.466	102.38
446.687	109.38
446.908	116.38
447.129	109.38
447.35	90.38
447.571	99.38
447.792	74.38
448.013	92.38
448.234	96.38
448.455	89.38
448.675	88.38
448.896	102.38
449.117	103.38
449.338	123.38
449.559	139.38
449.779	113.38
450	107.38
450.221	113.38
450.442	117.38
450.662	114.38
450.883	103.38
451.104	101.38
451.324	110.38
451.545	114.38
451.766	119.38
451.986	148.38
452.207	204.38
452.428	510.38
452.648	1266.38
452.869	706.38
453.089	198.38
453.31	106.38
453.53	120.38
453.751	153.38
453.971	157.38
454.192	154.38
454.412	106.38
454.633	82.38
454.853	89.38
455.073	85.38
455.294	75.38
455.514	80.38
455.734	87.38
455.955	105.38
456.175	91.38
456.395	74.38
456.616	98.38
456.836	105.38
457.056	90.38
457.276	94.38
457.497	112.38
457.717	109.38
457.937	95.38
458.157	83.38
458.377	93.38
458.598	92.38
458.818	91.38
459.038	100.38
459.258	83.38
459.478	99.38
459.698	100.38
459.918	85.38
460.138	81.38
460.358	95.38
460.578	91.38
460.798	102.38
461.018	95.38
461.238	88.38
461.458	97.38
461.678	96.38
461.898	90.38
462.118	101.38
462.338	91.38
462.558	97.38
462.777	110.38
462.997	97.38
463.217	92.38
463.437	129.38
463.657	167.38
463.876	184.38
464.096	121.38
464.316	100.38
464.536	96.38
464.755	105.38
464.975	79.38
465.195	87.38
465.414	90.38
465.634	95.38
465.854	92.38
466.073	87.38
466.293	94.38
466.512	93.38
466.732	87.38
466.951	113.38
467.171	143.38
467.391	142.38
467.61	109.38
467.829	99.38
468.049	98.38
468.268	86.38
468.488	86.38
468.707	99.38
468.927	95.38
469.146	97.38
469.365	102.38
469.585	87.38
469.804	82.38
470.023	101.38
470.243	95.38
470.462	96.38
470.681	106.38
470.901	128.38
471.12	202.38
471.339	203.38
471.558	127.38
471.777	122.38
471.997	97.38
472.216	98.38
472.435	89.38
472.654	92.38
472.873	101.38
473.092	87.38
473.311	91.38
473.53	81.38
473.749	87.38
473.968	90.38
474.187	87.38
474.406	99.38
474.625	104.38
474.844	92.38
475.063	102.38
475.282	99.38
475.501	97.38
475.72	104.38
475.939	95.38
476.158	99.38
476.377	117.38
476.596	113.38
476.814	97.38
477.033	97.38
477.252	85.38
477.471	84.38
477.69	81.38
477.908	100.38
478.127	102.38
478.346	104.38
478.564	99.38
478.783	85.38
479.002	93.38
479.22	104.38
479.439	96.38
479.658	96.38
479.876	96.38
480.095	83.38
480.313	93.38
480.532	103.38
480.751	95.38
480.969	102.38
481.188	92.38
481.406	99.38
481.624	100.38
481.843	104.38
482.061	97.38
482.28	96.38
482.498	101.38
482.717	96.38
482.935	93.38
483.153	102.38
483.372	107.38
483.59	88.38
483.808	90.38
484.027	103.38
484.245	116.38
484.463	143.38
484.681	227.38
484.9	139.38
485.118	98.38
485.336	100.38
485.554	106.38
485.772	114.38
485.99	191.38
486.209	251.38
486.427	159.38
486.645	126.38
486.863	111.38
487.081	116.38
487.299	93.38
487.517	104.38
487.735	115.38
487.953	98.38
488.171	107.38
488.389	93.38
488.607	104.38
488.825	98.38
489.043	101.38
489.261	93.38
489.479	94.38
489.696	107.38
489.914	98.38
490.132	100.38
490.35	106.38
490.568	104.38
490.786	101.38
491.003	92.38
491.221	120.38
491.439	115.38
491.657	118.38
491.874	108.38
492.092	94.38
492.31	94.38
492.527	120.38
492.745	110.38
492.963	105.38
493.18	103.38
493.398	98.38
493.615	94.38
493.833	103.38
494.05	113.38
494.268	101.38
494.485	90.38
494.703	97.38
494.92	102.38
495.138	106.38
495.355	110.38
495.573	104.38
495.79	104.38
496.008	110.38
496.225	101.38
496.442	112.38
496.66	115.38
496.877	158.38
497.094	155.38
497.312	108.38
497.529	110.38
497.746	86.38
497.963	86.38
498.181	83.38
498.398	105.38
498.615	97.38
498.832	110.38
499.049	111.38
499.267	133.38
499.484	161.38
499.701	133.38
499.918	109.38
500.135	103.38
500.352	110.38
500.569	97.38
500.786	101.38
501.003	94.38
501.22	103.38
501.437	89.38
501.654	93.38
501.871	94.38
502.088	94.38
502.305	96.38
502.522	80.38
502.739	98.38
502.956	86.38
503.172	106.38
503.389	91.38
503.606	93.38
503.823	91.38
504.04	89.38
504.256	86.38
504.473	86.38
504.69	104.38
504.907	101.38
505.123	114.38
505.34	93.38
505.557	92.38
505.773	90.38
505.99	110.38
506.207	82.38
506.423	100.38
506.64	109.38
506.856	85.38
507.073	90.38
507.289	111.38
507.506	97.38
507.722	99.38
507.939	109.38
508.155	101.38
508.372	102.38
508.588	105.38
508.805	109.38
509.021	116.38
509.238	111.38
509.454	125.38
