Data from SnStandardFlinnAPT0064_QswitchEnergy10_LIBS07252019.E.O._I.C._HRD10591_15-26-40-973.txt Node
Date: Thu Jul 25 15:26:40 EDT 2019
User: cochatt
Spectrometer: HR+D1059
Trigger mode: 1
Integration Time (sec): 1.000000E-1
Scans to average: 1
Electric dark correction enabled: true
Nonlinearity correction enabled: false
Boxcar width: 0
XAxis mode: Wavelengths
Number of Pixels in Spectrum: 2048
>>>>>Begin Spectral Data<<<<<
223.165	-3
223.4	-3
223.635	-3
223.869	-7
224.104	-12
224.338	-32
224.573	-24
224.808	-8
225.042	1
225.277	-6
225.511	-16
225.746	-7
225.98	10
226.215	10
226.449	12
226.683	27
226.918	26
227.152	29
227.387	26
227.621	36
227.856	48
228.09	35
228.324	57
228.559	73
228.793	67
229.027	78
229.262	84
229.496	64
229.73	62
229.964	77
230.199	73
230.433	86
230.667	95
230.901	86
231.136	85
231.37	90
231.604	84
231.838	96
232.072	110
232.306	123
232.541	107
232.775	101
233.009	99
233.243	85
233.477	79
233.711	105
233.945	114
234.179	104
234.413	76
234.647	83
234.881	98
235.115	84
235.349	114
235.583	103
235.817	132
236.051	138
236.285	95
236.519	87
236.753	94
236.987	90
237.221	83
237.455	106
237.689	86
237.922	94
238.156	100
238.39	98
238.624	99
238.858	94
239.091	87
239.325	94
239.559	93
239.793	74
240.027	78
240.26	77
240.494	79
240.728	86
240.961	101
241.195	111
241.429	92
241.662	88
241.896	94
242.13	103
242.363	140
242.597	178
242.83	149
243.064	138
243.298	176
243.531	150
243.765	115
243.998	89
244.232	90
244.465	80
244.699	89
244.932	92
245.166	95
245.399	92
245.633	83
245.866	88
246.099	95
246.333	84
246.566	91
246.8	85
247.033	95
247.266	82
247.5	87
247.733	98
247.966	103
248.2	114
248.433	105
248.666	157
248.899	129
249.133	100
249.366	106
249.599	95
249.832	124
250.066	141
250.299	99
250.532	95
250.765	98
250.998	95
251.231	81
251.465	98
251.698	75
251.931	76
252.164	88
252.397	90
252.63	93
252.863	105
253.096	85
253.329	92
253.562	104
253.795	92
254.028	81
254.261	88
254.494	93
254.727	124
254.96	150
255.193	142
255.426	111
255.659	88
255.892	106
256.124	94
256.357	93
256.59	87
256.823	100
257.056	111
257.289	152
257.521	175
257.754	151
257.987	97
258.22	100
258.452	74
258.685	85
258.918	97
259.151	99
259.383	110
259.616	133
259.849	148
260.081	108
260.314	97
260.547	88
260.779	85
261.012	76
261.244	82
261.477	96
261.71	101
261.942	100
262.175	96
262.407	95
262.64	85
262.872	101
263.105	84
263.337	78
263.57	88
263.802	88
264.035	93
264.267	96
264.499	76
264.732	84
264.964	91
265.197	87
265.429	91
265.661	94
265.894	111
266.126	142
266.358	158
266.591	152
266.823	98
267.055	101
267.287	93
267.52	85
267.752	96
267.984	91
268.216	97
268.448	94
268.681	90
268.913	93
269.145	108
269.377	96
269.609	92
269.841	101
270.073	110
270.306	142
270.538	198
270.77	312
271.002	402
271.234	186
271.466	118
271.698	92
271.93	99
272.162	86
272.394	96
272.626	90
272.858	93
273.09	100
273.322	100
273.553	80
273.785	90
274.017	82
274.249	78
274.481	84
274.713	91
274.945	88
275.176	86
275.408	90
275.64	87
275.872	102
276.104	96
276.335	117
276.567	95
276.799	100
277.031	95
277.262	98
277.494	113
277.726	130
277.957	196
278.189	249
278.421	234
278.652	189
278.884	221
279.115	141
279.347	122
279.579	98
279.81	103
280.042	109
280.273	120
280.505	114
280.736	111
280.968	144
281.199	184
281.431	264
281.662	275
281.894	176
282.125	125
282.356	127
282.588	122
282.819	129
283.051	121
283.282	156
283.513	187
283.745	309
283.976	537
284.207	807
284.439	604
284.67	280
284.901	274
285.132	375
285.364	408
285.595	220
285.826	176
286.057	227
286.288	409
286.52	630
286.751	516
286.982	203
287.213	124
287.444	117
287.675	104
287.906	108
288.138	118
288.369	92
288.6	92
288.831	93
289.062	96
289.293	95
289.524	104
289.755	110
289.986	102
290.217	95
290.448	95
290.679	102
290.91	122
291.141	160
291.371	250
291.602	303
291.833	210
292.064	123
292.295	114
292.526	101
292.757	95
292.987	97
293.218	103
293.449	88
293.68	108
293.91	95
294.141	92
294.372	117
294.603	97
294.833	97
295.064	100
295.295	97
295.525	106
295.756	93
295.987	101
296.217	96
296.448	98
296.679	110
296.909	110
297.14	99
297.37	89
297.601	116
297.831	98
298.062	96
298.292	113
298.523	116
298.753	109
298.984	110
299.214	119
299.445	116
299.675	106
299.905	126
300.136	126
300.366	175
300.597	261
300.827	483
301.057	690
301.288	634
301.518	255
301.748	146
301.979	134
302.209	133
302.439	153
302.669	172
302.9	264
303.13	523
303.36	898
303.59	1245
303.82	871
304.051	312
304.281	166
304.511	136
304.741	111
304.971	110
305.201	111
305.431	116
305.661	100
305.891	100
306.121	107
306.352	111
306.582	93
306.812	98
307.042	108
307.272	117
307.502	103
307.731	118
307.961	100
308.191	111
308.421	101
308.651	107
308.881	112
309.111	108
309.341	115
309.571	119
309.8	115
310.03	117
310.26	117
310.49	96
310.72	119
310.949	102
311.179	104
311.409	97
311.639	114
311.868	126
312.098	95
312.328	111
312.557	114
312.787	118
313.017	123
313.246	130
313.476	128
313.706	150
313.935	167
314.165	179
314.394	227
314.624	182
314.853	141
315.083	140
315.312	133
315.542	126
315.771	136
316.001	127
316.23	133
316.46	139
316.689	193
316.919	272
317.148	493
317.377	961
317.607	1520
317.836	1423
318.065	544
318.295	231
318.524	162
318.753	124
318.983	133
319.212	118
319.441	123
319.67	115
319.9	115
320.129	116
320.358	106
320.587	111
320.816	119
321.046	119
321.275	117
321.504	128
321.733	141
321.962	170
322.191	170
322.42	125
322.649	139
322.878	140
323.108	130
323.337	136
323.566	142
323.795	134
324.024	127
324.253	142
324.482	179
324.71	237
324.939	285
325.168	243
325.397	208
325.626	264
325.855	498
326.084	970
326.313	1605
326.542	1618
326.77	629
326.999	266
327.228	236
327.457	250
327.686	237
327.914	166
328.143	152
328.372	125
328.6	130
328.829	126
329.058	114
329.287	111
329.515	126
329.744	124
329.972	121
330.201	122
330.43	112
330.658	118
330.887	110
331.115	117
331.344	116
331.572	123
331.801	123
332.03	131
332.258	137
332.486	196
332.715	300
332.943	488
333.172	788
333.4	703
333.629	263
333.857	141
334.085	146
334.314	144
334.542	128
334.771	118
334.999	139
335.227	129
335.455	149
335.684	140
335.912	121
336.14	105
336.369	120
336.597	124
336.825	115
337.053	115
337.281	110
337.51	121
337.738	114
337.966	111
338.194	122
338.422	122
338.65	114
338.878	128
339.106	119
339.334	140
339.562	124
339.79	110
340.018	112
340.246	108
340.474	94
340.702	108
340.93	119
341.158	112
341.386	103
341.614	111
341.842	125
342.07	117
342.298	121
342.526	123
342.754	112
342.981	138
343.209	122
343.437	127
343.665	100
343.893	98
344.12	116
344.348	124
344.576	114
344.804	119
345.031	96
345.259	116
345.487	114
345.714	90
345.942	106
346.17	126
346.397	104
346.625	117
346.853	114
347.08	100
347.308	116
347.535	92
347.763	102
347.99	100
348.218	103
348.445	113
348.673	98
348.9	128
349.128	128
349.355	119
349.583	120
349.81	132
350.037	114
350.265	120
350.492	115
350.72	101
350.947	121
351.174	120
351.402	111
351.629	116
351.856	103
352.083	102
352.311	106
352.538	117
352.765	122
352.992	108
353.22	102
353.447	100
353.674	117
353.901	121
354.128	94
354.355	103
354.583	119
354.81	109
355.037	96
355.264	93
355.491	101
355.718	84
355.945	102
356.172	98
356.399	109
356.626	103
356.853	106
357.08	98
357.307	120
357.534	103
357.761	121
357.988	118
358.215	109
358.441	119
358.668	138
358.895	121
359.122	114
359.349	94
359.576	122
359.802	110
360.029	111
360.256	112
360.483	109
360.709	106
360.936	114
361.163	109
361.39	104
361.616	115
361.843	118
362.07	124
362.296	102
362.523	128
362.749	103
362.976	104
363.203	97
363.429	114
363.656	109
363.882	100
364.109	128
364.335	124
364.562	87
364.788	108
365.015	122
365.241	132
365.468	194
365.694	262
365.92	214
366.147	125
366.373	114
366.599	98
366.826	75
367.052	102
367.278	92
367.505	104
367.731	103
367.957	114
368.184	125
368.41	123
368.636	112
368.862	121
369.089	100
369.315	107
369.541	119
369.767	106
369.993	106
370.219	108
370.445	101
370.672	103
370.898	105
371.124	118
371.35	106
371.576	111
371.802	104
372.028	119
372.254	119
372.48	109
372.706	119
372.932	108
373.158	114
373.384	122
373.61	137
373.835	123
374.061	133
374.287	127
374.513	121
374.739	116
374.965	99
375.191	121
375.416	104
375.642	126
375.868	105
376.094	114
376.319	117
376.545	119
376.771	114
376.997	115
377.222	123
377.448	110
377.674	120
377.899	110
378.125	112
378.35	119
378.576	124
378.802	114
379.027	127
379.253	143
379.478	183
379.704	321
379.929	783
380.155	1632
380.38	1651
380.606	524
380.831	196
381.057	134
381.282	120
381.507	120
381.733	112
381.958	114
382.184	122
382.409	100
382.634	116
382.86	108
383.085	116
383.31	105
383.535	102
383.761	114
383.986	116
384.211	102
384.436	107
384.662	111
384.887	95
385.112	112
385.337	121
385.562	99
385.787	87
386.013	120
386.238	111
386.463	122
386.688	121
386.913	94
387.138	107
387.363	100
387.588	106
387.813	108
388.038	114
388.263	102
388.488	109
388.713	115
388.938	107
389.163	107
389.387	108
389.612	115
389.837	114
390.062	117
390.287	110
390.512	108
390.736	112
390.961	106
391.186	100
391.411	94
391.636	118
391.86	104
392.085	90
392.31	95
392.534	88
392.759	102
392.984	108
393.208	109
393.433	152
393.658	134
393.882	101
394.107	99
394.331	101
394.556	108
394.78	109
395.005	88
395.229	107
395.454	111
395.678	104
395.903	96
396.127	101
396.352	91
396.576	103
396.801	110
397.025	125
397.249	104
397.474	114
397.698	106
397.922	90
398.147	97
398.371	102
398.595	92
398.82	109
399.044	92
399.268	95
399.492	91
399.717	110
399.941	100
400.165	91
400.389	97
400.613	100
400.837	99
401.062	98
401.286	102
401.51	93
401.734	90
401.958	91
402.182	98
402.406	99
402.63	92
402.854	94
403.078	100
403.302	98
403.526	122
403.75	92
403.974	105
404.198	103
404.422	104
404.645	99
404.869	94
405.093	102
405.317	93
405.541	112
405.765	131
405.988	149
406.212	116
406.436	105
406.66	112
406.883	93
407.107	83
407.331	94
407.555	101
407.778	100
408.002	106
408.226	105
408.449	116
408.673	114
408.896	99
409.12	109
409.344	106
409.567	95
409.791	101
410.014	95
410.238	108
410.461	105
410.685	90
410.908	95
411.132	95
411.355	107
411.578	101
411.802	94
412.025	97
412.249	102
412.472	112
412.695	109
412.919	102
413.142	92
413.365	107
413.589	109
413.812	87
414.035	101
414.258	100
414.482	96
414.705	90
414.928	117
415.151	108
415.374	102
415.597	104
415.821	87
416.044	96
416.267	105
416.49	94
416.713	87
416.936	102
417.159	91
417.382	96
417.605	92
417.828	88
418.051	94
418.274	94
418.497	121
418.72	106
418.943	103
419.166	104
419.389	102
419.611	115
419.834	91
420.057	105
420.28	105
420.503	109
420.726	106
420.948	101
421.171	105
421.394	102
421.617	103
421.839	101
422.062	92
422.285	81
422.507	109
422.73	132
422.953	130
423.175	112
423.398	86
423.621	91
423.843	88
424.066	94
424.288	95
424.511	116
424.733	107
424.956	98
425.178	119
425.401	104
425.623	109
425.846	96
426.068	98
426.291	86
426.513	88
426.735	108
426.958	107
427.18	102
427.402	102
427.625	84
427.847	105
428.069	112
428.292	107
428.514	109
428.736	109
428.958	116
429.181	103
429.403	99
429.625	101
429.847	108
430.069	116
430.292	103
430.514	112
430.736	95
430.958	111
431.18	99
431.402	93
431.624	98
431.846	89
432.068	88
432.29	90
432.512	86
432.734	98
432.956	95
433.178	120
433.4	114
433.622	94
433.844	104
434.066	115
434.287	84
434.509	91
434.731	95
434.953	92
435.175	99
435.397	105
435.618	83
435.84	94
436.062	103
436.284	97
436.505	100
436.727	103
436.949	97
437.17	94
437.392	100
437.614	99
437.835	86
438.057	92
438.278	91
438.5	103
438.721	102
438.943	121
439.165	109
439.386	121
439.608	116
439.829	119
440.05	117
440.272	131
440.493	114
440.715	108
440.936	103
441.158	100
441.379	99
441.6	93
441.822	104
442.043	109
442.264	130
442.486	108
442.707	120
442.928	105
443.149	109
443.371	95
443.592	105
443.813	96
444.034	105
444.255	102
444.476	106
444.698	101
444.919	107
445.14	217
445.361	172
445.582	84
445.803	89
446.024	101
446.245	119
446.466	117
446.687	115
446.908	105
447.129	114
447.35	106
447.571	99
447.792	90
448.013	98
448.234	90
448.455	102
448.675	95
448.896	112
449.117	118
449.338	138
449.559	147
449.779	119
450	113
450.221	110
450.442	130
450.662	122
450.883	112
451.104	118
451.324	111
451.545	120
451.766	127
451.986	151
452.207	224
452.428	541
452.648	1397
452.869	779
453.089	198
453.31	126
453.53	131
453.751	149
453.971	175
454.192	161
454.412	110
454.633	105
454.853	118
455.073	106
455.294	101
455.514	106
455.734	99
455.955	89
456.175	88
456.395	78
456.616	96
456.836	95
457.056	108
457.276	95
457.497	111
457.717	117
457.937	103
458.157	97
458.377	101
458.598	94
458.818	98
459.038	91
459.258	85
459.478	95
459.698	94
459.918	99
460.138	86
460.358	91
460.578	93
460.798	96
461.018	95
461.238	112
461.458	100
461.678	103
461.898	88
462.118	110
462.338	97
462.558	119
462.777	92
462.997	101
463.217	112
463.437	137
463.657	202
463.876	191
464.096	125
464.316	101
464.536	98
464.755	115
464.975	94
465.195	89
465.414	101
465.634	109
465.854	98
466.073	90
466.293	92
466.512	110
466.732	108
466.951	122
467.171	147
467.391	150
467.61	98
467.829	86
468.049	99
468.268	90
468.488	96
468.707	100
468.927	93
469.146	90
469.365	116
469.585	95
469.804	95
470.023	104
470.243	101
470.462	103
470.681	127
470.901	136
471.12	204
471.339	218
471.558	134
471.777	115
471.997	114
472.216	107
472.435	93
472.654	115
472.873	96
473.092	110
473.311	92
473.53	96
473.749	100
473.968	106
474.187	109
474.406	97
474.625	99
474.844	109
475.063	95
475.282	98
475.501	103
475.72	95
475.939	96
476.158	107
476.377	114
476.596	109
476.814	103
477.033	94
477.252	99
477.471	104
477.69	89
477.908	100
478.127	93
478.346	95
478.564	98
478.783	110
479.002	101
479.22	104
479.439	109
479.658	91
479.876	94
480.095	93
480.313	103
480.532	92
480.751	104
480.969	94
481.188	106
481.406	111
481.624	92
481.843	121
482.061	133
482.28	112
482.498	101
482.717	109
482.935	106
483.153	110
483.372	107
483.59	104
483.808	110
484.027	117
484.245	123
484.463	170
484.681	231
484.9	154
485.118	109
485.336	118
485.554	107
485.772	134
485.99	209
486.209	267
486.427	190
486.645	122
486.863	122
487.081	109
487.299	102
487.517	110
487.735	101
487.953	108
488.171	105
488.389	117
488.607	92
488.825	91
489.043	120
489.261	98
489.479	90
489.696	110
489.914	108
490.132	95
490.35	111
490.568	99
490.786	108
491.003	103
491.221	104
491.439	105
491.657	108
491.874	110
492.092	118
492.31	114
492.527	101
492.745	107
492.963	105
493.18	119
493.398	92
493.615	114
493.833	103
494.05	103
494.268	102
494.485	111
494.703	100
494.92	101
495.138	101
495.355	101
495.573	115
495.79	109
496.008	104
496.225	111
496.442	111
496.66	119
496.877	167
497.094	163
497.312	118
497.529	90
497.746	89
497.963	95
498.181	111
498.398	101
498.615	110
498.832	116
499.049	108
499.267	130
499.484	172
499.701	134
499.918	106
500.135	105
500.352	108
500.569	102
500.786	105
501.003	102
501.22	98
501.437	92
501.654	96
501.871	93
502.088	89
502.305	99
502.522	109
502.739	98
502.956	105
503.172	103
503.389	102
503.606	109
503.823	93
504.04	111
504.256	105
504.473	92
504.69	92
504.907	111
505.123	132
505.34	104
505.557	95
505.773	119
505.99	100
506.207	109
506.423	124
506.64	116
506.856	101
507.073	107
507.289	95
507.506	103
507.722	86
507.939	103
508.155	99
508.372	105
508.588	100
508.805	95
509.021	99
509.238	121
509.454	137
509.67	173
509.887	115
510.103	108
510.319	92
510.536	92
510.752	116
510.968	102
511.184	82
511.401	96
511.617	122
511.833	104
512.049	103
512.265	91
512.481	100
512.698	91
512.914	115
513.13	91
513.346	90
513.562	105
513.778	93
513.994	92
514.21	116
514.426	141
514.642	194
514.858	124
515.074	108
515.29	122
515.506	118
515.721	106
515.937	107
516.153	109
516.369	101
516.585	99
516.801	108
517.016	106
517.232	98
517.448	101
517.664	111
517.879	115
518.095	98
518.311	114
518.527	107
518.742	109
518.958	123
519.173	174
519.389	140
519.605	112
519.82	103
520.036	95
520.251	75
520.467	98
520.682	88
520.898	106
521.113	104
521.329	96
521.544	91
521.76	97
521.975	102
522.19	108
522.406	96
522.621	91
522.836	97
523.052	94
523.267	94
523.482	84
523.698	107
523.913	108
524.128	90
524.343	112
524.559	84
524.774	118
524.989	95
525.204	102
525.419	101
525.634	105
525.849	91
526.064	95
526.28	106
526.495	112
526.71	94
526.925	98
527.14	103
527.355	104
527.57	87
527.785	116
527.999	92
528.214	100
528.429	115
528.644	98
528.859	86
529.074	89
529.289	92
529.503	94
529.718	95
529.933	96
530.148	92
530.363	102
530.577	100
530.792	116
531.007	97
531.221	100
531.436	94
531.651	93
531.865	97
532.08	97
532.295	105
532.509	145
532.724	110
532.938	104
533.153	98
533.367	97
533.582	93
533.796	110
534.011	89
534.225	90
534.44	99
534.654	103
534.868	98
535.083	97
535.297	109
535.511	104
535.726	110
535.94	98
536.154	80
536.369	98
536.583	96
536.797	88
537.011	98
537.225	96
537.44	104
537.654	105
537.868	98
538.082	88
538.296	102
538.51	103
538.724	104
538.938	102
539.153	111
539.367	112
539.581	97
539.795	87
540.009	108
540.222	120
540.436	111
540.65	99
540.864	104
541.078	103
541.292	131
541.506	227
541.72	198
541.934	130
542.147	122
542.361	94
542.575	104
542.789	92
543.002	98
543.216	107
543.43	108
543.644	110
543.857	120
544.071	96
544.285	103
544.498	119
544.712	109
544.925	107
545.139	103
545.352	107
545.566	114
545.779	105
545.993	116
546.206	95
546.42	110
546.633	96
546.847	116
547.06	109
547.274	116
547.487	96
547.7	117
547.914	104
548.127	115
548.34	116
548.554	112
548.767	110
548.98	103
549.193	110
549.407	110
549.62	105
549.833	118
550.046	111
550.259	100
550.473	108
550.686	103
550.899	114
551.112	104
551.325	100
551.538	103
551.751	114
551.964	118
552.177	107
552.39	104
552.603	113
552.816	100
553.029	121
553.242	104
553.455	114
553.667	118
553.88	106
554.093	112
554.306	105
554.519	106
554.732	102
554.944	113
555.157	107
555.37	107
555.583	116
555.795	92
556.008	124
556.221	166
556.433	134
556.646	105
556.859	102
557.071	118
557.284	142
557.496	117
557.709	93
557.921	117
558.134	101
558.346	107
558.559	121
558.771	116
558.984	94
559.196	122
559.409	103
559.621	105
559.833	108
560.046	117
560.258	106
560.47	91
560.683	104
560.895	98
561.107	120
561.32	118
561.532	112
561.744	103
561.956	106
562.168	99
562.381	109
562.593	120
562.805	120
563.017	156
563.229	272
563.441	624
563.653	214
563.865	114
564.077	91
564.289	97
564.501	107
564.713	114
564.925	80
565.137	107
565.349	92
565.561	98
565.773	102
565.985	111
566.197	93
566.408	99
566.62	100
566.832	91
567.044	102
567.255	102
567.467	98
567.679	119
567.891	130
568.102	166
568.314	242
568.526	150
568.737	130
568.949	118
569.161	90
569.372	96
569.584	102
569.795	96
570.007	106
570.218	120
570.43	154
570.641	123
570.853	95
571.064	101
