Data from SnStandardFlinnAPT0064_LampEnergy10_LIBS07252019.E.O._I.C._HRD10591_15-20-32-493.txt Node
Date: Thu Jul 25 15:20:32 EDT 2019
User: cochatt
Spectrometer: HR+D1059
Trigger mode: 1
Integration Time (sec): 1.000000E-1
Scans to average: 1
Electric dark correction enabled: true
Nonlinearity correction enabled: false
Boxcar width: 0
XAxis mode: Wavelengths
Number of Pixels in Spectrum: 2048
>>>>>Begin Spectral Data<<<<<
223.165	-23.94
223.4	-23.94
223.635	-23.94
223.869	-22.94
224.104	-17.94
224.338	-27.94
224.573	-13.94
224.808	-20.94
225.042	-2.94
225.277	-13.94
225.511	-3.94
225.746	9.06
225.98	20.06
226.215	9.06
226.449	8.06
226.683	20.06
226.918	45.06
227.152	37.06
227.387	20.06
227.621	40.06
227.856	30.06
228.09	36.06
228.324	42.06
228.559	53.06
228.793	129.06
229.027	318.06
229.262	341.06
229.496	294.06
229.73	282.06
229.964	289.06
230.199	316.06
230.433	296.06
230.667	312.06
230.901	317.06
231.136	317.06
231.37	347.06
231.604	382.06
231.838	442.06
232.072	532.06
232.306	573.06
232.541	470.06
232.775	424.06
233.009	404.06
233.243	401.06
233.477	461.06
233.711	532.06
233.945	596.06
234.179	489.06
234.413	434.06
234.647	445.06
234.881	454.06
235.115	512.06
235.349	624.06
235.583	793.06
235.817	997.06
236.051	1000.06
236.285	658.06
236.519	526.06
236.753	491.06
236.987	515.06
237.221	540.06
237.455	505.06
237.689	464.06
237.922	458.06
238.156	474.06
238.39	488.06
238.624	525.06
238.858	494.06
239.091	485.06
239.325	493.06
239.559	509.06
239.793	515.06
240.027	536.06
240.26	558.06
240.494	556.06
240.728	576.06
240.961	626.06
241.195	658.06
241.429	688.06
241.662	721.06
241.896	810.06
242.13	972.06
242.363	1262.06
242.597	1634.06
242.83	1590.06
243.064	1576.06
243.298	1855.06
243.531	1513.06
243.765	961.06
243.998	801.06
244.232	673.06
244.465	660.06
244.699	669.06
244.932	672.06
245.166	671.06
245.399	667.06
245.633	679.06
245.866	717.06
246.099	672.06
246.333	640.06
246.566	650.06
246.8	643.06
247.033	652.06
247.266	650.06
247.5	652.06
247.733	658.06
247.966	717.06
248.2	773.06
248.433	880.06
248.666	1025.06
248.899	944.06
249.133	844.06
249.366	908.06
249.599	991.06
249.832	1076.06
250.066	1115.06
250.299	860.06
250.532	817.06
250.765	757.06
250.998	738.06
251.231	723.06
251.465	714.06
251.698	728.06
251.931	739.06
252.164	757.06
252.397	748.06
252.63	742.06
252.863	782.06
253.096	793.06
253.329	792.06
253.562	785.06
253.795	781.06
254.028	787.06
254.261	795.06
254.494	901.06
254.727	1033.06
254.96	1244.06
255.193	1235.06
255.426	990.06
255.659	906.06
255.892	870.06
256.124	878.06
256.357	870.06
256.59	943.06
256.823	1004.06
257.056	1139.06
257.289	1387.06
257.521	1522.06
257.754	1224.06
257.987	978.06
258.22	915.06
258.452	914.06
258.685	908.06
258.918	961.06
259.151	1020.06
259.383	1108.06
259.616	1242.06
259.849	1298.06
260.081	1066.06
260.314	1004.06
260.547	966.06
260.779	915.06
261.012	934.06
261.244	941.06
261.477	950.06
261.71	990.06
261.942	990.06
262.175	1020.06
262.407	1031.06
262.64	1065.06
262.872	1054.06
263.105	1148.06
263.337	1221.06
263.57	1249.06
263.802	1283.06
264.035	1301.06
264.267	1336.06
264.499	1389.06
264.732	1470.06
264.964	1442.06
265.197	1429.06
265.429	1418.06
265.661	1497.06
265.894	1574.06
266.126	1758.06
266.358	1984.06
266.591	1940.06
266.823	1614.06
267.055	1466.06
267.287	1385.06
267.52	1333.06
267.752	1298.06
267.984	1277.06
268.216	1240.06
268.448	1266.06
268.681	1275.06
268.913	1235.06
269.145	1232.06
269.377	1242.06
269.609	1243.06
269.841	1279.06
270.073	1368.06
270.306	1622.06
270.538	2188.06
270.77	3236.06
271.002	4055.06
271.234	2848.06
271.466	1898.06
271.698	1552.06
271.93	1371.06
272.162	1338.06
272.394	1308.06
272.626	1266.06
272.858	1235.06
273.09	1208.06
273.322	1222.06
273.553	1216.06
273.785	1197.06
274.017	1206.06
274.249	1222.06
274.481	1185.06
274.713	1216.06
274.945	1211.06
275.176	1199.06
275.408	1227.06
275.64	1237.06
275.872	1237.06
276.104	1257.06
276.335	1297.06
276.567	1290.06
276.799	1252.06
277.031	1302.06
277.262	1359.06
277.494	1412.06
277.726	1552.06
277.957	1883.06
278.189	2118.06
278.421	1995.06
278.652	1786.06
278.884	1693.06
279.115	1509.06
279.347	1452.06
279.579	1413.06
279.81	1377.06
280.042	1394.06
280.273	1407.06
280.505	1408.06
280.736	1493.06
280.968	1546.06
281.199	1821.06
281.431	2095.06
281.662	2156.06
281.894	1845.06
282.125	1637.06
282.356	1660.06
282.588	1673.06
282.819	1755.06
283.051	1851.06
283.282	2015.06
283.513	2506.06
283.745	3642.06
283.976	5779.06
284.207	8168.06
284.439	7525.06
284.67	4629.06
284.901	3869.06
285.132	3823.06
285.364	3673.06
285.595	2731.06
285.826	2492.06
286.057	2875.06
286.288	3950.06
286.52	5291.06
286.751	4984.06
286.982	3071.06
287.213	2322.06
287.444	2027.06
287.675	1898.06
287.906	1804.06
288.138	1746.06
288.369	1714.06
288.6	1702.06
288.831	1664.06
289.062	1708.06
289.293	1662.06
289.524	1728.06
289.755	1704.06
289.986	1715.06
290.217	1715.06
290.448	1693.06
290.679	1747.06
290.91	1796.06
291.141	1886.06
291.371	2043.06
291.602	2154.06
291.833	1993.06
292.064	1766.06
292.295	1726.06
292.526	1651.06
292.757	1643.06
292.987	1606.06
293.218	1622.06
293.449	1569.06
293.68	1605.06
293.91	1571.06
294.141	1592.06
294.372	1540.06
294.603	1564.06
294.833	1571.06
295.064	1531.06
295.295	1540.06
295.525	1566.06
295.756	1548.06
295.987	1529.06
296.217	1601.06
296.448	1575.06
296.679	1583.06
296.909	1608.06
297.14	1603.06
297.37	1610.06
297.601	1648.06
297.831	1571.06
298.062	1607.06
298.292	1628.06
298.523	1664.06
298.753	1715.06
298.984	1745.06
299.214	1752.06
299.445	1737.06
299.675	1770.06
299.905	1850.06
300.136	1936.06
300.366	2181.06
300.597	2756.06
300.827	3887.06
301.057	5332.06
301.288	5351.06
301.518	3422.06
301.748	2653.06
301.979	2348.06
302.209	2268.06
302.439	2332.06
302.669	2468.06
302.9	2960.06
303.13	4221.06
303.36	6296.06
303.59	8362.06
303.82	7346.06
304.051	4269.06
304.281	3049.06
304.511	2572.06
304.741	2394.06
304.971	2218.06
305.201	2098.06
305.431	2070.06
305.661	1942.06
305.891	1925.06
306.121	1873.06
306.352	1857.06
306.582	1809.06
306.812	1804.06
307.042	1870.06
307.272	1826.06
307.502	1821.06
307.731	1809.06
307.961	1834.06
308.191	1794.06
308.421	1807.06
308.651	1801.06
308.881	1778.06
309.111	1812.06
309.341	1788.06
309.571	1815.06
309.8	1822.06
310.03	1832.06
310.26	1856.06
310.49	1890.06
310.72	1856.06
310.949	1854.06
311.179	1913.06
311.409	1893.06
311.639	1933.06
311.868	1945.06
312.098	1941.06
312.328	1944.06
312.557	1916.06
312.787	1945.06
313.017	2018.06
313.246	2008.06
313.476	1989.06
313.706	2066.06
313.935	2211.06
314.165	2357.06
314.394	2512.06
314.624	2378.06
314.853	2188.06
315.083	2175.06
315.312	2175.06
315.542	2177.06
315.771	2219.06
316.001	2275.06
316.23	2311.06
316.46	2424.06
316.689	2725.06
316.919	3246.06
317.148	4697.06
317.377	7249.06
317.607	10616.06
317.836	10990.06
318.065	6691.06
318.295	4309.06
318.524	3443.06
318.753	2984.06
318.983	2800.06
319.212	2593.06
319.441	2531.06
319.67	2423.06
319.9	2362.06
320.129	2372.06
320.358	2364.06
320.587	2366.06
320.816	2344.06
321.046	2392.06
321.275	2341.06
321.504	2403.06
321.733	2436.06
321.962	2495.06
322.191	2527.06
322.42	2541.06
322.649	2478.06
322.878	2508.06
323.108	2493.06
323.337	2565.06
323.566	2558.06
323.795	2637.06
324.024	2684.06
324.253	2753.06
324.482	2895.06
324.71	3025.06
324.939	3196.06
325.168	3309.06
325.397	3427.06
325.626	4136.06
325.855	5711.06
326.084	8862.06
326.313	12938.06
326.542	13621.06
326.77	9272.06
326.999	6064.06
327.228	5081.06
327.457	4883.06
327.686	4874.06
327.914	5230.06
328.143	6168.06
328.372	7392.06
328.6	8028.06
328.829	7132.06
329.058	5958.06
329.287	5180.06
329.515	4689.06
329.744	4313.06
329.972	4101.06
330.201	3915.06
330.43	3708.06
330.658	3642.06
330.887	3624.06
331.115	3536.06
331.344	3504.06
331.572	3455.06
331.801	3497.06
332.03	3554.06
332.258	3621.06
332.486	3816.06
332.715	4303.06
332.943	5341.06
333.172	6638.06
333.4	6656.06
333.629	5043.06
333.857	4549.06
334.085	4506.06
334.314	4795.06
334.542	5207.06
334.771	6154.06
334.999	7699.06
335.227	9740.06
335.455	10835.06
335.684	9666.06
335.912	7884.06
336.14	6621.06
336.369	5832.06
336.597	5416.06
336.825	4930.06
337.053	4584.06
337.281	4265.06
337.51	4060.06
337.738	3917.06
337.966	3736.06
338.194	3588.06
338.422	3510.06
338.65	3378.06
338.878	3355.06
339.106	3280.06
339.334	3214.06
339.562	3152.06
339.79	3101.06
340.018	3094.06
340.246	3020.06
340.474	3054.06
340.702	3008.06
340.93	3027.06
341.158	3040.06
341.386	3040.06
341.614	2977.06
341.842	2945.06
342.07	2892.06
342.298	2783.06
342.526	2771.06
342.754	2760.06
342.981	2678.06
343.209	2734.06
343.437	2788.06
343.665	2765.06
343.893	2858.06
344.12	2829.06
344.348	2759.06
344.576	2719.06
344.804	2664.06
345.031	2604.06
345.259	2604.06
345.487	2588.06
345.714	2555.06
345.942	2565.06
346.17	2556.06
346.397	2544.06
346.625	2496.06
346.853	2523.06
347.08	2527.06
347.308	2555.06
347.535	2529.06
347.763	2563.06
347.99	2497.06
348.218	2452.06
348.445	2478.06
348.673	2445.06
348.9	2488.06
349.128	2452.06
349.355	2436.06
349.583	2433.06
349.81	2459.06
350.037	2364.06
350.265	2398.06
350.492	2394.06
350.72	2393.06
350.947	2387.06
351.174	2396.06
351.402	2397.06
351.629	2365.06
351.856	2388.06
352.083	2387.06
352.311	2393.06
352.538	2381.06
352.765	2408.06
352.992	2370.06
353.22	2368.06
353.447	2369.06
353.674	2362.06
353.901	2364.06
354.128	2406.06
354.355	2394.06
354.583	2391.06
354.81	2422.06
355.037	2404.06
355.264	2415.06
355.491	2438.06
355.718	2452.06
355.945	2437.06
356.172	2493.06
356.399	2450.06
356.626	2508.06
356.853	2485.06
357.08	2503.06
357.307	2569.06
357.534	2545.06
357.761	2566.06
357.988	2596.06
358.215	2522.06
358.441	2525.06
358.668	2560.06
358.895	2562.06
359.122	2559.06
359.349	2525.06
359.576	2524.06
359.802	2514.06
360.029	2521.06
360.256	2529.06
360.483	2584.06
360.709	2520.06
360.936	2496.06
361.163	2536.06
361.39	2581.06
361.616	2562.06
361.843	2531.06
362.07	2522.06
362.296	2590.06
362.523	2574.06
362.749	2556.06
362.976	2575.06
363.203	2578.06
363.429	2513.06
363.656	2488.06
363.882	2522.06
364.109	2519.06
364.335	2540.06
364.562	2566.06
364.788	2512.06
365.015	2640.06
365.241	2669.06
365.468	2792.06
365.694	2942.06
365.92	2782.06
366.147	2626.06
366.373	2649.06
366.599	2597.06
366.826	2611.06
367.052	2578.06
367.278	2636.06
367.505	2597.06
367.731	2619.06
367.957	2626.06
368.184	2638.06
368.41	2626.06
368.636	2686.06
368.862	2629.06
369.089	2611.06
369.315	2666.06
369.541	2624.06
369.767	2640.06
369.993	2591.06
370.219	2659.06
370.445	2647.06
370.672	2647.06
370.898	2669.06
371.124	2623.06
371.35	2716.06
371.576	2678.06
371.802	2718.06
372.028	2738.06
372.254	2749.06
372.48	2755.06
372.706	2765.06
372.932	2742.06
373.158	2780.06
373.384	2817.06
373.61	2730.06
373.835	2806.06
374.061	2804.06
374.287	2825.06
374.513	2837.06
374.739	2893.06
374.965	2898.06
375.191	2925.06
375.416	2874.06
375.642	2837.06
375.868	2893.06
376.094	2786.06
376.319	2754.06
376.545	2760.06
376.771	2762.06
376.997	2693.06
377.222	2714.06
377.448	2716.06
377.674	2702.06
377.899	2733.06
378.125	2734.06
378.35	2769.06
378.576	2770.06
378.802	2711.06
379.027	2817.06
379.253	2927.06
379.478	3040.06
379.704	3578.06
379.929	5226.06
380.155	8043.06
380.38	8813.06
380.606	5390.06
380.831	3758.06
381.057	3234.06
381.282	2977.06
381.507	2844.06
381.733	2813.06
381.958	2740.06
382.184	2746.06
382.409	2727.06
382.634	2705.06
382.86	2665.06
383.085	2704.06
383.31	2701.06
383.535	2678.06
383.761	2724.06
383.986	2741.06
384.211	2746.06
384.436	2760.06
384.662	2769.06
384.887	2796.06
385.112	2738.06
385.337	2786.06
385.562	2778.06
385.787	2717.06
386.013	2762.06
386.238	2785.06
386.463	2782.06
386.688	2765.06
386.913	2700.06
387.138	2795.06
387.363	2741.06
387.588	2714.06
387.813	2744.06
388.038	2774.06
388.263	2756.06
388.488	2798.06
388.713	2729.06
388.938	2742.06
389.163	2745.06
389.387	2788.06
389.612	2736.06
389.837	2781.06
390.062	2771.06
390.287	2805.06
390.512	2778.06
390.736	2843.06
390.961	2928.06
391.186	2900.06
391.411	2870.06
391.636	2875.06
391.86	2909.06
392.085	2916.06
392.31	2878.06
392.534	2881.06
392.759	2862.06
392.984	2831.06
393.208	2784.06
393.433	2827.06
393.658	2822.06
393.882	2757.06
394.107	2782.06
394.331	2813.06
394.556	2774.06
394.78	2840.06
395.005	2844.06
395.229	2808.06
395.454	2869.06
395.678	2905.06
395.903	2925.06
396.127	2863.06
396.352	2840.06
396.576	2814.06
396.801	2845.06
397.025	2897.06
397.249	2922.06
397.474	2913.06
397.698	2898.06
397.922	2948.06
398.147	2925.06
398.371	2986.06
398.595	3013.06
398.82	3120.06
399.044	3164.06
399.268	3353.06
399.492	3585.06
399.717	3681.06
399.941	3658.06
400.165	3539.06
400.389	3362.06
400.613	3211.06
400.837	3130.06
401.062	3106.06
401.286	3053.06
401.51	3072.06
401.734	3004.06
401.958	3034.06
402.182	3014.06
402.406	3027.06
402.63	3081.06
402.854	3093.06
403.078	3108.06
403.302	3133.06
403.526	3157.06
403.75	3156.06
403.974	3165.06
404.198	3103.06
404.422	3180.06
404.645	3167.06
404.869	3170.06
405.093	3196.06
405.317	3148.06
405.541	3232.06
405.765	3220.06
405.988	3263.06
406.212	3273.06
406.436	3194.06
406.66	3305.06
406.883	3227.06
407.107	3393.06
407.331	3374.06
407.555	3448.06
407.778	3443.06
408.002	3438.06
408.226	3392.06
408.449	3411.06
408.673	3297.06
408.896	3266.06
409.12	3222.06
409.344	3238.06
409.567	3195.06
409.791	3233.06
410.014	3204.06
410.238	3170.06
410.461	3137.06
410.685	3157.06
410.908	3083.06
411.132	3069.06
411.355	3025.06
411.578	3055.06
411.802	3067.06
412.025	3019.06
412.249	3036.06
412.472	3061.06
412.695	3026.06
412.919	2981.06
413.142	2998.06
413.365	2972.06
413.589	2988.06
413.812	3010.06
414.035	2988.06
414.258	3021.06
414.482	3029.06
414.705	2997.06
414.928	2986.06
415.151	2963.06
415.374	2942.06
415.597	2952.06
415.821	2857.06
416.044	2870.06
416.267	2881.06
416.49	2857.06
416.713	2863.06
416.936	2882.06
417.159	2841.06
417.382	2844.06
417.605	2814.06
417.828	2844.06
418.051	2824.06
418.274	2880.06
418.497	2920.06
418.72	2946.06
418.943	2950.06
419.166	3067.06
419.389	3231.06
419.611	3171.06
419.834	3078.06
420.057	2990.06
420.28	2922.06
420.503	2834.06
420.726	2849.06
420.948	2843.06
421.171	2883.06
421.394	2866.06
421.617	2883.06
421.839	2878.06
422.062	2882.06
422.285	2802.06
422.507	2921.06
422.73	2899.06
422.953	2928.06
423.175	2962.06
423.398	2955.06
423.621	2864.06
423.843	2901.06
424.066	2866.06
424.288	2853.06
424.511	2881.06
424.733	2849.06
424.956	2836.06
425.178	2856.06
425.401	2838.06
425.623	2854.06
425.846	2726.06
426.068	2768.06
426.291	2760.06
426.513	2756.06
426.735	2698.06
426.958	2744.06
427.18	2682.06
427.402	2715.06
427.625	2730.06
427.847	2656.06
428.069	2642.06
428.292	2687.06
428.514	2665.06
428.736	2631.06
428.958	2708.06
429.181	2656.06
429.403	2601.06
429.625	2606.06
429.847	2642.06
430.069	2716.06
430.292	2800.06
430.514	2841.06
430.736	2854.06
430.958	2690.06
431.18	2618.06
431.402	2649.06
431.624	2592.06
431.846	2568.06
432.068	2578.06
432.29	2624.06
432.512	2621.06
432.734	2638.06
432.956	2618.06
433.178	2665.06
433.4	2636.06
433.622	2674.06
433.844	2649.06
434.066	2641.06
434.287	2646.06
434.509	2690.06
434.731	2768.06
434.953	2733.06
435.175	2711.06
435.397	2770.06
435.618	2694.06
435.84	2673.06
436.062	2658.06
436.284	2616.06
436.505	2581.06
436.727	2576.06
436.949	2642.06
437.17	2626.06
437.392	2584.06
437.614	2564.06
437.835	2486.06
438.057	2567.06
438.278	2528.06
438.5	2632.06
438.721	2626.06
438.943	2664.06
439.165	2740.06
439.386	2768.06
439.608	2744.06
439.829	2780.06
440.05	2839.06
440.272	2860.06
440.493	2739.06
440.715	2720.06
440.936	2684.06
441.158	2735.06
441.379	2856.06
441.6	2860.06
441.822	2950.06
442.043	3076.06
442.264	3158.06
442.486	2968.06
442.707	2880.06
442.928	2834.06
443.149	2814.06
443.371	2740.06
443.592	2804.06
443.813	2831.06
444.034	2856.06
444.255	2901.06
444.476	2964.06
444.698	2991.06
444.919	3026.06
445.14	3090.06
445.361	2955.06
445.582	2907.06
445.803	2788.06
446.024	2783.06
446.245	2816.06
446.466	2810.06
446.687	2741.06
446.908	2711.06
447.129	2678.06
447.35	2645.06
447.571	2656.06
447.792	2606.06
448.013	2628.06
448.234	2588.06
448.455	2576.06
448.675	2598.06
448.896	2737.06
449.117	2858.06
449.338	3043.06
449.559	3099.06
449.779	2822.06
450	2654.06
450.221	2584.06
450.442	2591.06
450.662	2527.06
450.883	2484.06
451.104	2555.06
451.324	2523.06
451.545	2526.06
451.766	2578.06
451.986	2617.06
452.207	2852.06
452.428	3646.06
452.648	5512.06
452.869	4624.06
453.089	3260.06
453.31	3011.06
453.53	2937.06
453.751	3018.06
453.971	3227.06
454.192	3159.06
454.412	2747.06
454.633	2582.06
454.853	2483.06
455.073	2473.06
455.294	2474.06
455.514	2417.06
455.734	2413.06
455.955	2372.06
456.175	2428.06
456.395	2375.06
456.616	2422.06
456.836	2496.06
457.056	2482.06
457.276	2521.06
457.497	2650.06
457.717	2660.06
457.937	2569.06
458.157	2581.06
458.377	2538.06
458.598	2584.06
458.818	2594.06
459.038	2612.06
459.258	2580.06
459.478	2633.06
459.698	2692.06
459.918	2672.06
460.138	2738.06
460.358	2825.06
460.578	2822.06
460.798	2796.06
461.018	2895.06
461.238	2911.06
461.458	2938.06
461.678	2932.06
461.898	3014.06
462.118	3000.06
462.338	3119.06
462.558	3077.06
462.777	3120.06
462.997	3239.06
463.217	3354.06
463.437	3482.06
463.657	3564.06
463.876	3591.06
464.096	3352.06
464.316	3188.06
464.536	3152.06
464.755	3124.06
464.975	3015.06
465.195	2883.06
465.414	2818.06
465.634	2740.06
465.854	2720.06
466.073	2693.06
466.293	2708.06
466.512	2627.06
466.732	2724.06
466.951	2876.06
467.171	3039.06
467.391	2924.06
467.61	2693.06
467.829	2643.06
468.049	2623.06
468.268	2574.06
468.488	2598.06
468.707	2576.06
468.927	2577.06
469.146	2558.06
469.365	2623.06
469.585	2656.06
469.804	2629.06
470.023	2741.06
470.243	2747.06
470.462	2887.06
470.681	3040.06
470.901	3338.06
471.12	3736.06
471.339	3793.06
471.558	3236.06
471.777	2925.06
471.997	2843.06
472.216	2737.06
472.435	2639.06
472.654	2634.06
472.873	2573.06
473.092	2619.06
473.311	2624.06
473.53	2624.06
473.749	2693.06
473.968	2782.06
474.187	2639.06
474.406	2593.06
474.625	2620.06
474.844	2597.06
475.063	2621.06
475.282	2607.06
475.501	2630.06
475.72	2640.06
475.939	2695.06
476.158	2696.06
476.377	2778.06
476.596	2738.06
476.814	2790.06
477.033	2740.06
477.252	2787.06
477.471	2797.06
477.69	2895.06
477.908	2946.06
478.127	2961.06
478.346	2910.06
478.564	3009.06
478.783	3018.06
479.002	3075.06
479.22	3147.06
479.439	3141.06
479.658	3125.06
479.876	3147.06
480.095	3120.06
480.313	3228.06
480.532	3217.06
480.751	3197.06
480.969	3184.06
481.188	3181.06
481.406	3169.06
481.624	3150.06
481.843	3191.06
482.061	3155.06
482.28	3170.06
482.498	3152.06
482.717	3168.06
482.935	3140.06
483.153	3207.06
483.372	3256.06
483.59	3307.06
483.808	3341.06
484.027	3493.06
484.245	3683.06
484.463	4105.06
484.681	4566.06
484.9	4113.06
485.118	3811.06
485.336	3791.06
485.554	3748.06
485.772	4044.06
485.99	4533.06
486.209	4902.06
486.427	4152.06
486.645	3685.06
486.863	3550.06
487.081	3500.06
487.299	3412.06
487.517	3367.06
487.735	3388.06
