Data from SnStandardFlinnAPT0064_LampEnergy10_LIBS07252019.E.O._I.C._HRD10591_15-21-28-494.txt Node
Date: Thu Jul 25 15:21:28 EDT 2019
User: cochatt
Spectrometer: HR+D1059
Trigger mode: 1
Integration Time (sec): 1.000000E-1
Scans to average: 1
Electric dark correction enabled: true
Nonlinearity correction enabled: false
Boxcar width: 0
XAxis mode: Wavelengths
Number of Pixels in Spectrum: 2048
>>>>>Begin Spectral Data<<<<<
223.165	-20.31
223.4	-20.31
223.635	-20.31
223.869	-19.31
224.104	-14.31
224.338	-4.31
224.573	-20.31
224.808	-9.31
225.042	-12.31
225.277	-4.31
225.511	-2.31
225.746	7.69
225.98	13.69
226.215	15.69
226.449	7.69
226.683	19.69
226.918	25.69
227.152	16.69
227.387	34.69
227.621	35.69
227.856	43.69
228.09	52.69
228.324	49.69
228.559	43.69
228.793	122.69
229.027	283.69
229.262	343.69
229.496	313.69
229.73	279.69
229.964	291.69
230.199	301.69
230.433	310.69
230.667	318.69
230.901	323.69
231.136	316.69
231.37	335.69
231.604	387.69
231.838	421.69
232.072	513.69
232.306	533.69
232.541	457.69
232.775	417.69
233.009	394.69
233.243	401.69
233.477	425.69
233.711	499.69
233.945	571.69
234.179	482.69
234.413	408.69
234.647	421.69
234.881	453.69
235.115	495.69
235.349	612.69
235.583	778.69
235.817	973.69
236.051	952.69
236.285	626.69
236.519	527.69
236.753	475.69
236.987	501.69
237.221	542.69
237.455	494.69
237.689	467.69
237.922	466.69
238.156	469.69
238.39	470.69
238.624	486.69
238.858	494.69
239.091	462.69
239.325	481.69
239.559	474.69
239.793	503.69
240.027	522.69
240.26	545.69
240.494	558.69
240.728	569.69
240.961	598.69
241.195	646.69
241.429	671.69
241.662	672.69
241.896	763.69
242.13	937.69
242.363	1234.69
242.597	1585.69
242.83	1486.69
243.064	1496.69
243.298	1780.69
243.531	1413.69
243.765	941.69
243.998	777.69
244.232	698.69
244.465	663.69
244.699	646.69
244.932	661.69
245.166	673.69
245.399	674.69
245.633	672.69
245.866	676.69
246.099	669.69
246.333	630.69
246.566	634.69
246.8	637.69
247.033	616.69
247.266	639.69
247.5	657.69
247.733	661.69
247.966	700.69
248.2	748.69
248.433	858.69
248.666	958.69
248.899	913.69
249.133	837.69
249.366	863.69
249.599	916.69
249.832	1073.69
250.066	1063.69
250.299	849.69
250.532	785.69
250.765	736.69
250.998	730.69
251.231	749.69
251.465	742.69
251.698	708.69
251.931	738.69
252.164	741.69
252.397	753.69
252.63	765.69
252.863	767.69
253.096	747.69
253.329	764.69
253.562	777.69
253.795	776.69
254.028	800.69
254.261	831.69
254.494	844.69
254.727	995.69
254.96	1186.69
255.193	1182.69
255.426	947.69
255.659	839.69
255.892	822.69
256.124	853.69
256.357	899.69
256.59	917.69
256.823	930.69
257.056	1106.69
257.289	1309.69
257.521	1429.69
257.754	1181.69
257.987	954.69
258.22	911.69
258.452	882.69
258.685	911.69
258.918	936.69
259.151	1002.69
259.383	1108.69
259.616	1195.69
259.849	1273.69
260.081	1076.69
260.314	977.69
260.547	933.69
260.779	945.69
261.012	973.69
261.244	1015.69
261.477	987.69
261.71	991.69
261.942	997.69
262.175	1007.69
262.407	1064.69
262.64	1046.69
262.872	1126.69
263.105	1144.69
263.337	1209.69
263.57	1283.69
263.802	1339.69
264.035	1351.69
264.267	1330.69
264.499	1374.69
264.732	1438.69
264.964	1436.69
265.197	1412.69
265.429	1426.69
265.661	1484.69
265.894	1578.69
266.126	1752.69
266.358	1908.69
266.591	1874.69
266.823	1618.69
267.055	1433.69
267.287	1342.69
267.52	1347.69
267.752	1304.69
267.984	1275.69
268.216	1267.69
268.448	1245.69
268.681	1251.69
268.913	1222.69
269.145	1233.69
269.377	1243.69
269.609	1238.69
269.841	1259.69
270.073	1353.69
270.306	1555.69
270.538	2077.69
270.77	3067.69
271.002	3789.69
271.234	2665.69
271.466	1815.69
271.698	1507.69
271.93	1409.69
272.162	1319.69
272.394	1251.69
272.626	1224.69
272.858	1214.69
273.09	1202.69
273.322	1189.69
273.553	1205.69
273.785	1200.69
274.017	1192.69
274.249	1213.69
274.481	1222.69
274.713	1172.69
274.945	1187.69
275.176	1223.69
275.408	1151.69
275.64	1217.69
275.872	1212.69
276.104	1275.69
276.335	1261.69
276.567	1233.69
276.799	1260.69
277.031	1291.69
277.262	1299.69
277.494	1380.69
277.726	1518.69
277.957	1765.69
278.189	2066.69
278.421	1912.69
278.652	1743.69
278.884	1627.69
279.115	1472.69
279.347	1401.69
279.579	1373.69
279.81	1371.69
280.042	1363.69
280.273	1421.69
280.505	1445.69
280.736	1445.69
280.968	1574.69
281.199	1746.69
281.431	1976.69
281.662	2057.69
281.894	1740.69
282.125	1615.69
282.356	1591.69
282.588	1612.69
282.819	1659.69
283.051	1763.69
283.282	1987.69
283.513	2419.69
283.745	3439.69
283.976	5419.69
284.207	7781.69
284.439	6987.69
284.67	4397.69
284.901	3643.69
285.132	3558.69
285.364	3469.69
285.595	2619.69
285.826	2353.69
286.057	2802.69
286.288	3693.69
286.52	5035.69
286.751	4691.69
286.982	2958.69
287.213	2219.69
287.444	1989.69
287.675	1836.69
287.906	1787.69
288.138	1713.69
288.369	1701.69
288.6	1632.69
288.831	1663.69
289.062	1673.69
289.293	1664.69
289.524	1709.69
289.755	1662.69
289.986	1697.69
290.217	1726.69
290.448	1684.69
290.679	1699.69
290.91	1774.69
291.141	1865.69
291.371	2000.69
291.602	2105.69
291.833	1867.69
292.064	1727.69
292.295	1673.69
292.526	1644.69
292.757	1617.69
292.987	1583.69
293.218	1593.69
293.449	1600.69
293.68	1586.69
293.91	1613.69
294.141	1546.69
294.372	1551.69
294.603	1554.69
294.833	1599.69
295.064	1542.69
295.295	1571.69
295.525	1517.69
295.756	1552.69
295.987	1550.69
296.217	1578.69
296.448	1595.69
296.679	1564.69
296.909	1594.69
297.14	1561.69
297.37	1650.69
297.601	1622.69
297.831	1600.69
298.062	1601.69
298.292	1626.69
298.523	1689.69
298.753	1657.69
298.984	1688.69
299.214	1709.69
299.445	1752.69
299.675	1742.69
299.905	1794.69
300.136	1896.69
300.366	2130.69
300.597	2718.69
300.827	3752.69
301.057	4985.69
301.288	4991.69
301.518	3247.69
301.748	2477.69
301.979	2366.69
302.209	2277.69
302.439	2317.69
302.669	2370.69
302.9	2911.69
303.13	4027.69
303.36	5908.69
303.59	7911.69
303.82	6801.69
304.051	4109.69
304.281	3017.69
304.511	2524.69
304.741	2316.69
304.971	2166.69
305.201	2039.69
305.431	2005.69
305.661	1957.69
305.891	1891.69
306.121	1838.69
306.352	1877.69
306.582	1851.69
306.812	1831.69
307.042	1839.69
307.272	1813.69
307.502	1819.69
307.731	1813.69
307.961	1807.69
308.191	1818.69
308.421	1789.69
308.651	1781.69
308.881	1784.69
309.111	1835.69
309.341	1791.69
309.571	1798.69
309.8	1875.69
310.03	1891.69
310.26	1829.69
310.49	1817.69
310.72	1918.69
310.949	1882.69
311.179	1905.69
311.409	1878.69
311.639	1887.69
311.868	1919.69
312.098	1873.69
312.328	1929.69
312.557	1927.69
312.787	1934.69
313.017	1967.69
313.246	1985.69
313.476	1959.69
313.706	2081.69
313.935	2189.69
314.165	2268.69
314.394	2445.69
314.624	2321.69
314.853	2145.69
315.083	2126.69
315.312	2166.69
315.542	2214.69
315.771	2176.69
316.001	2240.69
316.23	2291.69
316.46	2387.69
316.689	2627.69
316.919	3135.69
317.148	4463.69
317.377	6815.69
317.607	9925.69
317.836	10391.69
318.065	6440.69
318.295	4175.69
318.524	3347.69
318.753	2913.69
318.983	2712.69
319.212	2543.69
319.441	2512.69
319.67	2419.69
319.9	2367.69
320.129	2337.69
320.358	2318.69
320.587	2379.69
320.816	2344.69
321.046	2374.69
321.275	2332.69
321.504	2344.69
321.733	2425.69
321.962	2487.69
322.191	2510.69
322.42	2530.69
322.649	2467.69
322.878	2462.69
323.108	2434.69
323.337	2528.69
323.566	2556.69
323.795	2580.69
324.024	2659.69
324.253	2708.69
324.482	2755.69
324.71	3008.69
324.939	3113.69
325.168	3197.69
325.397	3339.69
325.626	3971.69
325.855	5520.69
326.084	8433.69
326.313	12268.69
326.542	13011.69
326.77	8837.69
326.999	5866.69
327.228	4913.69
327.457	4742.69
327.686	4779.69
327.914	5079.69
328.143	6063.69
328.372	7163.69
328.6	7862.69
328.829	6980.69
329.058	5782.69
329.287	5079.69
329.515	4689.69
329.744	4278.69
329.972	4069.69
330.201	3880.69
330.43	3698.69
330.658	3630.69
330.887	3614.69
331.115	3519.69
331.344	3516.69
331.572	3459.69
331.801	3499.69
332.03	3493.69
332.258	3552.69
332.486	3773.69
332.715	4204.69
332.943	5092.69
333.172	6437.69
333.4	6363.69
333.629	4940.69
333.857	4519.69
334.085	4589.69
334.314	4675.69
334.542	5089.69
334.771	6132.69
334.999	7574.69
335.227	9432.69
335.455	10544.69
335.684	9411.69
335.912	7677.69
336.14	6486.69
336.369	5669.69
336.597	5265.69
336.825	4853.69
337.053	4464.69
337.281	4263.69
337.51	4030.69
337.738	3905.69
337.966	3700.69
338.194	3582.69
338.422	3529.69
338.65	3411.69
338.878	3288.69
339.106	3255.69
339.334	3243.69
339.562	3140.69
339.79	3123.69
340.018	3123.69
340.246	3053.69
340.474	3055.69
340.702	3033.69
340.93	3021.69
341.158	3035.69
341.386	2998.69
341.614	2970.69
341.842	2905.69
342.07	2861.69
342.298	2838.69
342.526	2741.69
342.754	2739.69
342.981	2723.69
343.209	2712.69
343.437	2766.69
343.665	2759.69
343.893	2818.69
344.12	2840.69
344.348	2767.69
344.576	2683.69
344.804	2700.69
345.031	2615.69
345.259	2601.69
345.487	2564.69
345.714	2529.69
345.942	2603.69
346.17	2527.69
346.397	2499.69
346.625	2556.69
346.853	2501.69
347.08	2530.69
347.308	2553.69
347.535	2495.69
347.763	2490.69
347.99	2466.69
348.218	2491.69
348.445	2479.69
348.673	2483.69
348.9	2453.69
349.128	2462.69
349.355	2408.69
349.583	2427.69
349.81	2433.69
350.037	2418.69
350.265	2387.69
350.492	2433.69
350.72	2413.69
350.947	2376.69
351.174	2374.69
351.402	2391.69
351.629	2390.69
351.856	2416.69
352.083	2413.69
352.311	2382.69
352.538	2375.69
352.765	2368.69
352.992	2344.69
353.22	2363.69
353.447	2377.69
353.674	2322.69
353.901	2397.69
354.128	2409.69
354.355	2376.69
354.583	2371.69
354.81	2425.69
355.037	2395.69
355.264	2406.69
355.491	2414.69
355.718	2427.69
355.945	2450.69
356.172	2459.69
356.399	2429.69
356.626	2488.69
356.853	2492.69
357.08	2539.69
357.307	2540.69
357.534	2557.69
357.761	2549.69
357.988	2626.69
358.215	2583.69
358.441	2563.69
358.668	2527.69
358.895	2564.69
359.122	2477.69
359.349	2545.69
359.576	2520.69
359.802	2553.69
360.029	2512.69
360.256	2560.69
360.483	2545.69
360.709	2583.69
360.936	2580.69
361.163	2556.69
361.39	2578.69
361.616	2587.69
361.843	2578.69
362.07	2587.69
362.296	2597.69
362.523	2566.69
362.749	2568.69
362.976	2554.69
363.203	2544.69
363.429	2529.69
363.656	2563.69
363.882	2543.69
364.109	2560.69
364.335	2529.69
364.562	2497.69
364.788	2605.69
365.015	2564.69
365.241	2650.69
365.468	2795.69
365.694	2935.69
365.92	2788.69
366.147	2622.69
366.373	2623.69
366.599	2616.69
366.826	2592.69
367.052	2574.69
367.278	2622.69
367.505	2605.69
367.731	2627.69
367.957	2640.69
368.184	2615.69
368.41	2628.69
368.636	2636.69
368.862	2703.69
369.089	2647.69
369.315	2627.69
369.541	2619.69
369.767	2638.69
369.993	2649.69
370.219	2670.69
370.445	2622.69
370.672	2718.69
370.898	2652.69
371.124	2715.69
371.35	2702.69
371.576	2715.69
371.802	2733.69
372.028	2718.69
372.254	2779.69
372.48	2765.69
372.706	2801.69
372.932	2821.69
373.158	2805.69
373.384	2825.69
373.61	2760.69
373.835	2808.69
374.061	2779.69
374.287	2833.69
374.513	2818.69
374.739	2906.69
374.965	2863.69
375.191	2915.69
375.416	2940.69
375.642	2869.69
375.868	2841.69
376.094	2825.69
376.319	2794.69
376.545	2788.69
376.771	2779.69
376.997	2768.69
377.222	2744.69
377.448	2723.69
377.674	2744.69
377.899	2780.69
378.125	2762.69
378.35	2693.69
378.576	2767.69
378.802	2758.69
379.027	2805.69
379.253	2950.69
379.478	3065.69
379.704	3511.69
379.929	4943.69
380.155	7561.69
380.38	8269.69
380.606	5104.69
380.831	3657.69
381.057	3250.69
381.282	2944.69
381.507	2886.69
381.733	2813.69
381.958	2711.69
382.184	2728.69
382.409	2723.69
382.634	2703.69
382.86	2647.69
383.085	2676.69
383.31	2691.69
383.535	2707.69
383.761	2715.69
383.986	2747.69
384.211	2722.69
384.436	2765.69
384.662	2776.69
384.887	2713.69
385.112	2710.69
385.337	2785.69
385.562	2787.69
385.787	2726.69
386.013	2772.69
386.238	2817.69
386.463	2769.69
386.688	2768.69
386.913	2758.69
387.138	2756.69
387.363	2777.69
387.588	2719.69
387.813	2736.69
388.038	2751.69
388.263	2728.69
388.488	2726.69
388.713	2725.69
388.938	2774.69
389.163	2758.69
389.387	2752.69
389.612	2744.69
389.837	2769.69
390.062	2761.69
390.287	2799.69
390.512	2783.69
390.736	2864.69
390.961	2865.69
391.186	2871.69
391.411	2885.69
391.636	2905.69
391.86	2908.69
392.085	2895.69
392.31	2884.69
392.534	2879.69
392.759	2832.69
392.984	2796.69
393.208	2804.69
393.433	2788.69
393.658	2817.69
393.882	2790.69
394.107	2827.69
394.331	2815.69
394.556	2801.69
394.78	2846.69
395.005	2820.69
395.229	2857.69
395.454	2873.69
395.678	2873.69
395.903	2914.69
396.127	2904.69
396.352	2893.69
396.576	2787.69
396.801	2846.69
397.025	2897.69
397.249	2913.69
397.474	2968.69
397.698	2897.69
397.922	2925.69
398.147	2936.69
398.371	3035.69
398.595	3033.69
398.82	3083.69
399.044	3198.69
399.268	3299.69
399.492	3558.69
399.717	3661.69
399.941	3651.69
400.165	3552.69
400.389	3344.69
400.613	3213.69
400.837	3119.69
401.062	3101.69
401.286	3125.69
401.51	3032.69
401.734	3040.69
401.958	3042.69
402.182	3068.69
402.406	3050.69
402.63	3040.69
402.854	3093.69
403.078	3119.69
403.302	3200.69
403.526	3149.69
403.75	3158.69
403.974	3216.69
404.198	3135.69
404.422	3198.69
404.645	3192.69
404.869	3169.69
405.093	3227.69
405.317	3191.69
405.541	3230.69
405.765	3274.69
405.988	3297.69
406.212	3309.69
406.436	3222.69
406.66	3351.69
406.883	3271.69
407.107	3413.69
407.331	3467.69
407.555	3462.69
407.778	3435.69
408.002	3421.69
408.226	3400.69
408.449	3379.69
408.673	3293.69
408.896	3239.69
409.12	3212.69
409.344	3266.69
409.567	3166.69
409.791	3139.69
410.014	3176.69
410.238	3189.69
410.461	3171.69
410.685	3149.69
410.908	3094.69
411.132	3163.69
411.355	3038.69
411.578	3067.69
411.802	3063.69
412.025	3059.69
412.249	3069.69
412.472	3022.69
412.695	3035.69
412.919	2985.69
413.142	3027.69
413.365	3006.69
413.589	3046.69
413.812	2995.69
414.035	2939.69
414.258	2971.69
414.482	2947.69
414.705	3032.69
414.928	2997.69
415.151	2963.69
415.374	2939.69
415.597	2967.69
415.821	2891.69
416.044	2881.69
416.267	2924.69
416.49	2835.69
416.713	2833.69
416.936	2872.69
417.159	2842.69
417.382	2841.69
417.605	2846.69
417.828	2843.69
418.051	2872.69
418.274	2865.69
418.497	2861.69
418.72	2962.69
418.943	2877.69
419.166	3017.69
419.389	3204.69
419.611	3154.69
419.834	3069.69
420.057	3059.69
420.28	2945.69
420.503	2861.69
420.726	2865.69
420.948	2897.69
421.171	2849.69
421.394	2906.69
421.617	2885.69
421.839	2892.69
422.062	2896.69
422.285	2874.69
422.507	2930.69
422.73	2932.69
422.953	2953.69
423.175	2963.69
423.398	2959.69
423.621	2851.69
423.843	2927.69
424.066	2912.69
424.288	2861.69
424.511	2861.69
424.733	2845.69
424.956	2780.69
425.178	2847.69
425.401	2811.69
425.623	2823.69
425.846	2785.69
426.068	2779.69
426.291	2757.69
426.513	2747.69
426.735	2738.69
426.958	2761.69
427.18	2719.69
427.402	2693.69
427.625	2727.69
427.847	2689.69
428.069	2639.69
428.292	2739.69
428.514	2661.69
428.736	2659.69
428.958	2692.69
429.181	2635.69
429.403	2642.69
429.625	2637.69
429.847	2663.69
430.069	2683.69
430.292	2770.69
430.514	2791.69
430.736	2823.69
430.958	2720.69
431.18	2603.69
431.402	2612.69
431.624	2591.69
431.846	2573.69
432.068	2604.69
432.29	2660.69
432.512	2655.69
432.734	2636.69
432.956	2654.69
433.178	2629.69
433.4	2636.69
433.622	2678.69
433.844	2633.69
434.066	2656.69
434.287	2662.69
434.509	2700.69
434.731	2704.69
434.953	2729.69
435.175	2735.69
435.397	2728.69
435.618	2685.69
435.84	2631.69
436.062	2619.69
436.284	2648.69
436.505	2623.69
436.727	2632.69
436.949	2622.69
437.17	2589.69
437.392	2596.69
437.614	2590.69
437.835	2527.69
438.057	2551.69
438.278	2542.69
438.5	2567.69
438.721	2580.69
438.943	2693.69
439.165	2723.69
439.386	2773.69
439.608	2752.69
439.829	2695.69
440.05	2797.69
440.272	2829.69
440.493	2722.69
440.715	2771.69
440.936	2749.69
441.158	2749.69
441.379	2778.69
441.6	2876.69
441.822	2928.69
442.043	3079.69
442.264	3148.69
442.486	2913.69
442.707	2871.69
442.928	2871.69
443.149	2830.69
443.371	2769.69
443.592	2788.69
443.813	2814.69
444.034	2784.69
444.255	2901.69
444.476	2981.69
444.698	2988.69
444.919	3069.69
445.14	3119.69
445.361	2908.69
445.582	2893.69
445.803	2852.69
446.024	2759.69
446.245	2835.69
446.466	2838.69
446.687	2705.69
446.908	2718.69
447.129	2644.69
447.35	2644.69
447.571	2639.69
447.792	2599.69
448.013	2602.69
448.234	2614.69
448.455	2544.69
448.675	2611.69
448.896	2706.69
449.117	2703.69
449.338	2957.69
449.559	3107.69
449.779	2814.69
450	2640.69
450.221	2519.69
450.442	2519.69
450.662	2516.69
450.883	2515.69
451.104	2537.69
451.324	2555.69
451.545	2537.69
451.766	2525.69
451.986	2574.69
452.207	2777.69
452.428	3544.69
452.648	5270.69
452.869	4485.69
453.089	3082.69
453.31	2927.69
453.53	2920.69
453.751	2954.69
453.971	3068.69
454.192	3049.69
454.412	2657.69
454.633	2513.69
454.853	2498.69
455.073	2513.69
455.294	2459.69
455.514	2398.69
455.734	2393.69
455.955	2367.69
456.175	2398.69
456.395	2385.69
456.616	2445.69
456.836	2500.69
457.056	2462.69
457.276	2500.69
457.497	2622.69
457.717	2629.69
457.937	2547.69
458.157	2556.69
458.377	2571.69
458.598	2577.69
458.818	2620.69
459.038	2613.69
459.258	2616.69
459.478	2634.69
459.698	2679.69
459.918	2671.69
460.138	2741.69
460.358	2734.69
460.578	2799.69
460.798	2846.69
461.018	2895.69
461.238	2871.69
461.458	2902.69
461.678	2911.69
461.898	3004.69
462.118	3041.69
462.338	3075.69
462.558	3103.69
462.777	3110.69
462.997	3262.69
463.217	3356.69
463.437	3534.69
463.657	3527.69
463.876	3491.69
464.096	3359.69
464.316	3200.69
464.536	3159.69
464.755	3115.69
464.975	3016.69
465.195	2872.69
465.414	2860.69
465.634	2774.69
465.854	2724.69
466.073	2669.69
466.293	2703.69
466.512	2667.69
466.732	2672.69
466.951	2804.69
467.171	2926.69
467.391	2987.69
467.61	2720.69
467.829	2613.69
468.049	2607.69
468.268	2572.69
468.488	2626.69
468.707	2512.69
468.927	2555.69
469.146	2577.69
469.365	2598.69
469.585	2613.69
469.804	2688.69
470.023	2756.69
470.243	2737.69
470.462	2856.69
470.681	3044.69
470.901	3308.69
471.12	3809.69
471.339	3747.69
471.558	3153.69
471.777	2891.69
471.997	2740.69
472.216	2710.69
472.435	2690.69
472.654	2622.69
472.873	2600.69
473.092	2575.69
473.311	2608.69
473.53	2616.69
473.749	2694.69
473.968	2733.69
474.187	2601.69
474.406	2609.69
474.625	2639.69
474.844	2623.69
475.063	2592.69
475.282	2619.69
475.501	2624.69
475.72	2603.69
475.939	2641.69
476.158	2720.69
476.377	2767.69
476.596	2783.69
476.814	2716.69
477.033	2696.69
477.252	2777.69
477.471	2847.69
477.69	2856.69
477.908	2899.69
478.127	2952.69
478.346	2957.69
478.564	2954.69
478.783	3020.69
479.002	3088.69
479.22	3040.69
479.439	3115.69
479.658	3086.69
479.876	3110.69
480.095	3152.69
480.313	3162.69
480.532	3251.69
480.751	3192.69
480.969	3191.69
481.188	3149.69
481.406	3143.69
481.624	3163.69
481.843	3152.69
482.061	3177.69
482.28	3167.69
482.498	3138.69
482.717	3105.69
482.935	3143.69
483.153	3228.69
483.372	3237.69
483.59	3276.69
483.808	3345.69
484.027	3427.69
484.245	3630.69
484.463	4019.69
484.681	4449.69
484.9	4103.69
485.118	3785.69
485.336	3736.69
485.554	3808.69
485.772	4077.69
485.99	4481.69
486.209	4788.69
486.427	4079.69
486.645	3688.69
486.863	3558.69
487.081	3413.69
487.299	3363.69
487.517	3334.69
487.735	3392.69
