Data from SnStandardFlinnAPT0064_QswitchEnergy10_LIBS07252019.E.O._I.C._HRD10591_15-28-54-974.txt Node
Date: Thu Jul 25 15:28:54 EDT 2019
User: cochatt
Spectrometer: HR+D1059
Trigger mode: 1
Integration Time (sec): 1.000000E-1
Scans to average: 1
Electric dark correction enabled: true
Nonlinearity correction enabled: false
Boxcar width: 0
XAxis mode: Wavelengths
Number of Pixels in Spectrum: 2048
>>>>>Begin Spectral Data<<<<<
223.165	-10.56
223.4	-10.56
223.635	-10.56
223.869	-8.56
224.104	-18.56
224.338	-16.56
224.573	-26.56
224.808	-24.56
225.042	1.44
225.277	-2.56
225.511	-4.56
225.746	-8.56
225.98	8.44
226.215	25.44
226.449	21.44
226.683	11.44
226.918	19.44
227.152	33.44
227.387	29.44
227.621	40.44
227.856	54.44
228.09	45.44
228.324	37.44
228.559	54.44
228.793	59.44
229.027	70.44
229.262	78.44
229.496	61.44
229.73	70.44
229.964	82.44
230.199	69.44
230.433	81.44
230.667	78.44
230.901	71.44
231.136	49.44
231.37	80.44
231.604	94.44
231.838	101.44
232.072	119.44
232.306	107.44
232.541	101.44
232.775	79.44
233.009	87.44
233.243	86.44
233.477	87.44
233.711	84.44
233.945	106.44
234.179	90.44
234.413	77.44
234.647	93.44
234.881	92.44
235.115	77.44
235.349	94.44
235.583	102.44
235.817	128.44
236.051	127.44
236.285	102.44
236.519	87.44
236.753	79.44
236.987	59.44
237.221	77.44
237.455	60.44
237.689	75.44
237.922	79.44
238.156	85.44
238.39	73.44
238.624	86.44
238.858	86.44
239.091	71.44
239.325	77.44
239.559	55.44
239.793	60.44
240.027	71.44
240.26	86.44
240.494	80.44
240.728	81.44
240.961	75.44
241.195	91.44
241.429	81.44
241.662	74.44
241.896	86.44
242.13	109.44
242.363	135.44
242.597	164.44
242.83	147.44
243.064	141.44
243.298	178.44
243.531	142.44
243.765	112.44
243.998	92.44
244.232	76.44
244.465	93.44
244.699	80.44
244.932	81.44
245.166	74.44
245.399	98.44
245.633	93.44
245.866	85.44
246.099	87.44
246.333	78.44
246.566	82.44
246.8	74.44
247.033	81.44
247.266	71.44
247.5	75.44
247.733	82.44
247.966	87.44
248.2	111.44
248.433	117.44
248.666	127.44
248.899	131.44
249.133	89.44
249.366	102.44
249.599	99.44
249.832	124.44
250.066	138.44
250.299	95.44
250.532	97.44
250.765	86.44
250.998	80.44
251.231	80.44
251.465	70.44
251.698	69.44
251.931	79.44
252.164	71.44
252.397	93.44
252.63	94.44
252.863	101.44
253.096	80.44
253.329	104.44
253.562	93.44
253.795	99.44
254.028	74.44
254.261	74.44
254.494	96.44
254.727	122.44
254.96	155.44
255.193	137.44
255.426	87.44
255.659	81.44
255.892	94.44
256.124	98.44
256.357	91.44
256.59	88.44
256.823	100.44
257.056	114.44
257.289	150.44
257.521	185.44
257.754	133.44
257.987	83.44
258.22	86.44
258.452	88.44
258.685	92.44
258.918	90.44
259.151	89.44
259.383	103.44
259.616	137.44
259.849	153.44
260.081	111.44
260.314	91.44
260.547	89.44
260.779	91.44
261.012	73.44
261.244	70.44
261.477	82.44
261.71	94.44
261.942	86.44
262.175	81.44
262.407	73.44
262.64	88.44
262.872	80.44
263.105	84.44
263.337	85.44
263.57	75.44
263.802	94.44
264.035	101.44
264.267	83.44
264.499	85.44
264.732	84.44
264.964	88.44
265.197	87.44
265.429	73.44
265.661	84.44
265.894	100.44
266.126	136.44
266.358	155.44
266.591	146.44
266.823	106.44
267.055	98.44
267.287	92.44
267.52	88.44
267.752	93.44
267.984	88.44
268.216	81.44
268.448	91.44
268.681	89.44
268.913	84.44
269.145	91.44
269.377	87.44
269.609	88.44
269.841	107.44
270.073	89.44
270.306	137.44
270.538	232.44
270.77	343.44
271.002	418.44
271.234	223.44
271.466	120.44
271.698	87.44
271.93	95.44
272.162	88.44
272.394	88.44
272.626	94.44
272.858	87.44
273.09	91.44
273.322	85.44
273.553	80.44
273.785	91.44
274.017	85.44
274.249	80.44
274.481	81.44
274.713	94.44
274.945	80.44
275.176	92.44
275.408	92.44
275.64	100.44
275.872	93.44
276.104	86.44
276.335	95.44
276.567	97.44
276.799	81.44
277.031	70.44
277.262	99.44
277.494	112.44
277.726	137.44
277.957	208.44
278.189	290.44
278.421	271.44
278.652	205.44
278.884	199.44
279.115	149.44
279.347	112.44
279.579	95.44
279.81	99.44
280.042	87.44
280.273	109.44
280.505	109.44
280.736	122.44
280.968	132.44
281.199	184.44
281.431	283.44
281.662	290.44
281.894	166.44
282.125	123.44
282.356	118.44
282.588	122.44
282.819	111.44
283.051	123.44
283.282	149.44
283.513	199.44
283.745	345.44
283.976	624.44
284.207	870.44
284.439	665.44
284.67	294.44
284.901	309.44
285.132	377.44
285.364	412.44
285.595	257.44
285.826	193.44
286.057	277.44
286.288	458.44
286.52	672.44
286.751	539.44
286.982	207.44
287.213	126.44
287.444	121.44
287.675	118.44
287.906	89.44
288.138	89.44
288.369	90.44
288.6	100.44
288.831	88.44
289.062	97.44
289.293	92.44
289.524	96.44
289.755	90.44
289.986	87.44
290.217	95.44
290.448	107.44
290.679	99.44
290.91	128.44
291.141	162.44
291.371	290.44
291.602	334.44
291.833	225.44
292.064	129.44
292.295	96.44
292.526	96.44
292.757	102.44
292.987	90.44
293.218	97.44
293.449	102.44
293.68	89.44
293.91	95.44
294.141	96.44
294.372	93.44
294.603	100.44
294.833	89.44
295.064	86.44
295.295	84.44
295.525	94.44
295.756	101.44
295.987	100.44
296.217	79.44
296.448	103.44
296.679	113.44
296.909	94.44
297.14	101.44
297.37	96.44
297.601	92.44
297.831	99.44
298.062	106.44
298.292	115.44
298.523	95.44
298.753	118.44
298.984	103.44
299.214	102.44
299.445	104.44
299.675	118.44
299.905	117.44
300.136	156.44
300.366	184.44
300.597	309.44
300.827	488.44
301.057	763.44
301.288	713.44
301.518	290.44
301.748	147.44
301.979	145.44
302.209	153.44
302.439	152.44
302.669	182.44
302.9	304.44
303.13	570.44
303.36	1030.44
303.59	1410.44
303.82	949.44
304.051	343.44
304.281	179.44
304.511	134.44
304.741	131.44
304.971	134.44
305.201	110.44
305.431	105.44
305.661	104.44
305.891	112.44
306.121	118.44
306.352	102.44
306.582	103.44
306.812	114.44
307.042	106.44
307.272	102.44
307.502	102.44
307.731	115.44
307.961	104.44
308.191	97.44
308.421	118.44
308.651	114.44
308.881	100.44
309.111	105.44
309.341	110.44
309.571	115.44
309.8	109.44
310.03	97.44
310.26	102.44
310.49	116.44
310.72	103.44
310.949	111.44
311.179	105.44
311.409	115.44
311.639	121.44
311.868	113.44
312.098	120.44
312.328	102.44
312.557	110.44
312.787	113.44
313.017	99.44
313.246	110.44
313.476	100.44
313.706	147.44
313.935	173.44
314.165	211.44
314.394	251.44
314.624	198.44
314.853	131.44
315.083	141.44
315.312	137.44
315.542	133.44
315.771	127.44
316.001	134.44
316.23	146.44
316.46	151.44
316.689	188.44
316.919	301.44
317.148	531.44
317.377	1039.44
317.607	1679.44
317.836	1581.44
318.065	601.44
318.295	246.44
318.524	161.44
318.753	157.44
318.983	123.44
319.212	123.44
319.441	131.44
319.67	130.44
319.9	129.44
320.129	117.44
320.358	111.44
320.587	145.44
320.816	129.44
321.046	123.44
321.275	129.44
321.504	134.44
321.733	154.44
321.962	190.44
322.191	175.44
322.42	153.44
322.649	146.44
322.878	121.44
323.108	124.44
323.337	127.44
323.566	129.44
323.795	135.44
324.024	142.44
324.253	157.44
324.482	189.44
324.71	257.44
324.939	295.44
325.168	271.44
325.397	201.44
325.626	282.44
325.855	544.44
326.084	1051.44
326.313	1768.44
326.542	1748.44
326.77	702.44
326.999	294.44
327.228	231.44
327.457	253.44
327.686	249.44
327.914	172.44
328.143	128.44
328.372	134.44
328.6	143.44
328.829	125.44
329.058	134.44
329.287	138.44
329.515	122.44
329.744	122.44
329.972	122.44
330.201	121.44
330.43	114.44
330.658	125.44
330.887	111.44
331.115	100.44
331.344	127.44
331.572	112.44
331.801	117.44
332.03	139.44
332.258	135.44
332.486	173.44
332.715	334.44
332.943	567.44
333.172	850.44
333.4	729.44
333.629	276.44
333.857	155.44
334.085	138.44
334.314	146.44
334.542	137.44
334.771	136.44
334.999	132.44
335.227	133.44
335.455	121.44
335.684	129.44
335.912	132.44
336.14	129.44
336.369	96.44
336.597	92.44
336.825	116.44
337.053	113.44
337.281	115.44
337.51	98.44
337.738	110.44
337.966	112.44
338.194	127.44
338.422	119.44
338.65	120.44
338.878	120.44
339.106	118.44
339.334	126.44
339.562	97.44
339.79	121.44
340.018	121.44
340.246	119.44
340.474	99.44
340.702	107.44
340.93	115.44
341.158	111.44
341.386	117.44
341.614	129.44
341.842	137.44
342.07	121.44
342.298	128.44
342.526	112.44
342.754	117.44
342.981	131.44
343.209	110.44
343.437	111.44
343.665	122.44
343.893	118.44
344.12	111.44
344.348	110.44
344.576	116.44
344.804	122.44
345.031	120.44
345.259	110.44
345.487	111.44
345.714	120.44
345.942	103.44
346.17	119.44
346.397	109.44
346.625	105.44
346.853	115.44
347.08	99.44
347.308	88.44
347.535	112.44
347.763	99.44
347.99	101.44
348.218	107.44
348.445	108.44
348.673	119.44
348.9	131.44
349.128	129.44
349.355	128.44
349.583	119.44
349.81	116.44
350.037	117.44
350.265	130.44
350.492	112.44
350.72	123.44
350.947	109.44
351.174	123.44
351.402	124.44
351.629	123.44
351.856	113.44
352.083	106.44
352.311	111.44
352.538	113.44
352.765	118.44
352.992	107.44
353.22	115.44
353.447	102.44
353.674	102.44
353.901	109.44
354.128	120.44
354.355	119.44
354.583	114.44
354.81	111.44
355.037	100.44
355.264	93.44
355.491	104.44
355.718	101.44
355.945	105.44
356.172	101.44
356.399	115.44
356.626	105.44
356.853	100.44
357.08	109.44
357.307	117.44
357.534	105.44
357.761	111.44
357.988	118.44
358.215	114.44
358.441	100.44
358.668	107.44
358.895	117.44
359.122	131.44
359.349	132.44
359.576	127.44
359.802	134.44
360.029	120.44
360.256	116.44
360.483	124.44
360.709	122.44
360.936	135.44
361.163	114.44
361.39	114.44
361.616	112.44
361.843	124.44
362.07	121.44
362.296	115.44
362.523	118.44
362.749	102.44
362.976	114.44
363.203	121.44
363.429	103.44
363.656	98.44
363.882	110.44
364.109	118.44
364.335	119.44
364.562	107.44
364.788	105.44
365.015	110.44
365.241	135.44
365.468	197.44
365.694	294.44
365.92	244.44
366.147	130.44
366.373	121.44
366.599	110.44
366.826	113.44
367.052	109.44
367.278	110.44
367.505	103.44
367.731	98.44
367.957	109.44
368.184	105.44
368.41	115.44
368.636	130.44
368.862	113.44
369.089	111.44
369.315	106.44
369.541	102.44
369.767	111.44
369.993	104.44
370.219	111.44
370.445	123.44
370.672	126.44
370.898	102.44
371.124	112.44
371.35	107.44
371.576	93.44
371.802	115.44
372.028	112.44
372.254	108.44
372.48	122.44
372.706	117.44
372.932	127.44
373.158	111.44
373.384	118.44
373.61	104.44
373.835	119.44
374.061	109.44
374.287	113.44
374.513	108.44
374.739	116.44
374.965	121.44
375.191	124.44
375.416	114.44
375.642	120.44
375.868	113.44
376.094	92.44
376.319	112.44
376.545	122.44
376.771	130.44
376.997	122.44
377.222	116.44
377.448	113.44
377.674	98.44
377.899	125.44
378.125	106.44
378.35	113.44
378.576	113.44
378.802	116.44
379.027	135.44
379.253	152.44
379.478	200.44
379.704	350.44
379.929	882.44
380.155	1803.44
380.38	1871.44
380.606	582.44
380.831	198.44
381.057	148.44
381.282	116.44
381.507	99.44
381.733	120.44
381.958	112.44
382.184	119.44
382.409	114.44
382.634	105.44
382.86	110.44
383.085	111.44
383.31	108.44
383.535	116.44
383.761	105.44
383.986	101.44
384.211	117.44
384.436	105.44
384.662	94.44
384.887	127.44
385.112	109.44
385.337	94.44
385.562	102.44
385.787	109.44
386.013	127.44
386.238	105.44
386.463	119.44
386.688	94.44
386.913	112.44
387.138	117.44
387.363	97.44
387.588	109.44
387.813	116.44
388.038	114.44
388.263	112.44
388.488	114.44
388.713	105.44
388.938	95.44
389.163	91.44
389.387	91.44
389.612	98.44
389.837	101.44
390.062	111.44
390.287	99.44
390.512	114.44
390.736	131.44
390.961	109.44
391.186	116.44
391.411	112.44
391.636	93.44
391.86	103.44
392.085	95.44
392.31	92.44
392.534	92.44
392.759	111.44
392.984	117.44
393.208	123.44
393.433	158.44
393.658	149.44
393.882	111.44
394.107	97.44
394.331	99.44
394.556	93.44
394.78	95.44
395.005	98.44
395.229	91.44
395.454	103.44
395.678	105.44
395.903	94.44
396.127	92.44
396.352	102.44
396.576	112.44
396.801	117.44
397.025	147.44
397.249	109.44
397.474	107.44
397.698	105.44
397.922	98.44
398.147	98.44
398.371	110.44
398.595	108.44
398.82	96.44
399.044	120.44
399.268	112.44
399.492	100.44
399.717	86.44
399.941	102.44
400.165	101.44
400.389	107.44
400.613	103.44
400.837	91.44
401.062	94.44
401.286	88.44
401.51	97.44
401.734	119.44
401.958	91.44
402.182	113.44
402.406	89.44
402.63	92.44
402.854	105.44
403.078	90.44
403.302	101.44
403.526	88.44
403.75	102.44
403.974	104.44
404.198	105.44
404.422	80.44
404.645	100.44
404.869	100.44
405.093	100.44
405.317	97.44
405.541	115.44
405.765	139.44
405.988	162.44
406.212	121.44
406.436	117.44
406.66	105.44
406.883	96.44
407.107	102.44
407.331	95.44
407.555	97.44
407.778	109.44
408.002	97.44
408.226	114.44
408.449	113.44
408.673	115.44
408.896	105.44
409.12	96.44
409.344	95.44
409.567	94.44
409.791	106.44
410.014	115.44
410.238	111.44
410.461	97.44
410.685	111.44
410.908	95.44
411.132	101.44
411.355	98.44
411.578	97.44
411.802	94.44
412.025	100.44
412.249	93.44
412.472	104.44
412.695	91.44
412.919	110.44
413.142	106.44
413.365	90.44
413.589	88.44
413.812	106.44
414.035	115.44
414.258	103.44
414.482	106.44
414.705	116.44
414.928	100.44
415.151	111.44
415.374	102.44
415.597	96.44
415.821	80.44
416.044	106.44
416.267	93.44
416.49	98.44
416.713	98.44
416.936	97.44
417.159	91.44
417.382	86.44
417.605	94.44
417.828	87.44
418.051	92.44
418.274	86.44
418.497	87.44
418.72	102.44
418.943	104.44
419.166	99.44
419.389	106.44
419.611	118.44
419.834	101.44
420.057	106.44
420.28	95.44
420.503	109.44
420.726	96.44
420.948	98.44
421.171	100.44
421.394	105.44
421.617	94.44
421.839	93.44
422.062	97.44
422.285	96.44
422.507	99.44
422.73	137.44
422.953	148.44
423.175	107.44
423.398	109.44
423.621	89.44
423.843	98.44
424.066	95.44
424.288	91.44
424.511	99.44
424.733	105.44
424.956	91.44
425.178	85.44
425.401	104.44
425.623	97.44
425.846	99.44
426.068	101.44
426.291	91.44
426.513	90.44
426.735	95.44
426.958	99.44
427.18	113.44
427.402	92.44
427.625	88.44
427.847	85.44
428.069	105.44
428.292	109.44
428.514	113.44
428.736	95.44
428.958	94.44
429.181	83.44
429.403	102.44
429.625	110.44
429.847	115.44
430.069	122.44
430.292	111.44
430.514	102.44
430.736	94.44
430.958	87.44
431.18	111.44
431.402	95.44
431.624	109.44
431.846	94.44
432.068	109.44
432.29	107.44
432.512	91.44
432.734	93.44
432.956	92.44
433.178	88.44
433.4	98.44
433.622	98.44
433.844	99.44
434.066	97.44
434.287	98.44
434.509	90.44
434.731	88.44
434.953	92.44
435.175	97.44
435.397	106.44
435.618	97.44
435.84	86.44
436.062	95.44
436.284	103.44
436.505	87.44
436.727	93.44
436.949	87.44
437.17	94.44
437.392	79.44
437.614	95.44
437.835	102.44
438.057	95.44
438.278	86.44
438.5	92.44
438.721	91.44
438.943	105.44
439.165	121.44
439.386	113.44
439.608	110.44
439.829	101.44
440.05	97.44
440.272	130.44
440.493	96.44
440.715	89.44
440.936	90.44
441.158	98.44
441.379	102.44
441.6	83.44
441.822	106.44
442.043	103.44
442.264	130.44
442.486	89.44
442.707	105.44
442.928	104.44
443.149	96.44
443.371	99.44
443.592	94.44
443.813	87.44
444.034	104.44
444.255	98.44
444.476	102.44
444.698	106.44
444.919	106.44
445.14	191.44
445.361	139.44
445.582	90.44
445.803	94.44
446.024	93.44
446.245	104.44
446.466	107.44
446.687	107.44
446.908	109.44
447.129	83.44
447.35	94.44
447.571	104.44
447.792	102.44
448.013	94.44
448.234	103.44
448.455	103.44
448.675	91.44
448.896	105.44
449.117	120.44
449.338	145.44
449.559	147.44
449.779	128.44
450	105.44
450.221	110.44
450.442	125.44
450.662	116.44
450.883	95.44
451.104	106.44
451.324	131.44
451.545	111.44
451.766	115.44
451.986	140.44
452.207	231.44
452.428	607.44
452.648	1567.44
452.869	872.44
453.089	226.44
453.31	129.44
453.53	120.44
453.751	159.44
453.971	165.44
454.192	174.44
454.412	114.44
454.633	96.44
454.853	89.44
455.073	90.44
455.294	108.44
455.514	108.44
455.734	104.44
455.955	90.44
456.175	88.44
456.395	91.44
456.616	85.44
456.836	105.44
457.056	106.44
457.276	97.44
457.497	121.44
457.717	131.44
457.937	113.44
458.157	96.44
458.377	89.44
458.598	93.44
458.818	84.44
459.038	89.44
459.258	89.44
459.478	73.44
459.698	94.44
459.918	85.44
460.138	89.44
460.358	89.44
460.578	98.44
460.798	102.44
461.018	90.44
461.238	93.44
461.458	80.44
461.678	99.44
461.898	109.44
462.118	98.44
462.338	89.44
462.558	72.44
462.777	102.44
462.997	94.44
463.217	114.44
463.437	161.44
463.657	211.44
463.876	190.44
464.096	142.44
464.316	94.44
464.536	93.44
464.755	85.44
464.975	91.44
465.195	96.44
465.414	97.44
465.634	91.44
465.854	86.44
466.073	87.44
466.293	93.44
466.512	84.44
466.732	99.44
466.951	112.44
467.171	165.44
467.391	139.44
467.61	113.44
467.829	103.44
468.049	92.44
468.268	104.44
468.488	103.44
468.707	91.44
468.927	91.44
469.146	117.44
469.365	112.44
469.585	94.44
469.804	94.44
470.023	108.44
470.243	96.44
470.462	95.44
470.681	104.44
470.901	136.44
471.12	196.44
471.339	224.44
471.558	155.44
471.777	121.44
471.997	119.44
472.216	101.44
472.435	98.44
472.654	82.44
472.873	98.44
473.092	96.44
473.311	81.44
473.53	87.44
473.749	81.44
473.968	98.44
474.187	95.44
474.406	102.44
474.625	99.44
474.844	106.44
475.063	97.44
475.282	100.44
475.501	90.44
475.72	97.44
475.939	81.44
476.158	86.44
476.377	107.44
476.596	118.44
476.814	110.44
477.033	97.44
477.252	101.44
477.471	124.44
477.69	102.44
477.908	105.44
478.127	88.44
478.346	90.44
478.564	92.44
478.783	99.44
479.002	117.44
479.22	94.44
479.439	92.44
479.658	93.44
479.876	94.44
480.095	108.44
480.313	89.44
480.532	84.44
480.751	94.44
480.969	83.44
481.188	91.44
481.406	102.44
481.624	95.44
481.843	137.44
482.061	110.44
482.28	97.44
482.498	109.44
482.717	76.44
482.935	102.44
483.153	106.44
483.372	113.44
483.59	111.44
483.808	99.44
484.027	111.44
484.245	123.44
484.463	196.44
484.681	245.44
484.9	167.44
485.118	106.44
485.336	113.44
485.554	125.44
485.772	141.44
485.99	197.44
486.209	288.44
486.427	167.44
486.645	135.44
486.863	125.44
487.081	117.44
487.299	110.44
487.517	89.44
487.735	91.44
487.953	81.44
488.171	91.44
488.389	115.44
488.607	117.44
488.825	107.44
489.043	104.44
489.261	97.44
489.479	98.44
489.696	100.44
489.914	92.44
490.132	109.44
490.35	104.44
490.568	96.44
490.786	100.44
491.003	99.44
491.221	112.44
491.439	109.44
491.657	98.44
491.874	105.44
492.092	100.44
492.31	115.44
492.527	101.44
492.745	117.44
492.963	107.44
493.18	105.44
493.398	109.44
493.615	111.44
493.833	114.44
494.05	112.44
494.268	97.44
494.485	113.44
494.703	101.44
494.92	89.44
495.138	103.44
495.355	115.44
495.573	96.44
495.79	104.44
496.008	114.44
496.225	103.44
496.442	115.44
496.66	122.44
496.877	179.44
497.094	169.44
497.312	109.44
497.529	104.44
497.746	110.44
497.963	85.44
498.181	102.44
498.398	113.44
498.615	121.44
498.832	100.44
499.049	120.44
499.267	155.44
499.484	183.44
499.701	126.44
499.918	101.44
500.135	92.44
500.352	92.44
500.569	106.44
500.786	100.44
501.003	96.44
501.22	90.44
501.437	106.44
501.654	109.44
501.871	100.44
502.088	113.44
502.305	119.44
502.522	104.44
502.739	106.44
502.956	88.44
503.172	93.44
503.389	106.44
503.606	93.44
503.823	106.44
504.04	108.44
504.256	111.44
504.473	109.44
504.69	100.44
504.907	125.44
505.123	109.44
505.34	103.44
505.557	90.44
505.773	112.44
505.99	106.44
506.207	103.44
506.423	117.44
506.64	100.44
506.856	97.44
507.073	111.44
507.289	93.44
507.506	90.44
507.722	85.44
507.939	106.44
