Data from SnStandardFlinnAPT0064_QswitchEnergy10_LIBS07252019.E.O._I.C._HRD10591_15-29-02-974.txt Node
Date: Thu Jul 25 15:29:02 EDT 2019
User: cochatt
Spectrometer: HR+D1059
Trigger mode: 1
Integration Time (sec): 1.000000E-1
Scans to average: 1
Electric dark correction enabled: true
Nonlinearity correction enabled: false
Boxcar width: 0
XAxis mode: Wavelengths
Number of Pixels in Spectrum: 2048
>>>>>Begin Spectral Data<<<<<
223.165	-21.75
223.4	-21.75
223.635	-21.75
223.869	-26.75
224.104	-16.75
224.338	-12.75
224.573	-14.75
224.808	-5.75
225.042	-3.75
225.277	-4.75
225.511	-5.75
225.746	5.25
225.98	9.25
226.215	9.25
226.449	13.25
226.683	16.25
226.918	18.25
227.152	41.25
227.387	25.25
227.621	26.25
227.856	33.25
228.09	39.25
228.324	43.25
228.559	45.25
228.793	47.25
229.027	69.25
229.262	69.25
229.496	73.25
229.73	57.25
229.964	68.25
230.199	59.25
230.433	74.25
230.667	86.25
230.901	79.25
231.136	74.25
231.37	91.25
231.604	74.25
231.838	110.25
232.072	97.25
232.306	113.25
232.541	100.25
232.775	82.25
233.009	88.25
233.243	67.25
233.477	76.25
233.711	100.25
233.945	106.25
234.179	84.25
234.413	85.25
234.647	92.25
234.881	86.25
235.115	77.25
235.349	91.25
235.583	104.25
235.817	125.25
236.051	130.25
236.285	86.25
236.519	82.25
236.753	91.25
236.987	83.25
237.221	65.25
237.455	82.25
237.689	66.25
237.922	66.25
238.156	78.25
238.39	81.25
238.624	91.25
238.858	81.25
239.091	70.25
239.325	71.25
239.559	84.25
239.793	84.25
240.027	83.25
240.26	88.25
240.494	82.25
240.728	72.25
240.961	70.25
241.195	86.25
241.429	86.25
241.662	76.25
241.896	93.25
242.13	99.25
242.363	118.25
242.597	163.25
242.83	144.25
243.064	112.25
243.298	147.25
243.531	128.25
243.765	101.25
243.998	84.25
244.232	88.25
244.465	84.25
244.699	92.25
244.932	82.25
245.166	78.25
245.399	87.25
245.633	79.25
245.866	84.25
246.099	79.25
246.333	75.25
246.566	78.25
246.8	71.25
247.033	79.25
247.266	76.25
247.5	77.25
247.733	79.25
247.966	80.25
248.2	83.25
248.433	90.25
248.666	124.25
248.899	125.25
249.133	83.25
249.366	106.25
249.599	117.25
249.832	132.25
250.066	111.25
250.299	85.25
250.532	82.25
250.765	78.25
250.998	88.25
251.231	72.25
251.465	78.25
251.698	79.25
251.931	76.25
252.164	91.25
252.397	80.25
252.63	81.25
252.863	79.25
253.096	101.25
253.329	90.25
253.562	103.25
253.795	74.25
254.028	97.25
254.261	79.25
254.494	86.25
254.727	110.25
254.96	133.25
255.193	127.25
255.426	94.25
255.659	95.25
255.892	101.25
256.124	96.25
256.357	92.25
256.59	85.25
256.823	82.25
257.056	103.25
257.289	157.25
257.521	175.25
257.754	119.25
257.987	95.25
258.22	88.25
258.452	85.25
258.685	91.25
258.918	87.25
259.151	102.25
259.383	98.25
259.616	126.25
259.849	160.25
260.081	89.25
260.314	84.25
260.547	81.25
260.779	84.25
261.012	78.25
261.244	72.25
261.477	84.25
261.71	84.25
261.942	79.25
262.175	84.25
262.407	91.25
262.64	75.25
262.872	86.25
263.105	97.25
263.337	90.25
263.57	85.25
263.802	95.25
264.035	97.25
264.267	92.25
264.499	73.25
264.732	76.25
264.964	82.25
265.197	69.25
265.429	87.25
265.661	96.25
265.894	101.25
266.126	122.25
266.358	162.25
266.591	146.25
266.823	82.25
267.055	86.25
267.287	107.25
267.52	102.25
267.752	90.25
267.984	84.25
268.216	67.25
268.448	90.25
268.681	75.25
268.913	84.25
269.145	106.25
269.377	90.25
269.609	84.25
269.841	93.25
270.073	102.25
270.306	126.25
270.538	196.25
270.77	315.25
271.002	370.25
271.234	203.25
271.466	110.25
271.698	93.25
271.93	102.25
272.162	80.25
272.394	61.25
272.626	79.25
272.858	83.25
273.09	90.25
273.322	87.25
273.553	84.25
273.785	94.25
274.017	92.25
274.249	80.25
274.481	78.25
274.713	88.25
274.945	91.25
275.176	83.25
275.408	83.25
275.64	79.25
275.872	95.25
276.104	96.25
276.335	85.25
276.567	87.25
276.799	77.25
277.031	78.25
277.262	97.25
277.494	94.25
277.726	112.25
277.957	179.25
278.189	252.25
278.421	245.25
278.652	186.25
278.884	184.25
279.115	155.25
279.347	102.25
279.579	98.25
279.81	86.25
280.042	92.25
280.273	92.25
280.505	99.25
280.736	97.25
280.968	128.25
281.199	179.25
281.431	243.25
281.662	259.25
281.894	149.25
282.125	119.25
282.356	105.25
282.588	115.25
282.819	116.25
283.051	124.25
283.282	139.25
283.513	173.25
283.745	305.25
283.976	534.25
284.207	784.25
284.439	565.25
284.67	288.25
284.901	255.25
285.132	347.25
285.364	383.25
285.595	224.25
285.826	166.25
286.057	259.25
286.288	402.25
286.52	605.25
286.751	479.25
286.982	204.25
287.213	115.25
287.444	91.25
287.675	100.25
287.906	102.25
288.138	97.25
288.369	99.25
288.6	83.25
288.831	109.25
289.062	98.25
289.293	88.25
289.524	109.25
289.755	90.25
289.986	94.25
290.217	96.25
290.448	92.25
290.679	109.25
290.91	127.25
291.141	175.25
291.371	262.25
291.602	300.25
291.833	196.25
292.064	119.25
292.295	94.25
292.526	92.25
292.757	92.25
292.987	87.25
293.218	72.25
293.449	103.25
293.68	91.25
293.91	103.25
294.141	85.25
294.372	88.25
294.603	83.25
294.833	79.25
295.064	78.25
295.295	102.25
295.525	95.25
295.756	92.25
295.987	86.25
296.217	87.25
296.448	88.25
296.679	100.25
296.909	92.25
297.14	104.25
297.37	101.25
297.601	103.25
297.831	99.25
298.062	93.25
298.292	102.25
298.523	100.25
298.753	98.25
298.984	101.25
299.214	108.25
299.445	92.25
299.675	95.25
299.905	126.25
300.136	139.25
300.366	156.25
300.597	266.25
300.827	464.25
301.057	705.25
301.288	613.25
301.518	242.25
301.748	148.25
301.979	140.25
302.209	127.25
302.439	138.25
302.669	185.25
302.9	283.25
303.13	531.25
303.36	919.25
303.59	1292.25
303.82	870.25
304.051	314.25
304.281	161.25
304.511	126.25
304.741	118.25
304.971	120.25
305.201	110.25
305.431	112.25
305.661	103.25
305.891	124.25
306.121	110.25
306.352	102.25
306.582	116.25
306.812	123.25
307.042	117.25
307.272	110.25
307.502	103.25
307.731	100.25
307.961	111.25
308.191	90.25
308.421	108.25
308.651	91.25
308.881	109.25
309.111	102.25
309.341	103.25
309.571	115.25
309.8	113.25
310.03	118.25
310.26	111.25
310.49	112.25
310.72	101.25
310.949	111.25
311.179	126.25
311.409	108.25
311.639	98.25
311.868	99.25
312.098	101.25
312.328	118.25
312.557	106.25
312.787	122.25
313.017	118.25
313.246	122.25
313.476	120.25
313.706	132.25
313.935	155.25
314.165	199.25
314.394	242.25
314.624	204.25
314.853	125.25
315.083	126.25
315.312	135.25
315.542	122.25
315.771	114.25
316.001	140.25
316.23	149.25
316.46	161.25
316.689	190.25
316.919	277.25
317.148	510.25
317.377	956.25
317.607	1505.25
317.836	1390.25
318.065	554.25
318.295	229.25
318.524	156.25
318.753	127.25
318.983	122.25
319.212	134.25
319.441	115.25
319.67	114.25
319.9	115.25
320.129	126.25
320.358	126.25
320.587	134.25
320.816	119.25
321.046	108.25
321.275	125.25
321.504	130.25
321.733	150.25
321.962	177.25
322.191	167.25
322.42	128.25
322.649	114.25
322.878	132.25
323.108	132.25
323.337	128.25
323.566	122.25
323.795	140.25
324.024	139.25
324.253	151.25
324.482	173.25
324.71	227.25
324.939	268.25
325.168	228.25
325.397	200.25
325.626	256.25
325.855	480.25
326.084	949.25
326.313	1612.25
326.542	1612.25
326.77	619.25
326.999	279.25
327.228	232.25
327.457	245.25
327.686	248.25
327.914	168.25
328.143	134.25
328.372	133.25
328.6	129.25
328.829	124.25
329.058	110.25
329.287	121.25
329.515	133.25
329.744	122.25
329.972	131.25
330.201	123.25
330.43	122.25
330.658	123.25
330.887	99.25
331.115	112.25
331.344	102.25
331.572	116.25
331.801	114.25
332.03	120.25
332.258	140.25
332.486	159.25
332.715	295.25
332.943	506.25
333.172	806.25
333.4	682.25
333.629	255.25
333.857	140.25
334.085	135.25
334.314	127.25
334.542	122.25
334.771	134.25
334.999	126.25
335.227	137.25
335.455	122.25
335.684	123.25
335.912	114.25
336.14	119.25
336.369	116.25
336.597	124.25
336.825	106.25
337.053	111.25
337.281	104.25
337.51	120.25
337.738	111.25
337.966	96.25
338.194	127.25
338.422	108.25
338.65	123.25
338.878	121.25
339.106	128.25
339.334	121.25
339.562	117.25
339.79	126.25
340.018	115.25
340.246	121.25
340.474	120.25
340.702	118.25
340.93	123.25
341.158	122.25
341.386	126.25
341.614	126.25
341.842	130.25
342.07	126.25
342.298	114.25
342.526	121.25
342.754	106.25
342.981	120.25
343.209	101.25
343.437	117.25
343.665	113.25
343.893	127.25
344.12	111.25
344.348	112.25
344.576	118.25
344.804	106.25
345.031	120.25
345.259	116.25
345.487	108.25
345.714	102.25
345.942	101.25
346.17	114.25
346.397	110.25
346.625	109.25
346.853	115.25
347.08	108.25
347.308	113.25
347.535	119.25
347.763	127.25
347.99	93.25
348.218	106.25
348.445	100.25
348.673	124.25
348.9	118.25
349.128	142.25
349.355	128.25
349.583	122.25
349.81	122.25
350.037	120.25
350.265	116.25
350.492	122.25
350.72	125.25
350.947	117.25
351.174	113.25
351.402	111.25
351.629	108.25
351.856	122.25
352.083	108.25
352.311	112.25
352.538	103.25
352.765	128.25
352.992	122.25
353.22	114.25
353.447	99.25
353.674	94.25
353.901	110.25
354.128	99.25
354.355	111.25
354.583	106.25
354.81	132.25
355.037	107.25
355.264	116.25
355.491	102.25
355.718	105.25
355.945	92.25
356.172	106.25
356.399	116.25
356.626	120.25
356.853	103.25
357.08	92.25
357.307	115.25
357.534	97.25
357.761	95.25
357.988	105.25
358.215	116.25
358.441	111.25
358.668	119.25
358.895	132.25
359.122	129.25
359.349	123.25
359.576	110.25
359.802	108.25
360.029	126.25
360.256	110.25
360.483	107.25
360.709	113.25
360.936	119.25
361.163	118.25
361.39	120.25
361.616	95.25
361.843	106.25
362.07	114.25
362.296	118.25
362.523	102.25
362.749	110.25
362.976	95.25
363.203	112.25
363.429	97.25
363.656	111.25
363.882	98.25
364.109	112.25
364.335	113.25
364.562	90.25
364.788	112.25
365.015	128.25
365.241	127.25
365.468	200.25
365.694	252.25
365.92	206.25
366.147	123.25
366.373	95.25
366.599	101.25
366.826	101.25
367.052	109.25
367.278	106.25
367.505	98.25
367.731	103.25
367.957	104.25
368.184	109.25
368.41	120.25
368.636	128.25
368.862	114.25
369.089	106.25
369.315	110.25
369.541	102.25
369.767	111.25
369.993	110.25
370.219	102.25
370.445	116.25
370.672	94.25
370.898	99.25
371.124	103.25
371.35	108.25
371.576	117.25
371.802	103.25
372.028	112.25
372.254	120.25
372.48	127.25
372.706	132.25
372.932	126.25
373.158	120.25
373.384	114.25
373.61	132.25
373.835	132.25
374.061	113.25
374.287	112.25
374.513	107.25
374.739	121.25
374.965	91.25
375.191	104.25
375.416	116.25
375.642	91.25
375.868	115.25
376.094	124.25
376.319	101.25
376.545	96.25
376.771	97.25
376.997	100.25
377.222	109.25
377.448	99.25
377.674	101.25
377.899	110.25
378.125	108.25
378.35	98.25
378.576	120.25
378.802	111.25
379.027	116.25
379.253	143.25
379.478	174.25
379.704	313.25
379.929	782.25
380.155	1617.25
380.38	1677.25
380.606	564.25
380.831	211.25
381.057	128.25
381.282	120.25
381.507	111.25
381.733	109.25
381.958	122.25
382.184	103.25
382.409	115.25
382.634	121.25
382.86	120.25
383.085	101.25
383.31	98.25
383.535	113.25
383.761	101.25
383.986	115.25
384.211	101.25
384.436	108.25
384.662	106.25
384.887	117.25
385.112	99.25
385.337	105.25
385.562	94.25
385.787	101.25
386.013	117.25
386.238	110.25
386.463	111.25
386.688	112.25
386.913	110.25
387.138	115.25
387.363	109.25
387.588	105.25
387.813	112.25
388.038	118.25
388.263	112.25
388.488	103.25
388.713	110.25
388.938	109.25
389.163	99.25
389.387	92.25
389.612	109.25
389.837	97.25
390.062	114.25
390.287	97.25
390.512	92.25
390.736	116.25
390.961	100.25
391.186	96.25
391.411	98.25
391.636	99.25
391.86	99.25
392.085	100.25
392.31	87.25
392.534	108.25
392.759	112.25
392.984	125.25
393.208	136.25
393.433	151.25
393.658	146.25
393.882	102.25
394.107	90.25
394.331	102.25
394.556	116.25
394.78	85.25
395.005	98.25
395.229	93.25
395.454	96.25
395.678	106.25
395.903	88.25
396.127	92.25
396.352	106.25
396.576	106.25
396.801	128.25
397.025	126.25
397.249	123.25
397.474	101.25
397.698	101.25
397.922	98.25
398.147	84.25
398.371	114.25
398.595	117.25
398.82	104.25
399.044	100.25
399.268	101.25
399.492	96.25
399.717	88.25
399.941	92.25
400.165	96.25
400.389	106.25
400.613	99.25
400.837	99.25
401.062	101.25
401.286	88.25
401.51	95.25
401.734	98.25
401.958	86.25
402.182	85.25
402.406	98.25
402.63	93.25
402.854	88.25
403.078	107.25
403.302	103.25
403.526	96.25
403.75	83.25
403.974	90.25
404.198	96.25
404.422	96.25
404.645	100.25
404.869	100.25
405.093	95.25
405.317	102.25
405.541	111.25
405.765	132.25
405.988	152.25
406.212	122.25
406.436	109.25
406.66	112.25
406.883	100.25
407.107	101.25
407.331	87.25
407.555	87.25
407.778	102.25
408.002	90.25
408.226	82.25
408.449	93.25
408.673	102.25
408.896	87.25
409.12	103.25
409.344	97.25
409.567	93.25
409.791	92.25
410.014	94.25
410.238	108.25
410.461	101.25
410.685	102.25
410.908	106.25
411.132	97.25
411.355	91.25
411.578	92.25
411.802	100.25
412.025	90.25
412.249	114.25
412.472	108.25
412.695	95.25
412.919	93.25
413.142	101.25
413.365	102.25
413.589	103.25
413.812	117.25
414.035	100.25
414.258	110.25
414.482	104.25
414.705	96.25
414.928	116.25
415.151	111.25
415.374	98.25
415.597	86.25
415.821	88.25
416.044	93.25
416.267	106.25
416.49	84.25
416.713	97.25
416.936	100.25
417.159	103.25
417.382	88.25
417.605	92.25
417.828	85.25
418.051	102.25
418.274	95.25
418.497	80.25
418.72	106.25
418.943	102.25
419.166	114.25
419.389	114.25
419.611	100.25
419.834	111.25
420.057	99.25
420.28	106.25
420.503	103.25
420.726	106.25
420.948	96.25
421.171	92.25
421.394	86.25
421.617	78.25
421.839	96.25
422.062	111.25
422.285	115.25
422.507	107.25
422.73	132.25
422.953	146.25
423.175	103.25
423.398	95.25
423.621	84.25
423.843	102.25
424.066	93.25
424.288	99.25
424.511	100.25
424.733	98.25
424.956	98.25
425.178	99.25
425.401	99.25
425.623	88.25
425.846	102.25
426.068	107.25
426.291	109.25
426.513	109.25
426.735	89.25
426.958	98.25
427.18	98.25
427.402	86.25
427.625	87.25
427.847	97.25
428.069	96.25
428.292	95.25
428.514	124.25
428.736	100.25
428.958	104.25
429.181	97.25
429.403	93.25
429.625	80.25
429.847	102.25
430.069	98.25
430.292	104.25
430.514	93.25
430.736	102.25
430.958	106.25
431.18	82.25
431.402	102.25
431.624	85.25
431.846	92.25
432.068	96.25
432.29	90.25
432.512	102.25
432.734	108.25
432.956	86.25
433.178	75.25
433.4	104.25
433.622	96.25
433.844	89.25
434.066	106.25
434.287	78.25
434.509	102.25
434.731	101.25
434.953	100.25
435.175	84.25
435.397	91.25
435.618	92.25
435.84	99.25
436.062	91.25
436.284	84.25
436.505	86.25
436.727	92.25
436.949	89.25
437.17	80.25
437.392	91.25
437.614	92.25
437.835	91.25
438.057	98.25
438.278	90.25
438.5	91.25
438.721	91.25
438.943	100.25
439.165	121.25
439.386	100.25
439.608	98.25
439.829	87.25
440.05	128.25
440.272	120.25
440.493	92.25
440.715	95.25
440.936	89.25
441.158	88.25
441.379	96.25
441.6	90.25
441.822	113.25
442.043	110.25
442.264	130.25
442.486	102.25
442.707	101.25
442.928	115.25
443.149	86.25
443.371	108.25
443.592	94.25
443.813	89.25
444.034	101.25
444.255	94.25
444.476	81.25
444.698	90.25
444.919	86.25
445.14	177.25
445.361	142.25
445.582	103.25
445.803	84.25
446.024	96.25
446.245	102.25
446.466	115.25
446.687	108.25
446.908	109.25
447.129	89.25
447.35	84.25
447.571	100.25
447.792	92.25
448.013	95.25
448.234	107.25
448.455	103.25
448.675	104.25
448.896	111.25
449.117	102.25
449.338	128.25
449.559	145.25
449.779	127.25
450	103.25
450.221	101.25
450.442	115.25
450.662	108.25
450.883	94.25
451.104	115.25
451.324	129.25
451.545	131.25
451.766	134.25
451.986	128.25
452.207	226.25
452.428	580.25
452.648	1510.25
452.869	815.25
453.089	216.25
453.31	118.25
453.53	130.25
453.751	135.25
453.971	167.25
454.192	150.25
454.412	102.25
454.633	97.25
454.853	91.25
455.073	92.25
455.294	96.25
455.514	94.25
455.734	89.25
455.955	97.25
456.175	92.25
456.395	98.25
456.616	94.25
456.836	94.25
457.056	93.25
457.276	100.25
457.497	113.25
457.717	120.25
457.937	103.25
458.157	102.25
458.377	92.25
458.598	97.25
458.818	91.25
459.038	97.25
459.258	90.25
459.478	105.25
459.698	98.25
459.918	84.25
460.138	94.25
460.358	83.25
460.578	101.25
460.798	87.25
461.018	76.25
461.238	73.25
461.458	90.25
461.678	85.25
461.898	93.25
462.118	97.25
462.338	94.25
462.558	100.25
462.777	88.25
462.997	109.25
463.217	101.25
463.437	138.25
463.657	179.25
463.876	178.25
464.096	123.25
464.316	99.25
464.536	100.25
464.755	102.25
464.975	79.25
465.195	96.25
465.414	94.25
465.634	96.25
465.854	115.25
466.073	99.25
466.293	96.25
466.512	90.25
466.732	102.25
466.951	111.25
467.171	120.25
467.391	127.25
467.61	99.25
467.829	89.25
468.049	117.25
468.268	94.25
468.488	99.25
468.707	95.25
468.927	84.25
469.146	87.25
469.365	100.25
469.585	88.25
469.804	100.25
470.023	81.25
470.243	94.25
470.462	99.25
470.681	99.25
470.901	143.25
471.12	174.25
471.339	186.25
471.558	125.25
471.777	104.25
471.997	112.25
472.216	106.25
472.435	90.25
472.654	93.25
472.873	96.25
473.092	90.25
473.311	117.25
473.53	84.25
473.749	92.25
473.968	94.25
474.187	100.25
474.406	98.25
474.625	97.25
474.844	110.25
475.063	92.25
475.282	92.25
475.501	93.25
475.72	95.25
475.939	104.25
476.158	95.25
476.377	100.25
476.596	106.25
476.814	94.25
477.033	93.25
477.252	95.25
477.471	97.25
477.69	106.25
477.908	110.25
478.127	83.25
478.346	84.25
478.564	98.25
478.783	102.25
479.002	101.25
479.22	115.25
479.439	96.25
479.658	80.25
479.876	77.25
480.095	106.25
480.313	76.25
480.532	97.25
480.751	104.25
480.969	106.25
481.188	93.25
481.406	92.25
481.624	95.25
481.843	116.25
482.061	114.25
482.28	96.25
482.498	104.25
482.717	104.25
482.935	95.25
483.153	108.25
483.372	95.25
483.59	97.25
483.808	108.25
484.027	100.25
484.245	107.25
484.463	165.25
484.681	223.25
484.9	136.25
485.118	118.25
485.336	117.25
485.554	102.25
485.772	117.25
485.99	190.25
486.209	230.25
486.427	160.25
486.645	129.25
486.863	118.25
487.081	109.25
487.299	117.25
487.517	106.25
487.735	102.25
487.953	96.25
488.171	106.25
488.389	103.25
488.607	97.25
488.825	107.25
489.043	81.25
489.261	97.25
489.479	106.25
489.696	87.25
489.914	102.25
490.132	94.25
490.35	93.25
490.568	100.25
490.786	101.25
491.003	96.25
491.221	113.25
491.439	106.25
491.657	106.25
491.874	102.25
492.092	93.25
492.31	107.25
492.527	108.25
492.745	99.25
492.963	111.25
493.18	115.25
493.398	118.25
493.615	92.25
493.833	101.25
494.05	99.25
494.268	104.25
494.485	103.25
494.703	110.25
494.92	118.25
495.138	101.25
495.355	104.25
495.573	95.25
495.79	103.25
496.008	90.25
496.225	117.25
496.442	114.25
496.66	123.25
496.877	167.25
497.094	142.25
497.312	108.25
497.529	88.25
497.746	105.25
497.963	114.25
498.181	105.25
498.398	99.25
498.615	108.25
498.832	109.25
499.049	109.25
499.267	147.25
499.484	149.25
499.701	125.25
499.918	113.25
500.135	104.25
500.352	101.25
500.569	107.25
500.786	111.25
501.003	98.25
501.22	96.25
501.437	101.25
501.654	98.25
501.871	96.25
502.088	96.25
502.305	104.25
502.522	99.25
502.739	101.25
502.956	112.25
503.172	91.25
503.389	86.25
503.606	99.25
503.823	88.25
504.04	115.25
504.256	95.25
504.473	98.25
504.69	91.25
504.907	127.25
505.123	124.25
505.34	119.25
505.557	108.25
505.773	110.25
505.99	101.25
506.207	102.25
506.423	114.25
506.64	111.25
506.856	96.25
507.073	106.25
507.289	92.25
507.506	102.25
507.722	99.25
507.939	96.25
508.155	109.25
508.372	110.25
