Data from SnStandardFlinnAPT0064_QswitchEnergy10_LIBS07252019.E.O._I.C._HRD10591_15-28-19-973.txt Node
Date: Thu Jul 25 15:28:19 EDT 2019
User: cochatt
Spectrometer: HR+D1059
Trigger mode: 1
Integration Time (sec): 1.000000E-1
Scans to average: 1
Electric dark correction enabled: true
Nonlinearity correction enabled: false
Boxcar width: 0
XAxis mode: Wavelengths
Number of Pixels in Spectrum: 2048
>>>>>Begin Spectral Data<<<<<
223.165	-15.56
223.4	-15.56
223.635	-15.56
223.869	-21.56
224.104	-23.56
224.338	-7.56
224.573	-29.56
224.808	-14.56
225.042	-13.56
225.277	-5.56
225.511	10.44
225.746	0.44
225.98	0.44
226.215	-0.56
226.449	17.44
226.683	33.44
226.918	29.44
227.152	40.44
227.387	39.44
227.621	33.44
227.856	32.44
228.09	44.44
228.324	44.44
228.559	63.44
228.793	69.44
229.027	58.44
229.262	80.44
229.496	69.44
229.73	73.44
229.964	77.44
230.199	80.44
230.433	78.44
230.667	79.44
230.901	80.44
231.136	90.44
231.37	86.44
231.604	95.44
231.838	90.44
232.072	119.44
232.306	129.44
232.541	89.44
232.775	82.44
233.009	93.44
233.243	87.44
233.477	87.44
233.711	103.44
233.945	104.44
234.179	91.44
234.413	92.44
234.647	75.44
234.881	74.44
235.115	89.44
235.349	94.44
235.583	101.44
235.817	117.44
236.051	134.44
236.285	101.44
236.519	88.44
236.753	85.44
236.987	73.44
237.221	93.44
237.455	73.44
237.689	96.44
237.922	81.44
238.156	87.44
238.39	90.44
238.624	87.44
238.858	86.44
239.091	84.44
239.325	86.44
239.559	81.44
239.793	81.44
240.027	72.44
240.26	87.44
240.494	90.44
240.728	89.44
240.961	72.44
241.195	95.44
241.429	92.44
241.662	86.44
241.896	92.44
242.13	99.44
242.363	125.44
242.597	178.44
242.83	135.44
243.064	141.44
243.298	165.44
243.531	150.44
243.765	97.44
243.998	92.44
244.232	87.44
244.465	79.44
244.699	68.44
244.932	81.44
245.166	72.44
245.399	80.44
245.633	84.44
245.866	85.44
246.099	81.44
246.333	92.44
246.566	78.44
246.8	80.44
247.033	81.44
247.266	70.44
247.5	73.44
247.733	87.44
247.966	82.44
248.2	92.44
248.433	106.44
248.666	124.44
248.899	128.44
249.133	103.44
249.366	112.44
249.599	92.44
249.832	116.44
250.066	118.44
250.299	94.44
250.532	98.44
250.765	78.44
250.998	74.44
251.231	88.44
251.465	82.44
251.698	87.44
251.931	84.44
252.164	88.44
252.397	91.44
252.63	103.44
252.863	96.44
253.096	95.44
253.329	99.44
253.562	86.44
253.795	95.44
254.028	104.44
254.261	92.44
254.494	110.44
254.727	125.44
254.96	152.44
255.193	117.44
255.426	103.44
255.659	88.44
255.892	85.44
256.124	106.44
256.357	89.44
256.59	78.44
256.823	95.44
257.056	102.44
257.289	159.44
257.521	180.44
257.754	130.44
257.987	93.44
258.22	96.44
258.452	90.44
258.685	96.44
258.918	86.44
259.151	87.44
259.383	105.44
259.616	136.44
259.849	164.44
260.081	101.44
260.314	78.44
260.547	85.44
260.779	79.44
261.012	92.44
261.244	72.44
261.477	85.44
261.71	78.44
261.942	86.44
262.175	77.44
262.407	85.44
262.64	78.44
262.872	93.44
263.105	80.44
263.337	89.44
263.57	92.44
263.802	93.44
264.035	82.44
264.267	80.44
264.499	79.44
264.732	102.44
264.964	99.44
265.197	93.44
265.429	92.44
265.661	97.44
265.894	95.44
266.126	136.44
266.358	158.44
266.591	149.44
266.823	112.44
267.055	90.44
267.287	90.44
267.52	101.44
267.752	91.44
267.984	91.44
268.216	83.44
268.448	89.44
268.681	87.44
268.913	86.44
269.145	94.44
269.377	93.44
269.609	97.44
269.841	97.44
270.073	93.44
270.306	142.44
270.538	191.44
270.77	341.44
271.002	405.44
271.234	204.44
271.466	124.44
271.698	99.44
271.93	90.44
272.162	86.44
272.394	88.44
272.626	88.44
272.858	86.44
273.09	91.44
273.322	89.44
273.553	84.44
273.785	88.44
274.017	92.44
274.249	100.44
274.481	92.44
274.713	78.44
274.945	72.44
275.176	77.44
275.408	84.44
275.64	94.44
275.872	103.44
276.104	77.44
276.335	92.44
276.567	101.44
276.799	109.44
277.031	95.44
277.262	97.44
277.494	92.44
277.726	115.44
277.957	184.44
278.189	259.44
278.421	248.44
278.652	209.44
278.884	210.44
279.115	143.44
279.347	112.44
279.579	93.44
279.81	95.44
280.042	101.44
280.273	90.44
280.505	80.44
280.736	107.44
280.968	119.44
281.199	168.44
281.431	270.44
281.662	274.44
281.894	170.44
282.125	116.44
282.356	110.44
282.588	117.44
282.819	124.44
283.051	136.44
283.282	148.44
283.513	206.44
283.745	326.44
283.976	563.44
284.207	810.44
284.439	607.44
284.67	264.44
284.901	262.44
285.132	360.44
285.364	386.44
285.595	231.44
285.826	177.44
286.057	263.44
286.288	432.44
286.52	641.44
286.751	514.44
286.982	217.44
287.213	124.44
287.444	110.44
287.675	109.44
287.906	99.44
288.138	114.44
288.369	98.44
288.6	98.44
288.831	89.44
289.062	91.44
289.293	87.44
289.524	99.44
289.755	89.44
289.986	78.44
290.217	101.44
290.448	107.44
290.679	114.44
290.91	117.44
291.141	176.44
291.371	276.44
291.602	308.44
291.833	208.44
292.064	124.44
292.295	87.44
292.526	87.44
292.757	93.44
292.987	92.44
293.218	101.44
293.449	97.44
293.68	100.44
293.91	80.44
294.141	87.44
294.372	89.44
294.603	99.44
294.833	102.44
295.064	109.44
295.295	102.44
295.525	95.44
295.756	91.44
295.987	98.44
296.217	89.44
296.448	89.44
296.679	97.44
296.909	98.44
297.14	85.44
297.37	105.44
297.601	94.44
297.831	93.44
298.062	120.44
298.292	105.44
298.523	101.44
298.753	104.44
298.984	105.44
299.214	107.44
299.445	98.44
299.675	126.44
299.905	124.44
300.136	123.44
300.366	170.44
300.597	288.44
300.827	480.44
301.057	721.44
301.288	660.44
301.518	264.44
301.748	153.44
301.979	141.44
302.209	144.44
302.439	151.44
302.669	179.44
302.9	270.44
303.13	532.44
303.36	925.44
303.59	1288.44
303.82	886.44
304.051	328.44
304.281	152.44
304.511	137.44
304.741	121.44
304.971	93.44
305.201	122.44
305.431	106.44
305.661	114.44
305.891	118.44
306.121	90.44
306.352	97.44
306.582	103.44
306.812	120.44
307.042	124.44
307.272	103.44
307.502	110.44
307.731	105.44
307.961	116.44
308.191	113.44
308.421	93.44
308.651	99.44
308.881	117.44
309.111	105.44
309.341	110.44
309.571	111.44
309.8	105.44
310.03	115.44
310.26	118.44
310.49	92.44
310.72	112.44
310.949	110.44
311.179	98.44
311.409	111.44
311.639	108.44
311.868	110.44
312.098	119.44
312.328	113.44
312.557	114.44
312.787	108.44
313.017	115.44
313.246	115.44
313.476	129.44
313.706	128.44
313.935	134.44
314.165	208.44
314.394	255.44
314.624	184.44
314.853	136.44
315.083	125.44
315.312	128.44
315.542	132.44
315.771	125.44
316.001	144.44
316.23	160.44
316.46	160.44
316.689	184.44
316.919	269.44
317.148	508.44
317.377	970.44
317.607	1563.44
317.836	1456.44
318.065	557.44
318.295	229.44
318.524	160.44
318.753	144.44
318.983	138.44
319.212	123.44
319.441	126.44
319.67	132.44
319.9	104.44
320.129	108.44
320.358	121.44
320.587	113.44
320.816	124.44
321.046	127.44
321.275	130.44
321.504	142.44
321.733	154.44
321.962	170.44
322.191	174.44
322.42	145.44
322.649	129.44
322.878	124.44
323.108	132.44
323.337	120.44
323.566	142.44
323.795	122.44
324.024	148.44
324.253	151.44
324.482	194.44
324.71	244.44
324.939	286.44
325.168	253.44
325.397	189.44
325.626	273.44
325.855	518.44
326.084	996.44
326.313	1692.44
326.542	1657.44
326.77	642.44
326.999	278.44
327.228	206.44
327.457	245.44
327.686	245.44
327.914	176.44
328.143	147.44
328.372	142.44
328.6	124.44
328.829	105.44
329.058	124.44
329.287	118.44
329.515	125.44
329.744	124.44
329.972	119.44
330.201	120.44
330.43	105.44
330.658	109.44
330.887	104.44
331.115	108.44
331.344	117.44
331.572	121.44
331.801	130.44
332.03	115.44
332.258	147.44
332.486	193.44
332.715	307.44
332.943	527.44
333.172	805.44
333.4	686.44
333.629	256.44
333.857	174.44
334.085	132.44
334.314	140.44
334.542	125.44
334.771	139.44
334.999	138.44
335.227	138.44
335.455	148.44
335.684	116.44
335.912	112.44
336.14	120.44
336.369	112.44
336.597	119.44
336.825	125.44
337.053	125.44
337.281	116.44
337.51	101.44
337.738	113.44
337.966	115.44
338.194	114.44
338.422	121.44
338.65	114.44
338.878	121.44
339.106	138.44
339.334	129.44
339.562	99.44
339.79	114.44
340.018	118.44
340.246	112.44
340.474	120.44
340.702	106.44
340.93	112.44
341.158	112.44
341.386	138.44
341.614	105.44
341.842	124.44
342.07	114.44
342.298	133.44
342.526	109.44
342.754	121.44
342.981	101.44
343.209	102.44
343.437	111.44
343.665	107.44
343.893	101.44
344.12	119.44
344.348	118.44
344.576	118.44
344.804	118.44
345.031	119.44
345.259	121.44
345.487	112.44
345.714	122.44
345.942	111.44
346.17	117.44
346.397	116.44
346.625	117.44
346.853	103.44
347.08	100.44
347.308	116.44
347.535	106.44
347.763	115.44
347.99	118.44
348.218	111.44
348.445	100.44
348.673	128.44
348.9	121.44
349.128	144.44
349.355	115.44
349.583	129.44
349.81	107.44
350.037	136.44
350.265	121.44
350.492	124.44
350.72	128.44
350.947	120.44
351.174	114.44
351.402	114.44
351.629	117.44
351.856	110.44
352.083	120.44
352.311	108.44
352.538	112.44
352.765	108.44
352.992	113.44
353.22	111.44
353.447	96.44
353.674	101.44
353.901	121.44
354.128	116.44
354.355	92.44
354.583	105.44
354.81	111.44
355.037	101.44
355.264	95.44
355.491	103.44
355.718	104.44
355.945	124.44
356.172	109.44
356.399	100.44
356.626	117.44
356.853	104.44
357.08	110.44
357.307	118.44
357.534	99.44
357.761	99.44
357.988	90.44
358.215	106.44
358.441	118.44
358.668	114.44
358.895	123.44
359.122	108.44
359.349	119.44
359.576	114.44
359.802	116.44
360.029	97.44
360.256	112.44
360.483	131.44
360.709	119.44
360.936	120.44
361.163	110.44
361.39	116.44
361.616	111.44
361.843	129.44
362.07	113.44
362.296	109.44
362.523	116.44
362.749	106.44
362.976	113.44
363.203	112.44
363.429	104.44
363.656	93.44
363.882	116.44
364.109	137.44
364.335	118.44
364.562	103.44
364.788	108.44
365.015	112.44
365.241	144.44
365.468	192.44
365.694	273.44
365.92	222.44
366.147	128.44
366.373	110.44
366.599	108.44
366.826	96.44
367.052	98.44
367.278	93.44
367.505	100.44
367.731	93.44
367.957	104.44
368.184	114.44
368.41	140.44
368.636	124.44
368.862	116.44
369.089	97.44
369.315	102.44
369.541	103.44
369.767	122.44
369.993	105.44
370.219	123.44
370.445	120.44
370.672	116.44
370.898	112.44
371.124	108.44
371.35	121.44
371.576	116.44
371.802	102.44
372.028	105.44
372.254	102.44
372.48	128.44
372.706	115.44
372.932	115.44
373.158	121.44
373.384	126.44
373.61	122.44
373.835	108.44
374.061	110.44
374.287	104.44
374.513	107.44
374.739	122.44
374.965	120.44
375.191	103.44
375.416	120.44
375.642	113.44
375.868	118.44
376.094	108.44
376.319	111.44
376.545	108.44
376.771	113.44
376.997	115.44
377.222	99.44
377.448	107.44
377.674	116.44
377.899	95.44
378.125	104.44
378.35	114.44
378.576	113.44
378.802	114.44
379.027	124.44
379.253	154.44
379.478	184.44
379.704	322.44
379.929	807.44
380.155	1704.44
380.38	1726.44
380.606	572.44
380.831	191.44
381.057	142.44
381.282	121.44
381.507	112.44
381.733	125.44
381.958	108.44
382.184	116.44
382.409	103.44
382.634	104.44
382.86	105.44
383.085	106.44
383.31	100.44
383.535	101.44
383.761	100.44
383.986	115.44
384.211	105.44
384.436	114.44
384.662	106.44
384.887	114.44
385.112	120.44
385.337	101.44
385.562	93.44
385.787	113.44
386.013	104.44
386.238	124.44
386.463	111.44
386.688	115.44
386.913	96.44
387.138	112.44
387.363	120.44
387.588	117.44
387.813	112.44
388.038	99.44
388.263	110.44
388.488	104.44
388.713	116.44
388.938	114.44
389.163	105.44
389.387	100.44
389.612	97.44
389.837	110.44
390.062	98.44
390.287	100.44
390.512	97.44
390.736	112.44
390.961	89.44
391.186	105.44
391.411	89.44
391.636	92.44
391.86	105.44
392.085	94.44
392.31	99.44
392.534	111.44
392.759	100.44
392.984	113.44
393.208	127.44
393.433	156.44
393.658	140.44
393.882	104.44
394.107	99.44
394.331	108.44
394.556	110.44
394.78	100.44
395.005	118.44
395.229	104.44
395.454	102.44
395.678	112.44
395.903	120.44
396.127	129.44
396.352	127.44
396.576	117.44
396.801	116.44
397.025	130.44
397.249	120.44
397.474	112.44
397.698	81.44
397.922	96.44
398.147	90.44
398.371	102.44
398.595	85.44
398.82	93.44
399.044	93.44
399.268	104.44
399.492	113.44
399.717	110.44
399.941	101.44
400.165	89.44
400.389	97.44
400.613	102.44
400.837	98.44
401.062	100.44
401.286	97.44
401.51	109.44
401.734	90.44
401.958	111.44
402.182	112.44
402.406	94.44
402.63	95.44
402.854	91.44
403.078	100.44
403.302	94.44
403.526	108.44
403.75	96.44
403.974	101.44
404.198	107.44
404.422	101.44
404.645	95.44
404.869	98.44
405.093	104.44
405.317	104.44
405.541	114.44
405.765	134.44
405.988	158.44
406.212	118.44
406.436	119.44
406.66	89.44
406.883	90.44
407.107	92.44
407.331	95.44
407.555	96.44
407.778	93.44
408.002	110.44
408.226	99.44
408.449	89.44
408.673	113.44
408.896	109.44
409.12	100.44
409.344	108.44
409.567	109.44
409.791	109.44
410.014	92.44
410.238	109.44
410.461	94.44
410.685	85.44
410.908	91.44
411.132	104.44
411.355	98.44
411.578	105.44
411.802	93.44
412.025	91.44
412.249	97.44
412.472	87.44
412.695	105.44
412.919	96.44
413.142	102.44
413.365	102.44
413.589	103.44
413.812	96.44
414.035	109.44
414.258	103.44
414.482	100.44
414.705	110.44
414.928	110.44
415.151	93.44
415.374	102.44
415.597	112.44
415.821	88.44
416.044	97.44
416.267	94.44
416.49	99.44
416.713	101.44
416.936	111.44
417.159	89.44
417.382	100.44
417.605	98.44
417.828	105.44
418.051	101.44
418.274	92.44
418.497	86.44
418.72	108.44
418.943	102.44
419.166	103.44
419.389	106.44
419.611	96.44
419.834	94.44
420.057	94.44
420.28	116.44
420.503	115.44
420.726	97.44
420.948	84.44
421.171	97.44
421.394	102.44
421.617	98.44
421.839	92.44
422.062	102.44
422.285	104.44
422.507	105.44
422.73	123.44
422.953	136.44
423.175	104.44
423.398	102.44
423.621	98.44
423.843	104.44
424.066	112.44
424.288	104.44
424.511	92.44
424.733	97.44
424.956	103.44
425.178	105.44
425.401	105.44
425.623	99.44
425.846	101.44
426.068	92.44
426.291	108.44
426.513	101.44
426.735	95.44
426.958	102.44
427.18	108.44
427.402	102.44
427.625	93.44
427.847	101.44
428.069	95.44
428.292	111.44
428.514	99.44
428.736	102.44
428.958	94.44
429.181	91.44
429.403	108.44
429.625	104.44
429.847	98.44
430.069	104.44
430.292	111.44
430.514	96.44
430.736	99.44
430.958	105.44
431.18	101.44
431.402	85.44
431.624	105.44
431.846	93.44
432.068	111.44
432.29	108.44
432.512	96.44
432.734	94.44
432.956	105.44
433.178	94.44
433.4	96.44
433.622	110.44
433.844	104.44
434.066	87.44
434.287	82.44
434.509	103.44
434.731	100.44
434.953	102.44
435.175	97.44
435.397	89.44
435.618	103.44
435.84	105.44
436.062	95.44
436.284	95.44
436.505	90.44
436.727	88.44
436.949	79.44
437.17	96.44
437.392	86.44
437.614	99.44
437.835	83.44
438.057	92.44
438.278	88.44
438.5	84.44
438.721	95.44
438.943	102.44
439.165	116.44
439.386	97.44
439.608	100.44
439.829	105.44
440.05	135.44
440.272	114.44
440.493	104.44
440.715	105.44
440.936	98.44
441.158	98.44
441.379	80.44
441.6	102.44
441.822	103.44
442.043	118.44
442.264	134.44
442.486	125.44
442.707	112.44
442.928	98.44
443.149	101.44
443.371	94.44
443.592	105.44
443.813	95.44
444.034	108.44
444.255	91.44
444.476	92.44
444.698	94.44
444.919	104.44
445.14	196.44
445.361	134.44
445.582	90.44
445.803	89.44
446.024	101.44
446.245	94.44
446.466	97.44
446.687	110.44
446.908	108.44
447.129	93.44
447.35	92.44
447.571	95.44
447.792	102.44
448.013	89.44
448.234	93.44
448.455	102.44
448.675	106.44
448.896	100.44
449.117	96.44
449.338	127.44
449.559	152.44
449.779	122.44
450	102.44
450.221	93.44
450.442	116.44
450.662	115.44
450.883	103.44
451.104	104.44
451.324	122.44
451.545	114.44
451.766	122.44
451.986	153.44
452.207	223.44
452.428	596.44
452.648	1452.44
452.869	812.44
453.089	202.44
453.31	142.44
453.53	139.44
453.751	156.44
453.971	167.44
454.192	161.44
454.412	121.44
454.633	96.44
454.853	102.44
455.073	94.44
455.294	96.44
455.514	95.44
455.734	84.44
455.955	78.44
456.175	89.44
456.395	93.44
456.616	95.44
456.836	92.44
457.056	94.44
457.276	99.44
457.497	108.44
457.717	115.44
457.937	109.44
458.157	84.44
458.377	83.44
458.598	99.44
458.818	93.44
459.038	86.44
459.258	98.44
459.478	98.44
459.698	92.44
459.918	89.44
460.138	99.44
460.358	79.44
460.578	95.44
460.798	91.44
461.018	94.44
461.238	92.44
461.458	93.44
461.678	93.44
461.898	97.44
462.118	96.44
462.338	96.44
462.558	105.44
462.777	92.44
462.997	105.44
463.217	110.44
463.437	131.44
463.657	183.44
463.876	192.44
464.096	136.44
464.316	98.44
464.536	116.44
464.755	95.44
464.975	103.44
465.195	87.44
465.414	86.44
465.634	90.44
465.854	113.44
466.073	102.44
466.293	97.44
466.512	91.44
466.732	90.44
466.951	116.44
467.171	146.44
467.391	148.44
467.61	108.44
467.829	109.44
468.049	93.44
468.268	99.44
468.488	97.44
468.707	88.44
468.927	101.44
469.146	89.44
469.365	97.44
469.585	105.44
469.804	99.44
470.023	93.44
470.243	101.44
470.462	100.44
470.681	124.44
470.901	132.44
471.12	195.44
471.339	221.44
471.558	143.44
471.777	98.44
471.997	110.44
472.216	102.44
472.435	95.44
472.654	86.44
472.873	85.44
473.092	86.44
473.311	104.44
473.53	108.44
473.749	110.44
473.968	113.44
474.187	87.44
474.406	106.44
474.625	98.44
474.844	105.44
475.063	96.44
475.282	97.44
475.501	97.44
475.72	94.44
475.939	99.44
476.158	109.44
476.377	133.44
476.596	111.44
476.814	84.44
477.033	82.44
477.252	102.44
477.471	102.44
477.69	104.44
477.908	103.44
478.127	93.44
478.346	102.44
478.564	104.44
478.783	88.44
479.002	86.44
479.22	97.44
479.439	104.44
479.658	101.44
479.876	95.44
480.095	87.44
480.313	108.44
480.532	96.44
480.751	98.44
480.969	107.44
481.188	94.44
481.406	101.44
481.624	103.44
481.843	115.44
482.061	95.44
482.28	91.44
482.498	112.44
482.717	89.44
482.935	92.44
483.153	108.44
483.372	88.44
483.59	114.44
483.808	91.44
484.027	108.44
484.245	129.44
484.463	165.44
484.681	240.44
484.9	147.44
485.118	108.44
485.336	110.44
485.554	111.44
485.772	123.44
485.99	165.44
486.209	261.44
486.427	169.44
486.645	111.44
486.863	103.44
487.081	96.44
487.299	93.44
487.517	96.44
487.735	104.44
487.953	106.44
488.171	101.44
488.389	109.44
488.607	97.44
488.825	90.44
489.043	105.44
489.261	112.44
489.479	107.44
489.696	97.44
489.914	91.44
490.132	105.44
490.35	100.44
490.568	101.44
490.786	106.44
491.003	111.44
491.221	100.44
491.439	124.44
491.657	103.44
491.874	101.44
492.092	104.44
492.31	115.44
492.527	104.44
492.745	101.44
492.963	108.44
493.18	111.44
493.398	113.44
493.615	105.44
493.833	97.44
494.05	99.44
494.268	108.44
494.485	102.44
494.703	94.44
494.92	106.44
495.138	128.44
495.355	118.44
495.573	105.44
495.79	114.44
496.008	109.44
496.225	92.44
496.442	102.44
496.66	113.44
496.877	164.44
497.094	139.44
497.312	124.44
497.529	103.44
497.746	118.44
497.963	97.44
498.181	84.44
498.398	99.44
498.615	116.44
498.832	101.44
499.049	115.44
499.267	135.44
499.484	170.44
499.701	122.44
499.918	100.44
500.135	102.44
500.352	105.44
500.569	100.44
500.786	108.44
501.003	100.44
501.22	96.44
501.437	92.44
501.654	104.44
501.871	108.44
502.088	97.44
502.305	110.44
502.522	102.44
502.739	106.44
502.956	92.44
503.172	94.44
503.389	104.44
503.606	92.44
503.823	89.44
504.04	103.44
504.256	116.44
504.473	105.44
504.69	114.44
504.907	105.44
505.123	106.44
505.34	108.44
505.557	93.44
505.773	109.44
505.99	92.44
506.207	96.44
506.423	96.44
506.64	113.44
506.856	110.44
507.073	114.44
507.289	114.44
507.506	94.44
507.722	90.44
