Data from SnStandardFlinnAPT0064_LampEnergy10_LIBS07252019.E.O._I.C._HRD10591_15-21-31-494.txt Node
Date: Thu Jul 25 15:21:31 EDT 2019
User: cochatt
Spectrometer: HR+D1059
Trigger mode: 1
Integration Time (sec): 1.000000E-1
Scans to average: 1
Electric dark correction enabled: true
Nonlinearity correction enabled: false
Boxcar width: 0
XAxis mode: Wavelengths
Number of Pixels in Spectrum: 2048
>>>>>Begin Spectral Data<<<<<
223.165	-14.88
223.4	-14.88
223.635	-14.88
223.869	-22.88
224.104	-13.88
224.338	-14.88
224.573	-14.88
224.808	-8.88
225.042	-12.88
225.277	-7.88
225.511	5.12
225.746	1.12
225.98	10.12
226.215	5.12
226.449	4.12
226.683	26.12
226.918	27.12
227.152	32.12
227.387	29.12
227.621	40.12
227.856	44.12
228.09	37.12
228.324	57.12
228.559	57.12
228.793	119.12
229.027	291.12
229.262	341.12
229.496	283.12
229.73	295.12
229.964	307.12
230.199	272.12
230.433	312.12
230.667	297.12
230.901	324.12
231.136	331.12
231.37	372.12
231.604	376.12
231.838	470.12
232.072	505.12
232.306	563.12
232.541	450.12
232.775	437.12
233.009	421.12
233.243	419.12
233.477	459.12
233.711	515.12
233.945	554.12
234.179	513.12
234.413	442.12
234.647	445.12
234.881	469.12
235.115	504.12
235.349	618.12
235.583	752.12
235.817	969.12
236.051	929.12
236.285	647.12
236.519	531.12
236.753	509.12
236.987	488.12
237.221	537.12
237.455	522.12
237.689	471.12
237.922	458.12
238.156	461.12
238.39	466.12
238.624	480.12
238.858	480.12
239.091	485.12
239.325	480.12
239.559	496.12
239.793	510.12
240.027	515.12
240.26	520.12
240.494	524.12
240.728	565.12
240.961	593.12
241.195	656.12
241.429	674.12
241.662	700.12
241.896	807.12
242.13	921.12
242.363	1222.12
242.597	1535.12
242.83	1504.12
243.064	1476.12
243.298	1732.12
243.531	1442.12
243.765	922.12
243.998	757.12
244.232	685.12
244.465	674.12
244.699	655.12
244.932	652.12
245.166	670.12
245.399	669.12
245.633	689.12
245.866	691.12
246.099	661.12
246.333	665.12
246.566	640.12
246.8	649.12
247.033	645.12
247.266	637.12
247.5	642.12
247.733	684.12
247.966	712.12
248.2	767.12
248.433	860.12
248.666	992.12
248.899	942.12
249.133	851.12
249.366	875.12
249.599	965.12
249.832	1080.12
250.066	1032.12
250.299	872.12
250.532	797.12
250.765	773.12
250.998	779.12
251.231	702.12
251.465	749.12
251.698	766.12
251.931	755.12
252.164	742.12
252.397	761.12
252.63	791.12
252.863	797.12
253.096	784.12
253.329	769.12
253.562	783.12
253.795	778.12
254.028	784.12
254.261	825.12
254.494	884.12
254.727	1024.12
254.96	1229.12
255.193	1202.12
255.426	945.12
255.659	869.12
255.892	863.12
256.124	915.12
256.357	877.12
256.59	904.12
256.823	979.12
257.056	1112.12
257.289	1327.12
257.521	1455.12
257.754	1160.12
257.987	1009.12
258.22	910.12
258.452	937.12
258.685	911.12
258.918	973.12
259.151	1024.12
259.383	1083.12
259.616	1194.12
259.849	1299.12
260.081	1101.12
260.314	1000.12
260.547	966.12
260.779	946.12
261.012	953.12
261.244	958.12
261.477	990.12
261.71	986.12
261.942	1019.12
262.175	1029.12
262.407	1080.12
262.64	1071.12
262.872	1097.12
263.105	1135.12
263.337	1207.12
263.57	1255.12
263.802	1293.12
264.035	1298.12
264.267	1354.12
264.499	1392.12
264.732	1438.12
264.964	1457.12
265.197	1463.12
265.429	1410.12
265.661	1473.12
265.894	1611.12
266.126	1725.12
266.358	1965.12
266.591	1909.12
266.823	1619.12
267.055	1482.12
267.287	1386.12
267.52	1339.12
267.752	1322.12
267.984	1300.12
268.216	1268.12
268.448	1255.12
268.681	1260.12
268.913	1245.12
269.145	1235.12
269.377	1234.12
269.609	1250.12
269.841	1285.12
270.073	1339.12
270.306	1602.12
270.538	2087.12
270.77	3073.12
271.002	3773.12
271.234	2749.12
271.466	1880.12
271.698	1522.12
271.93	1378.12
272.162	1343.12
272.394	1301.12
272.626	1250.12
272.858	1238.12
273.09	1200.12
273.322	1264.12
273.553	1220.12
273.785	1224.12
274.017	1199.12
274.249	1191.12
274.481	1205.12
274.713	1201.12
274.945	1212.12
275.176	1238.12
275.408	1224.12
275.64	1253.12
275.872	1215.12
276.104	1251.12
276.335	1240.12
276.567	1264.12
276.799	1289.12
277.031	1312.12
277.262	1327.12
277.494	1418.12
277.726	1577.12
277.957	1829.12
278.189	2081.12
278.421	1937.12
278.652	1763.12
278.884	1676.12
279.115	1507.12
279.347	1427.12
279.579	1414.12
279.81	1385.12
280.042	1420.12
280.273	1427.12
280.505	1449.12
280.736	1493.12
280.968	1580.12
281.199	1782.12
281.431	2022.12
281.662	2089.12
281.894	1758.12
282.125	1623.12
282.356	1618.12
282.588	1666.12
282.819	1701.12
283.051	1833.12
283.282	1988.12
283.513	2437.12
283.745	3526.12
283.976	5441.12
284.207	7633.12
284.439	7040.12
284.67	4449.12
284.901	3638.12
285.132	3745.12
285.364	3475.12
285.595	2674.12
285.826	2410.12
286.057	2818.12
286.288	3772.12
286.52	4983.12
286.751	4715.12
286.982	2964.12
287.213	2265.12
287.444	1982.12
287.675	1886.12
287.906	1762.12
288.138	1725.12
288.369	1660.12
288.6	1731.12
288.831	1702.12
289.062	1672.12
289.293	1654.12
289.524	1697.12
289.755	1732.12
289.986	1699.12
290.217	1704.12
290.448	1733.12
290.679	1734.12
290.91	1801.12
291.141	1878.12
291.371	2015.12
291.602	2135.12
291.833	1953.12
292.064	1765.12
292.295	1702.12
292.526	1635.12
292.757	1642.12
292.987	1613.12
293.218	1598.12
293.449	1619.12
293.68	1624.12
293.91	1605.12
294.141	1539.12
294.372	1599.12
294.603	1543.12
294.833	1589.12
295.064	1571.12
295.295	1543.12
295.525	1563.12
295.756	1593.12
295.987	1573.12
296.217	1565.12
296.448	1583.12
296.679	1576.12
296.909	1576.12
297.14	1629.12
297.37	1631.12
297.601	1638.12
297.831	1624.12
298.062	1646.12
298.292	1685.12
298.523	1663.12
298.753	1725.12
298.984	1718.12
299.214	1720.12
299.445	1743.12
299.675	1794.12
299.905	1797.12
300.136	1902.12
300.366	2106.12
300.597	2707.12
300.827	3757.12
301.057	4981.12
301.288	5083.12
301.518	3271.12
301.748	2579.12
301.979	2313.12
302.209	2285.12
302.439	2322.12
302.669	2468.12
302.9	2882.12
303.13	4057.12
303.36	5971.12
303.59	7801.12
303.82	6979.12
304.051	4191.12
304.281	3006.12
304.511	2505.12
304.741	2327.12
304.971	2222.12
305.201	2081.12
305.431	2011.12
305.661	1958.12
305.891	1908.12
306.121	1896.12
306.352	1909.12
306.582	1869.12
306.812	1859.12
307.042	1859.12
307.272	1858.12
307.502	1820.12
307.731	1849.12
307.961	1839.12
308.191	1839.12
308.421	1807.12
308.651	1817.12
308.881	1813.12
309.111	1821.12
309.341	1825.12
309.571	1847.12
309.8	1849.12
310.03	1887.12
310.26	1885.12
310.49	1897.12
310.72	1902.12
310.949	1901.12
311.179	1891.12
311.409	1873.12
311.639	1944.12
311.868	1955.12
312.098	1965.12
312.328	1952.12
312.557	2015.12
312.787	1957.12
313.017	1993.12
313.246	2007.12
313.476	2032.12
313.706	2113.12
313.935	2257.12
314.165	2404.12
314.394	2494.12
314.624	2352.12
314.853	2167.12
315.083	2170.12
315.312	2184.12
315.542	2181.12
315.771	2214.12
316.001	2176.12
316.23	2305.12
316.46	2369.12
316.689	2647.12
316.919	3158.12
317.148	4464.12
317.377	6798.12
317.607	9903.12
317.836	10397.12
318.065	6462.12
318.295	4236.12
318.524	3373.12
318.753	2931.12
318.983	2703.12
319.212	2575.12
319.441	2520.12
319.67	2491.12
319.9	2381.12
320.129	2386.12
320.358	2346.12
320.587	2355.12
320.816	2342.12
321.046	2362.12
321.275	2415.12
321.504	2415.12
321.733	2451.12
321.962	2534.12
322.191	2579.12
322.42	2481.12
322.649	2519.12
322.878	2521.12
323.108	2479.12
323.337	2554.12
323.566	2561.12
323.795	2625.12
324.024	2664.12
324.253	2771.12
324.482	2808.12
324.71	2992.12
324.939	3181.12
325.168	3245.12
325.397	3415.12
325.626	4010.12
325.855	5511.12
326.084	8481.12
326.313	12239.12
326.542	13054.12
326.77	8921.12
326.999	5867.12
327.228	5023.12
327.457	4732.12
327.686	4840.12
327.914	5098.12
328.143	6015.12
328.372	7050.12
328.6	7798.12
328.829	6913.12
329.058	5834.12
329.287	5096.12
329.515	4647.12
329.744	4258.12
329.972	4077.12
330.201	3891.12
330.43	3731.12
330.658	3617.12
330.887	3581.12
331.115	3488.12
331.344	3475.12
331.572	3515.12
331.801	3519.12
332.03	3499.12
332.258	3596.12
332.486	3765.12
332.715	4261.12
332.943	5147.12
333.172	6511.12
333.4	6480.12
333.629	5027.12
333.857	4494.12
334.085	4486.12
334.314	4695.12
334.542	5126.12
334.771	6035.12
334.999	7366.12
335.227	9180.12
335.455	10239.12
335.684	9318.12
335.912	7652.12
336.14	6498.12
336.369	5733.12
336.597	5183.12
336.825	4835.12
337.053	4549.12
337.281	4289.12
337.51	4050.12
337.738	3927.12
337.966	3751.12
338.194	3685.12
338.422	3480.12
338.65	3409.12
338.878	3300.12
339.106	3292.12
339.334	3244.12
339.562	3165.12
339.79	3133.12
340.018	3030.12
340.246	3037.12
340.474	3042.12
340.702	3041.12
340.93	3026.12
341.158	3072.12
341.386	3035.12
341.614	2989.12
341.842	2943.12
342.07	2882.12
342.298	2843.12
342.526	2823.12
342.754	2760.12
342.981	2755.12
343.209	2712.12
343.437	2766.12
343.665	2811.12
343.893	2881.12
344.12	2851.12
344.348	2784.12
344.576	2760.12
344.804	2741.12
345.031	2658.12
345.259	2613.12
345.487	2627.12
345.714	2608.12
345.942	2608.12
346.17	2605.12
346.397	2536.12
346.625	2575.12
346.853	2507.12
347.08	2505.12
347.308	2513.12
347.535	2583.12
347.763	2516.12
347.99	2511.12
348.218	2490.12
348.445	2502.12
348.673	2466.12
348.9	2527.12
349.128	2496.12
349.355	2473.12
349.583	2439.12
349.81	2487.12
350.037	2433.12
350.265	2442.12
350.492	2458.12
350.72	2382.12
350.947	2411.12
351.174	2407.12
351.402	2429.12
351.629	2395.12
351.856	2379.12
352.083	2407.12
352.311	2415.12
352.538	2405.12
352.765	2415.12
352.992	2428.12
353.22	2377.12
353.447	2391.12
353.674	2389.12
353.901	2405.12
354.128	2359.12
354.355	2411.12
354.583	2423.12
354.81	2461.12
355.037	2433.12
355.264	2425.12
355.491	2416.12
355.718	2458.12
355.945	2469.12
356.172	2484.12
356.399	2529.12
356.626	2513.12
356.853	2512.12
357.08	2542.12
357.307	2553.12
357.534	2557.12
357.761	2636.12
357.988	2584.12
358.215	2577.12
358.441	2626.12
358.668	2591.12
358.895	2562.12
359.122	2517.12
359.349	2555.12
359.576	2536.12
359.802	2581.12
360.029	2520.12
360.256	2561.12
360.483	2621.12
360.709	2593.12
360.936	2551.12
361.163	2531.12
361.39	2600.12
361.616	2565.12
361.843	2567.12
362.07	2619.12
362.296	2598.12
362.523	2605.12
362.749	2637.12
362.976	2587.12
363.203	2596.12
363.429	2538.12
363.656	2537.12
363.882	2494.12
364.109	2572.12
364.335	2528.12
364.562	2549.12
364.788	2565.12
365.015	2599.12
365.241	2652.12
365.468	2827.12
365.694	2950.12
365.92	2841.12
366.147	2665.12
366.373	2656.12
366.599	2645.12
366.826	2627.12
367.052	2617.12
367.278	2633.12
367.505	2630.12
367.731	2664.12
367.957	2601.12
368.184	2653.12
368.41	2698.12
368.636	2654.12
368.862	2698.12
369.089	2607.12
369.315	2654.12
369.541	2636.12
369.767	2618.12
369.993	2630.12
370.219	2631.12
370.445	2725.12
370.672	2705.12
370.898	2684.12
371.124	2718.12
371.35	2703.12
371.576	2765.12
371.802	2747.12
372.028	2781.12
372.254	2773.12
372.48	2787.12
372.706	2873.12
372.932	2823.12
373.158	2806.12
373.384	2787.12
373.61	2799.12
373.835	2871.12
374.061	2805.12
374.287	2879.12
374.513	2833.12
374.739	2885.12
374.965	2946.12
375.191	2893.12
375.416	2883.12
375.642	2866.12
375.868	2898.12
376.094	2806.12
376.319	2817.12
376.545	2858.12
376.771	2806.12
376.997	2809.12
377.222	2757.12
377.448	2756.12
377.674	2748.12
377.899	2778.12
378.125	2755.12
378.35	2767.12
378.576	2767.12
378.802	2708.12
379.027	2841.12
379.253	2926.12
379.478	3011.12
379.704	3591.12
379.929	5039.12
380.155	7627.12
380.38	8318.12
380.606	5240.12
380.831	3733.12
381.057	3249.12
381.282	3008.12
381.507	2876.12
381.733	2851.12
381.958	2818.12
382.184	2774.12
382.409	2755.12
382.634	2711.12
382.86	2678.12
383.085	2678.12
383.31	2682.12
383.535	2698.12
383.761	2749.12
383.986	2792.12
384.211	2742.12
384.436	2769.12
384.662	2739.12
384.887	2810.12
385.112	2762.12
385.337	2787.12
385.562	2783.12
385.787	2782.12
386.013	2772.12
386.238	2819.12
386.463	2789.12
386.688	2826.12
386.913	2821.12
387.138	2783.12
387.363	2803.12
387.588	2707.12
387.813	2775.12
388.038	2767.12
388.263	2769.12
388.488	2782.12
388.713	2779.12
388.938	2745.12
389.163	2747.12
389.387	2812.12
389.612	2774.12
389.837	2747.12
390.062	2770.12
390.287	2831.12
390.512	2859.12
390.736	2886.12
390.961	2886.12
391.186	2902.12
391.411	2973.12
391.636	2963.12
391.86	2982.12
392.085	2960.12
392.31	2922.12
392.534	2911.12
392.759	2857.12
392.984	2859.12
393.208	2798.12
393.433	2823.12
393.658	2842.12
393.882	2786.12
394.107	2827.12
394.331	2840.12
394.556	2847.12
394.78	2854.12
395.005	2859.12
395.229	2838.12
395.454	2905.12
395.678	2901.12
395.903	2935.12
396.127	2893.12
396.352	2897.12
396.576	2890.12
396.801	2936.12
397.025	2909.12
397.249	2936.12
397.474	2953.12
397.698	2933.12
397.922	2990.12
398.147	2995.12
398.371	3015.12
398.595	3013.12
398.82	3136.12
399.044	3219.12
399.268	3369.12
399.492	3561.12
399.717	3713.12
399.941	3735.12
400.165	3599.12
400.389	3379.12
400.613	3322.12
400.837	3154.12
401.062	3136.12
401.286	3095.12
401.51	3119.12
401.734	3061.12
401.958	3101.12
402.182	3139.12
402.406	3060.12
402.63	3106.12
402.854	3138.12
403.078	3119.12
403.302	3204.12
403.526	3117.12
403.75	3234.12
403.974	3225.12
404.198	3148.12
404.422	3157.12
404.645	3127.12
404.869	3198.12
405.093	3211.12
405.317	3230.12
405.541	3260.12
405.765	3328.12
405.988	3298.12
406.212	3289.12
406.436	3319.12
406.66	3281.12
406.883	3279.12
407.107	3430.12
407.331	3446.12
407.555	3523.12
407.778	3485.12
408.002	3453.12
408.226	3420.12
408.449	3490.12
408.673	3333.12
408.896	3268.12
409.12	3293.12
409.344	3281.12
409.567	3243.12
409.791	3215.12
410.014	3218.12
410.238	3132.12
410.461	3175.12
410.685	3202.12
410.908	3137.12
411.132	3123.12
411.355	3045.12
411.578	3053.12
411.802	3087.12
412.025	3064.12
412.249	3112.12
412.472	3076.12
412.695	3049.12
412.919	3014.12
413.142	3046.12
413.365	3050.12
413.589	3026.12
413.812	3002.12
414.035	3015.12
414.258	2963.12
414.482	3037.12
414.705	3010.12
414.928	2979.12
415.151	2977.12
415.374	2965.12
415.597	2928.12
415.821	2913.12
416.044	2902.12
416.267	2895.12
416.49	2888.12
416.713	2945.12
416.936	2947.12
417.159	2906.12
417.382	2898.12
417.605	2881.12
417.828	2873.12
418.051	2905.12
418.274	2952.12
418.497	2905.12
418.72	2939.12
418.943	2898.12
419.166	3013.12
419.389	3239.12
419.611	3208.12
419.834	3086.12
420.057	3008.12
420.28	2934.12
420.503	2897.12
420.726	2889.12
420.948	2886.12
421.171	2891.12
421.394	2922.12
421.617	2896.12
421.839	2904.12
422.062	2941.12
422.285	2852.12
422.507	2927.12
422.73	3017.12
422.953	2991.12
423.175	2955.12
423.398	2930.12
423.621	2931.12
423.843	2890.12
424.066	2896.12
424.288	2861.12
424.511	2867.12
424.733	2841.12
424.956	2848.12
425.178	2836.12
425.401	2808.12
425.623	2882.12
425.846	2827.12
426.068	2812.12
426.291	2811.12
426.513	2781.12
426.735	2767.12
426.958	2834.12
427.18	2711.12
427.402	2797.12
427.625	2722.12
427.847	2657.12
428.069	2697.12
428.292	2770.12
428.514	2685.12
428.736	2676.12
428.958	2706.12
429.181	2666.12
429.403	2662.12
429.625	2638.12
429.847	2691.12
430.069	2707.12
430.292	2801.12
430.514	2861.12
430.736	2879.12
430.958	2724.12
431.18	2657.12
431.402	2637.12
431.624	2634.12
431.846	2647.12
432.068	2647.12
432.29	2595.12
432.512	2618.12
432.734	2647.12
432.956	2620.12
433.178	2663.12
433.4	2642.12
433.622	2633.12
433.844	2706.12
434.066	2643.12
434.287	2685.12
434.509	2704.12
434.731	2711.12
434.953	2759.12
435.175	2813.12
435.397	2782.12
435.618	2741.12
435.84	2721.12
436.062	2656.12
436.284	2652.12
436.505	2596.12
436.727	2634.12
436.949	2616.12
437.17	2591.12
437.392	2553.12
437.614	2577.12
437.835	2506.12
438.057	2591.12
438.278	2534.12
438.5	2537.12
438.721	2595.12
438.943	2700.12
439.165	2737.12
439.386	2757.12
439.608	2723.12
439.829	2715.12
440.05	2810.12
440.272	2869.12
440.493	2718.12
440.715	2781.12
440.936	2721.12
441.158	2776.12
441.379	2815.12
441.6	2859.12
441.822	2965.12
442.043	3071.12
442.264	3219.12
442.486	2943.12
442.707	2884.12
442.928	2827.12
443.149	2871.12
443.371	2802.12
443.592	2851.12
443.813	2853.12
444.034	2853.12
444.255	2911.12
444.476	2980.12
444.698	3009.12
444.919	2995.12
445.14	3115.12
445.361	2978.12
445.582	2934.12
445.803	2882.12
446.024	2806.12
446.245	2862.12
446.466	2839.12
446.687	2774.12
446.908	2767.12
447.129	2704.12
447.35	2662.12
447.571	2624.12
447.792	2596.12
448.013	2615.12
448.234	2608.12
448.455	2602.12
448.675	2636.12
448.896	2721.12
449.117	2771.12
449.338	3010.12
449.559	3085.12
449.779	2735.12
450	2623.12
450.221	2554.12
450.442	2564.12
450.662	2552.12
450.883	2560.12
451.104	2521.12
451.324	2524.12
451.545	2485.12
451.766	2563.12
451.986	2656.12
452.207	2857.12
452.428	3622.12
452.648	5337.12
452.869	4528.12
453.089	3145.12
453.31	2925.12
453.53	2928.12
453.751	3019.12
453.971	3195.12
454.192	3046.12
454.412	2733.12
454.633	2592.12
454.853	2499.12
455.073	2491.12
455.294	2472.12
455.514	2477.12
455.734	2449.12
455.955	2430.12
456.175	2422.12
456.395	2425.12
456.616	2463.12
456.836	2522.12
457.056	2531.12
457.276	2511.12
457.497	2675.12
457.717	2685.12
457.937	2642.12
458.157	2584.12
458.377	2595.12
458.598	2576.12
458.818	2614.12
459.038	2675.12
459.258	2650.12
459.478	2675.12
459.698	2684.12
459.918	2702.12
460.138	2771.12
460.358	2825.12
460.578	2813.12
460.798	2839.12
461.018	2884.12
461.238	2874.12
461.458	2926.12
461.678	2960.12
461.898	3088.12
462.118	2981.12
462.338	3079.12
462.558	3063.12
462.777	3136.12
462.997	3247.12
463.217	3392.12
463.437	3520.12
463.657	3621.12
463.876	3544.12
464.096	3357.12
464.316	3236.12
464.536	3177.12
464.755	3034.12
464.975	3037.12
465.195	2982.12
465.414	2899.12
465.634	2767.12
465.854	2689.12
466.073	2731.12
466.293	2688.12
466.512	2700.12
466.732	2769.12
466.951	2797.12
467.171	2986.12
467.391	2979.12
467.61	2755.12
467.829	2615.12
468.049	2653.12
468.268	2590.12
468.488	2605.12
468.707	2593.12
468.927	2594.12
469.146	2592.12
469.365	2655.12
469.585	2670.12
469.804	2746.12
470.023	2759.12
470.243	2766.12
470.462	2839.12
470.681	3013.12
470.901	3335.12
471.12	3737.12
471.339	3692.12
471.558	3142.12
471.777	2925.12
471.997	2803.12
472.216	2687.12
472.435	2653.12
472.654	2670.12
472.873	2613.12
473.092	2651.12
473.311	2656.12
473.53	2641.12
473.749	2750.12
473.968	2838.12
474.187	2628.12
474.406	2579.12
474.625	2623.12
474.844	2662.12
475.063	2643.12
475.282	2674.12
475.501	2625.12
475.72	2715.12
475.939	2699.12
476.158	2739.12
476.377	2825.12
476.596	2781.12
476.814	2749.12
477.033	2757.12
477.252	2773.12
477.471	2824.12
477.69	2896.12
477.908	2946.12
478.127	2962.12
478.346	3027.12
478.564	3053.12
478.783	3031.12
479.002	3135.12
479.22	3161.12
479.439	3082.12
479.658	3104.12
479.876	3138.12
480.095	3143.12
480.313	3224.12
480.532	3254.12
480.751	3267.12
480.969	3185.12
481.188	3175.12
481.406	3167.12
481.624	3215.12
481.843	3198.12
482.061	3242.12
482.28	3168.12
482.498	3232.12
482.717	3148.12
482.935	3235.12
483.153	3264.12
483.372	3280.12
483.59	3312.12
483.808	3351.12
484.027	3478.12
484.245	3637.12
484.463	4020.12
484.681	4392.12
484.9	4107.12
485.118	3871.12
485.336	3740.12
485.554	3773.12
485.772	4031.12
485.99	4502.12
486.209	4805.12
486.427	4063.12
486.645	3671.12
486.863	3571.12
487.081	3511.12
487.299	3417.12
487.517	3398.12
487.735	3424.12
