Data from SnStandardFlinnAPT0064_QswitchEnergy10_LIBS07252019.E.O._I.C._HRD10591_15-28-11-974.txt Node
Date: Thu Jul 25 15:28:11 EDT 2019
User: cochatt
Spectrometer: HR+D1059
Trigger mode: 1
Integration Time (sec): 1.000000E-1
Scans to average: 1
Electric dark correction enabled: true
Nonlinearity correction enabled: false
Boxcar width: 0
XAxis mode: Wavelengths
Number of Pixels in Spectrum: 2048
>>>>>Begin Spectral Data<<<<<
223.165	-6.81
223.4	-6.81
223.635	-6.81
223.869	-21.81
224.104	-9.81
224.338	-16.81
224.573	-15.81
224.808	-8.81
225.042	-12.81
225.277	-11.81
225.511	-13.81
225.746	-3.81
225.98	11.19
226.215	11.19
226.449	24.19
226.683	15.19
226.918	15.19
227.152	45.19
227.387	49.19
227.621	36.19
227.856	40.19
228.09	52.19
228.324	39.19
228.559	60.19
228.793	61.19
229.027	70.19
229.262	77.19
229.496	76.19
229.73	69.19
229.964	72.19
230.199	81.19
230.433	91.19
230.667	80.19
230.901	75.19
231.136	89.19
231.37	92.19
231.604	105.19
231.838	108.19
232.072	115.19
232.306	135.19
232.541	96.19
232.775	110.19
233.009	97.19
233.243	80.19
233.477	103.19
233.711	103.19
233.945	101.19
234.179	86.19
234.413	91.19
234.647	86.19
234.881	89.19
235.115	83.19
235.349	78.19
235.583	106.19
235.817	145.19
236.051	136.19
236.285	95.19
236.519	98.19
236.753	82.19
236.987	95.19
237.221	75.19
237.455	74.19
237.689	81.19
237.922	93.19
238.156	76.19
238.39	80.19
238.624	89.19
238.858	94.19
239.091	78.19
239.325	89.19
239.559	75.19
239.793	89.19
240.027	86.19
240.26	78.19
240.494	81.19
240.728	95.19
240.961	78.19
241.195	89.19
241.429	88.19
241.662	85.19
241.896	100.19
242.13	112.19
242.363	135.19
242.597	186.19
242.83	154.19
243.064	136.19
243.298	187.19
243.531	166.19
243.765	100.19
243.998	92.19
244.232	80.19
244.465	89.19
244.699	88.19
244.932	88.19
245.166	73.19
245.399	88.19
245.633	91.19
245.866	85.19
246.099	85.19
246.333	81.19
246.566	98.19
246.8	92.19
247.033	90.19
247.266	79.19
247.5	88.19
247.733	86.19
247.966	81.19
248.2	96.19
248.433	101.19
248.666	132.19
248.899	126.19
249.133	93.19
249.366	92.19
249.599	91.19
249.832	135.19
250.066	133.19
250.299	97.19
250.532	98.19
250.765	91.19
250.998	86.19
251.231	79.19
251.465	73.19
251.698	84.19
251.931	84.19
252.164	87.19
252.397	93.19
252.63	105.19
252.863	91.19
253.096	83.19
253.329	95.19
253.562	105.19
253.795	77.19
254.028	91.19
254.261	99.19
254.494	93.19
254.727	137.19
254.96	152.19
255.193	129.19
255.426	103.19
255.659	104.19
255.892	108.19
256.124	110.19
256.357	93.19
256.59	98.19
256.823	93.19
257.056	126.19
257.289	160.19
257.521	189.19
257.754	138.19
257.987	90.19
258.22	94.19
258.452	90.19
258.685	90.19
258.918	87.19
259.151	92.19
259.383	108.19
259.616	139.19
259.849	162.19
260.081	107.19
260.314	93.19
260.547	83.19
260.779	78.19
261.012	79.19
261.244	85.19
261.477	89.19
261.71	93.19
261.942	100.19
262.175	89.19
262.407	92.19
262.64	89.19
262.872	84.19
263.105	84.19
263.337	102.19
263.57	88.19
263.802	85.19
264.035	84.19
264.267	90.19
264.499	78.19
264.732	99.19
264.964	86.19
265.197	86.19
265.429	89.19
265.661	104.19
265.894	105.19
266.126	128.19
266.358	169.19
266.591	170.19
266.823	103.19
267.055	83.19
267.287	88.19
267.52	91.19
267.752	98.19
267.984	99.19
268.216	82.19
268.448	88.19
268.681	96.19
268.913	100.19
269.145	74.19
269.377	81.19
269.609	98.19
269.841	94.19
270.073	100.19
270.306	130.19
270.538	214.19
270.77	330.19
271.002	418.19
271.234	206.19
271.466	117.19
271.698	100.19
271.93	89.19
272.162	95.19
272.394	105.19
272.626	83.19
272.858	86.19
273.09	85.19
273.322	95.19
273.553	83.19
273.785	84.19
274.017	100.19
274.249	100.19
274.481	89.19
274.713	88.19
274.945	81.19
275.176	89.19
275.408	94.19
275.64	100.19
275.872	103.19
276.104	96.19
276.335	88.19
276.567	100.19
276.799	85.19
277.031	78.19
277.262	108.19
277.494	120.19
277.726	117.19
277.957	186.19
278.189	244.19
278.421	256.19
278.652	194.19
278.884	186.19
279.115	153.19
279.347	101.19
279.579	98.19
279.81	108.19
280.042	106.19
280.273	113.19
280.505	117.19
280.736	117.19
280.968	116.19
281.199	178.19
281.431	245.19
281.662	259.19
281.894	158.19
282.125	120.19
282.356	110.19
282.588	108.19
282.819	126.19
283.051	122.19
283.282	152.19
283.513	210.19
283.745	332.19
283.976	608.19
284.207	887.19
284.439	660.19
284.67	286.19
284.901	287.19
285.132	373.19
285.364	398.19
285.595	243.19
285.826	188.19
286.057	280.19
286.288	466.19
286.52	692.19
286.751	553.19
286.982	215.19
287.213	120.19
287.444	124.19
287.675	110.19
287.906	96.19
288.138	109.19
288.369	97.19
288.6	116.19
288.831	103.19
289.062	97.19
289.293	101.19
289.524	110.19
289.755	83.19
289.986	96.19
290.217	110.19
290.448	116.19
290.679	104.19
290.91	126.19
291.141	161.19
291.371	224.19
291.602	268.19
291.833	190.19
292.064	105.19
292.295	103.19
292.526	98.19
292.757	109.19
292.987	92.19
293.218	96.19
293.449	116.19
293.68	100.19
293.91	97.19
294.141	95.19
294.372	95.19
294.603	105.19
294.833	83.19
295.064	96.19
295.295	94.19
295.525	94.19
295.756	82.19
295.987	97.19
296.217	106.19
296.448	102.19
296.679	96.19
296.909	100.19
297.14	101.19
297.37	107.19
297.601	101.19
297.831	93.19
298.062	107.19
298.292	99.19
298.523	114.19
298.753	104.19
298.984	84.19
299.214	105.19
299.445	111.19
299.675	115.19
299.905	110.19
300.136	132.19
300.366	155.19
300.597	288.19
300.827	471.19
301.057	746.19
301.288	707.19
301.518	286.19
301.748	151.19
301.979	147.19
302.209	133.19
302.439	158.19
302.669	166.19
302.9	296.19
303.13	525.19
303.36	941.19
303.59	1342.19
303.82	933.19
304.051	300.19
304.281	141.19
304.511	128.19
304.741	123.19
304.971	109.19
305.201	129.19
305.431	107.19
305.661	105.19
305.891	105.19
306.121	115.19
306.352	98.19
306.582	112.19
306.812	105.19
307.042	114.19
307.272	92.19
307.502	99.19
307.731	110.19
307.961	102.19
308.191	107.19
308.421	113.19
308.651	102.19
308.881	104.19
309.111	107.19
309.341	113.19
309.571	94.19
309.8	101.19
310.03	117.19
310.26	115.19
310.49	116.19
310.72	100.19
310.949	101.19
311.179	109.19
311.409	115.19
311.639	103.19
311.868	119.19
312.098	120.19
312.328	99.19
312.557	119.19
312.787	119.19
313.017	104.19
313.246	110.19
313.476	123.19
313.706	140.19
313.935	154.19
314.165	195.19
314.394	221.19
314.624	190.19
314.853	124.19
315.083	130.19
315.312	136.19
315.542	132.19
315.771	137.19
316.001	130.19
316.23	148.19
316.46	149.19
316.689	179.19
316.919	267.19
317.148	493.19
317.377	989.19
317.607	1653.19
317.836	1556.19
318.065	560.19
318.295	247.19
318.524	153.19
318.753	152.19
318.983	139.19
319.212	135.19
319.441	121.19
319.67	124.19
319.9	115.19
320.129	136.19
320.358	112.19
320.587	131.19
320.816	112.19
321.046	125.19
321.275	129.19
321.504	145.19
321.733	150.19
321.962	145.19
322.191	164.19
322.42	128.19
322.649	123.19
322.878	122.19
323.108	125.19
323.337	120.19
323.566	126.19
323.795	128.19
324.024	153.19
324.253	152.19
324.482	185.19
324.71	229.19
324.939	291.19
325.168	240.19
325.397	192.19
325.626	258.19
325.855	522.19
326.084	995.19
326.313	1765.19
326.542	1690.19
326.77	651.19
326.999	276.19
327.228	227.19
327.457	229.19
327.686	233.19
327.914	155.19
328.143	135.19
328.372	130.19
328.6	132.19
328.829	126.19
329.058	128.19
329.287	119.19
329.515	124.19
329.744	125.19
329.972	108.19
330.201	122.19
330.43	95.19
330.658	114.19
330.887	116.19
331.115	103.19
331.344	121.19
331.572	112.19
331.801	126.19
332.03	136.19
332.258	145.19
332.486	160.19
332.715	304.19
332.943	538.19
333.172	826.19
333.4	702.19
333.629	269.19
333.857	150.19
334.085	128.19
334.314	121.19
334.542	119.19
334.771	125.19
334.999	109.19
335.227	125.19
335.455	128.19
335.684	116.19
335.912	115.19
336.14	121.19
336.369	126.19
336.597	114.19
336.825	114.19
337.053	118.19
337.281	103.19
337.51	109.19
337.738	124.19
337.966	107.19
338.194	112.19
338.422	124.19
338.65	115.19
338.878	132.19
339.106	123.19
339.334	125.19
339.562	112.19
339.79	124.19
340.018	122.19
340.246	115.19
340.474	106.19
340.702	116.19
340.93	109.19
341.158	116.19
341.386	122.19
341.614	130.19
341.842	122.19
342.07	133.19
342.298	128.19
342.526	101.19
342.754	112.19
342.981	105.19
343.209	124.19
343.437	124.19
343.665	119.19
343.893	122.19
344.12	122.19
344.348	104.19
344.576	108.19
344.804	122.19
345.031	104.19
345.259	116.19
345.487	110.19
345.714	122.19
345.942	116.19
346.17	107.19
346.397	104.19
346.625	106.19
346.853	100.19
347.08	106.19
347.308	100.19
347.535	95.19
347.763	107.19
347.99	96.19
348.218	109.19
348.445	118.19
348.673	118.19
348.9	115.19
349.128	118.19
349.355	139.19
349.583	115.19
349.81	108.19
350.037	118.19
350.265	128.19
350.492	101.19
350.72	117.19
350.947	120.19
351.174	110.19
351.402	118.19
351.629	120.19
351.856	102.19
352.083	114.19
352.311	117.19
352.538	116.19
352.765	113.19
352.992	113.19
353.22	98.19
353.447	116.19
353.674	104.19
353.901	112.19
354.128	119.19
354.355	112.19
354.583	106.19
354.81	110.19
355.037	108.19
355.264	109.19
355.491	105.19
355.718	117.19
355.945	105.19
356.172	113.19
356.399	97.19
356.626	90.19
356.853	120.19
357.08	111.19
357.307	107.19
357.534	107.19
357.761	102.19
357.988	100.19
358.215	106.19
358.441	93.19
358.668	118.19
358.895	120.19
359.122	138.19
359.349	123.19
359.576	132.19
359.802	114.19
360.029	121.19
360.256	100.19
360.483	111.19
360.709	99.19
360.936	115.19
361.163	118.19
361.39	109.19
361.616	113.19
361.843	124.19
362.07	116.19
362.296	108.19
362.523	106.19
362.749	108.19
362.976	116.19
363.203	118.19
363.429	113.19
363.656	110.19
363.882	115.19
364.109	113.19
364.335	105.19
364.562	93.19
364.788	113.19
365.015	114.19
365.241	127.19
365.468	155.19
365.694	220.19
365.92	203.19
366.147	127.19
366.373	112.19
366.599	104.19
366.826	99.19
367.052	116.19
367.278	112.19
367.505	104.19
367.731	108.19
367.957	91.19
368.184	108.19
368.41	138.19
368.636	133.19
368.862	107.19
369.089	98.19
369.315	116.19
369.541	126.19
369.767	115.19
369.993	110.19
370.219	123.19
370.445	104.19
370.672	122.19
370.898	98.19
371.124	122.19
371.35	111.19
371.576	105.19
371.802	109.19
372.028	110.19
372.254	113.19
372.48	112.19
372.706	118.19
372.932	123.19
373.158	125.19
373.384	104.19
373.61	123.19
373.835	127.19
374.061	122.19
374.287	114.19
374.513	113.19
374.739	100.19
374.965	112.19
375.191	124.19
375.416	107.19
375.642	109.19
375.868	101.19
376.094	107.19
376.319	111.19
376.545	105.19
376.771	102.19
376.997	121.19
377.222	116.19
377.448	118.19
377.674	107.19
377.899	112.19
378.125	116.19
378.35	112.19
378.576	120.19
378.802	119.19
379.027	139.19
379.253	140.19
379.478	168.19
379.704	313.19
379.929	811.19
380.155	1659.19
380.38	1752.19
380.606	565.19
380.831	204.19
381.057	133.19
381.282	120.19
381.507	108.19
381.733	106.19
381.958	100.19
382.184	116.19
382.409	121.19
382.634	121.19
382.86	113.19
383.085	110.19
383.31	110.19
383.535	93.19
383.761	102.19
383.986	107.19
384.211	102.19
384.436	117.19
384.662	98.19
384.887	110.19
385.112	116.19
385.337	109.19
385.562	105.19
385.787	115.19
386.013	121.19
386.238	104.19
386.463	112.19
386.688	96.19
386.913	109.19
387.138	99.19
387.363	109.19
387.588	104.19
387.813	123.19
388.038	114.19
388.263	109.19
388.488	100.19
388.713	112.19
388.938	110.19
389.163	100.19
389.387	96.19
389.612	116.19
389.837	84.19
390.062	99.19
390.287	97.19
390.512	118.19
390.736	116.19
390.961	103.19
391.186	101.19
391.411	107.19
391.636	106.19
391.86	103.19
392.085	102.19
392.31	112.19
392.534	112.19
392.759	101.19
392.984	93.19
393.208	119.19
393.433	140.19
393.658	134.19
393.882	94.19
394.107	112.19
394.331	99.19
394.556	99.19
394.78	109.19
395.005	99.19
395.229	105.19
395.454	117.19
395.678	114.19
395.903	108.19
396.127	88.19
396.352	101.19
396.576	108.19
396.801	112.19
397.025	116.19
397.249	110.19
397.474	96.19
397.698	95.19
397.922	101.19
398.147	101.19
398.371	103.19
398.595	103.19
398.82	96.19
399.044	99.19
399.268	100.19
399.492	100.19
399.717	99.19
399.941	100.19
400.165	95.19
400.389	96.19
400.613	103.19
400.837	86.19
401.062	100.19
401.286	110.19
401.51	99.19
401.734	92.19
401.958	96.19
402.182	94.19
402.406	91.19
402.63	99.19
402.854	101.19
403.078	88.19
403.302	102.19
403.526	100.19
403.75	104.19
403.974	108.19
404.198	104.19
404.422	101.19
404.645	95.19
404.869	109.19
405.093	98.19
405.317	103.19
405.541	116.19
405.765	125.19
405.988	136.19
406.212	112.19
406.436	111.19
406.66	94.19
406.883	88.19
407.107	84.19
407.331	103.19
407.555	105.19
407.778	100.19
408.002	110.19
408.226	103.19
408.449	104.19
408.673	104.19
408.896	100.19
409.12	81.19
409.344	107.19
409.567	108.19
409.791	100.19
410.014	103.19
410.238	112.19
410.461	104.19
410.685	104.19
410.908	86.19
411.132	106.19
411.355	102.19
411.578	112.19
411.802	111.19
412.025	88.19
412.249	93.19
412.472	85.19
412.695	120.19
412.919	109.19
413.142	98.19
413.365	104.19
413.589	96.19
413.812	96.19
414.035	106.19
414.258	116.19
414.482	108.19
414.705	101.19
414.928	105.19
415.151	97.19
415.374	89.19
415.597	89.19
415.821	87.19
416.044	108.19
416.267	91.19
416.49	97.19
416.713	92.19
416.936	104.19
417.159	114.19
417.382	96.19
417.605	107.19
417.828	101.19
418.051	98.19
418.274	105.19
418.497	97.19
418.72	124.19
418.943	101.19
419.166	123.19
419.389	120.19
419.611	114.19
419.834	107.19
420.057	99.19
420.28	101.19
420.503	97.19
420.726	90.19
420.948	88.19
421.171	91.19
421.394	102.19
421.617	87.19
421.839	99.19
422.062	100.19
422.285	104.19
422.507	109.19
422.73	122.19
422.953	136.19
423.175	115.19
423.398	107.19
423.621	98.19
423.843	109.19
424.066	92.19
424.288	100.19
424.511	90.19
424.733	97.19
424.956	116.19
425.178	98.19
425.401	89.19
425.623	106.19
425.846	93.19
426.068	85.19
426.291	100.19
426.513	83.19
426.735	105.19
426.958	98.19
427.18	100.19
427.402	101.19
427.625	97.19
427.847	97.19
428.069	101.19
428.292	91.19
428.514	113.19
428.736	97.19
428.958	85.19
429.181	91.19
429.403	89.19
429.625	88.19
429.847	100.19
430.069	98.19
430.292	105.19
430.514	91.19
430.736	97.19
430.958	93.19
431.18	99.19
431.402	100.19
431.624	109.19
431.846	99.19
432.068	88.19
432.29	92.19
432.512	97.19
432.734	92.19
432.956	92.19
433.178	100.19
433.4	95.19
433.622	98.19
433.844	82.19
434.066	108.19
434.287	89.19
434.509	79.19
434.731	97.19
434.953	101.19
435.175	121.19
435.397	104.19
435.618	104.19
435.84	96.19
436.062	88.19
436.284	109.19
436.505	113.19
436.727	98.19
436.949	102.19
437.17	95.19
437.392	78.19
437.614	87.19
437.835	90.19
438.057	82.19
438.278	103.19
438.5	109.19
438.721	99.19
438.943	117.19
439.165	112.19
439.386	116.19
439.608	106.19
439.829	98.19
440.05	120.19
440.272	144.19
440.493	118.19
440.715	98.19
440.936	108.19
441.158	108.19
441.379	106.19
441.6	100.19
441.822	112.19
442.043	122.19
442.264	124.19
442.486	118.19
442.707	103.19
442.928	124.19
443.149	102.19
443.371	112.19
443.592	105.19
443.813	94.19
444.034	103.19
444.255	105.19
444.476	100.19
444.698	95.19
444.919	116.19
445.14	202.19
445.361	140.19
445.582	103.19
445.803	106.19
446.024	92.19
446.245	98.19
446.466	104.19
446.687	120.19
446.908	114.19
447.129	112.19
447.35	89.19
447.571	105.19
447.792	92.19
448.013	91.19
448.234	107.19
448.455	99.19
448.675	102.19
448.896	115.19
449.117	120.19
449.338	152.19
449.559	165.19
449.779	129.19
450	112.19
450.221	110.19
450.442	108.19
450.662	105.19
450.883	107.19
451.104	120.19
451.324	121.19
451.545	121.19
451.766	101.19
451.986	132.19
452.207	194.19
452.428	532.19
452.648	1332.19
452.869	750.19
453.089	221.19
453.31	132.19
453.53	130.19
453.751	162.19
453.971	181.19
454.192	167.19
454.412	108.19
454.633	98.19
454.853	106.19
455.073	93.19
455.294	104.19
455.514	98.19
455.734	105.19
455.955	96.19
456.175	111.19
456.395	98.19
456.616	91.19
456.836	98.19
457.056	109.19
457.276	100.19
457.497	116.19
457.717	135.19
457.937	94.19
458.157	105.19
458.377	89.19
458.598	88.19
458.818	102.19
459.038	98.19
459.258	89.19
459.478	85.19
459.698	97.19
459.918	90.19
460.138	100.19
460.358	91.19
460.578	108.19
460.798	96.19
461.018	93.19
461.238	111.19
461.458	100.19
461.678	99.19
461.898	100.19
462.118	101.19
462.338	96.19
462.558	95.19
462.777	106.19
462.997	109.19
463.217	109.19
463.437	137.19
463.657	202.19
463.876	226.19
464.096	121.19
464.316	93.19
464.536	100.19
464.755	113.19
464.975	107.19
465.195	103.19
465.414	107.19
465.634	107.19
465.854	105.19
466.073	102.19
466.293	96.19
466.512	107.19
466.732	97.19
466.951	131.19
467.171	150.19
467.391	138.19
467.61	102.19
467.829	99.19
468.049	106.19
468.268	101.19
468.488	93.19
468.707	105.19
468.927	114.19
469.146	107.19
469.365	101.19
469.585	101.19
469.804	101.19
470.023	89.19
470.243	90.19
470.462	100.19
470.681	120.19
470.901	140.19
471.12	207.19
471.339	231.19
471.558	130.19
471.777	125.19
471.997	107.19
472.216	101.19
472.435	96.19
472.654	95.19
472.873	98.19
473.092	85.19
473.311	99.19
473.53	99.19
473.749	97.19
473.968	102.19
474.187	108.19
474.406	101.19
474.625	87.19
474.844	103.19
475.063	107.19
475.282	87.19
475.501	82.19
475.72	104.19
475.939	97.19
476.158	100.19
476.377	112.19
476.596	122.19
476.814	103.19
477.033	103.19
477.252	94.19
477.471	93.19
477.69	101.19
477.908	93.19
478.127	118.19
478.346	109.19
478.564	105.19
478.783	110.19
479.002	81.19
479.22	94.19
479.439	79.19
479.658	102.19
479.876	91.19
480.095	99.19
480.313	97.19
480.532	90.19
480.751	96.19
480.969	107.19
481.188	93.19
481.406	88.19
481.624	102.19
481.843	124.19
482.061	121.19
482.28	109.19
482.498	110.19
482.717	113.19
482.935	92.19
483.153	97.19
483.372	105.19
483.59	101.19
483.808	122.19
484.027	107.19
484.245	122.19
484.463	181.19
484.681	256.19
484.9	146.19
485.118	118.19
485.336	106.19
485.554	105.19
485.772	136.19
485.99	203.19
486.209	301.19
486.427	177.19
486.645	116.19
486.863	112.19
487.081	109.19
487.299	97.19
487.517	101.19
487.735	99.19
487.953	89.19
488.171	109.19
488.389	96.19
488.607	101.19
488.825	106.19
489.043	97.19
489.261	92.19
489.479	99.19
489.696	97.19
489.914	109.19
490.132	97.19
490.35	96.19
490.568	97.19
490.786	107.19
491.003	105.19
491.221	117.19
491.439	112.19
491.657	115.19
491.874	98.19
492.092	98.19
492.31	112.19
492.527	104.19
492.745	109.19
492.963	100.19
493.18	106.19
493.398	101.19
493.615	114.19
493.833	104.19
494.05	115.19
494.268	116.19
494.485	122.19
494.703	99.19
494.92	106.19
495.138	107.19
495.355	115.19
495.573	94.19
495.79	104.19
496.008	96.19
496.225	112.19
496.442	102.19
496.66	121.19
496.877	168.19
497.094	158.19
497.312	116.19
497.529	97.19
497.746	101.19
497.963	103.19
498.181	98.19
498.398	95.19
498.615	106.19
498.832	101.19
499.049	108.19
499.267	150.19
499.484	173.19
499.701	133.19
499.918	116.19
500.135	100.19
500.352	95.19
500.569	101.19
500.786	97.19
501.003	102.19
501.22	119.19
501.437	89.19
501.654	89.19
501.871	100.19
502.088	99.19
502.305	95.19
502.522	96.19
502.739	85.19
502.956	100.19
503.172	123.19
503.389	96.19
503.606	105.19
503.823	98.19
504.04	110.19
504.256	93.19
504.473	93.19
504.69	116.19
504.907	114.19
505.123	109.19
505.34	112.19
505.557	116.19
505.773	97.19
505.99	101.19
506.207	103.19
506.423	108.19
506.64	102.19
506.856	108.19
