Data from SnStandardFlinnAPT0064_LampEnergy5.5_LIBS07252019.E.O._I.C._HRD10591_15-16-50-492.txt Node
Date: Thu Jul 25 15:16:50 EDT 2019
User: cochatt
Spectrometer: HR+D1059
Trigger mode: 1
Integration Time (sec): 1.000000E-1
Scans to average: 1
Electric dark correction enabled: true
Nonlinearity correction enabled: false
Boxcar width: 0
XAxis mode: Wavelengths
Number of Pixels in Spectrum: 2048
>>>>>Begin Spectral Data<<<<<
223.165	-21.25
223.4	-21.25
223.635	-21.25
223.869	-19.25
224.104	-16.25
224.338	-13.25
224.573	-7.25
224.808	-12.25
225.042	-6.25
225.277	-0.25
225.511	-9.25
225.746	5.75
225.98	19.75
226.215	-0.25
226.449	14.75
226.683	24.75
226.918	20.75
227.152	19.75
227.387	32.75
227.621	21.75
227.856	35.75
228.09	45.75
228.324	49.75
228.559	57.75
228.793	97.75
229.027	148.75
229.262	179.75
229.496	167.75
229.73	160.75
229.964	160.75
230.199	170.75
230.433	156.75
230.667	162.75
230.901	152.75
231.136	185.75
231.37	179.75
231.604	208.75
231.838	215.75
232.072	240.75
232.306	263.75
232.541	217.75
232.775	200.75
233.009	201.75
233.243	212.75
233.477	215.75
233.711	256.75
233.945	255.75
234.179	234.75
234.413	235.75
234.647	210.75
234.881	239.75
235.115	261.75
235.349	292.75
235.583	356.75
235.817	448.75
236.051	432.75
236.285	277.75
236.519	259.75
236.753	240.75
236.987	236.75
237.221	251.75
237.455	242.75
237.689	234.75
237.922	234.75
238.156	226.75
238.39	233.75
238.624	239.75
238.858	205.75
239.091	242.75
239.325	236.75
239.559	248.75
239.793	243.75
240.027	253.75
240.26	262.75
240.494	245.75
240.728	277.75
240.961	265.75
241.195	306.75
241.429	301.75
241.662	323.75
241.896	363.75
242.13	436.75
242.363	525.75
242.597	654.75
242.83	631.75
243.064	650.75
243.298	780.75
243.531	652.75
243.765	414.75
243.998	343.75
244.232	311.75
244.465	320.75
244.699	302.75
244.932	308.75
245.166	299.75
245.399	289.75
245.633	317.75
245.866	304.75
246.099	299.75
246.333	299.75
246.566	293.75
246.8	287.75
247.033	288.75
247.266	278.75
247.5	303.75
247.733	323.75
247.966	311.75
248.2	323.75
248.433	387.75
248.666	427.75
248.899	406.75
249.133	376.75
249.366	372.75
249.599	418.75
249.832	457.75
250.066	460.75
250.299	375.75
250.532	354.75
250.765	331.75
250.998	350.75
251.231	320.75
251.465	326.75
251.698	340.75
251.931	343.75
252.164	337.75
252.397	332.75
252.63	363.75
252.863	360.75
253.096	363.75
253.329	355.75
253.562	353.75
253.795	328.75
254.028	369.75
254.261	365.75
254.494	403.75
254.727	453.75
254.96	549.75
255.193	521.75
255.426	427.75
255.659	374.75
255.892	384.75
256.124	372.75
256.357	405.75
256.59	394.75
256.823	413.75
257.056	456.75
257.289	565.75
257.521	607.75
257.754	469.75
257.987	437.75
258.22	417.75
258.452	406.75
258.685	411.75
258.918	424.75
259.151	420.75
259.383	465.75
259.616	504.75
259.849	544.75
260.081	485.75
260.314	443.75
260.547	427.75
260.779	406.75
261.012	439.75
261.244	429.75
261.477	471.75
261.71	436.75
261.942	435.75
262.175	451.75
262.407	459.75
262.64	466.75
262.872	515.75
263.105	520.75
263.337	545.75
263.57	529.75
263.802	577.75
264.035	581.75
264.267	579.75
264.499	607.75
264.732	636.75
264.964	631.75
265.197	616.75
265.429	652.75
265.661	634.75
265.894	666.75
266.126	742.75
266.358	818.75
266.591	803.75
266.823	689.75
267.055	637.75
267.287	630.75
267.52	601.75
267.752	584.75
267.984	571.75
268.216	541.75
268.448	556.75
268.681	552.75
268.913	561.75
269.145	559.75
269.377	539.75
269.609	561.75
269.841	579.75
270.073	596.75
270.306	687.75
270.538	921.75
270.77	1331.75
271.002	1605.75
271.234	1112.75
271.466	766.75
271.698	626.75
271.93	597.75
272.162	556.75
272.394	561.75
272.626	561.75
272.858	545.75
273.09	532.75
273.322	532.75
273.553	518.75
273.785	536.75
274.017	530.75
274.249	539.75
274.481	539.75
274.713	525.75
274.945	537.75
275.176	535.75
275.408	554.75
275.64	548.75
275.872	552.75
276.104	570.75
276.335	563.75
276.567	561.75
276.799	552.75
277.031	577.75
277.262	581.75
277.494	602.75
277.726	653.75
277.957	753.75
278.189	830.75
278.421	793.75
278.652	678.75
278.884	673.75
279.115	650.75
279.347	633.75
279.579	622.75
279.81	624.75
280.042	626.75
280.273	635.75
280.505	632.75
280.736	658.75
280.968	663.75
281.199	728.75
281.431	799.75
281.662	835.75
281.894	750.75
282.125	680.75
282.356	682.75
282.588	697.75
282.819	728.75
283.051	784.75
283.282	819.75
283.513	1015.75
283.745	1504.75
283.976	2340.75
284.207	3385.75
284.439	2988.75
284.67	1769.75
284.901	1402.75
285.132	1384.75
285.364	1345.75
285.595	1050.75
285.826	990.75
286.057	1145.75
286.288	1582.75
286.52	2131.75
286.751	1923.75
286.982	1202.75
287.213	903.75
287.444	832.75
287.675	778.75
287.906	722.75
288.138	738.75
288.369	755.75
288.6	701.75
288.831	699.75
289.062	711.75
289.293	719.75
289.524	733.75
289.755	734.75
289.986	717.75
290.217	715.75
290.448	737.75
290.679	755.75
290.91	743.75
291.141	743.75
291.371	821.75
291.602	823.75
291.833	775.75
292.064	741.75
292.295	717.75
292.526	721.75
292.757	721.75
292.987	674.75
293.218	681.75
293.449	692.75
293.68	692.75
293.91	689.75
294.141	691.75
294.372	660.75
294.603	666.75
294.833	675.75
295.064	710.75
295.295	668.75
295.525	678.75
295.756	662.75
295.987	681.75
296.217	678.75
296.448	663.75
296.679	692.75
296.909	663.75
297.14	682.75
297.37	701.75
297.601	730.75
297.831	709.75
298.062	730.75
298.292	699.75
298.523	702.75
298.753	746.75
298.984	728.75
299.214	739.75
299.445	739.75
299.675	768.75
299.905	769.75
300.136	812.75
300.366	861.75
300.597	1134.75
300.827	1550.75
301.057	2074.75
301.288	2067.75
301.518	1319.75
301.748	1025.75
301.979	956.75
302.209	908.75
302.439	908.75
302.669	980.75
302.9	1164.75
303.13	1623.75
303.36	2412.75
303.59	3297.75
303.82	2813.75
304.051	1618.75
304.281	1187.75
304.511	991.75
304.741	928.75
304.971	869.75
305.201	860.75
305.431	836.75
305.661	833.75
305.891	797.75
306.121	781.75
306.352	813.75
306.582	802.75
306.812	791.75
307.042	794.75
307.272	772.75
307.502	781.75
307.731	789.75
307.961	772.75
308.191	789.75
308.421	777.75
308.651	763.75
308.881	785.75
309.111	786.75
309.341	775.75
309.571	782.75
309.8	786.75
310.03	771.75
310.26	798.75
310.49	799.75
310.72	805.75
310.949	780.75
311.179	799.75
311.409	831.75
311.639	819.75
311.868	818.75
312.098	803.75
312.328	833.75
312.557	863.75
312.787	827.75
313.017	841.75
313.246	873.75
313.476	872.75
313.706	898.75
313.935	917.75
314.165	973.75
314.394	999.75
314.624	968.75
314.853	936.75
315.083	913.75
315.312	920.75
315.542	913.75
315.771	925.75
316.001	928.75
316.23	970.75
316.46	1031.75
316.689	1093.75
316.919	1305.75
317.148	1857.75
317.377	2908.75
317.607	4321.75
317.836	4375.75
318.065	2517.75
318.295	1639.75
318.524	1344.75
318.753	1159.75
318.983	1115.75
319.212	1015.75
319.441	1027.75
319.67	1005.75
319.9	983.75
320.129	982.75
320.358	986.75
320.587	975.75
320.816	958.75
321.046	971.75
321.275	977.75
321.504	986.75
321.733	1027.75
321.962	1033.75
322.191	1038.75
322.42	1030.75
322.649	1029.75
322.878	1045.75
323.108	1013.75
323.337	1059.75
323.566	1096.75
323.795	1068.75
324.024	1076.75
324.253	1114.75
324.482	1157.75
324.71	1215.75
324.939	1297.75
325.168	1290.75
325.397	1349.75
325.626	1595.75
325.855	2269.75
326.084	3463.75
326.313	5222.75
326.542	5557.75
326.77	3460.75
326.999	2225.75
327.228	1883.75
327.457	1787.75
327.686	1794.75
327.914	1938.75
328.143	2209.75
328.372	2545.75
328.6	2767.75
328.829	2562.75
329.058	2259.75
329.287	1993.75
329.515	1837.75
329.744	1701.75
329.972	1587.75
330.201	1565.75
330.43	1512.75
330.658	1464.75
330.887	1452.75
331.115	1431.75
331.344	1424.75
331.572	1404.75
331.801	1440.75
332.03	1420.75
332.258	1428.75
332.486	1537.75
332.715	1725.75
332.943	2105.75
333.172	2536.75
333.4	2511.75
333.629	1952.75
333.857	1780.75
334.085	1778.75
334.314	1873.75
334.542	2029.75
334.771	2288.75
334.999	2740.75
335.227	3304.75
335.455	3659.75
335.684	3451.75
335.912	2927.75
336.14	2569.75
336.369	2276.75
336.597	2058.75
336.825	1905.75
337.053	1772.75
337.281	1744.75
337.51	1599.75
337.738	1578.75
337.966	1521.75
338.194	1471.75
338.422	1419.75
338.65	1390.75
338.878	1378.75
339.106	1361.75
339.334	1337.75
339.562	1311.75
339.79	1283.75
340.018	1271.75
340.246	1242.75
340.474	1263.75
340.702	1275.75
340.93	1260.75
341.158	1255.75
341.386	1220.75
341.614	1223.75
341.842	1236.75
342.07	1229.75
342.298	1195.75
342.526	1189.75
342.754	1135.75
342.981	1147.75
343.209	1147.75
343.437	1189.75
343.665	1176.75
343.893	1176.75
344.12	1218.75
344.348	1157.75
344.576	1180.75
344.804	1147.75
345.031	1097.75
345.259	1127.75
345.487	1076.75
345.714	1095.75
345.942	1094.75
346.17	1117.75
346.397	1071.75
346.625	1048.75
346.853	1056.75
347.08	1061.75
347.308	1068.75
347.535	1069.75
347.763	1049.75
347.99	1037.75
348.218	1069.75
348.445	1045.75
348.673	1033.75
348.9	1051.75
349.128	1048.75
349.355	1076.75
349.583	1037.75
349.81	1004.75
350.037	1034.75
350.265	1041.75
350.492	1031.75
350.72	1021.75
350.947	1032.75
351.174	1056.75
351.402	1015.75
351.629	1009.75
351.856	1019.75
352.083	1033.75
352.311	1047.75
352.538	1016.75
352.765	1047.75
352.992	1042.75
353.22	1008.75
353.447	1005.75
353.674	1019.75
353.901	1048.75
354.128	1038.75
354.355	1034.75
354.583	1020.75
354.81	1040.75
355.037	1031.75
355.264	1049.75
355.491	1060.75
355.718	1034.75
355.945	1050.75
356.172	1068.75
356.399	1069.75
356.626	1049.75
356.853	1067.75
357.08	1089.75
357.307	1065.75
357.534	1076.75
357.761	1110.75
357.988	1069.75
358.215	1110.75
358.441	1103.75
358.668	1093.75
358.895	1113.75
359.122	1083.75
359.349	1098.75
359.576	1097.75
359.802	1086.75
360.029	1097.75
360.256	1080.75
360.483	1076.75
360.709	1080.75
360.936	1079.75
361.163	1083.75
361.39	1099.75
361.616	1105.75
361.843	1107.75
362.07	1077.75
362.296	1104.75
362.523	1102.75
362.749	1055.75
362.976	1088.75
363.203	1063.75
363.429	1072.75
363.656	1107.75
363.882	1087.75
364.109	1076.75
364.335	1105.75
364.562	1083.75
364.788	1074.75
365.015	1092.75
365.241	1099.75
365.468	1147.75
365.694	1175.75
365.92	1173.75
366.147	1122.75
366.373	1132.75
366.599	1092.75
366.826	1076.75
367.052	1084.75
367.278	1124.75
367.505	1116.75
367.731	1107.75
367.957	1100.75
368.184	1124.75
368.41	1158.75
368.636	1132.75
368.862	1129.75
369.089	1143.75
369.315	1131.75
369.541	1113.75
369.767	1148.75
369.993	1142.75
370.219	1146.75
370.445	1156.75
370.672	1173.75
370.898	1146.75
371.124	1143.75
371.35	1173.75
371.576	1143.75
371.802	1153.75
372.028	1191.75
372.254	1203.75
372.48	1187.75
372.706	1168.75
372.932	1237.75
373.158	1178.75
373.384	1185.75
373.61	1161.75
373.835	1172.75
374.061	1210.75
374.287	1223.75
374.513	1203.75
374.739	1244.75
374.965	1260.75
375.191	1257.75
375.416	1244.75
375.642	1187.75
375.868	1218.75
376.094	1204.75
376.319	1195.75
376.545	1181.75
376.771	1186.75
376.997	1163.75
377.222	1178.75
377.448	1187.75
377.674	1160.75
377.899	1157.75
378.125	1156.75
378.35	1174.75
378.576	1175.75
378.802	1175.75
379.027	1208.75
379.253	1218.75
379.478	1287.75
379.704	1477.75
379.929	2096.75
380.155	3187.75
380.38	3363.75
380.606	2056.75
380.831	1475.75
381.057	1335.75
381.282	1234.75
381.507	1215.75
381.733	1187.75
381.958	1185.75
382.184	1171.75
382.409	1194.75
382.634	1163.75
382.86	1151.75
383.085	1154.75
383.31	1173.75
383.535	1163.75
383.761	1174.75
383.986	1165.75
384.211	1189.75
384.436	1181.75
384.662	1188.75
384.887	1182.75
385.112	1191.75
385.337	1180.75
385.562	1190.75
385.787	1215.75
386.013	1225.75
386.238	1203.75
386.463	1197.75
386.688	1224.75
386.913	1173.75
387.138	1181.75
387.363	1196.75
387.588	1196.75
387.813	1225.75
388.038	1216.75
388.263	1187.75
388.488	1203.75
388.713	1215.75
388.938	1201.75
389.163	1197.75
389.387	1227.75
389.612	1207.75
389.837	1221.75
390.062	1196.75
390.287	1205.75
390.512	1197.75
390.736	1222.75
390.961	1226.75
391.186	1226.75
391.411	1216.75
391.636	1260.75
391.86	1287.75
392.085	1287.75
392.31	1260.75
392.534	1253.75
392.759	1253.75
392.984	1249.75
393.208	1249.75
393.433	1261.75
393.658	1258.75
393.882	1215.75
394.107	1203.75
394.331	1213.75
394.556	1203.75
394.78	1209.75
395.005	1238.75
395.229	1246.75
395.454	1241.75
395.678	1219.75
395.903	1248.75
396.127	1242.75
396.352	1237.75
396.576	1239.75
396.801	1266.75
397.025	1249.75
397.249	1272.75
397.474	1263.75
397.698	1281.75
397.922	1290.75
398.147	1310.75
398.371	1292.75
398.595	1316.75
398.82	1322.75
399.044	1400.75
399.268	1439.75
399.492	1549.75
399.717	1614.75
399.941	1547.75
400.165	1524.75
400.389	1454.75
400.613	1407.75
400.837	1362.75
401.062	1391.75
401.286	1349.75
401.51	1350.75
401.734	1332.75
401.958	1356.75
402.182	1361.75
402.406	1336.75
402.63	1323.75
402.854	1344.75
403.078	1343.75
403.302	1355.75
403.526	1381.75
403.75	1381.75
403.974	1399.75
404.198	1383.75
404.422	1415.75
404.645	1356.75
404.869	1402.75
405.093	1361.75
405.317	1363.75
405.541	1375.75
405.765	1376.75
405.988	1413.75
406.212	1385.75
406.436	1404.75
406.66	1441.75
406.883	1397.75
407.107	1440.75
407.331	1486.75
407.555	1483.75
407.778	1496.75
408.002	1496.75
408.226	1482.75
408.449	1467.75
408.673	1435.75
408.896	1400.75
409.12	1395.75
409.344	1427.75
409.567	1352.75
409.791	1389.75
410.014	1372.75
410.238	1336.75
410.461	1388.75
410.685	1371.75
410.908	1340.75
411.132	1322.75
411.355	1302.75
411.578	1353.75
411.802	1303.75
412.025	1339.75
412.249	1337.75
412.472	1357.75
412.695	1319.75
412.919	1299.75
413.142	1300.75
413.365	1311.75
413.589	1335.75
413.812	1335.75
414.035	1318.75
414.258	1306.75
414.482	1306.75
414.705	1317.75
414.928	1319.75
415.151	1287.75
415.374	1308.75
415.597	1251.75
415.821	1270.75
416.044	1256.75
416.267	1251.75
416.49	1248.75
416.713	1263.75
416.936	1240.75
417.159	1222.75
417.382	1261.75
417.605	1235.75
417.828	1235.75
418.051	1304.75
418.274	1277.75
418.497	1267.75
418.72	1298.75
418.943	1242.75
419.166	1289.75
419.389	1416.75
419.611	1361.75
419.834	1315.75
420.057	1286.75
420.28	1292.75
420.503	1238.75
420.726	1269.75
420.948	1246.75
421.171	1263.75
421.394	1292.75
421.617	1305.75
421.839	1307.75
422.062	1301.75
422.285	1274.75
422.507	1292.75
422.73	1290.75
422.953	1273.75
423.175	1323.75
423.398	1298.75
423.621	1253.75
423.843	1311.75
424.066	1302.75
424.288	1311.75
424.511	1252.75
424.733	1262.75
424.956	1252.75
425.178	1259.75
425.401	1256.75
425.623	1265.75
425.846	1235.75
426.068	1215.75
426.291	1219.75
426.513	1200.75
426.735	1195.75
426.958	1222.75
427.18	1181.75
427.402	1182.75
427.625	1172.75
427.847	1156.75
428.069	1171.75
428.292	1211.75
428.514	1163.75
428.736	1203.75
428.958	1183.75
429.181	1154.75
429.403	1168.75
429.625	1145.75
429.847	1155.75
430.069	1145.75
430.292	1201.75
430.514	1234.75
430.736	1256.75
430.958	1211.75
431.18	1144.75
431.402	1161.75
431.624	1161.75
431.846	1147.75
432.068	1135.75
432.29	1140.75
432.512	1132.75
432.734	1155.75
432.956	1144.75
433.178	1209.75
433.4	1139.75
433.622	1192.75
433.844	1195.75
434.066	1160.75
434.287	1133.75
434.509	1159.75
434.731	1178.75
434.953	1207.75
435.175	1225.75
435.397	1211.75
435.618	1174.75
435.84	1189.75
436.062	1168.75
436.284	1155.75
436.505	1155.75
436.727	1152.75
436.949	1183.75
437.17	1141.75
437.392	1136.75
437.614	1148.75
437.835	1103.75
438.057	1116.75
438.278	1127.75
438.5	1128.75
438.721	1139.75
438.943	1167.75
439.165	1197.75
439.386	1221.75
439.608	1195.75
439.829	1224.75
440.05	1227.75
440.272	1273.75
440.493	1219.75
440.715	1199.75
440.936	1218.75
441.158	1191.75
441.379	1249.75
441.6	1263.75
441.822	1262.75
442.043	1333.75
442.264	1396.75
442.486	1303.75
442.707	1241.75
442.928	1237.75
443.149	1248.75
443.371	1226.75
443.592	1270.75
443.813	1247.75
444.034	1261.75
444.255	1295.75
444.476	1304.75
444.698	1327.75
444.919	1378.75
445.14	1437.75
445.361	1317.75
445.582	1270.75
445.803	1243.75
446.024	1252.75
446.245	1267.75
446.466	1253.75
446.687	1216.75
446.908	1232.75
447.129	1205.75
447.35	1174.75
447.571	1188.75
447.792	1171.75
448.013	1152.75
448.234	1139.75
448.455	1176.75
448.675	1129.75
448.896	1226.75
449.117	1205.75
449.338	1330.75
449.559	1375.75
449.779	1219.75
450	1144.75
450.221	1137.75
450.442	1108.75
450.662	1129.75
450.883	1132.75
451.104	1116.75
451.324	1130.75
451.545	1133.75
451.766	1123.75
451.986	1106.75
452.207	1189.75
452.428	1442.75
452.648	2069.75
452.869	1729.75
453.089	1312.75
453.31	1221.75
453.53	1218.75
453.751	1238.75
453.971	1314.75
454.192	1317.75
454.412	1171.75
454.633	1107.75
454.853	1097.75
455.073	1070.75
455.294	1039.75
455.514	1063.75
455.734	1099.75
455.955	1075.75
456.175	1082.75
456.395	1031.75
456.616	1030.75
456.836	1030.75
457.056	1089.75
457.276	1080.75
457.497	1135.75
457.717	1132.75
457.937	1132.75
458.157	1148.75
458.377	1108.75
458.598	1142.75
458.818	1132.75
459.038	1148.75
459.258	1124.75
459.478	1140.75
459.698	1159.75
459.918	1155.75
460.138	1243.75
460.358	1246.75
460.578	1235.75
460.798	1258.75
461.018	1271.75
461.238	1270.75
461.458	1245.75
461.678	1273.75
461.898	1274.75
462.118	1293.75
462.338	1316.75
462.558	1333.75
462.777	1347.75
462.997	1386.75
463.217	1453.75
463.437	1493.75
463.657	1537.75
463.876	1475.75
464.096	1446.75
464.316	1376.75
464.536	1355.75
464.755	1360.75
464.975	1306.75
465.195	1286.75
465.414	1249.75
465.634	1201.75
465.854	1193.75
466.073	1186.75
466.293	1153.75
466.512	1176.75
466.732	1204.75
466.951	1215.75
467.171	1305.75
467.391	1297.75
467.61	1183.75
467.829	1161.75
468.049	1142.75
468.268	1133.75
468.488	1134.75
468.707	1149.75
468.927	1127.75
469.146	1110.75
469.365	1198.75
469.585	1143.75
469.804	1166.75
470.023	1185.75
470.243	1212.75
470.462	1235.75
470.681	1297.75
470.901	1431.75
471.12	1609.75
471.339	1637.75
471.558	1381.75
471.777	1266.75
471.997	1228.75
472.216	1178.75
472.435	1174.75
472.654	1140.75
472.873	1105.75
473.092	1131.75
473.311	1133.75
473.53	1171.75
473.749	1209.75
473.968	1192.75
474.187	1157.75
474.406	1158.75
474.625	1155.75
474.844	1137.75
475.063	1147.75
475.282	1154.75
475.501	1141.75
475.72	1124.75
475.939	1157.75
476.158	1196.75
476.377	1202.75
476.596	1208.75
476.814	1215.75
477.033	1246.75
477.252	1224.75
477.471	1217.75
477.69	1244.75
477.908	1303.75
478.127	1310.75
478.346	1291.75
478.564	1343.75
478.783	1319.75
479.002	1362.75
479.22	1375.75
479.439	1345.75
479.658	1324.75
479.876	1354.75
480.095	1364.75
480.313	1368.75
480.532	1393.75
480.751	1391.75
480.969	1353.75
481.188	1365.75
481.406	1366.75
481.624	1363.75
481.843	1329.75
482.061	1359.75
482.28	1335.75
482.498	1327.75
482.717	1341.75
482.935	1379.75
483.153	1392.75
483.372	1407.75
483.59	1411.75
483.808	1457.75
484.027	1473.75
484.245	1525.75
484.463	1718.75
484.681	1915.75
484.9	1725.75
485.118	1644.75
485.336	1566.75
485.554	1603.75
485.772	1671.75
485.99	1879.75
486.209	2107.75
486.427	1736.75
486.645	1569.75
486.863	1511.75
487.081	1486.75
487.299	1475.75
487.517	1468.75
487.735	1457.75
487.953	1510.75
488.171	1489.75
488.389	1445.75
488.607	1435.75
488.825	1425.75
489.043	1354.75
489.261	1395.75
489.479	1395.75
489.696	1401.75
489.914	1383.75
490.132	1407.75
490.35	1423.75
490.568	1450.75
490.786	1464.75
