Data from SnStandardFlinnAPT0064_LampEnergy5.5_LIBS07252019.E.O._I.C._HRD10591_15-15-22-491.txt Node
Date: Thu Jul 25 15:15:22 EDT 2019
User: cochatt
Spectrometer: HR+D1059
Trigger mode: 1
Integration Time (sec): 1.000000E-1
Scans to average: 1
Electric dark correction enabled: true
Nonlinearity correction enabled: false
Boxcar width: 0
XAxis mode: Wavelengths
Number of Pixels in Spectrum: 2048
>>>>>Begin Spectral Data<<<<<
223.165	-17.38
223.4	-17.38
223.635	-17.38
223.869	-23.38
224.104	-13.38
224.338	-11.38
224.573	-13.38
224.808	-11.38
225.042	-5.38
225.277	-8.38
225.511	-0.38
225.746	1.62
225.98	7.62
226.215	26.62
226.449	5.62
226.683	16.62
226.918	20.62
227.152	25.62
227.387	27.62
227.621	31.62
227.856	53.62
228.09	53.62
228.324	55.62
228.559	51.62
228.793	71.62
229.027	149.62
229.262	145.62
229.496	151.62
229.73	162.62
229.964	163.62
230.199	159.62
230.433	160.62
230.667	154.62
230.901	167.62
231.136	168.62
231.37	169.62
231.604	196.62
231.838	196.62
232.072	219.62
232.306	239.62
232.541	214.62
232.775	199.62
233.009	204.62
233.243	204.62
233.477	223.62
233.711	246.62
233.945	261.62
234.179	236.62
234.413	214.62
234.647	205.62
234.881	209.62
235.115	224.62
235.349	257.62
235.583	317.62
235.817	395.62
236.051	398.62
236.285	254.62
236.519	227.62
236.753	222.62
236.987	246.62
237.221	250.62
237.455	233.62
237.689	209.62
237.922	215.62
238.156	229.62
238.39	195.62
238.624	213.62
238.858	229.62
239.091	223.62
239.325	222.62
239.559	224.62
239.793	251.62
240.027	241.62
240.26	242.62
240.494	229.62
240.728	267.62
240.961	274.62
241.195	261.62
241.429	270.62
241.662	310.62
241.896	328.62
242.13	368.62
242.363	465.62
242.597	568.62
242.83	577.62
243.064	569.62
243.298	674.62
243.531	562.62
243.765	388.62
243.998	333.62
244.232	315.62
244.465	311.62
244.699	300.62
244.932	293.62
245.166	289.62
245.399	287.62
245.633	303.62
245.866	295.62
246.099	300.62
246.333	289.62
246.566	288.62
246.8	280.62
247.033	286.62
247.266	295.62
247.5	303.62
247.733	311.62
247.966	318.62
248.2	325.62
248.433	362.62
248.666	402.62
248.899	390.62
249.133	366.62
249.366	357.62
249.599	381.62
249.832	416.62
250.066	424.62
250.299	361.62
250.532	342.62
250.765	328.62
250.998	326.62
251.231	325.62
251.465	318.62
251.698	315.62
251.931	317.62
252.164	343.62
252.397	335.62
252.63	334.62
252.863	344.62
253.096	314.62
253.329	338.62
253.562	345.62
253.795	344.62
254.028	351.62
254.261	362.62
254.494	384.62
254.727	400.62
254.96	500.62
255.193	471.62
255.426	387.62
255.659	354.62
255.892	375.62
256.124	378.62
256.357	368.62
256.59	382.62
256.823	413.62
257.056	434.62
257.289	490.62
257.521	532.62
257.754	458.62
257.987	451.62
258.22	406.62
258.452	393.62
258.685	380.62
258.918	402.62
259.151	416.62
259.383	442.62
259.616	475.62
259.849	488.62
260.081	463.62
260.314	436.62
260.547	418.62
260.779	411.62
261.012	417.62
261.244	408.62
261.477	454.62
261.71	438.62
261.942	443.62
262.175	440.62
262.407	463.62
262.64	470.62
262.872	489.62
263.105	524.62
263.337	513.62
263.57	535.62
263.802	553.62
264.035	587.62
264.267	595.62
264.499	595.62
264.732	626.62
264.964	607.62
265.197	613.62
265.429	627.62
265.661	644.62
265.894	668.62
266.126	746.62
266.358	773.62
266.591	769.62
266.823	668.62
267.055	628.62
267.287	615.62
267.52	584.62
267.752	574.62
267.984	555.62
268.216	565.62
268.448	546.62
268.681	532.62
268.913	533.62
269.145	547.62
269.377	539.62
269.609	530.62
269.841	552.62
270.073	577.62
270.306	629.62
270.538	826.62
270.77	1142.62
271.002	1374.62
271.234	998.62
271.466	718.62
271.698	615.62
271.93	568.62
272.162	559.62
272.394	562.62
272.626	525.62
272.858	523.62
273.09	540.62
273.322	524.62
273.553	493.62
273.785	502.62
274.017	519.62
274.249	520.62
274.481	519.62
274.713	521.62
274.945	528.62
275.176	521.62
275.408	540.62
275.64	524.62
275.872	520.62
276.104	522.62
276.335	553.62
276.567	525.62
276.799	560.62
277.031	534.62
277.262	555.62
277.494	576.62
277.726	623.62
277.957	682.62
278.189	754.62
278.421	711.62
278.652	675.62
278.884	626.62
279.115	578.62
279.347	598.62
279.579	550.62
279.81	591.62
280.042	585.62
280.273	594.62
280.505	584.62
280.736	625.62
280.968	614.62
281.199	698.62
281.431	762.62
281.662	754.62
281.894	698.62
282.125	686.62
282.356	680.62
282.588	652.62
282.819	664.62
283.051	727.62
283.282	818.62
283.513	940.62
283.745	1318.62
283.976	1987.62
284.207	2839.62
284.439	2578.62
284.67	1670.62
284.901	1302.62
285.132	1248.62
285.364	1217.62
285.595	976.62
285.826	924.62
286.057	1057.62
286.288	1408.62
286.52	1820.62
286.751	1676.62
286.982	1119.62
287.213	860.62
287.444	800.62
287.675	734.62
287.906	725.62
288.138	698.62
288.369	691.62
288.6	701.62
288.831	692.62
289.062	695.62
289.293	711.62
289.524	712.62
289.755	710.62
289.986	726.62
290.217	738.62
290.448	716.62
290.679	712.62
290.91	710.62
291.141	721.62
291.371	759.62
291.602	751.62
291.833	726.62
292.064	702.62
292.295	665.62
292.526	670.62
292.757	667.62
292.987	665.62
293.218	656.62
293.449	657.62
293.68	676.62
293.91	678.62
294.141	661.62
294.372	672.62
294.603	663.62
294.833	644.62
295.064	660.62
295.295	670.62
295.525	687.62
295.756	667.62
295.987	666.62
296.217	644.62
296.448	665.62
296.679	646.62
296.909	650.62
297.14	663.62
297.37	663.62
297.601	674.62
297.831	688.62
298.062	689.62
298.292	682.62
298.523	694.62
298.753	716.62
298.984	700.62
299.214	726.62
299.445	728.62
299.675	751.62
299.905	753.62
300.136	785.62
300.366	830.62
300.597	1006.62
300.827	1336.62
301.057	1808.62
301.288	1759.62
301.518	1232.62
301.748	979.62
301.979	930.62
302.209	884.62
302.439	890.62
302.669	936.62
302.9	1086.62
303.13	1477.62
303.36	2121.62
303.59	2670.62
303.82	2396.62
304.051	1491.62
304.281	1136.62
304.511	962.62
304.741	886.62
304.971	850.62
305.201	844.62
305.431	820.62
305.661	799.62
305.891	782.62
306.121	780.62
306.352	785.62
306.582	752.62
306.812	740.62
307.042	759.62
307.272	775.62
307.502	775.62
307.731	754.62
307.961	752.62
308.191	767.62
308.421	778.62
308.651	771.62
308.881	773.62
309.111	782.62
309.341	747.62
309.571	760.62
309.8	759.62
310.03	774.62
310.26	790.62
310.49	776.62
310.72	801.62
310.949	801.62
311.179	781.62
311.409	808.62
311.639	797.62
311.868	812.62
312.098	801.62
312.328	802.62
312.557	820.62
312.787	830.62
313.017	800.62
313.246	835.62
313.476	827.62
313.706	839.62
313.935	860.62
314.165	896.62
314.394	948.62
314.624	938.62
314.853	875.62
315.083	879.62
315.312	878.62
315.542	886.62
315.771	875.62
316.001	890.62
316.23	941.62
316.46	966.62
316.689	1053.62
316.919	1223.62
317.148	1661.62
317.377	2516.62
317.607	3629.62
317.836	3690.62
318.065	2262.62
318.295	1483.62
318.524	1248.62
318.753	1108.62
318.983	1068.62
319.212	1016.62
319.441	972.62
319.67	965.62
319.9	942.62
320.129	959.62
320.358	958.62
320.587	990.62
320.816	938.62
321.046	959.62
321.275	965.62
321.504	962.62
321.733	982.62
321.962	978.62
322.191	1008.62
322.42	1014.62
322.649	1014.62
322.878	985.62
323.108	999.62
323.337	1030.62
323.566	1038.62
323.795	1027.62
324.024	1087.62
324.253	1073.62
324.482	1126.62
324.71	1193.62
324.939	1230.62
325.168	1223.62
325.397	1279.62
325.626	1468.62
325.855	1983.62
326.084	3036.62
326.313	4449.62
326.542	4668.62
326.77	3054.62
326.999	2121.62
327.228	1787.62
327.457	1737.62
327.686	1776.62
327.914	1886.62
328.143	2144.62
328.372	2430.62
328.6	2611.62
328.829	2475.62
329.058	2158.62
329.287	1976.62
329.515	1766.62
329.744	1681.62
329.972	1593.62
330.201	1513.62
330.43	1480.62
330.658	1447.62
330.887	1411.62
331.115	1418.62
331.344	1408.62
331.572	1365.62
331.801	1368.62
332.03	1404.62
332.258	1387.62
332.486	1445.62
332.715	1620.62
332.943	1881.62
333.172	2277.62
333.4	2229.62
333.629	1793.62
333.857	1702.62
334.085	1738.62
334.314	1812.62
334.542	1940.62
334.771	2237.62
334.999	2653.62
335.227	3176.62
335.455	3502.62
335.684	3292.62
335.912	2866.62
336.14	2488.62
336.369	2198.62
336.597	2040.62
336.825	1921.62
337.053	1814.62
337.281	1705.62
337.51	1610.62
337.738	1565.62
337.966	1513.62
338.194	1448.62
338.422	1403.62
338.65	1343.62
338.878	1328.62
339.106	1306.62
339.334	1330.62
339.562	1266.62
339.79	1228.62
340.018	1243.62
340.246	1232.62
340.474	1268.62
340.702	1251.62
340.93	1244.62
341.158	1212.62
341.386	1256.62
341.614	1225.62
341.842	1218.62
342.07	1174.62
342.298	1147.62
342.526	1148.62
342.754	1127.62
342.981	1156.62
343.209	1101.62
343.437	1159.62
343.665	1170.62
343.893	1166.62
344.12	1174.62
344.348	1160.62
344.576	1135.62
344.804	1124.62
345.031	1117.62
345.259	1091.62
345.487	1089.62
345.714	1064.62
345.942	1049.62
346.17	1103.62
346.397	1049.62
346.625	1056.62
346.853	1046.62
347.08	1036.62
347.308	1077.62
347.535	1027.62
347.763	1060.62
347.99	1040.62
348.218	1036.62
348.445	1017.62
348.673	1017.62
348.9	1028.62
349.128	1039.62
349.355	1014.62
349.583	1042.62
349.81	1006.62
350.037	1032.62
350.265	999.62
350.492	1014.62
350.72	1047.62
350.947	1016.62
351.174	1025.62
351.402	970.62
351.629	1002.62
351.856	979.62
352.083	999.62
352.311	1022.62
352.538	978.62
352.765	1028.62
352.992	979.62
353.22	974.62
353.447	1012.62
353.674	986.62
353.901	974.62
354.128	1000.62
354.355	996.62
354.583	1031.62
354.81	1040.62
355.037	1032.62
355.264	1028.62
355.491	1031.62
355.718	1018.62
355.945	1020.62
356.172	1023.62
356.399	1020.62
356.626	1028.62
356.853	1037.62
357.08	1062.62
357.307	1064.62
357.534	1045.62
357.761	1059.62
357.988	1046.62
358.215	1048.62
358.441	1062.62
358.668	1040.62
358.895	1048.62
359.122	1080.62
359.349	1080.62
359.576	1058.62
359.802	1033.62
360.029	1048.62
360.256	1039.62
360.483	1037.62
360.709	1070.62
360.936	1068.62
361.163	1059.62
361.39	1063.62
361.616	1086.62
361.843	1090.62
362.07	1062.62
362.296	1027.62
362.523	1054.62
362.749	1074.62
362.976	1078.62
363.203	1057.62
363.429	1058.62
363.656	1082.62
363.882	1062.62
364.109	1033.62
364.335	1055.62
364.562	1061.62
364.788	1082.62
365.015	1089.62
365.241	1059.62
365.468	1103.62
365.694	1130.62
365.92	1136.62
366.147	1089.62
366.373	1096.62
366.599	1070.62
366.826	1097.62
367.052	1094.62
367.278	1111.62
367.505	1107.62
367.731	1093.62
367.957	1086.62
368.184	1097.62
368.41	1095.62
368.636	1085.62
368.862	1117.62
369.089	1084.62
369.315	1094.62
369.541	1099.62
369.767	1119.62
369.993	1112.62
370.219	1104.62
370.445	1118.62
370.672	1118.62
370.898	1105.62
371.124	1116.62
371.35	1164.62
371.576	1147.62
371.802	1150.62
372.028	1192.62
372.254	1168.62
372.48	1148.62
372.706	1167.62
372.932	1138.62
373.158	1209.62
373.384	1168.62
373.61	1160.62
373.835	1154.62
374.061	1138.62
374.287	1204.62
374.513	1183.62
374.739	1216.62
374.965	1224.62
375.191	1222.62
375.416	1204.62
375.642	1163.62
375.868	1208.62
376.094	1186.62
376.319	1152.62
376.545	1152.62
376.771	1189.62
376.997	1182.62
377.222	1143.62
377.448	1152.62
377.674	1150.62
377.899	1135.62
378.125	1125.62
378.35	1152.62
378.576	1136.62
378.802	1157.62
379.027	1154.62
379.253	1170.62
379.478	1220.62
379.704	1420.62
379.929	1894.62
380.155	2665.62
380.38	2828.62
380.606	1882.62
380.831	1426.62
381.057	1277.62
381.282	1202.62
381.507	1162.62
381.733	1172.62
381.958	1148.62
382.184	1148.62
382.409	1161.62
382.634	1146.62
382.86	1129.62
383.085	1130.62
383.31	1112.62
383.535	1144.62
383.761	1147.62
383.986	1166.62
384.211	1168.62
384.436	1135.62
384.662	1169.62
384.887	1198.62
385.112	1159.62
385.337	1202.62
385.562	1192.62
385.787	1164.62
386.013	1186.62
386.238	1186.62
386.463	1190.62
386.688	1207.62
386.913	1140.62
387.138	1146.62
387.363	1169.62
387.588	1131.62
387.813	1152.62
388.038	1176.62
388.263	1174.62
388.488	1198.62
388.713	1186.62
388.938	1176.62
389.163	1145.62
389.387	1174.62
389.612	1138.62
389.837	1195.62
390.062	1172.62
390.287	1198.62
390.512	1180.62
390.736	1193.62
390.961	1230.62
391.186	1226.62
391.411	1226.62
391.636	1240.62
391.86	1236.62
392.085	1260.62
392.31	1241.62
392.534	1210.62
392.759	1224.62
392.984	1196.62
393.208	1191.62
393.433	1203.62
393.658	1168.62
393.882	1193.62
394.107	1205.62
394.331	1213.62
394.556	1195.62
394.78	1219.62
395.005	1226.62
395.229	1214.62
395.454	1210.62
395.678	1248.62
395.903	1236.62
396.127	1207.62
396.352	1193.62
396.576	1170.62
396.801	1194.62
397.025	1237.62
397.249	1249.62
397.474	1236.62
397.698	1241.62
397.922	1280.62
398.147	1262.62
398.371	1272.62
398.595	1290.62
398.82	1319.62
399.044	1378.62
399.268	1394.62
399.492	1532.62
399.717	1539.62
399.941	1569.62
400.165	1524.62
400.389	1463.62
400.613	1372.62
400.837	1371.62
401.062	1328.62
401.286	1346.62
401.51	1302.62
401.734	1284.62
401.958	1317.62
402.182	1317.62
402.406	1318.62
402.63	1270.62
402.854	1317.62
403.078	1320.62
403.302	1348.62
403.526	1340.62
403.75	1377.62
403.974	1390.62
404.198	1368.62
404.422	1385.62
404.645	1364.62
404.869	1360.62
405.093	1386.62
405.317	1375.62
405.541	1394.62
405.765	1380.62
405.988	1391.62
406.212	1382.62
406.436	1382.62
406.66	1387.62
406.883	1361.62
407.107	1448.62
407.331	1484.62
407.555	1484.62
407.778	1430.62
408.002	1458.62
408.226	1426.62
408.449	1440.62
408.673	1380.62
408.896	1363.62
409.12	1390.62
409.344	1384.62
409.567	1360.62
409.791	1371.62
410.014	1332.62
410.238	1348.62
410.461	1368.62
410.685	1347.62
410.908	1335.62
411.132	1350.62
411.355	1283.62
411.578	1316.62
411.802	1316.62
412.025	1318.62
412.249	1346.62
412.472	1356.62
412.695	1287.62
412.919	1259.62
413.142	1268.62
413.365	1290.62
413.589	1311.62
413.812	1283.62
414.035	1270.62
414.258	1280.62
414.482	1232.62
414.705	1291.62
414.928	1270.62
415.151	1251.62
415.374	1272.62
415.597	1243.62
415.821	1254.62
416.044	1228.62
416.267	1205.62
416.49	1240.62
416.713	1256.62
416.936	1254.62
417.159	1209.62
417.382	1227.62
417.605	1212.62
417.828	1271.62
418.051	1257.62
418.274	1235.62
418.497	1248.62
418.72	1272.62
418.943	1248.62
419.166	1314.62
419.389	1347.62
419.611	1331.62
419.834	1320.62
420.057	1261.62
420.28	1255.62
420.503	1205.62
420.726	1270.62
420.948	1233.62
421.171	1247.62
421.394	1221.62
421.617	1206.62
421.839	1276.62
422.062	1245.62
422.285	1195.62
422.507	1270.62
422.73	1270.62
422.953	1282.62
423.175	1262.62
423.398	1275.62
423.621	1243.62
423.843	1248.62
424.066	1241.62
424.288	1221.62
424.511	1215.62
424.733	1225.62
424.956	1246.62
425.178	1229.62
425.401	1228.62
425.623	1247.62
425.846	1183.62
426.068	1209.62
426.291	1192.62
426.513	1214.62
426.735	1196.62
426.958	1194.62
427.18	1172.62
427.402	1167.62
427.625	1192.62
427.847	1154.62
428.069	1161.62
428.292	1163.62
428.514	1169.62
428.736	1172.62
428.958	1149.62
429.181	1143.62
429.403	1161.62
429.625	1135.62
429.847	1129.62
430.069	1177.62
430.292	1206.62
430.514	1218.62
430.736	1209.62
430.958	1146.62
431.18	1122.62
431.402	1148.62
431.624	1116.62
431.846	1134.62
432.068	1091.62
432.29	1127.62
432.512	1115.62
432.734	1150.62
432.956	1159.62
433.178	1154.62
433.4	1188.62
433.622	1153.62
433.844	1152.62
434.066	1150.62
434.287	1154.62
434.509	1185.62
434.731	1163.62
434.953	1203.62
435.175	1188.62
435.397	1220.62
435.618	1166.62
435.84	1139.62
436.062	1137.62
436.284	1161.62
436.505	1137.62
436.727	1125.62
436.949	1125.62
437.17	1116.62
437.392	1121.62
437.614	1096.62
437.835	1088.62
438.057	1094.62
438.278	1090.62
438.5	1096.62
438.721	1128.62
438.943	1156.62
439.165	1145.62
439.386	1170.62
439.608	1198.62
439.829	1192.62
440.05	1212.62
440.272	1232.62
440.493	1182.62
440.715	1170.62
440.936	1179.62
441.158	1168.62
441.379	1193.62
441.6	1216.62
441.822	1288.62
442.043	1314.62
442.264	1336.62
442.486	1264.62
442.707	1217.62
442.928	1223.62
443.149	1218.62
443.371	1213.62
443.592	1271.62
443.813	1268.62
444.034	1249.62
444.255	1251.62
444.476	1303.62
444.698	1337.62
444.919	1342.62
445.14	1320.62
445.361	1330.62
445.582	1266.62
445.803	1208.62
446.024	1255.62
446.245	1243.62
446.466	1229.62
446.687	1220.62
446.908	1210.62
447.129	1192.62
447.35	1135.62
447.571	1151.62
447.792	1139.62
448.013	1152.62
448.234	1121.62
448.455	1146.62
448.675	1137.62
448.896	1171.62
449.117	1163.62
449.338	1248.62
449.559	1346.62
449.779	1198.62
450	1127.62
450.221	1119.62
450.442	1096.62
450.662	1087.62
450.883	1106.62
451.104	1098.62
451.324	1073.62
451.545	1090.62
451.766	1109.62
451.986	1113.62
452.207	1131.62
452.428	1335.62
452.648	1784.62
452.869	1542.62
453.089	1219.62
453.31	1178.62
453.53	1177.62
453.751	1242.62
453.971	1250.62
454.192	1230.62
454.412	1142.62
454.633	1112.62
454.853	1053.62
455.073	1080.62
455.294	1073.62
455.514	1054.62
455.734	1040.62
455.955	1061.62
456.175	1034.62
456.395	1048.62
456.616	1067.62
456.836	1047.62
457.056	1084.62
457.276	1058.62
457.497	1098.62
457.717	1118.62
457.937	1088.62
458.157	1108.62
458.377	1094.62
458.598	1103.62
458.818	1097.62
459.038	1124.62
459.258	1090.62
459.478	1144.62
459.698	1154.62
459.918	1143.62
460.138	1182.62
460.358	1212.62
460.578	1200.62
460.798	1228.62
461.018	1274.62
461.238	1234.62
461.458	1273.62
461.678	1251.62
461.898	1289.62
462.118	1279.62
462.338	1332.62
462.558	1321.62
462.777	1352.62
462.997	1385.62
463.217	1431.62
463.437	1475.62
463.657	1471.62
463.876	1455.62
464.096	1387.62
464.316	1350.62
464.536	1360.62
464.755	1313.62
464.975	1302.62
465.195	1236.62
465.414	1231.62
465.634	1204.62
465.854	1203.62
466.073	1173.62
466.293	1153.62
466.512	1174.62
466.732	1149.62
466.951	1167.62
467.171	1255.62
467.391	1240.62
467.61	1170.62
467.829	1147.62
468.049	1148.62
468.268	1121.62
468.488	1104.62
468.707	1106.62
468.927	1115.62
469.146	1105.62
469.365	1160.62
469.585	1116.62
469.804	1163.62
470.023	1176.62
470.243	1202.62
470.462	1246.62
470.681	1256.62
470.901	1364.62
471.12	1515.62
471.339	1497.62
471.558	1287.62
471.777	1208.62
471.997	1174.62
472.216	1123.62
472.435	1144.62
472.654	1138.62
472.873	1120.62
473.092	1148.62
473.311	1151.62
473.53	1130.62
473.749	1150.62
473.968	1180.62
474.187	1115.62
474.406	1098.62
474.625	1146.62
474.844	1132.62
475.063	1152.62
475.282	1145.62
475.501	1146.62
475.72	1146.62
475.939	1130.62
476.158	1175.62
476.377	1192.62
476.596	1176.62
476.814	1222.62
477.033	1162.62
477.252	1195.62
477.471	1225.62
477.69	1221.62
477.908	1275.62
478.127	1286.62
478.346	1259.62
478.564	1271.62
478.783	1307.62
479.002	1340.62
479.22	1355.62
479.439	1338.62
479.658	1313.62
479.876	1343.62
480.095	1344.62
480.313	1403.62
480.532	1368.62
480.751	1372.62
480.969	1358.62
481.188	1331.62
481.406	1348.62
481.624	1331.62
481.843	1337.62
482.061	1327.62
482.28	1337.62
482.498	1350.62
482.717	1323.62
482.935	1380.62
483.153	1395.62
483.372	1381.62
483.59	1412.62
483.808	1426.62
484.027	1441.62
484.245	1510.62
484.463	1615.62
484.681	1788.62
484.9	1628.62
485.118	1590.62
485.336	1559.62
485.554	1559.62
485.772	1578.62
485.99	1794.62
486.209	1927.62
486.427	1666.62
486.645	1514.62
486.863	1440.62
487.081	1499.62
487.299	1443.62
487.517	1440.62
487.735	1458.62
487.953	1460.62
488.171	1462.62
488.389	1455.62
488.607	1425.62
488.825	1393.62
489.043	1395.62
489.261	1394.62
489.479	1399.62
489.696	1396.62
489.914	1408.62
490.132	1418.62
490.35	1404.62
490.568	1433.62
490.786	1460.62
491.003	1443.62
491.221	1448.62
