Data from StandardFe(NO3)3.TAE.3%Agarose.FlatLispGreen.Lamp.Energy10.07252019_HRD10591_11-53-40-439.txt Node
Date: Thu Jul 25 11:53:40 EDT 2019
User: cochatt
Spectrometer: HR+D1059
Trigger mode: 1
Integration Time (sec): 1.000000E-1
Scans to average: 1
Electric dark correction enabled: true
Nonlinearity correction enabled: false
Boxcar width: 0
XAxis mode: Wavelengths
Number of Pixels in Spectrum: 2048
>>>>>Begin Spectral Data<<<<<
223.165	-9.81
223.4	-9.81
223.635	-9.81
223.869	-9.81
224.104	-15.81
224.338	-15.81
224.573	-13.81
224.808	-14.81
225.042	-16.81
225.277	3.19
225.511	-14.81
225.746	6.19
225.98	1.19
226.215	15.19
226.449	23.19
226.683	24.19
226.918	9.19
227.152	29.19
227.387	46.19
227.621	25.19
227.856	57.19
228.09	54.19
228.324	37.19
228.559	41.19
228.793	53.19
229.027	61.19
229.262	61.19
229.496	72.19
229.73	69.19
229.964	68.19
230.199	71.19
230.433	82.19
230.667	72.19
230.901	90.19
231.136	83.19
231.37	93.19
231.604	64.19
231.838	75.19
232.072	80.19
232.306	86.19
232.541	80.19
232.775	67.19
233.009	83.19
233.243	81.19
233.477	92.19
233.711	96.19
233.945	81.19
234.179	84.19
234.413	84.19
234.647	85.19
234.881	85.19
235.115	87.19
235.349	65.19
235.583	84.19
235.817	78.19
236.051	85.19
236.285	70.19
236.519	78.19
236.753	84.19
236.987	84.19
237.221	66.19
237.455	70.19
237.689	77.19
237.922	85.19
238.156	78.19
238.39	73.19
238.624	73.19
238.858	69.19
239.091	67.19
239.325	64.19
239.559	77.19
239.793	83.19
240.027	84.19
240.26	92.19
240.494	72.19
240.728	89.19
240.961	77.19
241.195	85.19
241.429	79.19
241.662	85.19
241.896	85.19
242.13	71.19
242.363	73.19
242.597	77.19
242.83	81.19
243.064	76.19
243.298	89.19
243.531	76.19
243.765	72.19
243.998	70.19
244.232	84.19
244.465	80.19
244.699	82.19
244.932	85.19
245.166	77.19
245.399	73.19
245.633	83.19
245.866	79.19
246.099	80.19
246.333	87.19
246.566	89.19
246.8	83.19
247.033	79.19
247.266	80.19
247.5	66.19
247.733	60.19
247.966	85.19
248.2	78.19
248.433	79.19
248.666	78.19
248.899	74.19
249.133	78.19
249.366	88.19
249.599	78.19
249.832	74.19
250.066	77.19
250.299	78.19
250.532	79.19
250.765	79.19
250.998	87.19
251.231	84.19
251.465	77.19
251.698	65.19
251.931	78.19
252.164	93.19
252.397	103.19
252.63	74.19
252.863	83.19
253.096	89.19
253.329	101.19
253.562	76.19
253.795	69.19
254.028	101.19
254.261	65.19
254.494	86.19
254.727	70.19
254.96	77.19
255.193	74.19
255.426	86.19
255.659	75.19
255.892	87.19
256.124	80.19
256.357	85.19
256.59	74.19
256.823	85.19
257.056	87.19
257.289	81.19
257.521	83.19
257.754	83.19
257.987	92.19
258.22	89.19
258.452	91.19
258.685	81.19
258.918	79.19
259.151	77.19
259.383	79.19
259.616	87.19
259.849	78.19
260.081	84.19
260.314	89.19
260.547	84.19
260.779	89.19
261.012	94.19
261.244	75.19
261.477	87.19
261.71	74.19
261.942	72.19
262.175	74.19
262.407	90.19
262.64	85.19
262.872	82.19
263.105	86.19
263.337	95.19
263.57	85.19
263.802	74.19
264.035	77.19
264.267	78.19
264.499	68.19
264.732	83.19
264.964	74.19
265.197	71.19
265.429	87.19
265.661	78.19
265.894	85.19
266.126	88.19
266.358	87.19
266.591	94.19
266.823	75.19
267.055	85.19
267.287	76.19
267.52	78.19
267.752	86.19
267.984	75.19
268.216	82.19
268.448	79.19
268.681	81.19
268.913	84.19
269.145	86.19
269.377	75.19
269.609	76.19
269.841	87.19
270.073	97.19
270.306	76.19
270.538	82.19
270.77	87.19
271.002	89.19
271.234	79.19
271.466	78.19
271.698	76.19
271.93	77.19
272.162	88.19
272.394	85.19
272.626	91.19
272.858	92.19
273.09	89.19
273.322	87.19
273.553	91.19
273.785	76.19
274.017	83.19
274.249	75.19
274.481	84.19
274.713	86.19
274.945	82.19
275.176	90.19
275.408	94.19
275.64	78.19
275.872	77.19
276.104	95.19
276.335	77.19
276.567	75.19
276.799	85.19
277.031	84.19
277.262	83.19
277.494	80.19
277.726	78.19
277.957	88.19
278.189	77.19
278.421	89.19
278.652	83.19
278.884	81.19
279.115	87.19
279.347	78.19
279.579	88.19
279.81	87.19
280.042	78.19
280.273	91.19
280.505	71.19
280.736	75.19
280.968	79.19
281.199	100.19
281.431	85.19
281.662	77.19
281.894	84.19
282.125	90.19
282.356	96.19
282.588	99.19
282.819	88.19
283.051	77.19
283.282	87.19
283.513	85.19
283.745	91.19
283.976	88.19
284.207	86.19
284.439	73.19
284.67	93.19
284.901	81.19
285.132	82.19
285.364	76.19
285.595	94.19
285.826	73.19
286.057	94.19
286.288	103.19
286.52	78.19
286.751	93.19
286.982	84.19
287.213	92.19
287.444	82.19
287.675	85.19
287.906	86.19
288.138	85.19
288.369	79.19
288.6	79.19
288.831	84.19
289.062	83.19
289.293	89.19
289.524	91.19
289.755	96.19
289.986	87.19
290.217	95.19
290.448	79.19
290.679	87.19
290.91	100.19
291.141	92.19
291.371	85.19
291.602	66.19
291.833	73.19
292.064	94.19
292.295	95.19
292.526	76.19
292.757	82.19
292.987	93.19
293.218	84.19
293.449	88.19
293.68	77.19
293.91	91.19
294.141	95.19
294.372	82.19
294.603	92.19
294.833	78.19
295.064	86.19
295.295	78.19
295.525	90.19
295.756	86.19
295.987	81.19
296.217	81.19
296.448	89.19
296.679	95.19
296.909	94.19
297.14	86.19
297.37	99.19
297.601	91.19
297.831	82.19
298.062	92.19
298.292	83.19
298.523	69.19
298.753	97.19
298.984	100.19
299.214	83.19
299.445	104.19
299.675	85.19
299.905	95.19
300.136	101.19
300.366	97.19
300.597	79.19
300.827	83.19
301.057	79.19
301.288	102.19
301.518	93.19
301.748	86.19
301.979	96.19
302.209	89.19
302.439	82.19
302.669	91.19
302.9	84.19
303.13	78.19
303.36	83.19
303.59	84.19
303.82	94.19
304.051	84.19
304.281	90.19
304.511	69.19
304.741	74.19
304.971	80.19
305.201	87.19
305.431	79.19
305.661	92.19
305.891	88.19
306.121	79.19
306.352	82.19
306.582	90.19
306.812	77.19
307.042	88.19
307.272	104.19
307.502	94.19
307.731	83.19
307.961	95.19
308.191	84.19
308.421	65.19
308.651	76.19
308.881	84.19
309.111	92.19
309.341	105.19
309.571	73.19
309.8	74.19
310.03	87.19
310.26	81.19
310.49	93.19
310.72	91.19
310.949	88.19
311.179	92.19
311.409	102.19
311.639	82.19
311.868	100.19
312.098	82.19
312.328	94.19
312.557	75.19
312.787	95.19
313.017	83.19
313.246	94.19
313.476	90.19
313.706	79.19
313.935	93.19
314.165	92.19
314.394	87.19
314.624	73.19
314.853	102.19
315.083	92.19
315.312	102.19
315.542	100.19
315.771	87.19
316.001	89.19
316.23	77.19
316.46	79.19
316.689	79.19
316.919	71.19
317.148	79.19
317.377	84.19
317.607	79.19
317.836	101.19
318.065	91.19
318.295	89.19
318.524	72.19
318.753	85.19
318.983	83.19
319.212	91.19
319.441	84.19
319.67	90.19
319.9	73.19
320.129	98.19
320.358	97.19
320.587	98.19
320.816	93.19
321.046	83.19
321.275	108.19
321.504	88.19
321.733	85.19
321.962	90.19
322.191	98.19
322.42	82.19
322.649	88.19
322.878	79.19
323.108	92.19
323.337	84.19
323.566	101.19
323.795	82.19
324.024	82.19
324.253	89.19
324.482	88.19
324.71	78.19
324.939	87.19
325.168	80.19
325.397	78.19
325.626	90.19
325.855	88.19
326.084	100.19
326.313	79.19
326.542	88.19
326.77	79.19
326.999	77.19
327.228	92.19
327.457	92.19
327.686	93.19
327.914	96.19
328.143	109.19
328.372	87.19
328.6	82.19
328.829	91.19
329.058	70.19
329.287	72.19
329.515	98.19
329.744	86.19
329.972	85.19
330.201	89.19
330.43	92.19
330.658	89.19
330.887	86.19
331.115	84.19
331.344	88.19
331.572	84.19
331.801	98.19
332.03	91.19
332.258	103.19
332.486	92.19
332.715	95.19
332.943	84.19
333.172	67.19
333.4	83.19
333.629	83.19
333.857	89.19
334.085	86.19
334.314	74.19
334.542	103.19
334.771	84.19
334.999	88.19
335.227	77.19
335.455	88.19
335.684	88.19
335.912	93.19
336.14	78.19
336.369	91.19
336.597	93.19
336.825	77.19
337.053	89.19
337.281	97.19
337.51	87.19
337.738	91.19
337.966	83.19
338.194	83.19
338.422	88.19
338.65	71.19
338.878	90.19
339.106	93.19
339.334	93.19
339.562	88.19
339.79	99.19
340.018	86.19
340.246	82.19
340.474	73.19
340.702	80.19
340.93	90.19
341.158	87.19
341.386	77.19
341.614	80.19
341.842	89.19
342.07	78.19
342.298	78.19
342.526	88.19
342.754	90.19
342.981	87.19
343.209	88.19
343.437	91.19
343.665	88.19
343.893	89.19
344.12	86.19
344.348	83.19
344.576	93.19
344.804	89.19
345.031	86.19
345.259	110.19
345.487	92.19
345.714	82.19
345.942	83.19
346.17	73.19
346.397	75.19
346.625	83.19
346.853	75.19
347.08	84.19
347.308	87.19
347.535	88.19
347.763	93.19
347.99	86.19
348.218	82.19
348.445	95.19
348.673	97.19
348.9	92.19
349.128	96.19
349.355	75.19
349.583	92.19
349.81	81.19
350.037	81.19
350.265	87.19
350.492	88.19
350.72	94.19
350.947	98.19
351.174	81.19
351.402	91.19
351.629	77.19
351.856	86.19
352.083	89.19
352.311	87.19
352.538	92.19
352.765	89.19
352.992	87.19
353.22	100.19
353.447	86.19
353.674	95.19
353.901	105.19
354.128	82.19
354.355	84.19
354.583	93.19
354.81	90.19
355.037	85.19
355.264	90.19
355.491	86.19
355.718	85.19
355.945	87.19
356.172	85.19
356.399	94.19
356.626	87.19
356.853	92.19
357.08	94.19
357.307	74.19
357.534	104.19
357.761	84.19
357.988	95.19
358.215	78.19
358.441	101.19
358.668	91.19
358.895	81.19
359.122	85.19
359.349	83.19
359.576	95.19
359.802	86.19
360.029	85.19
360.256	89.19
360.483	93.19
360.709	98.19
360.936	83.19
361.163	84.19
361.39	90.19
361.616	86.19
361.843	78.19
362.07	78.19
362.296	91.19
362.523	91.19
362.749	85.19
362.976	93.19
363.203	87.19
363.429	82.19
363.656	98.19
363.882	84.19
364.109	72.19
364.335	102.19
364.562	90.19
364.788	74.19
365.015	98.19
365.241	89.19
365.468	82.19
365.694	89.19
365.92	94.19
366.147	68.19
366.373	83.19
366.599	91.19
366.826	91.19
367.052	95.19
367.278	71.19
367.505	87.19
367.731	84.19
367.957	72.19
368.184	75.19
368.41	85.19
368.636	94.19
368.862	89.19
369.089	82.19
369.315	91.19
369.541	93.19
369.767	78.19
369.993	71.19
370.219	98.19
370.445	78.19
370.672	89.19
370.898	113.19
371.124	90.19
371.35	79.19
371.576	66.19
371.802	94.19
372.028	86.19
372.254	87.19
372.48	97.19
372.706	79.19
372.932	95.19
373.158	89.19
373.384	107.19
373.61	104.19
373.835	77.19
374.061	93.19
374.287	92.19
374.513	97.19
374.739	93.19
374.965	102.19
375.191	90.19
375.416	99.19
375.642	78.19
375.868	101.19
376.094	91.19
376.319	101.19
376.545	94.19
376.771	99.19
376.997	86.19
377.222	90.19
377.448	88.19
377.674	92.19
377.899	107.19
378.125	87.19
378.35	90.19
378.576	79.19
378.802	92.19
379.027	88.19
379.253	96.19
379.478	102.19
379.704	93.19
379.929	91.19
380.155	79.19
380.38	101.19
380.606	95.19
380.831	85.19
381.057	100.19
381.282	83.19
381.507	102.19
381.733	88.19
381.958	96.19
382.184	97.19
382.409	110.19
382.634	108.19
382.86	84.19
383.085	115.19
383.31	98.19
383.535	103.19
383.761	94.19
383.986	97.19
384.211	95.19
384.436	92.19
384.662	99.19
384.887	98.19
385.112	90.19
385.337	88.19
385.562	99.19
385.787	103.19
386.013	110.19
386.238	106.19
386.463	108.19
386.688	104.19
386.913	94.19
387.138	97.19
387.363	89.19
387.588	99.19
387.813	93.19
388.038	86.19
388.263	99.19
388.488	99.19
388.713	96.19
388.938	89.19
389.163	106.19
389.387	95.19
389.612	91.19
389.837	93.19
390.062	104.19
390.287	104.19
390.512	107.19
390.736	95.19
390.961	106.19
391.186	89.19
391.411	109.19
391.636	108.19
391.86	103.19
392.085	96.19
392.31	109.19
392.534	119.19
392.759	108.19
392.984	91.19
393.208	96.19
393.433	91.19
393.658	115.19
393.882	105.19
394.107	102.19
394.331	98.19
394.556	106.19
394.78	103.19
395.005	101.19
395.229	100.19
395.454	105.19
395.678	105.19
395.903	105.19
396.127	116.19
396.352	109.19
396.576	109.19
396.801	102.19
397.025	103.19
397.249	98.19
397.474	107.19
397.698	90.19
397.922	118.19
398.147	95.19
398.371	103.19
398.595	107.19
398.82	115.19
399.044	126.19
399.268	108.19
399.492	131.19
399.717	129.19
399.941	120.19
400.165	113.19
400.389	127.19
400.613	131.19
400.837	133.19
401.062	115.19
401.286	108.19
401.51	102.19
401.734	108.19
401.958	98.19
402.182	108.19
402.406	112.19
402.63	109.19
402.854	100.19
403.078	127.19
403.302	119.19
403.526	118.19
403.75	120.19
403.974	118.19
404.198	105.19
404.422	131.19
404.645	112.19
404.869	121.19
405.093	115.19
405.317	118.19
405.541	97.19
405.765	113.19
405.988	116.19
406.212	111.19
406.436	95.19
406.66	125.19
406.883	110.19
407.107	125.19
407.331	131.19
407.555	119.19
407.778	109.19
408.002	103.19
408.226	120.19
408.449	122.19
408.673	126.19
408.896	116.19
409.12	109.19
409.344	113.19
409.567	106.19
409.791	111.19
410.014	107.19
410.238	125.19
410.461	123.19
410.685	116.19
410.908	115.19
411.132	125.19
411.355	122.19
411.578	120.19
411.802	111.19
412.025	113.19
412.249	116.19
412.472	116.19
412.695	116.19
412.919	114.19
413.142	120.19
413.365	122.19
413.589	119.19
413.812	114.19
414.035	118.19
414.258	107.19
414.482	108.19
414.705	112.19
414.928	115.19
415.151	110.19
415.374	111.19
415.597	96.19
415.821	110.19
416.044	120.19
416.267	115.19
416.49	131.19
416.713	108.19
416.936	115.19
417.159	105.19
417.382	109.19
417.605	119.19
417.828	109.19
418.051	110.19
418.274	128.19
418.497	129.19
418.72	122.19
418.943	118.19
419.166	128.19
419.389	128.19
419.611	118.19
419.834	118.19
420.057	125.19
420.28	118.19
420.503	106.19
420.726	123.19
420.948	108.19
421.171	109.19
421.394	121.19
421.617	128.19
421.839	111.19
422.062	123.19
422.285	119.19
422.507	133.19
422.73	118.19
422.953	116.19
423.175	133.19
423.398	120.19
423.621	120.19
423.843	115.19
424.066	121.19
424.288	116.19
424.511	117.19
424.733	124.19
424.956	126.19
425.178	110.19
425.401	121.19
425.623	108.19
425.846	118.19
426.068	106.19
426.291	124.19
426.513	119.19
426.735	110.19
426.958	131.19
427.18	130.19
427.402	127.19
427.625	123.19
427.847	118.19
428.069	122.19
428.292	112.19
428.514	110.19
428.736	114.19
428.958	120.19
429.181	125.19
429.403	116.19
429.625	107.19
429.847	117.19
430.069	111.19
430.292	131.19
430.514	114.19
430.736	111.19
430.958	113.19
431.18	103.19
431.402	114.19
431.624	121.19
431.846	104.19
432.068	98.19
432.29	103.19
432.512	107.19
432.734	117.19
432.956	133.19
433.178	111.19
433.4	124.19
433.622	129.19
433.844	134.19
434.066	139.19
434.287	110.19
434.509	101.19
434.731	103.19
434.953	114.19
435.175	117.19
435.397	115.19
435.618	118.19
435.84	106.19
436.062	115.19
436.284	101.19
436.505	115.19
436.727	123.19
436.949	124.19
437.17	105.19
437.392	119.19
437.614	106.19
437.835	105.19
438.057	115.19
438.278	117.19
438.5	109.19
438.721	110.19
438.943	113.19
439.165	96.19
439.386	119.19
439.608	113.19
439.829	117.19
440.05	132.19
440.272	130.19
440.493	125.19
440.715	135.19
440.936	140.19
441.158	123.19
441.379	109.19
441.6	114.19
441.822	120.19
442.043	130.19
442.264	131.19
442.486	126.19
442.707	115.19
442.928	123.19
443.149	102.19
443.371	129.19
443.592	123.19
443.813	113.19
444.034	128.19
444.255	129.19
444.476	123.19
444.698	134.19
444.919	129.19
445.14	261.19
445.361	203.19
445.582	124.19
445.803	105.19
446.024	106.19
446.245	127.19
446.466	126.19
446.687	120.19
446.908	115.19
447.129	118.19
447.35	126.19
447.571	107.19
447.792	120.19
448.013	125.19
448.234	106.19
448.455	121.19
448.675	125.19
448.896	109.19
449.117	113.19
449.338	111.19
449.559	120.19
449.779	113.19
450	104.19
450.221	128.19
450.442	121.19
450.662	117.19
450.883	107.19
451.104	125.19
451.324	132.19
451.545	119.19
451.766	115.19
451.986	126.19
452.207	120.19
452.428	117.19
452.648	113.19
452.869	119.19
453.089	106.19
453.31	110.19
453.53	114.19
453.751	101.19
453.971	85.19
454.192	111.19
454.412	123.19
454.633	100.19
454.853	123.19
455.073	104.19
455.294	106.19
455.514	105.19
455.734	98.19
455.955	120.19
456.175	113.19
456.395	100.19
456.616	111.19
456.836	93.19
457.056	115.19
457.276	121.19
457.497	114.19
457.717	98.19
457.937	117.19
458.157	102.19
458.377	97.19
458.598	104.19
458.818	126.19
459.038	113.19
459.258	117.19
459.478	98.19
459.698	108.19
459.918	103.19
460.138	119.19
460.358	129.19
460.578	125.19
460.798	114.19
461.018	117.19
461.238	122.19
461.458	117.19
461.678	123.19
461.898	104.19
462.118	115.19
462.338	133.19
462.558	110.19
462.777	126.19
462.997	135.19
463.217	127.19
463.437	138.19
463.657	136.19
463.876	133.19
464.096	125.19
464.316	123.19
464.536	119.19
464.755	131.19
464.975	137.19
465.195	110.19
465.414	135.19
465.634	121.19
465.854	124.19
466.073	114.19
466.293	122.19
466.512	114.19
466.732	122.19
466.951	118.19
467.171	117.19
467.391	114.19
467.61	121.19
467.829	117.19
468.049	132.19
468.268	129.19
468.488	101.19
468.707	132.19
468.927	115.19
469.146	114.19
469.365	128.19
469.585	105.19
469.804	133.19
470.023	127.19
470.243	125.19
470.462	120.19
470.681	121.19
470.901	125.19
471.12	120.19
471.339	127.19
471.558	126.19
471.777	129.19
471.997	120.19
472.216	135.19
472.435	115.19
472.654	111.19
472.873	118.19
473.092	110.19
473.311	120.19
473.53	118.19
473.749	109.19
473.968	129.19
474.187	110.19
474.406	121.19
474.625	118.19
474.844	116.19
475.063	121.19
475.282	137.19
475.501	121.19
475.72	120.19
475.939	121.19
476.158	110.19
476.377	108.19
476.596	108.19
476.814	117.19
477.033	104.19
477.252	113.19
477.471	113.19
477.69	116.19
477.908	123.19
478.127	113.19
478.346	126.19
478.564	142.19
478.783	137.19
479.002	126.19
479.22	133.19
479.439	124.19
479.658	132.19
479.876	126.19
480.095	127.19
480.313	121.19
480.532	134.19
480.751	123.19
480.969	109.19
481.188	130.19
481.406	127.19
481.624	125.19
481.843	127.19
482.061	126.19
482.28	117.19
482.498	95.19
482.717	115.19
482.935	130.19
483.153	110.19
483.372	122.19
483.59	125.19
483.808	117.19
484.027	132.19
484.245	144.19
484.463	125.19
484.681	131.19
484.9	133.19
485.118	134.19
485.336	114.19
485.554	125.19
485.772	126.19
485.99	120.19
486.209	129.19
486.427	130.19
486.645	138.19
486.863	127.19
487.081	127.19
487.299	130.19
487.517	125.19
487.735	137.19
487.953	156.19
488.171	134.19
488.389	153.19
488.607	131.19
488.825	143.19
489.043	134.19
489.261	126.19
489.479	142.19
489.696	131.19
489.914	123.19
490.132	123.19
490.35	138.19
490.568	142.19
490.786	138.19
491.003	150.19
491.221	164.19
491.439	152.19
491.657	158.19
491.874	163.19
492.092	188.19
492.31	179.19
492.527	162.19
492.745	158.19
492.963	155.19
493.18	164.19
493.398	165.19
493.615	158.19
493.833	143.19
494.05	162.19
494.268	155.19
494.485	156.19
494.703	153.19
494.92	140.19
495.138	157.19
495.355	152.19
495.573	164.19
495.79	150.19
496.008	140.19
496.225	132.19
496.442	160.19
496.66	152.19
496.877	150.19
497.094	149.19
497.312	161.19
497.529	160.19
497.746	151.19
497.963	146.19
498.181	144.19
498.398	151.19
498.615	144.19
498.832	160.19
499.049	161.19
499.267	180.19
499.484	168.19
499.701	174.19
499.918	200.19
500.135	209.19
500.352	223.19
500.569	239.19
500.786	227.19
501.003	213.19
501.22	205.19
501.437	200.19
501.654	174.19
501.871	162.19
502.088	167.19
502.305	168.19
502.522	137.19
502.739	143.19
502.956	143.19
503.172	142.19
503.389	139.19
503.606	143.19
503.823	144.19
504.04	149.19
504.256	146.19
504.473	142.19
504.69	133.19
504.907	139.19
505.123	129.19
505.34	133.19
505.557	151.19
505.773	122.19
505.99	137.19
506.207	137.19
506.423	129.19
506.64	130.19
506.856	117.19
507.073	139.19
507.289	135.19
507.506	113.19
507.722	124.19
507.939	108.19
508.155	123.19
508.372	127.19
508.588	116.19
508.805	121.19
509.021	121.19
509.238	128.19
509.454	123.19
509.67	115.19
509.887	110.19
510.103	104.19
510.319	124.19
510.536	116.19
510.752	114.19
510.968	113.19
