Data from StandardFe(NO3)3.TAE.3%Agarose.FlatLispGreen.Lamp.Energy10.07252019_HRD10591_11-54-00-440.txt Node
Date: Thu Jul 25 11:54:00 EDT 2019
User: cochatt
Spectrometer: HR+D1059
Trigger mode: 1
Integration Time (sec): 1.000000E-1
Scans to average: 1
Electric dark correction enabled: true
Nonlinearity correction enabled: false
Boxcar width: 0
XAxis mode: Wavelengths
Number of Pixels in Spectrum: 2048
>>>>>Begin Spectral Data<<<<<
223.165	-10.25
223.4	-10.25
223.635	-10.25
223.869	-19.25
224.104	-3.25
224.338	-23.25
224.573	-17.25
224.808	-17.25
225.042	-0.25
225.277	-7.25
225.511	-1.25
225.746	8.75
225.98	11.75
226.215	4.75
226.449	18.75
226.683	18.75
226.918	13.75
227.152	22.75
227.387	42.75
227.621	42.75
227.856	43.75
228.09	44.75
228.324	56.75
228.559	43.75
228.793	52.75
229.027	65.75
229.262	69.75
229.496	60.75
229.73	54.75
229.964	86.75
230.199	76.75
230.433	74.75
230.667	82.75
230.901	88.75
231.136	77.75
231.37	82.75
231.604	66.75
231.838	85.75
232.072	78.75
232.306	79.75
232.541	82.75
232.775	79.75
233.009	83.75
233.243	87.75
233.477	82.75
233.711	78.75
233.945	88.75
234.179	77.75
234.413	101.75
234.647	81.75
234.881	91.75
235.115	72.75
235.349	74.75
235.583	83.75
235.817	83.75
236.051	82.75
236.285	57.75
236.519	78.75
236.753	76.75
236.987	69.75
237.221	85.75
237.455	71.75
237.689	72.75
237.922	86.75
238.156	90.75
238.39	65.75
238.624	71.75
238.858	78.75
239.091	80.75
239.325	78.75
239.559	79.75
239.793	79.75
240.027	75.75
240.26	73.75
240.494	77.75
240.728	73.75
240.961	68.75
241.195	82.75
241.429	90.75
241.662	66.75
241.896	67.75
242.13	65.75
242.363	62.75
242.597	66.75
242.83	80.75
243.064	76.75
243.298	64.75
243.531	80.75
243.765	82.75
243.998	71.75
244.232	80.75
244.465	77.75
244.699	80.75
244.932	76.75
245.166	72.75
245.399	82.75
245.633	76.75
245.866	83.75
246.099	64.75
246.333	79.75
246.566	87.75
246.8	84.75
247.033	73.75
247.266	76.75
247.5	82.75
247.733	81.75
247.966	66.75
248.2	86.75
248.433	82.75
248.666	86.75
248.899	67.75
249.133	76.75
249.366	74.75
249.599	68.75
249.832	81.75
250.066	47.75
250.299	80.75
250.532	82.75
250.765	81.75
250.998	78.75
251.231	76.75
251.465	84.75
251.698	70.75
251.931	83.75
252.164	86.75
252.397	75.75
252.63	63.75
252.863	89.75
253.096	82.75
253.329	73.75
253.562	77.75
253.795	89.75
254.028	73.75
254.261	70.75
254.494	86.75
254.727	88.75
254.96	75.75
255.193	78.75
255.426	73.75
255.659	78.75
255.892	79.75
256.124	88.75
256.357	94.75
256.59	79.75
256.823	95.75
257.056	71.75
257.289	78.75
257.521	83.75
257.754	84.75
257.987	76.75
258.22	94.75
258.452	68.75
258.685	86.75
258.918	70.75
259.151	80.75
259.383	73.75
259.616	77.75
259.849	71.75
260.081	75.75
260.314	77.75
260.547	77.75
260.779	82.75
261.012	85.75
261.244	74.75
261.477	82.75
261.71	68.75
261.942	79.75
262.175	88.75
262.407	80.75
262.64	83.75
262.872	100.75
263.105	81.75
263.337	80.75
263.57	73.75
263.802	77.75
264.035	96.75
264.267	89.75
264.499	82.75
264.732	81.75
264.964	83.75
265.197	74.75
265.429	76.75
265.661	73.75
265.894	84.75
266.126	91.75
266.358	82.75
266.591	85.75
266.823	74.75
267.055	88.75
267.287	75.75
267.52	83.75
267.752	83.75
267.984	83.75
268.216	67.75
268.448	83.75
268.681	88.75
268.913	94.75
269.145	70.75
269.377	87.75
269.609	71.75
269.841	73.75
270.073	80.75
270.306	85.75
270.538	87.75
270.77	91.75
271.002	91.75
271.234	60.75
271.466	83.75
271.698	76.75
271.93	86.75
272.162	86.75
272.394	73.75
272.626	84.75
272.858	90.75
273.09	87.75
273.322	89.75
273.553	80.75
273.785	82.75
274.017	61.75
274.249	88.75
274.481	87.75
274.713	84.75
274.945	84.75
275.176	77.75
275.408	96.75
275.64	76.75
275.872	90.75
276.104	88.75
276.335	82.75
276.567	102.75
276.799	72.75
277.031	82.75
277.262	76.75
277.494	91.75
277.726	81.75
277.957	79.75
278.189	88.75
278.421	81.75
278.652	79.75
278.884	84.75
279.115	93.75
279.347	86.75
279.579	84.75
279.81	91.75
280.042	75.75
280.273	91.75
280.505	87.75
280.736	103.75
280.968	95.75
281.199	88.75
281.431	74.75
281.662	86.75
281.894	78.75
282.125	96.75
282.356	77.75
282.588	74.75
282.819	85.75
283.051	78.75
283.282	84.75
283.513	68.75
283.745	82.75
283.976	78.75
284.207	82.75
284.439	84.75
284.67	84.75
284.901	97.75
285.132	92.75
285.364	85.75
285.595	94.75
285.826	76.75
286.057	65.75
286.288	95.75
286.52	96.75
286.751	78.75
286.982	74.75
287.213	89.75
287.444	87.75
287.675	97.75
287.906	73.75
288.138	86.75
288.369	76.75
288.6	81.75
288.831	87.75
289.062	88.75
289.293	77.75
289.524	73.75
289.755	79.75
289.986	82.75
290.217	79.75
290.448	73.75
290.679	79.75
290.91	91.75
291.141	88.75
291.371	87.75
291.602	79.75
291.833	92.75
292.064	84.75
292.295	88.75
292.526	79.75
292.757	91.75
292.987	70.75
293.218	81.75
293.449	84.75
293.68	91.75
293.91	86.75
294.141	75.75
294.372	92.75
294.603	99.75
294.833	78.75
295.064	94.75
295.295	79.75
295.525	85.75
295.756	89.75
295.987	103.75
296.217	95.75
296.448	80.75
296.679	93.75
296.909	102.75
297.14	85.75
297.37	90.75
297.601	92.75
297.831	75.75
298.062	87.75
298.292	85.75
298.523	84.75
298.753	89.75
298.984	77.75
299.214	70.75
299.445	87.75
299.675	86.75
299.905	84.75
300.136	90.75
300.366	88.75
300.597	78.75
300.827	87.75
301.057	81.75
301.288	86.75
301.518	82.75
301.748	76.75
301.979	85.75
302.209	67.75
302.439	79.75
302.669	78.75
302.9	82.75
303.13	79.75
303.36	87.75
303.59	77.75
303.82	80.75
304.051	71.75
304.281	86.75
304.511	80.75
304.741	80.75
304.971	82.75
305.201	74.75
305.431	86.75
305.661	90.75
305.891	83.75
306.121	94.75
306.352	84.75
306.582	74.75
306.812	80.75
307.042	92.75
307.272	76.75
307.502	75.75
307.731	89.75
307.961	77.75
308.191	86.75
308.421	99.75
308.651	74.75
308.881	87.75
309.111	82.75
309.341	72.75
309.571	86.75
309.8	89.75
310.03	79.75
310.26	91.75
310.49	87.75
310.72	86.75
310.949	79.75
311.179	75.75
311.409	80.75
311.639	84.75
311.868	83.75
312.098	86.75
312.328	91.75
312.557	86.75
312.787	80.75
313.017	91.75
313.246	84.75
313.476	78.75
313.706	72.75
313.935	82.75
314.165	90.75
314.394	87.75
314.624	94.75
314.853	77.75
315.083	72.75
315.312	83.75
315.542	83.75
315.771	96.75
316.001	89.75
316.23	78.75
316.46	82.75
316.689	89.75
316.919	87.75
317.148	81.75
317.377	94.75
317.607	93.75
317.836	96.75
318.065	80.75
318.295	84.75
318.524	74.75
318.753	86.75
318.983	93.75
319.212	83.75
319.441	83.75
319.67	74.75
319.9	80.75
320.129	80.75
320.358	90.75
320.587	85.75
320.816	91.75
321.046	90.75
321.275	90.75
321.504	91.75
321.733	87.75
321.962	95.75
322.191	77.75
322.42	92.75
322.649	92.75
322.878	74.75
323.108	86.75
323.337	85.75
323.566	82.75
323.795	76.75
324.024	95.75
324.253	86.75
324.482	84.75
324.71	80.75
324.939	91.75
325.168	105.75
325.397	87.75
325.626	103.75
325.855	101.75
326.084	73.75
326.313	87.75
326.542	79.75
326.77	80.75
326.999	100.75
327.228	91.75
327.457	90.75
327.686	72.75
327.914	82.75
328.143	72.75
328.372	86.75
328.6	86.75
328.829	91.75
329.058	87.75
329.287	84.75
329.515	75.75
329.744	89.75
329.972	71.75
330.201	85.75
330.43	101.75
330.658	79.75
330.887	75.75
331.115	65.75
331.344	89.75
331.572	96.75
331.801	88.75
332.03	99.75
332.258	86.75
332.486	85.75
332.715	69.75
332.943	86.75
333.172	80.75
333.4	85.75
333.629	80.75
333.857	75.75
334.085	91.75
334.314	94.75
334.542	90.75
334.771	80.75
334.999	78.75
335.227	74.75
335.455	86.75
335.684	95.75
335.912	79.75
336.14	84.75
336.369	84.75
336.597	89.75
336.825	82.75
337.053	90.75
337.281	82.75
337.51	95.75
337.738	71.75
337.966	74.75
338.194	98.75
338.422	82.75
338.65	75.75
338.878	79.75
339.106	83.75
339.334	81.75
339.562	113.75
339.79	98.75
340.018	99.75
340.246	80.75
340.474	86.75
340.702	87.75
340.93	87.75
341.158	77.75
341.386	75.75
341.614	100.75
341.842	93.75
342.07	89.75
342.298	94.75
342.526	86.75
342.754	86.75
342.981	77.75
343.209	88.75
343.437	85.75
343.665	82.75
343.893	92.75
344.12	94.75
344.348	84.75
344.576	90.75
344.804	83.75
345.031	102.75
345.259	83.75
345.487	86.75
345.714	85.75
345.942	89.75
346.17	81.75
346.397	76.75
346.625	86.75
346.853	81.75
347.08	76.75
347.308	95.75
347.535	86.75
347.763	96.75
347.99	94.75
348.218	79.75
348.445	86.75
348.673	83.75
348.9	74.75
349.128	87.75
349.355	93.75
349.583	92.75
349.81	90.75
350.037	91.75
350.265	97.75
350.492	75.75
350.72	89.75
350.947	87.75
351.174	82.75
351.402	88.75
351.629	87.75
351.856	93.75
352.083	88.75
352.311	101.75
352.538	81.75
352.765	82.75
352.992	86.75
353.22	83.75
353.447	86.75
353.674	79.75
353.901	92.75
354.128	86.75
354.355	71.75
354.583	91.75
354.81	88.75
355.037	75.75
355.264	83.75
355.491	85.75
355.718	78.75
355.945	95.75
356.172	87.75
356.399	87.75
356.626	95.75
356.853	88.75
357.08	91.75
357.307	80.75
357.534	99.75
357.761	98.75
357.988	80.75
358.215	73.75
358.441	91.75
358.668	82.75
358.895	83.75
359.122	86.75
359.349	82.75
359.576	83.75
359.802	77.75
360.029	80.75
360.256	84.75
360.483	81.75
360.709	87.75
360.936	91.75
361.163	99.75
361.39	88.75
361.616	82.75
361.843	77.75
362.07	76.75
362.296	78.75
362.523	93.75
362.749	95.75
362.976	83.75
363.203	94.75
363.429	97.75
363.656	78.75
363.882	84.75
364.109	83.75
364.335	84.75
364.562	70.75
364.788	79.75
365.015	83.75
365.241	89.75
365.468	84.75
365.694	80.75
365.92	82.75
366.147	92.75
366.373	76.75
366.599	84.75
366.826	88.75
367.052	78.75
367.278	89.75
367.505	82.75
367.731	91.75
367.957	84.75
368.184	76.75
368.41	82.75
368.636	97.75
368.862	80.75
369.089	91.75
369.315	84.75
369.541	74.75
369.767	79.75
369.993	90.75
370.219	91.75
370.445	72.75
370.672	79.75
370.898	97.75
371.124	90.75
371.35	86.75
371.576	79.75
371.802	81.75
372.028	87.75
372.254	82.75
372.48	91.75
372.706	98.75
372.932	90.75
373.158	97.75
373.384	83.75
373.61	92.75
373.835	96.75
374.061	64.75
374.287	91.75
374.513	94.75
374.739	76.75
374.965	90.75
375.191	81.75
375.416	86.75
375.642	91.75
375.868	87.75
376.094	92.75
376.319	70.75
376.545	80.75
376.771	86.75
376.997	83.75
377.222	92.75
377.448	87.75
377.674	75.75
377.899	73.75
378.125	76.75
378.35	82.75
378.576	95.75
378.802	83.75
379.027	96.75
379.253	100.75
379.478	94.75
379.704	79.75
379.929	76.75
380.155	89.75
380.38	96.75
380.606	84.75
380.831	82.75
381.057	98.75
381.282	97.75
381.507	92.75
381.733	87.75
381.958	80.75
382.184	84.75
382.409	94.75
382.634	96.75
382.86	91.75
383.085	91.75
383.31	108.75
383.535	100.75
383.761	83.75
383.986	94.75
384.211	92.75
384.436	84.75
384.662	91.75
384.887	77.75
385.112	101.75
385.337	85.75
385.562	97.75
385.787	105.75
386.013	103.75
386.238	98.75
386.463	99.75
386.688	99.75
386.913	87.75
387.138	94.75
387.363	94.75
387.588	106.75
387.813	96.75
388.038	95.75
388.263	87.75
388.488	87.75
388.713	99.75
388.938	95.75
389.163	98.75
389.387	93.75
389.612	88.75
389.837	96.75
390.062	94.75
390.287	83.75
390.512	96.75
390.736	107.75
390.961	90.75
391.186	101.75
391.411	83.75
391.636	113.75
391.86	96.75
392.085	92.75
392.31	97.75
392.534	93.75
392.759	104.75
392.984	113.75
393.208	95.75
393.433	95.75
393.658	102.75
393.882	106.75
394.107	92.75
394.331	103.75
394.556	104.75
394.78	105.75
395.005	99.75
395.229	99.75
395.454	97.75
395.678	102.75
395.903	105.75
396.127	97.75
396.352	103.75
396.576	104.75
396.801	94.75
397.025	88.75
397.249	101.75
397.474	90.75
397.698	119.75
397.922	114.75
398.147	103.75
398.371	100.75
398.595	102.75
398.82	115.75
399.044	118.75
399.268	115.75
399.492	107.75
399.717	114.75
399.941	122.75
400.165	111.75
400.389	108.75
400.613	112.75
400.837	102.75
401.062	115.75
401.286	128.75
401.51	104.75
401.734	120.75
401.958	107.75
402.182	93.75
402.406	100.75
402.63	116.75
402.854	98.75
403.078	111.75
403.302	110.75
403.526	107.75
403.75	118.75
403.974	107.75
404.198	106.75
404.422	104.75
404.645	105.75
404.869	105.75
405.093	110.75
405.317	119.75
405.541	105.75
405.765	110.75
405.988	102.75
406.212	103.75
406.436	96.75
406.66	102.75
406.883	120.75
407.107	124.75
407.331	127.75
407.555	97.75
407.778	109.75
408.002	123.75
408.226	122.75
408.449	116.75
408.673	120.75
408.896	116.75
409.12	95.75
409.344	114.75
409.567	119.75
409.791	112.75
410.014	125.75
410.238	106.75
410.461	114.75
410.685	112.75
410.908	123.75
411.132	108.75
411.355	134.75
411.578	106.75
411.802	108.75
412.025	112.75
412.249	107.75
412.472	120.75
412.695	116.75
412.919	127.75
413.142	115.75
413.365	105.75
413.589	114.75
413.812	100.75
414.035	114.75
414.258	107.75
414.482	112.75
414.705	127.75
414.928	110.75
415.151	118.75
415.374	114.75
415.597	100.75
415.821	116.75
416.044	114.75
416.267	115.75
416.49	100.75
416.713	104.75
416.936	94.75
417.159	108.75
417.382	102.75
417.605	103.75
417.828	112.75
418.051	118.75
418.274	114.75
418.497	114.75
418.72	110.75
418.943	116.75
419.166	111.75
419.389	122.75
419.611	105.75
419.834	120.75
420.057	98.75
420.28	108.75
420.503	110.75
420.726	124.75
420.948	115.75
421.171	126.75
421.394	126.75
421.617	117.75
421.839	120.75
422.062	119.75
422.285	122.75
422.507	122.75
422.73	116.75
422.953	122.75
423.175	104.75
423.398	128.75
423.621	129.75
423.843	94.75
424.066	134.75
424.288	121.75
424.511	121.75
424.733	117.75
424.956	118.75
425.178	116.75
425.401	122.75
425.623	114.75
425.846	122.75
426.068	120.75
426.291	107.75
426.513	105.75
426.735	98.75
426.958	101.75
427.18	118.75
427.402	95.75
427.625	123.75
427.847	112.75
428.069	103.75
428.292	105.75
428.514	114.75
428.736	114.75
428.958	103.75
429.181	104.75
429.403	112.75
429.625	100.75
429.847	100.75
430.069	116.75
430.292	119.75
430.514	104.75
430.736	116.75
430.958	118.75
431.18	113.75
431.402	104.75
431.624	112.75
431.846	99.75
432.068	106.75
432.29	92.75
432.512	115.75
432.734	119.75
432.956	97.75
433.178	121.75
433.4	119.75
433.622	109.75
433.844	118.75
434.066	114.75
434.287	90.75
434.509	116.75
434.731	99.75
434.953	103.75
435.175	115.75
435.397	109.75
435.618	114.75
435.84	97.75
436.062	124.75
436.284	118.75
436.505	119.75
436.727	122.75
436.949	97.75
437.17	114.75
437.392	103.75
437.614	110.75
437.835	104.75
438.057	105.75
438.278	106.75
438.5	102.75
438.721	110.75
438.943	116.75
439.165	125.75
439.386	114.75
439.608	126.75
439.829	119.75
440.05	120.75
440.272	105.75
440.493	121.75
440.715	116.75
440.936	120.75
441.158	126.75
441.379	127.75
441.6	126.75
441.822	120.75
442.043	125.75
442.264	112.75
442.486	123.75
442.707	114.75
442.928	110.75
443.149	120.75
443.371	125.75
443.592	122.75
443.813	137.75
444.034	121.75
444.255	124.75
444.476	116.75
444.698	136.75
444.919	133.75
445.14	247.75
445.361	179.75
445.582	138.75
445.803	130.75
446.024	129.75
446.245	123.75
446.466	125.75
446.687	124.75
446.908	118.75
447.129	112.75
447.35	120.75
447.571	141.75
447.792	122.75
448.013	114.75
448.234	124.75
448.455	110.75
448.675	123.75
448.896	120.75
449.117	119.75
449.338	115.75
449.559	122.75
449.779	127.75
450	110.75
450.221	113.75
450.442	110.75
450.662	107.75
450.883	125.75
451.104	107.75
451.324	108.75
451.545	119.75
451.766	122.75
451.986	112.75
452.207	106.75
452.428	106.75
452.648	99.75
452.869	115.75
453.089	106.75
453.31	100.75
453.53	105.75
453.751	92.75
453.971	105.75
454.192	103.75
454.412	119.75
454.633	106.75
454.853	99.75
455.073	108.75
455.294	96.75
455.514	106.75
455.734	97.75
455.955	111.75
456.175	98.75
456.395	91.75
456.616	96.75
456.836	111.75
457.056	101.75
457.276	105.75
457.497	89.75
457.717	118.75
457.937	114.75
458.157	114.75
458.377	105.75
458.598	96.75
458.818	99.75
459.038	96.75
459.258	99.75
459.478	96.75
459.698	90.75
459.918	121.75
460.138	111.75
460.358	114.75
460.578	106.75
460.798	102.75
461.018	115.75
461.238	120.75
461.458	106.75
461.678	101.75
461.898	120.75
462.118	110.75
462.338	115.75
462.558	111.75
462.777	119.75
462.997	116.75
463.217	128.75
463.437	122.75
463.657	122.75
463.876	115.75
464.096	118.75
464.316	120.75
464.536	129.75
464.755	115.75
464.975	106.75
465.195	116.75
465.414	124.75
465.634	110.75
465.854	111.75
466.073	112.75
466.293	112.75
466.512	122.75
466.732	112.75
466.951	115.75
467.171	121.75
467.391	121.75
467.61	127.75
467.829	120.75
468.049	117.75
468.268	115.75
468.488	123.75
468.707	129.75
468.927	101.75
469.146	116.75
469.365	114.75
469.585	104.75
469.804	116.75
470.023	122.75
470.243	119.75
470.462	104.75
470.681	120.75
470.901	108.75
471.12	114.75
471.339	127.75
471.558	138.75
471.777	117.75
471.997	119.75
472.216	119.75
472.435	122.75
472.654	110.75
472.873	118.75
473.092	118.75
473.311	115.75
473.53	117.75
473.749	116.75
473.968	106.75
474.187	114.75
474.406	110.75
474.625	97.75
474.844	112.75
475.063	126.75
475.282	112.75
475.501	124.75
475.72	116.75
475.939	107.75
476.158	112.75
476.377	112.75
476.596	110.75
476.814	119.75
477.033	114.75
477.252	107.75
477.471	110.75
477.69	123.75
477.908	118.75
478.127	115.75
478.346	132.75
478.564	121.75
478.783	121.75
479.002	138.75
479.22	119.75
479.439	137.75
479.658	114.75
479.876	116.75
480.095	119.75
480.313	108.75
480.532	133.75
480.751	119.75
480.969	118.75
481.188	126.75
481.406	112.75
481.624	97.75
481.843	122.75
482.061	104.75
482.28	105.75
482.498	105.75
482.717	112.75
482.935	113.75
483.153	122.75
483.372	135.75
483.59	136.75
483.808	130.75
484.027	119.75
484.245	123.75
484.463	125.75
484.681	121.75
484.9	113.75
485.118	106.75
485.336	132.75
485.554	118.75
485.772	115.75
485.99	106.75
486.209	142.75
486.427	120.75
486.645	127.75
486.863	134.75
487.081	132.75
487.299	116.75
487.517	123.75
487.735	143.75
487.953	140.75
488.171	126.75
488.389	138.75
488.607	146.75
488.825	127.75
489.043	114.75
489.261	130.75
489.479	120.75
489.696	122.75
489.914	123.75
490.132	135.75
490.35	126.75
490.568	145.75
490.786	140.75
491.003	149.75
491.221	146.75
491.439	136.75
491.657	136.75
491.874	151.75
492.092	162.75
492.31	165.75
492.527	169.75
492.745	147.75
492.963	162.75
493.18	152.75
493.398	150.75
493.615	133.75
493.833	146.75
494.05	148.75
494.268	158.75
494.485	151.75
494.703	157.75
494.92	145.75
495.138	143.75
495.355	148.75
495.573	143.75
495.79	148.75
496.008	154.75
496.225	145.75
496.442	143.75
496.66	157.75
496.877	142.75
497.094	129.75
497.312	139.75
497.529	137.75
497.746	148.75
497.963	128.75
498.181	134.75
498.398	125.75
498.615	132.75
498.832	136.75
499.049	153.75
499.267	150.75
499.484	175.75
499.701	167.75
499.918	184.75
500.135	201.75
500.352	215.75
500.569	215.75
500.786	227.75
501.003	203.75
501.22	184.75
501.437	181.75
501.654	176.75
501.871	167.75
502.088	146.75
502.305	146.75
502.522	144.75
502.739	154.75
502.956	142.75
503.172	146.75
503.389	134.75
503.606	135.75
503.823	121.75
504.04	143.75
504.256	140.75
504.473	131.75
504.69	125.75
504.907	132.75
505.123	128.75
505.34	150.75
505.557	126.75
505.773	142.75
505.99	137.75
506.207	126.75
506.423	137.75
506.64	129.75
506.856	140.75
507.073	120.75
507.289	133.75
507.506	110.75
507.722	99.75
507.939	102.75
508.155	122.75
508.372	119.75
508.588	106.75
508.805	126.75
509.021	127.75
509.238	118.75
509.454	114.75
509.67	129.75
509.887	117.75
510.103	128.75
510.319	117.75
510.536	114.75
510.752	117.75
510.968	110.75
511.184	114.75
511.401	110.75
511.617	113.75
511.833	101.75
