Data from StandardFe(NO3)3.TAE.3%Agarose.FlatLispGreen.Lamp.Energy10.07252019_HRD10591_11-55-30-441.txt Node
Date: Thu Jul 25 11:55:30 EDT 2019
User: cochatt
Spectrometer: HR+D1059
Trigger mode: 1
Integration Time (sec): 1.000000E-1
Scans to average: 1
Electric dark correction enabled: true
Nonlinearity correction enabled: false
Boxcar width: 0
XAxis mode: Wavelengths
Number of Pixels in Spectrum: 2048
>>>>>Begin Spectral Data<<<<<
223.165	-21.69
223.4	-21.69
223.635	-21.69
223.869	-15.69
224.104	-16.69
224.338	-9.69
224.573	-17.69
224.808	-24.69
225.042	-6.69
225.277	-10.69
225.511	-10.69
225.746	8.31
225.98	8.31
226.215	11.31
226.449	21.31
226.683	19.31
226.918	31.31
227.152	34.31
227.387	39.31
227.621	36.31
227.856	39.31
228.09	58.31
228.324	51.31
228.559	41.31
228.793	51.31
229.027	58.31
229.262	56.31
229.496	72.31
229.73	55.31
229.964	52.31
230.199	59.31
230.433	71.31
230.667	79.31
230.901	75.31
231.136	81.31
231.37	69.31
231.604	65.31
231.838	86.31
232.072	87.31
232.306	81.31
232.541	80.31
232.775	81.31
233.009	75.31
233.243	79.31
233.477	75.31
233.711	87.31
233.945	81.31
234.179	77.31
234.413	84.31
234.647	80.31
234.881	95.31
235.115	88.31
235.349	84.31
235.583	86.31
235.817	68.31
236.051	75.31
236.285	72.31
236.519	87.31
236.753	86.31
236.987	71.31
237.221	72.31
237.455	75.31
237.689	70.31
237.922	62.31
238.156	66.31
238.39	74.31
238.624	82.31
238.858	81.31
239.091	64.31
239.325	77.31
239.559	71.31
239.793	69.31
240.027	64.31
240.26	73.31
240.494	82.31
240.728	79.31
240.961	76.31
241.195	65.31
241.429	77.31
241.662	60.31
241.896	64.31
242.13	77.31
242.363	64.31
242.597	75.31
242.83	100.31
243.064	78.31
243.298	91.31
243.531	87.31
243.765	90.31
243.998	58.31
244.232	74.31
244.465	79.31
244.699	82.31
244.932	75.31
245.166	82.31
245.399	74.31
245.633	80.31
245.866	80.31
246.099	76.31
246.333	81.31
246.566	78.31
246.8	81.31
247.033	73.31
247.266	85.31
247.5	75.31
247.733	78.31
247.966	64.31
248.2	66.31
248.433	73.31
248.666	80.31
248.899	79.31
249.133	71.31
249.366	88.31
249.599	63.31
249.832	73.31
250.066	72.31
250.299	79.31
250.532	83.31
250.765	77.31
250.998	78.31
251.231	78.31
251.465	74.31
251.698	72.31
251.931	67.31
252.164	79.31
252.397	83.31
252.63	92.31
252.863	69.31
253.096	83.31
253.329	79.31
253.562	75.31
253.795	83.31
254.028	85.31
254.261	73.31
254.494	81.31
254.727	85.31
254.96	74.31
255.193	78.31
255.426	70.31
255.659	73.31
255.892	80.31
256.124	82.31
256.357	70.31
256.59	71.31
256.823	75.31
257.056	85.31
257.289	90.31
257.521	72.31
257.754	78.31
257.987	81.31
258.22	101.31
258.452	85.31
258.685	78.31
258.918	80.31
259.151	73.31
259.383	72.31
259.616	67.31
259.849	81.31
260.081	73.31
260.314	66.31
260.547	77.31
260.779	90.31
261.012	92.31
261.244	73.31
261.477	74.31
261.71	75.31
261.942	87.31
262.175	63.31
262.407	81.31
262.64	74.31
262.872	88.31
263.105	76.31
263.337	86.31
263.57	75.31
263.802	69.31
264.035	78.31
264.267	85.31
264.499	86.31
264.732	94.31
264.964	87.31
265.197	88.31
265.429	85.31
265.661	77.31
265.894	75.31
266.126	87.31
266.358	86.31
266.591	73.31
266.823	73.31
267.055	81.31
267.287	80.31
267.52	79.31
267.752	87.31
267.984	68.31
268.216	86.31
268.448	80.31
268.681	74.31
268.913	67.31
269.145	66.31
269.377	74.31
269.609	80.31
269.841	65.31
270.073	80.31
270.306	80.31
270.538	74.31
270.77	77.31
271.002	67.31
271.234	70.31
271.466	93.31
271.698	81.31
271.93	87.31
272.162	95.31
272.394	81.31
272.626	64.31
272.858	86.31
273.09	70.31
273.322	76.31
273.553	73.31
273.785	89.31
274.017	78.31
274.249	78.31
274.481	79.31
274.713	81.31
274.945	77.31
275.176	80.31
275.408	85.31
275.64	74.31
275.872	91.31
276.104	74.31
276.335	73.31
276.567	96.31
276.799	83.31
277.031	83.31
277.262	81.31
277.494	90.31
277.726	73.31
277.957	106.31
278.189	89.31
278.421	75.31
278.652	88.31
278.884	81.31
279.115	85.31
279.347	72.31
279.579	83.31
279.81	85.31
280.042	86.31
280.273	88.31
280.505	55.31
280.736	73.31
280.968	81.31
281.199	86.31
281.431	82.31
281.662	88.31
281.894	60.31
282.125	77.31
282.356	64.31
282.588	85.31
282.819	72.31
283.051	89.31
283.282	75.31
283.513	83.31
283.745	78.31
283.976	81.31
284.207	87.31
284.439	81.31
284.67	80.31
284.901	80.31
285.132	81.31
285.364	80.31
285.595	86.31
285.826	81.31
286.057	85.31
286.288	66.31
286.52	78.31
286.751	87.31
286.982	82.31
287.213	79.31
287.444	88.31
287.675	75.31
287.906	77.31
288.138	74.31
288.369	77.31
288.6	85.31
288.831	78.31
289.062	73.31
289.293	73.31
289.524	83.31
289.755	84.31
289.986	79.31
290.217	73.31
290.448	93.31
290.679	79.31
290.91	78.31
291.141	78.31
291.371	91.31
291.602	74.31
291.833	82.31
292.064	71.31
292.295	81.31
292.526	96.31
292.757	87.31
292.987	84.31
293.218	95.31
293.449	87.31
293.68	84.31
293.91	85.31
294.141	85.31
294.372	72.31
294.603	96.31
294.833	94.31
295.064	74.31
295.295	68.31
295.525	78.31
295.756	85.31
295.987	87.31
296.217	73.31
296.448	86.31
296.679	82.31
296.909	73.31
297.14	77.31
297.37	82.31
297.601	94.31
297.831	80.31
298.062	99.31
298.292	80.31
298.523	79.31
298.753	86.31
298.984	85.31
299.214	96.31
299.445	88.31
299.675	77.31
299.905	90.31
300.136	84.31
300.366	73.31
300.597	83.31
300.827	75.31
301.057	88.31
301.288	81.31
301.518	87.31
301.748	82.31
301.979	72.31
302.209	94.31
302.439	96.31
302.669	95.31
302.9	74.31
303.13	96.31
303.36	79.31
303.59	86.31
303.82	85.31
304.051	82.31
304.281	94.31
304.511	80.31
304.741	84.31
304.971	85.31
305.201	92.31
305.431	87.31
305.661	84.31
305.891	86.31
306.121	85.31
306.352	71.31
306.582	93.31
306.812	88.31
307.042	82.31
307.272	82.31
307.502	75.31
307.731	71.31
307.961	93.31
308.191	86.31
308.421	77.31
308.651	98.31
308.881	90.31
309.111	81.31
309.341	84.31
309.571	76.31
309.8	80.31
310.03	76.31
310.26	85.31
310.49	72.31
310.72	75.31
310.949	87.31
311.179	81.31
311.409	74.31
311.639	82.31
311.868	62.31
312.098	79.31
312.328	76.31
312.557	84.31
312.787	91.31
313.017	81.31
313.246	88.31
313.476	85.31
313.706	91.31
313.935	74.31
314.165	77.31
314.394	74.31
314.624	74.31
314.853	81.31
315.083	79.31
315.312	74.31
315.542	94.31
315.771	87.31
316.001	90.31
316.23	91.31
316.46	78.31
316.689	92.31
316.919	87.31
317.148	82.31
317.377	86.31
317.607	88.31
317.836	86.31
318.065	74.31
318.295	82.31
318.524	74.31
318.753	95.31
318.983	81.31
319.212	96.31
319.441	80.31
319.67	91.31
319.9	74.31
320.129	80.31
320.358	72.31
320.587	76.31
320.816	84.31
321.046	95.31
321.275	96.31
321.504	81.31
321.733	82.31
321.962	78.31
322.191	80.31
322.42	94.31
322.649	89.31
322.878	90.31
323.108	85.31
323.337	92.31
323.566	80.31
323.795	81.31
324.024	97.31
324.253	83.31
324.482	88.31
324.71	86.31
324.939	83.31
325.168	94.31
325.397	80.31
325.626	73.31
325.855	97.31
326.084	95.31
326.313	82.31
326.542	90.31
326.77	75.31
326.999	88.31
327.228	75.31
327.457	72.31
327.686	71.31
327.914	87.31
328.143	89.31
328.372	83.31
328.6	78.31
328.829	75.31
329.058	84.31
329.287	76.31
329.515	83.31
329.744	85.31
329.972	72.31
330.201	89.31
330.43	79.31
330.658	105.31
330.887	71.31
331.115	77.31
331.344	96.31
331.572	101.31
331.801	80.31
332.03	67.31
332.258	87.31
332.486	82.31
332.715	91.31
332.943	91.31
333.172	82.31
333.4	85.31
333.629	88.31
333.857	82.31
334.085	81.31
334.314	89.31
334.542	87.31
334.771	96.31
334.999	80.31
335.227	63.31
335.455	95.31
335.684	98.31
335.912	87.31
336.14	82.31
336.369	85.31
336.597	81.31
336.825	87.31
337.053	76.31
337.281	94.31
337.51	82.31
337.738	90.31
337.966	82.31
338.194	78.31
338.422	94.31
338.65	77.31
338.878	103.31
339.106	82.31
339.334	86.31
339.562	71.31
339.79	83.31
340.018	96.31
340.246	79.31
340.474	82.31
340.702	75.31
340.93	77.31
341.158	74.31
341.386	80.31
341.614	90.31
341.842	82.31
342.07	79.31
342.298	83.31
342.526	85.31
342.754	81.31
342.981	99.31
343.209	89.31
343.437	83.31
343.665	73.31
343.893	82.31
344.12	74.31
344.348	73.31
344.576	81.31
344.804	79.31
345.031	95.31
345.259	89.31
345.487	97.31
345.714	85.31
345.942	69.31
346.17	83.31
346.397	87.31
346.625	84.31
346.853	74.31
347.08	102.31
347.308	78.31
347.535	74.31
347.763	89.31
347.99	80.31
348.218	95.31
348.445	69.31
348.673	89.31
348.9	74.31
349.128	82.31
349.355	87.31
349.583	80.31
349.81	92.31
350.037	80.31
350.265	70.31
350.492	82.31
350.72	72.31
350.947	85.31
351.174	89.31
351.402	83.31
351.629	94.31
351.856	85.31
352.083	74.31
352.311	74.31
352.538	73.31
352.765	81.31
352.992	78.31
353.22	94.31
353.447	78.31
353.674	87.31
353.901	82.31
354.128	71.31
354.355	96.31
354.583	80.31
354.81	87.31
355.037	94.31
355.264	95.31
355.491	59.31
355.718	83.31
355.945	84.31
356.172	84.31
356.399	88.31
356.626	75.31
356.853	78.31
357.08	103.31
357.307	91.31
357.534	79.31
357.761	86.31
357.988	81.31
358.215	87.31
358.441	90.31
358.668	86.31
358.895	82.31
359.122	79.31
359.349	90.31
359.576	83.31
359.802	89.31
360.029	83.31
360.256	93.31
360.483	81.31
360.709	85.31
360.936	101.31
361.163	80.31
361.39	81.31
361.616	82.31
361.843	82.31
362.07	86.31
362.296	82.31
362.523	83.31
362.749	78.31
362.976	93.31
363.203	90.31
363.429	79.31
363.656	85.31
363.882	88.31
364.109	84.31
364.335	81.31
364.562	88.31
364.788	93.31
365.015	93.31
365.241	86.31
365.468	87.31
365.694	86.31
365.92	89.31
366.147	79.31
366.373	91.31
366.599	94.31
366.826	93.31
367.052	81.31
367.278	83.31
367.505	92.31
367.731	94.31
367.957	89.31
368.184	95.31
368.41	87.31
368.636	81.31
368.862	81.31
369.089	96.31
369.315	85.31
369.541	82.31
369.767	87.31
369.993	89.31
370.219	96.31
370.445	87.31
370.672	90.31
370.898	88.31
371.124	78.31
371.35	81.31
371.576	91.31
371.802	87.31
372.028	90.31
372.254	90.31
372.48	85.31
372.706	81.31
372.932	88.31
373.158	86.31
373.384	85.31
373.61	84.31
373.835	88.31
374.061	81.31
374.287	87.31
374.513	95.31
374.739	88.31
374.965	87.31
375.191	100.31
375.416	80.31
375.642	85.31
375.868	88.31
376.094	90.31
376.319	92.31
376.545	81.31
376.771	87.31
376.997	88.31
377.222	80.31
377.448	91.31
377.674	76.31
377.899	86.31
378.125	95.31
378.35	88.31
378.576	79.31
378.802	84.31
379.027	100.31
379.253	85.31
379.478	86.31
379.704	90.31
379.929	79.31
380.155	89.31
380.38	90.31
380.606	86.31
380.831	94.31
381.057	97.31
381.282	86.31
381.507	89.31
381.733	77.31
381.958	88.31
382.184	78.31
382.409	99.31
382.634	81.31
382.86	85.31
383.085	75.31
383.31	76.31
383.535	81.31
383.761	109.31
383.986	79.31
384.211	100.31
384.436	85.31
384.662	80.31
384.887	99.31
385.112	78.31
385.337	85.31
385.562	96.31
385.787	84.31
386.013	97.31
386.238	82.31
386.463	101.31
386.688	72.31
386.913	75.31
387.138	81.31
387.363	84.31
387.588	107.31
387.813	88.31
388.038	90.31
388.263	86.31
388.488	83.31
388.713	101.31
388.938	102.31
389.163	95.31
389.387	93.31
389.612	96.31
389.837	115.31
390.062	94.31
390.287	83.31
390.512	99.31
390.736	86.31
390.961	98.31
391.186	99.31
391.411	86.31
391.636	90.31
391.86	87.31
392.085	91.31
392.31	103.31
392.534	93.31
392.759	91.31
392.984	95.31
393.208	104.31
393.433	78.31
393.658	90.31
393.882	100.31
394.107	101.31
394.331	90.31
394.556	89.31
394.78	98.31
395.005	115.31
395.229	96.31
395.454	97.31
395.678	86.31
395.903	101.31
396.127	95.31
396.352	90.31
396.576	101.31
396.801	100.31
397.025	90.31
397.249	106.31
397.474	94.31
397.698	92.31
397.922	113.31
398.147	106.31
398.371	113.31
398.595	95.31
398.82	106.31
399.044	114.31
399.268	114.31
399.492	102.31
399.717	131.31
399.941	107.31
400.165	115.31
400.389	106.31
400.613	116.31
400.837	92.31
401.062	105.31
401.286	98.31
401.51	95.31
401.734	106.31
401.958	95.31
402.182	90.31
402.406	95.31
402.63	100.31
402.854	105.31
403.078	98.31
403.302	115.31
403.526	106.31
403.75	102.31
403.974	110.31
404.198	94.31
404.422	113.31
404.645	111.31
404.869	104.31
405.093	111.31
405.317	102.31
405.541	113.31
405.765	104.31
405.988	106.31
406.212	95.31
406.436	107.31
406.66	110.31
406.883	106.31
407.107	109.31
407.331	112.31
407.555	102.31
407.778	102.31
408.002	114.31
408.226	103.31
408.449	107.31
408.673	107.31
408.896	113.31
409.12	107.31
409.344	118.31
409.567	109.31
409.791	96.31
410.014	122.31
410.238	111.31
410.461	102.31
410.685	111.31
410.908	98.31
411.132	104.31
411.355	117.31
411.578	118.31
411.802	117.31
412.025	128.31
412.249	115.31
412.472	98.31
412.695	106.31
412.919	105.31
413.142	90.31
413.365	104.31
413.589	103.31
413.812	113.31
414.035	106.31
414.258	115.31
414.482	114.31
414.705	109.31
414.928	122.31
415.151	92.31
415.374	115.31
415.597	119.31
415.821	117.31
416.044	127.31
416.267	123.31
416.49	110.31
416.713	103.31
416.936	117.31
417.159	109.31
417.382	99.31
417.605	119.31
417.828	115.31
418.051	114.31
418.274	98.31
418.497	115.31
418.72	113.31
418.943	109.31
419.166	115.31
419.389	115.31
419.611	119.31
419.834	114.31
420.057	116.31
420.28	123.31
420.503	116.31
420.726	125.31
420.948	106.31
421.171	112.31
421.394	121.31
421.617	121.31
421.839	112.31
422.062	113.31
422.285	111.31
422.507	104.31
422.73	119.31
422.953	118.31
423.175	116.31
423.398	114.31
423.621	90.31
423.843	116.31
424.066	111.31
424.288	119.31
424.511	122.31
424.733	117.31
424.956	112.31
425.178	112.31
425.401	120.31
425.623	121.31
425.846	116.31
426.068	117.31
426.291	109.31
426.513	101.31
426.735	113.31
426.958	124.31
427.18	105.31
427.402	111.31
427.625	107.31
427.847	97.31
428.069	101.31
428.292	103.31
428.514	101.31
428.736	117.31
428.958	106.31
429.181	106.31
429.403	105.31
429.625	121.31
429.847	118.31
430.069	109.31
430.292	112.31
430.514	104.31
430.736	109.31
430.958	104.31
431.18	109.31
431.402	96.31
431.624	98.31
431.846	106.31
432.068	102.31
432.29	99.31
432.512	104.31
432.734	109.31
432.956	106.31
433.178	104.31
433.4	105.31
433.622	120.31
433.844	100.31
434.066	115.31
434.287	111.31
434.509	105.31
434.731	102.31
434.953	92.31
435.175	109.31
435.397	122.31
435.618	111.31
435.84	104.31
436.062	106.31
436.284	106.31
436.505	105.31
436.727	104.31
436.949	103.31
437.17	128.31
437.392	114.31
437.614	94.31
437.835	118.31
438.057	88.31
438.278	103.31
438.5	99.31
438.721	91.31
438.943	124.31
439.165	104.31
439.386	113.31
439.608	120.31
439.829	109.31
440.05	112.31
440.272	113.31
440.493	102.31
440.715	106.31
440.936	112.31
441.158	113.31
441.379	110.31
441.6	112.31
441.822	121.31
442.043	124.31
442.264	112.31
442.486	123.31
442.707	106.31
442.928	113.31
443.149	107.31
443.371	110.31
443.592	117.31
443.813	106.31
444.034	121.31
444.255	128.31
444.476	109.31
444.698	119.31
444.919	118.31
445.14	242.31
445.361	176.31
445.582	124.31
445.803	127.31
446.024	116.31
446.245	125.31
446.466	113.31
446.687	107.31
446.908	111.31
447.129	119.31
447.35	107.31
447.571	123.31
447.792	101.31
448.013	113.31
448.234	99.31
448.455	109.31
448.675	113.31
448.896	102.31
449.117	116.31
449.338	104.31
449.559	103.31
449.779	113.31
450	101.31
450.221	104.31
450.442	105.31
450.662	125.31
450.883	113.31
451.104	127.31
451.324	112.31
451.545	105.31
451.766	121.31
451.986	98.31
452.207	97.31
452.428	111.31
452.648	111.31
452.869	100.31
453.089	104.31
453.31	120.31
453.53	103.31
453.751	114.31
453.971	99.31
454.192	110.31
454.412	108.31
454.633	92.31
454.853	93.31
455.073	99.31
455.294	107.31
455.514	111.31
455.734	119.31
455.955	97.31
456.175	93.31
456.395	105.31
456.616	92.31
456.836	97.31
457.056	97.31
457.276	112.31
457.497	109.31
457.717	100.31
457.937	104.31
458.157	99.31
458.377	105.31
458.598	102.31
458.818	105.31
459.038	125.31
459.258	94.31
459.478	100.31
459.698	103.31
459.918	99.31
460.138	99.31
460.358	113.31
460.578	117.31
460.798	99.31
461.018	106.31
461.238	104.31
461.458	115.31
461.678	113.31
461.898	114.31
462.118	99.31
462.338	116.31
462.558	111.31
462.777	115.31
462.997	112.31
463.217	110.31
463.437	127.31
463.657	123.31
463.876	125.31
464.096	114.31
464.316	120.31
464.536	121.31
464.755	113.31
464.975	111.31
465.195	105.31
465.414	111.31
465.634	99.31
465.854	102.31
466.073	119.31
466.293	103.31
466.512	114.31
466.732	117.31
466.951	113.31
467.171	96.31
467.391	119.31
467.61	117.31
467.829	103.31
468.049	114.31
468.268	101.31
468.488	121.31
468.707	118.31
468.927	116.31
469.146	115.31
469.365	93.31
469.585	129.31
469.804	113.31
470.023	121.31
470.243	113.31
470.462	145.31
470.681	120.31
470.901	118.31
471.12	107.31
471.339	111.31
471.558	105.31
471.777	111.31
471.997	109.31
472.216	117.31
472.435	113.31
472.654	113.31
472.873	95.31
473.092	118.31
473.311	103.31
473.53	101.31
473.749	110.31
473.968	119.31
474.187	115.31
474.406	119.31
474.625	116.31
474.844	129.31
475.063	123.31
475.282	102.31
475.501	114.31
475.72	115.31
475.939	101.31
476.158	106.31
476.377	120.31
476.596	111.31
476.814	117.31
477.033	109.31
477.252	114.31
477.471	109.31
477.69	126.31
477.908	113.31
478.127	132.31
478.346	127.31
478.564	143.31
478.783	127.31
479.002	130.31
479.22	114.31
479.439	112.31
479.658	116.31
479.876	108.31
480.095	119.31
480.313	125.31
480.532	121.31
480.751	117.31
480.969	119.31
481.188	103.31
481.406	115.31
481.624	109.31
481.843	103.31
482.061	117.31
482.28	122.31
482.498	107.31
482.717	119.31
482.935	97.31
483.153	125.31
483.372	123.31
483.59	122.31
483.808	127.31
484.027	109.31
484.245	111.31
484.463	125.31
484.681	156.31
484.9	124.31
485.118	125.31
485.336	123.31
485.554	122.31
485.772	118.31
485.99	106.31
486.209	119.31
486.427	123.31
486.645	129.31
486.863	131.31
487.081	121.31
487.299	120.31
487.517	133.31
487.735	135.31
487.953	135.31
488.171	128.31
488.389	132.31
488.607	145.31
488.825	134.31
489.043	134.31
489.261	121.31
489.479	132.31
489.696	117.31
489.914	117.31
490.132	126.31
490.35	117.31
490.568	125.31
490.786	152.31
491.003	143.31
491.221	133.31
491.439	133.31
491.657	145.31
491.874	149.31
492.092	158.31
492.31	166.31
492.527	149.31
492.745	160.31
492.963	138.31
493.18	147.31
493.398	157.31
493.615	142.31
493.833	138.31
494.05	150.31
494.268	144.31
494.485	146.31
494.703	140.31
494.92	150.31
495.138	144.31
495.355	134.31
495.573	134.31
495.79	146.31
496.008	148.31
496.225	152.31
496.442	130.31
496.66	132.31
496.877	149.31
497.094	154.31
497.312	149.31
497.529	132.31
497.746	151.31
497.963	141.31
498.181	143.31
498.398	123.31
498.615	133.31
498.832	143.31
499.049	139.31
499.267	157.31
499.484	161.31
499.701	171.31
499.918	193.31
500.135	193.31
500.352	201.31
500.569	203.31
500.786	215.31
501.003	205.31
501.22	199.31
501.437	185.31
501.654	164.31
501.871	149.31
502.088	162.31
502.305	144.31
502.522	145.31
502.739	149.31
502.956	140.31
503.172	144.31
503.389	126.31
503.606	121.31
503.823	138.31
504.04	124.31
504.256	119.31
504.473	125.31
504.69	146.31
504.907	136.31
505.123	132.31
505.34	128.31
505.557	130.31
505.773	129.31
505.99	142.31
506.207	122.31
506.423	124.31
506.64	122.31
506.856	130.31
507.073	123.31
507.289	112.31
507.506	113.31
507.722	116.31
507.939	117.31
508.155	117.31
508.372	119.31
508.588	106.31
508.805	118.31
509.021	117.31
509.238	112.31
509.454	93.31
509.67	115.31
509.887	122.31
510.103	107.31
510.319	111.31
510.536	111.31
510.752	109.31
510.968	105.31
511.184	103.31
511.401	107.31
511.617	111.31
511.833	114.31
512.049	98.31
