Data from StandardFe(NO3)3.TAE.3%Agarose.FlatLispGreen.Lamp.Energy10.07252019_HRD10591_11-54-41-440.txt Node
Date: Thu Jul 25 11:54:41 EDT 2019
User: cochatt
Spectrometer: HR+D1059
Trigger mode: 1
Integration Time (sec): 1.000000E-1
Scans to average: 1
Electric dark correction enabled: true
Nonlinearity correction enabled: false
Boxcar width: 0
XAxis mode: Wavelengths
Number of Pixels in Spectrum: 2048
>>>>>Begin Spectral Data<<<<<
223.165	-19.88
223.4	-19.88
223.635	-19.88
223.869	-11.88
224.104	-27.88
224.338	-6.88
224.573	-14.88
224.808	-0.88
225.042	-21.88
225.277	1.12
225.511	3.12
225.746	2.12
225.98	19.12
226.215	7.12
226.449	1.12
226.683	22.12
226.918	24.12
227.152	24.12
227.387	33.12
227.621	37.12
227.856	44.12
228.09	39.12
228.324	53.12
228.559	57.12
228.793	53.12
229.027	69.12
229.262	66.12
229.496	61.12
229.73	69.12
229.964	67.12
230.199	75.12
230.433	75.12
230.667	70.12
230.901	71.12
231.136	80.12
231.37	86.12
231.604	75.12
231.838	83.12
232.072	85.12
232.306	81.12
232.541	79.12
232.775	97.12
233.009	69.12
233.243	72.12
233.477	94.12
233.711	85.12
233.945	79.12
234.179	78.12
234.413	83.12
234.647	83.12
234.881	78.12
235.115	79.12
235.349	67.12
235.583	74.12
235.817	74.12
236.051	89.12
236.285	68.12
236.519	76.12
236.753	76.12
236.987	88.12
237.221	71.12
237.455	79.12
237.689	82.12
237.922	90.12
238.156	81.12
238.39	75.12
238.624	63.12
238.858	87.12
239.091	74.12
239.325	73.12
239.559	83.12
239.793	77.12
240.027	77.12
240.26	83.12
240.494	72.12
240.728	88.12
240.961	77.12
241.195	95.12
241.429	84.12
241.662	79.12
241.896	70.12
242.13	75.12
242.363	80.12
242.597	66.12
242.83	77.12
243.064	71.12
243.298	72.12
243.531	84.12
243.765	76.12
243.998	78.12
244.232	83.12
244.465	77.12
244.699	78.12
244.932	70.12
245.166	97.12
245.399	88.12
245.633	77.12
245.866	85.12
246.099	78.12
246.333	75.12
246.566	85.12
246.8	61.12
247.033	80.12
247.266	92.12
247.5	85.12
247.733	78.12
247.966	81.12
248.2	68.12
248.433	73.12
248.666	78.12
248.899	92.12
249.133	77.12
249.366	82.12
249.599	75.12
249.832	89.12
250.066	79.12
250.299	82.12
250.532	70.12
250.765	66.12
250.998	75.12
251.231	66.12
251.465	72.12
251.698	79.12
251.931	87.12
252.164	73.12
252.397	93.12
252.63	77.12
252.863	85.12
253.096	75.12
253.329	76.12
253.562	74.12
253.795	73.12
254.028	82.12
254.261	66.12
254.494	75.12
254.727	85.12
254.96	75.12
255.193	77.12
255.426	60.12
255.659	81.12
255.892	81.12
256.124	83.12
256.357	89.12
256.59	86.12
256.823	82.12
257.056	70.12
257.289	89.12
257.521	77.12
257.754	71.12
257.987	85.12
258.22	87.12
258.452	79.12
258.685	89.12
258.918	74.12
259.151	70.12
259.383	79.12
259.616	75.12
259.849	86.12
260.081	84.12
260.314	78.12
260.547	88.12
260.779	76.12
261.012	88.12
261.244	74.12
261.477	90.12
261.71	88.12
261.942	85.12
262.175	86.12
262.407	74.12
262.64	65.12
262.872	82.12
263.105	94.12
263.337	67.12
263.57	78.12
263.802	78.12
264.035	72.12
264.267	101.12
264.499	63.12
264.732	69.12
264.964	93.12
265.197	91.12
265.429	72.12
265.661	79.12
265.894	83.12
266.126	85.12
266.358	83.12
266.591	78.12
266.823	69.12
267.055	80.12
267.287	77.12
267.52	67.12
267.752	95.12
267.984	79.12
268.216	79.12
268.448	79.12
268.681	75.12
268.913	73.12
269.145	78.12
269.377	76.12
269.609	79.12
269.841	91.12
270.073	75.12
270.306	70.12
270.538	71.12
270.77	76.12
271.002	81.12
271.234	63.12
271.466	83.12
271.698	78.12
271.93	88.12
272.162	66.12
272.394	100.12
272.626	92.12
272.858	74.12
273.09	78.12
273.322	95.12
273.553	78.12
273.785	81.12
274.017	85.12
274.249	76.12
274.481	85.12
274.713	81.12
274.945	85.12
275.176	90.12
275.408	86.12
275.64	84.12
275.872	83.12
276.104	75.12
276.335	71.12
276.567	88.12
276.799	82.12
277.031	85.12
277.262	95.12
277.494	66.12
277.726	80.12
277.957	74.12
278.189	89.12
278.421	65.12
278.652	79.12
278.884	90.12
279.115	77.12
279.347	69.12
279.579	90.12
279.81	88.12
280.042	78.12
280.273	88.12
280.505	77.12
280.736	74.12
280.968	92.12
281.199	96.12
281.431	92.12
281.662	70.12
281.894	74.12
282.125	85.12
282.356	83.12
282.588	73.12
282.819	81.12
283.051	81.12
283.282	95.12
283.513	95.12
283.745	90.12
283.976	88.12
284.207	84.12
284.439	99.12
284.67	94.12
284.901	85.12
285.132	90.12
285.364	85.12
285.595	97.12
285.826	94.12
286.057	84.12
286.288	86.12
286.52	103.12
286.751	83.12
286.982	87.12
287.213	91.12
287.444	90.12
287.675	95.12
287.906	75.12
288.138	92.12
288.369	88.12
288.6	78.12
288.831	80.12
289.062	85.12
289.293	86.12
289.524	82.12
289.755	82.12
289.986	89.12
290.217	92.12
290.448	83.12
290.679	80.12
290.91	92.12
291.141	93.12
291.371	75.12
291.602	81.12
291.833	97.12
292.064	75.12
292.295	78.12
292.526	70.12
292.757	85.12
292.987	83.12
293.218	76.12
293.449	86.12
293.68	72.12
293.91	80.12
294.141	90.12
294.372	81.12
294.603	78.12
294.833	75.12
295.064	88.12
295.295	78.12
295.525	75.12
295.756	85.12
295.987	79.12
296.217	97.12
296.448	82.12
296.679	88.12
296.909	84.12
297.14	72.12
297.37	85.12
297.601	73.12
297.831	80.12
298.062	89.12
298.292	89.12
298.523	85.12
298.753	87.12
298.984	86.12
299.214	86.12
299.445	81.12
299.675	80.12
299.905	91.12
300.136	93.12
300.366	91.12
300.597	65.12
300.827	88.12
301.057	66.12
301.288	85.12
301.518	89.12
301.748	80.12
301.979	88.12
302.209	88.12
302.439	85.12
302.669	79.12
302.9	83.12
303.13	81.12
303.36	79.12
303.59	98.12
303.82	92.12
304.051	71.12
304.281	82.12
304.511	85.12
304.741	93.12
304.971	85.12
305.201	84.12
305.431	88.12
305.661	73.12
305.891	92.12
306.121	93.12
306.352	62.12
306.582	69.12
306.812	85.12
307.042	87.12
307.272	76.12
307.502	85.12
307.731	88.12
307.961	78.12
308.191	85.12
308.421	74.12
308.651	91.12
308.881	78.12
309.111	78.12
309.341	95.12
309.571	96.12
309.8	80.12
310.03	70.12
310.26	61.12
310.49	77.12
310.72	80.12
310.949	93.12
311.179	79.12
311.409	84.12
311.639	89.12
311.868	91.12
312.098	82.12
312.328	87.12
312.557	81.12
312.787	78.12
313.017	83.12
313.246	85.12
313.476	79.12
313.706	85.12
313.935	79.12
314.165	90.12
314.394	69.12
314.624	78.12
314.853	90.12
315.083	85.12
315.312	82.12
315.542	75.12
315.771	87.12
316.001	95.12
316.23	75.12
316.46	77.12
316.689	89.12
316.919	85.12
317.148	85.12
317.377	86.12
317.607	96.12
317.836	77.12
318.065	78.12
318.295	78.12
318.524	86.12
318.753	99.12
318.983	73.12
319.212	86.12
319.441	78.12
319.67	87.12
319.9	84.12
320.129	85.12
320.358	90.12
320.587	87.12
320.816	78.12
321.046	85.12
321.275	100.12
321.504	79.12
321.733	94.12
321.962	70.12
322.191	79.12
322.42	76.12
322.649	79.12
322.878	76.12
323.108	90.12
323.337	83.12
323.566	86.12
323.795	86.12
324.024	93.12
324.253	80.12
324.482	66.12
324.71	94.12
324.939	79.12
325.168	92.12
325.397	99.12
325.626	95.12
325.855	71.12
326.084	86.12
326.313	71.12
326.542	82.12
326.77	91.12
326.999	75.12
327.228	91.12
327.457	90.12
327.686	93.12
327.914	85.12
328.143	85.12
328.372	84.12
328.6	76.12
328.829	96.12
329.058	86.12
329.287	91.12
329.515	95.12
329.744	90.12
329.972	80.12
330.201	78.12
330.43	91.12
330.658	76.12
330.887	73.12
331.115	62.12
331.344	78.12
331.572	94.12
331.801	78.12
332.03	77.12
332.258	84.12
332.486	74.12
332.715	77.12
332.943	89.12
333.172	89.12
333.4	93.12
333.629	96.12
333.857	88.12
334.085	82.12
334.314	90.12
334.542	84.12
334.771	84.12
334.999	91.12
335.227	91.12
335.455	72.12
335.684	91.12
335.912	81.12
336.14	77.12
336.369	83.12
336.597	101.12
336.825	83.12
337.053	95.12
337.281	86.12
337.51	71.12
337.738	91.12
337.966	75.12
338.194	72.12
338.422	85.12
338.65	91.12
338.878	98.12
339.106	96.12
339.334	79.12
339.562	81.12
339.79	76.12
340.018	92.12
340.246	81.12
340.474	78.12
340.702	72.12
340.93	84.12
341.158	83.12
341.386	81.12
341.614	86.12
341.842	73.12
342.07	75.12
342.298	90.12
342.526	98.12
342.754	90.12
342.981	85.12
343.209	93.12
343.437	88.12
343.665	98.12
343.893	80.12
344.12	92.12
344.348	78.12
344.576	89.12
344.804	84.12
345.031	100.12
345.259	91.12
345.487	71.12
345.714	89.12
345.942	83.12
346.17	76.12
346.397	83.12
346.625	83.12
346.853	91.12
347.08	88.12
347.308	82.12
347.535	82.12
347.763	84.12
347.99	78.12
348.218	99.12
348.445	82.12
348.673	80.12
348.9	82.12
349.128	92.12
349.355	74.12
349.583	98.12
349.81	101.12
350.037	86.12
350.265	70.12
350.492	78.12
350.72	89.12
350.947	85.12
351.174	97.12
351.402	82.12
351.629	85.12
351.856	87.12
352.083	96.12
352.311	87.12
352.538	88.12
352.765	91.12
352.992	74.12
353.22	94.12
353.447	86.12
353.674	86.12
353.901	80.12
354.128	105.12
354.355	83.12
354.583	90.12
354.81	79.12
355.037	100.12
355.264	95.12
355.491	73.12
355.718	90.12
355.945	81.12
356.172	82.12
356.399	80.12
356.626	84.12
356.853	92.12
357.08	84.12
357.307	84.12
357.534	77.12
357.761	90.12
357.988	87.12
358.215	74.12
358.441	85.12
358.668	84.12
358.895	79.12
359.122	73.12
359.349	83.12
359.576	95.12
359.802	80.12
360.029	79.12
360.256	92.12
360.483	92.12
360.709	92.12
360.936	99.12
361.163	78.12
361.39	89.12
361.616	90.12
361.843	100.12
362.07	101.12
362.296	70.12
362.523	79.12
362.749	89.12
362.976	75.12
363.203	91.12
363.429	79.12
363.656	84.12
363.882	91.12
364.109	82.12
364.335	97.12
364.562	83.12
364.788	78.12
365.015	85.12
365.241	84.12
365.468	78.12
365.694	83.12
365.92	96.12
366.147	77.12
366.373	87.12
366.599	94.12
366.826	94.12
367.052	87.12
367.278	79.12
367.505	85.12
367.731	70.12
367.957	70.12
368.184	87.12
368.41	83.12
368.636	87.12
368.862	80.12
369.089	90.12
369.315	94.12
369.541	86.12
369.767	87.12
369.993	84.12
370.219	93.12
370.445	79.12
370.672	80.12
370.898	78.12
371.124	70.12
371.35	78.12
371.576	79.12
371.802	88.12
372.028	74.12
372.254	87.12
372.48	93.12
372.706	91.12
372.932	87.12
373.158	85.12
373.384	88.12
373.61	99.12
373.835	86.12
374.061	78.12
374.287	86.12
374.513	93.12
374.739	84.12
374.965	88.12
375.191	93.12
375.416	87.12
375.642	92.12
375.868	85.12
376.094	76.12
376.319	98.12
376.545	90.12
376.771	82.12
376.997	79.12
377.222	91.12
377.448	91.12
377.674	86.12
377.899	81.12
378.125	91.12
378.35	102.12
378.576	83.12
378.802	75.12
379.027	99.12
379.253	90.12
379.478	84.12
379.704	84.12
379.929	93.12
380.155	88.12
380.38	90.12
380.606	91.12
380.831	88.12
381.057	98.12
381.282	77.12
381.507	76.12
381.733	78.12
381.958	76.12
382.184	86.12
382.409	93.12
382.634	89.12
382.86	87.12
383.085	88.12
383.31	99.12
383.535	93.12
383.761	92.12
383.986	90.12
384.211	80.12
384.436	95.12
384.662	74.12
384.887	93.12
385.112	102.12
385.337	108.12
385.562	88.12
385.787	102.12
386.013	103.12
386.238	94.12
386.463	86.12
386.688	103.12
386.913	95.12
387.138	93.12
387.363	104.12
387.588	109.12
387.813	89.12
388.038	89.12
388.263	108.12
388.488	105.12
388.713	102.12
388.938	94.12
389.163	92.12
389.387	90.12
389.612	78.12
389.837	87.12
390.062	95.12
390.287	98.12
390.512	103.12
390.736	96.12
390.961	102.12
391.186	91.12
391.411	102.12
391.636	97.12
391.86	90.12
392.085	95.12
392.31	111.12
392.534	100.12
392.759	95.12
392.984	105.12
393.208	107.12
393.433	93.12
393.658	84.12
393.882	79.12
394.107	87.12
394.331	99.12
394.556	84.12
394.78	102.12
395.005	110.12
395.229	91.12
395.454	92.12
395.678	114.12
395.903	102.12
396.127	103.12
396.352	83.12
396.576	106.12
396.801	96.12
397.025	85.12
397.249	92.12
397.474	123.12
397.698	101.12
397.922	102.12
398.147	101.12
398.371	105.12
398.595	112.12
398.82	100.12
399.044	89.12
399.268	102.12
399.492	122.12
399.717	119.12
399.941	115.12
400.165	102.12
400.389	121.12
400.613	104.12
400.837	115.12
401.062	102.12
401.286	114.12
401.51	119.12
401.734	100.12
401.958	74.12
402.182	97.12
402.406	102.12
402.63	102.12
402.854	103.12
403.078	95.12
403.302	113.12
403.526	110.12
403.75	101.12
403.974	116.12
404.198	107.12
404.422	104.12
404.645	114.12
404.869	123.12
405.093	108.12
405.317	102.12
405.541	113.12
405.765	117.12
405.988	115.12
406.212	113.12
406.436	114.12
406.66	121.12
406.883	114.12
407.107	111.12
407.331	107.12
407.555	105.12
407.778	100.12
408.002	111.12
408.226	115.12
408.449	115.12
408.673	110.12
408.896	121.12
409.12	98.12
409.344	127.12
409.567	102.12
409.791	121.12
410.014	123.12
410.238	106.12
410.461	113.12
410.685	119.12
410.908	129.12
411.132	112.12
411.355	103.12
411.578	113.12
411.802	124.12
412.025	131.12
412.249	119.12
412.472	119.12
412.695	111.12
412.919	103.12
413.142	121.12
413.365	117.12
413.589	104.12
413.812	109.12
414.035	115.12
414.258	127.12
414.482	111.12
414.705	117.12
414.928	101.12
415.151	111.12
415.374	110.12
415.597	103.12
415.821	113.12
416.044	119.12
416.267	124.12
416.49	111.12
416.713	109.12
416.936	108.12
417.159	114.12
417.382	106.12
417.605	104.12
417.828	101.12
418.051	111.12
418.274	109.12
418.497	135.12
418.72	119.12
418.943	119.12
419.166	121.12
419.389	117.12
419.611	99.12
419.834	106.12
420.057	124.12
420.28	115.12
420.503	113.12
420.726	102.12
420.948	101.12
421.171	116.12
421.394	118.12
421.617	113.12
421.839	116.12
422.062	120.12
422.285	105.12
422.507	118.12
422.73	117.12
422.953	111.12
423.175	111.12
423.398	115.12
423.621	115.12
423.843	109.12
424.066	107.12
424.288	121.12
424.511	133.12
424.733	136.12
424.956	117.12
425.178	131.12
425.401	118.12
425.623	106.12
425.846	118.12
426.068	104.12
426.291	108.12
426.513	123.12
426.735	119.12
426.958	119.12
427.18	120.12
427.402	110.12
427.625	113.12
427.847	101.12
428.069	110.12
428.292	105.12
428.514	115.12
428.736	114.12
428.958	120.12
429.181	109.12
429.403	106.12
429.625	109.12
429.847	115.12
430.069	126.12
430.292	119.12
430.514	106.12
430.736	117.12
430.958	117.12
431.18	122.12
431.402	110.12
431.624	122.12
431.846	107.12
432.068	108.12
432.29	105.12
432.512	106.12
432.734	118.12
432.956	118.12
433.178	124.12
433.4	117.12
433.622	115.12
433.844	127.12
434.066	126.12
434.287	113.12
434.509	112.12
434.731	115.12
434.953	92.12
435.175	120.12
435.397	118.12
435.618	103.12
435.84	108.12
436.062	124.12
436.284	133.12
436.505	120.12
436.727	109.12
436.949	115.12
437.17	104.12
437.392	111.12
437.614	106.12
437.835	96.12
438.057	106.12
438.278	121.12
438.5	99.12
438.721	122.12
438.943	116.12
439.165	121.12
439.386	117.12
439.608	124.12
439.829	127.12
440.05	115.12
440.272	115.12
440.493	114.12
440.715	112.12
440.936	114.12
441.158	123.12
441.379	108.12
441.6	117.12
441.822	122.12
442.043	131.12
442.264	132.12
442.486	131.12
442.707	117.12
442.928	127.12
443.149	116.12
443.371	109.12
443.592	107.12
443.813	118.12
444.034	111.12
444.255	139.12
444.476	129.12
444.698	139.12
444.919	128.12
445.14	261.12
445.361	173.12
445.582	126.12
445.803	119.12
446.024	133.12
446.245	125.12
446.466	126.12
446.687	127.12
446.908	115.12
447.129	126.12
447.35	123.12
447.571	110.12
447.792	122.12
448.013	131.12
448.234	129.12
448.455	111.12
448.675	113.12
448.896	120.12
449.117	125.12
449.338	106.12
449.559	108.12
449.779	106.12
450	106.12
450.221	121.12
450.442	105.12
450.662	108.12
450.883	106.12
451.104	113.12
451.324	117.12
451.545	114.12
451.766	112.12
451.986	104.12
452.207	124.12
452.428	113.12
452.648	125.12
452.869	114.12
453.089	99.12
453.31	108.12
453.53	121.12
453.751	97.12
453.971	116.12
454.192	103.12
454.412	105.12
454.633	110.12
454.853	108.12
455.073	116.12
455.294	110.12
455.514	105.12
455.734	104.12
455.955	105.12
456.175	108.12
456.395	111.12
456.616	117.12
456.836	122.12
457.056	88.12
457.276	103.12
457.497	95.12
457.717	97.12
457.937	113.12
458.157	98.12
458.377	117.12
458.598	89.12
458.818	93.12
459.038	99.12
459.258	102.12
459.478	107.12
459.698	115.12
459.918	116.12
460.138	105.12
460.358	115.12
460.578	117.12
460.798	115.12
461.018	118.12
461.238	122.12
461.458	118.12
461.678	115.12
461.898	120.12
462.118	110.12
462.338	116.12
462.558	131.12
462.777	109.12
462.997	107.12
463.217	119.12
463.437	118.12
463.657	117.12
463.876	119.12
464.096	134.12
464.316	110.12
464.536	117.12
464.755	113.12
464.975	124.12
465.195	119.12
465.414	120.12
465.634	119.12
465.854	98.12
466.073	121.12
466.293	114.12
466.512	115.12
466.732	102.12
466.951	111.12
467.171	125.12
467.391	121.12
467.61	115.12
467.829	108.12
468.049	125.12
468.268	121.12
468.488	113.12
468.707	111.12
468.927	117.12
469.146	130.12
469.365	116.12
469.585	125.12
469.804	121.12
470.023	125.12
470.243	118.12
470.462	121.12
470.681	118.12
470.901	116.12
471.12	125.12
471.339	131.12
471.558	131.12
471.777	120.12
471.997	113.12
472.216	117.12
472.435	119.12
472.654	117.12
472.873	111.12
473.092	115.12
473.311	129.12
473.53	110.12
473.749	110.12
473.968	113.12
474.187	110.12
474.406	110.12
474.625	115.12
474.844	117.12
475.063	123.12
475.282	129.12
475.501	126.12
475.72	123.12
475.939	98.12
476.158	121.12
476.377	115.12
476.596	110.12
476.814	113.12
477.033	109.12
477.252	114.12
477.471	120.12
477.69	125.12
477.908	113.12
478.127	126.12
478.346	127.12
478.564	127.12
478.783	125.12
479.002	138.12
479.22	110.12
479.439	131.12
479.658	115.12
479.876	115.12
480.095	117.12
480.313	126.12
480.532	112.12
480.751	130.12
480.969	126.12
481.188	113.12
481.406	125.12
481.624	116.12
481.843	113.12
482.061	113.12
482.28	130.12
482.498	123.12
482.717	107.12
482.935	123.12
483.153	125.12
483.372	138.12
483.59	131.12
483.808	133.12
484.027	131.12
484.245	108.12
484.463	135.12
484.681	127.12
484.9	138.12
485.118	130.12
485.336	116.12
485.554	132.12
485.772	122.12
485.99	121.12
486.209	139.12
486.427	114.12
486.645	125.12
486.863	141.12
487.081	139.12
487.299	124.12
487.517	135.12
487.735	141.12
487.953	158.12
488.171	144.12
488.389	142.12
488.607	133.12
488.825	133.12
489.043	128.12
489.261	128.12
489.479	129.12
489.696	130.12
489.914	129.12
490.132	129.12
490.35	133.12
490.568	134.12
490.786	142.12
491.003	152.12
491.221	153.12
491.439	137.12
491.657	147.12
491.874	147.12
492.092	181.12
492.31	151.12
492.527	173.12
492.745	165.12
492.963	167.12
493.18	146.12
493.398	159.12
493.615	159.12
493.833	149.12
494.05	153.12
494.268	149.12
494.485	157.12
494.703	153.12
494.92	147.12
495.138	143.12
495.355	146.12
495.573	150.12
495.79	152.12
496.008	162.12
496.225	155.12
496.442	158.12
496.66	155.12
496.877	137.12
497.094	130.12
497.312	126.12
497.529	133.12
497.746	136.12
497.963	143.12
498.181	143.12
498.398	122.12
498.615	141.12
498.832	143.12
499.049	151.12
499.267	155.12
499.484	164.12
499.701	186.12
499.918	193.12
500.135	222.12
500.352	223.12
500.569	217.12
500.786	221.12
501.003	212.12
501.22	197.12
501.437	169.12
501.654	170.12
501.871	172.12
502.088	156.12
502.305	158.12
502.522	163.12
502.739	157.12
502.956	132.12
503.172	135.12
503.389	134.12
503.606	137.12
503.823	142.12
504.04	121.12
504.256	136.12
504.473	141.12
504.69	136.12
504.907	142.12
505.123	122.12
505.34	127.12
505.557	137.12
505.773	118.12
505.99	119.12
506.207	131.12
506.423	132.12
506.64	117.12
506.856	123.12
507.073	129.12
507.289	130.12
507.506	126.12
507.722	127.12
507.939	133.12
508.155	118.12
508.372	115.12
508.588	123.12
508.805	122.12
509.021	125.12
509.238	107.12
509.454	122.12
509.67	119.12
509.887	117.12
510.103	118.12
510.319	115.12
510.536	107.12
510.752	117.12
510.968	119.12
511.184	114.12
511.401	97.12
511.617	117.12
