Data from StandardFe(NO3)3.TAE.3%Agarose.FlatLispGreen.Lamp.Energy10.07252019_HRD10591_11-56-16-442.txt Node
Date: Thu Jul 25 11:56:16 EDT 2019
User: cochatt
Spectrometer: HR+D1059
Trigger mode: 1
Integration Time (sec): 1.000000E-1
Scans to average: 1
Electric dark correction enabled: true
Nonlinearity correction enabled: false
Boxcar width: 0
XAxis mode: Wavelengths
Number of Pixels in Spectrum: 2048
>>>>>Begin Spectral Data<<<<<
223.165	-16.75
223.4	-16.75
223.635	-16.75
223.869	-24.75
224.104	-5.75
224.338	-9.75
224.573	-7.75
224.808	-19.75
225.042	-14.75
225.277	-18.75
225.511	-6.75
225.746	-8.75
225.98	8.25
226.215	13.25
226.449	22.25
226.683	25.25
226.918	24.25
227.152	40.25
227.387	35.25
227.621	33.25
227.856	40.25
228.09	64.25
228.324	49.25
228.559	61.25
228.793	63.25
229.027	54.25
229.262	62.25
229.496	65.25
229.73	50.25
229.964	61.25
230.199	67.25
230.433	76.25
230.667	85.25
230.901	70.25
231.136	77.25
231.37	67.25
231.604	66.25
231.838	76.25
232.072	83.25
232.306	71.25
232.541	78.25
232.775	79.25
233.009	86.25
233.243	76.25
233.477	81.25
233.711	69.25
233.945	71.25
234.179	71.25
234.413	92.25
234.647	84.25
234.881	81.25
235.115	77.25
235.349	69.25
235.583	88.25
235.817	75.25
236.051	52.25
236.285	66.25
236.519	90.25
236.753	82.25
236.987	69.25
237.221	96.25
237.455	67.25
237.689	84.25
237.922	76.25
238.156	76.25
238.39	72.25
238.624	70.25
238.858	72.25
239.091	85.25
239.325	75.25
239.559	69.25
239.793	74.25
240.027	70.25
240.26	73.25
240.494	75.25
240.728	79.25
240.961	64.25
241.195	84.25
241.429	73.25
241.662	73.25
241.896	72.25
242.13	70.25
242.363	74.25
242.597	74.25
242.83	72.25
243.064	75.25
243.298	74.25
243.531	76.25
243.765	81.25
243.998	70.25
244.232	68.25
244.465	66.25
244.699	66.25
244.932	68.25
245.166	77.25
245.399	76.25
245.633	75.25
245.866	85.25
246.099	74.25
246.333	75.25
246.566	72.25
246.8	76.25
247.033	89.25
247.266	86.25
247.5	80.25
247.733	80.25
247.966	64.25
248.2	90.25
248.433	97.25
248.666	73.25
248.899	88.25
249.133	78.25
249.366	82.25
249.599	82.25
249.832	83.25
250.066	77.25
250.299	72.25
250.532	84.25
250.765	85.25
250.998	84.25
251.231	94.25
251.465	86.25
251.698	64.25
251.931	83.25
252.164	76.25
252.397	80.25
252.63	84.25
252.863	85.25
253.096	66.25
253.329	70.25
253.562	89.25
253.795	80.25
254.028	84.25
254.261	69.25
254.494	71.25
254.727	76.25
254.96	77.25
255.193	75.25
255.426	74.25
255.659	70.25
255.892	79.25
256.124	85.25
256.357	73.25
256.59	74.25
256.823	79.25
257.056	85.25
257.289	78.25
257.521	85.25
257.754	61.25
257.987	75.25
258.22	93.25
258.452	82.25
258.685	79.25
258.918	76.25
259.151	77.25
259.383	72.25
259.616	82.25
259.849	78.25
260.081	76.25
260.314	81.25
260.547	95.25
260.779	80.25
261.012	74.25
261.244	76.25
261.477	86.25
261.71	80.25
261.942	70.25
262.175	76.25
262.407	82.25
262.64	75.25
262.872	73.25
263.105	69.25
263.337	71.25
263.57	85.25
263.802	65.25
264.035	81.25
264.267	84.25
264.499	85.25
264.732	84.25
264.964	72.25
265.197	79.25
265.429	70.25
265.661	73.25
265.894	82.25
266.126	81.25
266.358	87.25
266.591	68.25
266.823	70.25
267.055	73.25
267.287	76.25
267.52	82.25
267.752	81.25
267.984	83.25
268.216	79.25
268.448	80.25
268.681	83.25
268.913	85.25
269.145	76.25
269.377	70.25
269.609	85.25
269.841	78.25
270.073	70.25
270.306	71.25
270.538	70.25
270.77	95.25
271.002	79.25
271.234	94.25
271.466	93.25
271.698	92.25
271.93	83.25
272.162	92.25
272.394	80.25
272.626	70.25
272.858	88.25
273.09	83.25
273.322	82.25
273.553	68.25
273.785	85.25
274.017	75.25
274.249	65.25
274.481	81.25
274.713	84.25
274.945	86.25
275.176	80.25
275.408	76.25
275.64	75.25
275.872	88.25
276.104	69.25
276.335	78.25
276.567	88.25
276.799	81.25
277.031	77.25
277.262	83.25
277.494	85.25
277.726	64.25
277.957	73.25
278.189	73.25
278.421	78.25
278.652	72.25
278.884	73.25
279.115	83.25
279.347	76.25
279.579	77.25
279.81	77.25
280.042	81.25
280.273	88.25
280.505	81.25
280.736	98.25
280.968	71.25
281.199	77.25
281.431	90.25
281.662	73.25
281.894	85.25
282.125	77.25
282.356	77.25
282.588	83.25
282.819	79.25
283.051	77.25
283.282	79.25
283.513	88.25
283.745	88.25
283.976	70.25
284.207	73.25
284.439	88.25
284.67	84.25
284.901	80.25
285.132	68.25
285.364	72.25
285.595	76.25
285.826	80.25
286.057	85.25
286.288	86.25
286.52	86.25
286.751	90.25
286.982	85.25
287.213	80.25
287.444	73.25
287.675	77.25
287.906	89.25
288.138	79.25
288.369	83.25
288.6	79.25
288.831	77.25
289.062	89.25
289.293	89.25
289.524	71.25
289.755	69.25
289.986	78.25
290.217	77.25
290.448	78.25
290.679	76.25
290.91	79.25
291.141	78.25
291.371	85.25
291.602	74.25
291.833	83.25
292.064	80.25
292.295	96.25
292.526	85.25
292.757	78.25
292.987	70.25
293.218	103.25
293.449	74.25
293.68	85.25
293.91	76.25
294.141	67.25
294.372	81.25
294.603	83.25
294.833	82.25
295.064	85.25
295.295	87.25
295.525	84.25
295.756	76.25
295.987	78.25
296.217	90.25
296.448	80.25
296.679	96.25
296.909	71.25
297.14	86.25
297.37	80.25
297.601	93.25
297.831	79.25
298.062	93.25
298.292	80.25
298.523	84.25
298.753	75.25
298.984	75.25
299.214	76.25
299.445	80.25
299.675	88.25
299.905	86.25
300.136	94.25
300.366	74.25
300.597	66.25
300.827	72.25
301.057	78.25
301.288	92.25
301.518	85.25
301.748	89.25
301.979	89.25
302.209	89.25
302.439	87.25
302.669	88.25
302.9	78.25
303.13	75.25
303.36	68.25
303.59	85.25
303.82	90.25
304.051	76.25
304.281	82.25
304.511	93.25
304.741	72.25
304.971	56.25
305.201	90.25
305.431	88.25
305.661	78.25
305.891	85.25
306.121	83.25
306.352	83.25
306.582	91.25
306.812	63.25
307.042	91.25
307.272	71.25
307.502	68.25
307.731	92.25
307.961	70.25
308.191	70.25
308.421	94.25
308.651	79.25
308.881	78.25
309.111	73.25
309.341	90.25
309.571	88.25
309.8	75.25
310.03	76.25
310.26	105.25
310.49	77.25
310.72	84.25
310.949	78.25
311.179	89.25
311.409	86.25
311.639	67.25
311.868	76.25
312.098	84.25
312.328	80.25
312.557	73.25
312.787	76.25
313.017	80.25
313.246	87.25
313.476	81.25
313.706	82.25
313.935	81.25
314.165	73.25
314.394	75.25
314.624	70.25
314.853	78.25
315.083	70.25
315.312	85.25
315.542	81.25
315.771	87.25
316.001	68.25
316.23	79.25
316.46	79.25
316.689	69.25
316.919	92.25
317.148	85.25
317.377	84.25
317.607	79.25
317.836	77.25
318.065	74.25
318.295	71.25
318.524	72.25
318.753	68.25
318.983	78.25
319.212	83.25
319.441	78.25
319.67	64.25
319.9	77.25
320.129	80.25
320.358	69.25
320.587	73.25
320.816	78.25
321.046	82.25
321.275	88.25
321.504	77.25
321.733	81.25
321.962	85.25
322.191	71.25
322.42	89.25
322.649	78.25
322.878	77.25
323.108	92.25
323.337	77.25
323.566	86.25
323.795	94.25
324.024	84.25
324.253	72.25
324.482	81.25
324.71	77.25
324.939	79.25
325.168	93.25
325.397	96.25
325.626	79.25
325.855	87.25
326.084	71.25
326.313	92.25
326.542	81.25
326.77	87.25
326.999	81.25
327.228	84.25
327.457	87.25
327.686	79.25
327.914	78.25
328.143	82.25
328.372	71.25
328.6	76.25
328.829	84.25
329.058	88.25
329.287	81.25
329.515	63.25
329.744	83.25
329.972	92.25
330.201	71.25
330.43	76.25
330.658	83.25
330.887	81.25
331.115	88.25
331.344	81.25
331.572	95.25
331.801	98.25
332.03	82.25
332.258	85.25
332.486	70.25
332.715	79.25
332.943	80.25
333.172	86.25
333.4	88.25
333.629	80.25
333.857	86.25
334.085	84.25
334.314	84.25
334.542	95.25
334.771	93.25
334.999	94.25
335.227	79.25
335.455	88.25
335.684	95.25
335.912	96.25
336.14	84.25
336.369	80.25
336.597	73.25
336.825	87.25
337.053	85.25
337.281	79.25
337.51	92.25
337.738	79.25
337.966	84.25
338.194	84.25
338.422	86.25
338.65	76.25
338.878	80.25
339.106	66.25
339.334	81.25
339.562	74.25
339.79	73.25
340.018	87.25
340.246	82.25
340.474	95.25
340.702	75.25
340.93	71.25
341.158	84.25
341.386	82.25
341.614	76.25
341.842	76.25
342.07	85.25
342.298	81.25
342.526	92.25
342.754	84.25
342.981	85.25
343.209	83.25
343.437	88.25
343.665	80.25
343.893	86.25
344.12	78.25
344.348	80.25
344.576	77.25
344.804	86.25
345.031	74.25
345.259	82.25
345.487	71.25
345.714	85.25
345.942	83.25
346.17	77.25
346.397	67.25
346.625	64.25
346.853	82.25
347.08	72.25
347.308	102.25
347.535	80.25
347.763	92.25
347.99	80.25
348.218	80.25
348.445	88.25
348.673	86.25
348.9	93.25
349.128	78.25
349.355	68.25
349.583	73.25
349.81	69.25
350.037	94.25
350.265	83.25
350.492	84.25
350.72	89.25
350.947	72.25
351.174	73.25
351.402	72.25
351.629	81.25
351.856	90.25
352.083	84.25
352.311	77.25
352.538	69.25
352.765	70.25
352.992	82.25
353.22	79.25
353.447	77.25
353.674	96.25
353.901	85.25
354.128	63.25
354.355	86.25
354.583	65.25
354.81	87.25
355.037	85.25
355.264	95.25
355.491	82.25
355.718	68.25
355.945	80.25
356.172	80.25
356.399	78.25
356.626	80.25
356.853	91.25
357.08	83.25
357.307	86.25
357.534	92.25
357.761	99.25
357.988	75.25
358.215	87.25
358.441	69.25
358.668	82.25
358.895	81.25
359.122	78.25
359.349	79.25
359.576	70.25
359.802	83.25
360.029	84.25
360.256	84.25
360.483	82.25
360.709	90.25
360.936	90.25
361.163	75.25
361.39	92.25
361.616	92.25
361.843	84.25
362.07	74.25
362.296	85.25
362.523	78.25
362.749	72.25
362.976	75.25
363.203	88.25
363.429	81.25
363.656	81.25
363.882	81.25
364.109	92.25
364.335	91.25
364.562	75.25
364.788	87.25
365.015	77.25
365.241	74.25
365.468	66.25
365.694	75.25
365.92	73.25
366.147	95.25
366.373	73.25
366.599	79.25
366.826	77.25
367.052	71.25
367.278	73.25
367.505	85.25
367.731	78.25
367.957	96.25
368.184	86.25
368.41	73.25
368.636	85.25
368.862	87.25
369.089	78.25
369.315	93.25
369.541	89.25
369.767	94.25
369.993	88.25
370.219	91.25
370.445	84.25
370.672	89.25
370.898	75.25
371.124	80.25
371.35	86.25
371.576	82.25
371.802	92.25
372.028	82.25
372.254	76.25
372.48	86.25
372.706	97.25
372.932	83.25
373.158	86.25
373.384	77.25
373.61	92.25
373.835	87.25
374.061	84.25
374.287	80.25
374.513	81.25
374.739	75.25
374.965	84.25
375.191	89.25
375.416	80.25
375.642	81.25
375.868	85.25
376.094	90.25
376.319	85.25
376.545	73.25
376.771	83.25
376.997	75.25
377.222	86.25
377.448	82.25
377.674	93.25
377.899	88.25
378.125	84.25
378.35	80.25
378.576	92.25
378.802	79.25
379.027	76.25
379.253	93.25
379.478	84.25
379.704	78.25
379.929	83.25
380.155	84.25
380.38	84.25
380.606	84.25
380.831	90.25
381.057	78.25
381.282	100.25
381.507	96.25
381.733	93.25
381.958	97.25
382.184	70.25
382.409	94.25
382.634	84.25
382.86	82.25
383.085	90.25
383.31	84.25
383.535	86.25
383.761	78.25
383.986	81.25
384.211	100.25
384.436	91.25
384.662	85.25
384.887	83.25
385.112	70.25
385.337	95.25
385.562	79.25
385.787	82.25
386.013	80.25
386.238	84.25
386.463	83.25
386.688	88.25
386.913	78.25
387.138	89.25
387.363	87.25
387.588	79.25
387.813	93.25
388.038	90.25
388.263	87.25
388.488	84.25
388.713	81.25
388.938	90.25
389.163	98.25
389.387	88.25
389.612	97.25
389.837	84.25
390.062	82.25
390.287	84.25
390.512	96.25
390.736	86.25
390.961	93.25
391.186	89.25
391.411	100.25
391.636	98.25
391.86	106.25
392.085	84.25
392.31	97.25
392.534	101.25
392.759	92.25
392.984	97.25
393.208	89.25
393.433	84.25
393.658	100.25
393.882	93.25
394.107	101.25
394.331	96.25
394.556	86.25
394.78	93.25
395.005	86.25
395.229	92.25
395.454	105.25
395.678	114.25
395.903	105.25
396.127	92.25
396.352	94.25
396.576	93.25
396.801	88.25
397.025	95.25
397.249	89.25
397.474	99.25
397.698	101.25
397.922	92.25
398.147	81.25
398.371	108.25
398.595	101.25
398.82	99.25
399.044	83.25
399.268	92.25
399.492	104.25
399.717	117.25
399.941	109.25
400.165	105.25
400.389	95.25
400.613	98.25
400.837	90.25
401.062	94.25
401.286	87.25
401.51	96.25
401.734	108.25
401.958	101.25
402.182	84.25
402.406	91.25
402.63	115.25
402.854	98.25
403.078	103.25
403.302	99.25
403.526	101.25
403.75	105.25
403.974	115.25
404.198	114.25
404.422	92.25
404.645	109.25
404.869	100.25
405.093	86.25
405.317	98.25
405.541	102.25
405.765	110.25
405.988	107.25
406.212	98.25
406.436	100.25
406.66	110.25
406.883	92.25
407.107	97.25
407.331	104.25
407.555	99.25
407.778	100.25
408.002	121.25
408.226	106.25
408.449	99.25
408.673	111.25
408.896	93.25
409.12	102.25
409.344	118.25
409.567	102.25
409.791	104.25
410.014	108.25
410.238	93.25
410.461	97.25
410.685	104.25
410.908	105.25
411.132	102.25
411.355	107.25
411.578	108.25
411.802	93.25
412.025	97.25
412.249	96.25
412.472	110.25
412.695	96.25
412.919	106.25
413.142	106.25
413.365	98.25
413.589	105.25
413.812	109.25
414.035	99.25
414.258	105.25
414.482	100.25
414.705	116.25
414.928	91.25
415.151	112.25
415.374	116.25
415.597	101.25
415.821	101.25
416.044	120.25
416.267	103.25
416.49	101.25
416.713	94.25
416.936	108.25
417.159	100.25
417.382	112.25
417.605	105.25
417.828	103.25
418.051	112.25
418.274	110.25
418.497	103.25
418.72	108.25
418.943	94.25
419.166	116.25
419.389	116.25
419.611	102.25
419.834	110.25
420.057	105.25
420.28	100.25
420.503	106.25
420.726	104.25
420.948	114.25
421.171	109.25
421.394	116.25
421.617	125.25
421.839	117.25
422.062	117.25
422.285	112.25
422.507	98.25
422.73	116.25
422.953	110.25
423.175	99.25
423.398	118.25
423.621	108.25
423.843	108.25
424.066	101.25
424.288	115.25
424.511	112.25
424.733	119.25
424.956	104.25
425.178	117.25
425.401	106.25
425.623	117.25
425.846	99.25
426.068	102.25
426.291	103.25
426.513	99.25
426.735	95.25
426.958	101.25
427.18	114.25
427.402	116.25
427.625	105.25
427.847	111.25
428.069	103.25
428.292	106.25
428.514	107.25
428.736	98.25
428.958	110.25
429.181	104.25
429.403	101.25
429.625	94.25
429.847	109.25
430.069	104.25
430.292	103.25
430.514	88.25
430.736	98.25
430.958	113.25
431.18	101.25
431.402	103.25
431.624	110.25
431.846	99.25
432.068	106.25
432.29	98.25
432.512	114.25
432.734	101.25
432.956	121.25
433.178	95.25
433.4	112.25
433.622	115.25
433.844	115.25
434.066	110.25
434.287	92.25
434.509	105.25
434.731	106.25
434.953	103.25
435.175	93.25
435.397	112.25
435.618	108.25
435.84	112.25
436.062	98.25
436.284	112.25
436.505	103.25
436.727	97.25
436.949	101.25
437.17	95.25
437.392	109.25
437.614	116.25
437.835	91.25
438.057	88.25
438.278	99.25
438.5	103.25
438.721	109.25
438.943	116.25
439.165	108.25
439.386	102.25
439.608	118.25
439.829	119.25
440.05	110.25
440.272	124.25
440.493	101.25
440.715	103.25
440.936	123.25
441.158	120.25
441.379	119.25
441.6	130.25
441.822	129.25
442.043	115.25
442.264	116.25
442.486	104.25
442.707	104.25
442.928	105.25
443.149	109.25
443.371	118.25
443.592	109.25
443.813	101.25
444.034	102.25
444.255	112.25
444.476	116.25
444.698	120.25
444.919	112.25
445.14	241.25
445.361	164.25
445.582	116.25
445.803	131.25
446.024	108.25
446.245	105.25
446.466	100.25
446.687	124.25
446.908	117.25
447.129	124.25
447.35	116.25
447.571	121.25
447.792	124.25
448.013	107.25
448.234	112.25
448.455	117.25
448.675	93.25
448.896	108.25
449.117	108.25
449.338	103.25
449.559	112.25
449.779	105.25
450	108.25
450.221	119.25
450.442	109.25
450.662	90.25
450.883	91.25
451.104	110.25
451.324	113.25
451.545	108.25
451.766	108.25
451.986	101.25
452.207	100.25
452.428	99.25
452.648	101.25
452.869	85.25
453.089	104.25
453.31	116.25
453.53	95.25
453.751	88.25
453.971	96.25
454.192	103.25
454.412	89.25
454.633	94.25
454.853	110.25
455.073	116.25
455.294	88.25
455.514	124.25
455.734	115.25
455.955	103.25
456.175	93.25
456.395	109.25
456.616	105.25
456.836	110.25
457.056	104.25
457.276	95.25
457.497	97.25
457.717	89.25
457.937	105.25
458.157	108.25
458.377	100.25
458.598	102.25
458.818	111.25
459.038	111.25
459.258	110.25
459.478	95.25
459.698	99.25
459.918	101.25
460.138	108.25
460.358	91.25
460.578	99.25
460.798	98.25
461.018	111.25
461.238	110.25
461.458	92.25
461.678	119.25
461.898	97.25
462.118	121.25
462.338	110.25
462.558	108.25
462.777	104.25
462.997	110.25
463.217	124.25
463.437	124.25
463.657	118.25
463.876	99.25
464.096	118.25
464.316	109.25
464.536	119.25
464.755	120.25
464.975	113.25
465.195	98.25
465.414	110.25
465.634	112.25
465.854	103.25
466.073	104.25
466.293	92.25
466.512	118.25
466.732	113.25
466.951	110.25
467.171	108.25
467.391	104.25
467.61	116.25
467.829	94.25
468.049	117.25
468.268	126.25
468.488	112.25
468.707	104.25
468.927	96.25
469.146	121.25
469.365	114.25
469.585	112.25
469.804	112.25
470.023	117.25
470.243	112.25
470.462	110.25
470.681	117.25
470.901	119.25
471.12	118.25
471.339	128.25
471.558	112.25
471.777	103.25
471.997	110.25
472.216	102.25
472.435	107.25
472.654	112.25
472.873	102.25
473.092	96.25
473.311	119.25
473.53	97.25
473.749	95.25
473.968	133.25
474.187	114.25
474.406	118.25
474.625	109.25
474.844	113.25
475.063	112.25
475.282	106.25
475.501	109.25
475.72	116.25
475.939	116.25
476.158	98.25
476.377	116.25
476.596	108.25
476.814	109.25
477.033	113.25
477.252	97.25
477.471	114.25
477.69	104.25
477.908	118.25
478.127	128.25
478.346	121.25
478.564	121.25
478.783	136.25
479.002	124.25
479.22	115.25
479.439	126.25
479.658	114.25
479.876	117.25
480.095	106.25
480.313	122.25
480.532	120.25
480.751	120.25
480.969	118.25
481.188	120.25
481.406	109.25
481.624	113.25
481.843	99.25
482.061	112.25
482.28	108.25
482.498	109.25
482.717	108.25
482.935	108.25
483.153	112.25
483.372	119.25
483.59	114.25
483.808	123.25
484.027	113.25
484.245	116.25
484.463	114.25
484.681	126.25
484.9	125.25
485.118	113.25
485.336	116.25
485.554	113.25
485.772	101.25
485.99	108.25
486.209	134.25
486.427	125.25
486.645	121.25
486.863	130.25
487.081	128.25
487.299	126.25
487.517	124.25
487.735	129.25
487.953	136.25
488.171	138.25
488.389	133.25
488.607	125.25
488.825	119.25
489.043	119.25
489.261	121.25
489.479	129.25
489.696	141.25
489.914	122.25
490.132	118.25
490.35	142.25
490.568	131.25
490.786	128.25
491.003	150.25
491.221	138.25
491.439	146.25
491.657	145.25
491.874	160.25
492.092	153.25
492.31	159.25
492.527	134.25
492.745	140.25
492.963	154.25
493.18	148.25
493.398	147.25
493.615	145.25
493.833	137.25
494.05	145.25
494.268	137.25
494.485	151.25
494.703	137.25
494.92	146.25
495.138	146.25
495.355	153.25
495.573	146.25
495.79	131.25
496.008	143.25
496.225	153.25
496.442	141.25
496.66	141.25
496.877	136.25
497.094	133.25
497.312	130.25
497.529	145.25
497.746	143.25
497.963	133.25
498.181	128.25
498.398	122.25
498.615	127.25
498.832	146.25
499.049	148.25
499.267	144.25
499.484	136.25
499.701	158.25
499.918	181.25
500.135	198.25
500.352	200.25
500.569	218.25
500.786	211.25
501.003	188.25
501.22	182.25
501.437	170.25
501.654	167.25
501.871	158.25
502.088	148.25
502.305	158.25
502.522	141.25
502.739	134.25
502.956	144.25
503.172	121.25
503.389	114.25
503.606	119.25
503.823	112.25
504.04	126.25
504.256	118.25
504.473	131.25
504.69	125.25
504.907	129.25
505.123	134.25
505.34	118.25
505.557	118.25
505.773	124.25
505.99	118.25
506.207	126.25
506.423	115.25
506.64	103.25
506.856	120.25
507.073	112.25
507.289	128.25
507.506	109.25
507.722	111.25
507.939	103.25
508.155	129.25
508.372	119.25
508.588	116.25
508.805	103.25
509.021	124.25
509.238	116.25
509.454	130.25
509.67	118.25
509.887	109.25
510.103	99.25
510.319	117.25
510.536	120.25
510.752	114.25
510.968	116.25
511.184	110.25
511.401	109.25
511.617	112.25
511.833	111.25
512.049	110.25
512.265	122.25
512.481	113.25
512.698	115.25
