Data from StandardFe(NO3)3.TAE.3%Agarose.FlatLispGreen.Lamp.Energy10.07252019_HRD10591_11-53-34-439.txt Node
Date: Thu Jul 25 11:53:34 EDT 2019
User: cochatt
Spectrometer: HR+D1059
Trigger mode: 1
Integration Time (sec): 1.000000E-1
Scans to average: 1
Electric dark correction enabled: true
Nonlinearity correction enabled: false
Boxcar width: 0
XAxis mode: Wavelengths
Number of Pixels in Spectrum: 2048
>>>>>Begin Spectral Data<<<<<
223.165	-1.06
223.4	-1.06
223.635	-1.06
223.869	-22.06
224.104	-25.06
224.338	-1.06
224.573	-18.06
224.808	-16.06
225.042	-5.06
225.277	-0.06
225.511	-8.06
225.746	3.94
225.98	2.94
226.215	8.94
226.449	17.94
226.683	12.94
226.918	27.94
227.152	21.94
227.387	31.94
227.621	40.94
227.856	40.94
228.09	48.94
228.324	61.94
228.559	59.94
228.793	60.94
229.027	65.94
229.262	53.94
229.496	61.94
229.73	77.94
229.964	87.94
230.199	81.94
230.433	86.94
230.667	88.94
230.901	74.94
231.136	75.94
231.37	73.94
231.604	77.94
231.838	82.94
232.072	98.94
232.306	90.94
232.541	84.94
232.775	73.94
233.009	77.94
233.243	81.94
233.477	87.94
233.711	82.94
233.945	77.94
234.179	93.94
234.413	90.94
234.647	76.94
234.881	100.94
235.115	81.94
235.349	85.94
235.583	72.94
235.817	81.94
236.051	79.94
236.285	82.94
236.519	79.94
236.753	85.94
236.987	83.94
237.221	89.94
237.455	90.94
237.689	72.94
237.922	83.94
238.156	89.94
238.39	82.94
238.624	83.94
238.858	89.94
239.091	67.94
239.325	72.94
239.559	83.94
239.793	79.94
240.027	84.94
240.26	81.94
240.494	75.94
240.728	74.94
240.961	92.94
241.195	77.94
241.429	73.94
241.662	73.94
241.896	74.94
242.13	90.94
242.363	76.94
242.597	81.94
242.83	69.94
243.064	80.94
243.298	65.94
243.531	80.94
243.765	93.94
243.998	72.94
244.232	74.94
244.465	90.94
244.699	81.94
244.932	100.94
245.166	80.94
245.399	75.94
245.633	71.94
245.866	81.94
246.099	84.94
246.333	76.94
246.566	74.94
246.8	56.94
247.033	68.94
247.266	83.94
247.5	81.94
247.733	83.94
247.966	71.94
248.2	63.94
248.433	76.94
248.666	80.94
248.899	76.94
249.133	82.94
249.366	93.94
249.599	76.94
249.832	80.94
250.066	89.94
250.299	72.94
250.532	76.94
250.765	78.94
250.998	80.94
251.231	83.94
251.465	100.94
251.698	85.94
251.931	68.94
252.164	75.94
252.397	79.94
252.63	74.94
252.863	97.94
253.096	96.94
253.329	84.94
253.562	88.94
253.795	74.94
254.028	74.94
254.261	68.94
254.494	76.94
254.727	70.94
254.96	95.94
255.193	84.94
255.426	80.94
255.659	76.94
255.892	83.94
256.124	82.94
256.357	80.94
256.59	74.94
256.823	77.94
257.056	91.94
257.289	84.94
257.521	84.94
257.754	79.94
257.987	80.94
258.22	77.94
258.452	91.94
258.685	74.94
258.918	91.94
259.151	96.94
259.383	78.94
259.616	68.94
259.849	84.94
260.081	75.94
260.314	94.94
260.547	77.94
260.779	93.94
261.012	76.94
261.244	72.94
261.477	87.94
261.71	89.94
261.942	89.94
262.175	103.94
262.407	93.94
262.64	88.94
262.872	80.94
263.105	95.94
263.337	77.94
263.57	77.94
263.802	69.94
264.035	72.94
264.267	88.94
264.499	77.94
264.732	77.94
264.964	96.94
265.197	98.94
265.429	83.94
265.661	90.94
265.894	88.94
266.126	80.94
266.358	84.94
266.591	88.94
266.823	80.94
267.055	78.94
267.287	83.94
267.52	77.94
267.752	98.94
267.984	76.94
268.216	66.94
268.448	88.94
268.681	85.94
268.913	95.94
269.145	74.94
269.377	87.94
269.609	74.94
269.841	78.94
270.073	85.94
270.306	78.94
270.538	88.94
270.77	77.94
271.002	77.94
271.234	95.94
271.466	79.94
271.698	88.94
271.93	79.94
272.162	81.94
272.394	80.94
272.626	94.94
272.858	75.94
273.09	76.94
273.322	90.94
273.553	82.94
273.785	81.94
274.017	76.94
274.249	74.94
274.481	91.94
274.713	80.94
274.945	81.94
275.176	90.94
275.408	81.94
275.64	83.94
275.872	87.94
276.104	96.94
276.335	81.94
276.567	92.94
276.799	83.94
277.031	96.94
277.262	84.94
277.494	80.94
277.726	84.94
277.957	88.94
278.189	77.94
278.421	102.94
278.652	83.94
278.884	85.94
279.115	73.94
279.347	84.94
279.579	102.94
279.81	100.94
280.042	87.94
280.273	83.94
280.505	90.94
280.736	75.94
280.968	78.94
281.199	89.94
281.431	75.94
281.662	88.94
281.894	81.94
282.125	90.94
282.356	97.94
282.588	84.94
282.819	97.94
283.051	89.94
283.282	87.94
283.513	96.94
283.745	81.94
283.976	76.94
284.207	71.94
284.439	83.94
284.67	81.94
284.901	93.94
285.132	84.94
285.364	84.94
285.595	97.94
285.826	83.94
286.057	77.94
286.288	96.94
286.52	71.94
286.751	74.94
286.982	79.94
287.213	77.94
287.444	79.94
287.675	93.94
287.906	91.94
288.138	82.94
288.369	88.94
288.6	84.94
288.831	86.94
289.062	71.94
289.293	79.94
289.524	83.94
289.755	80.94
289.986	96.94
290.217	84.94
290.448	81.94
290.679	89.94
290.91	88.94
291.141	101.94
291.371	76.94
291.602	99.94
291.833	80.94
292.064	77.94
292.295	82.94
292.526	79.94
292.757	87.94
292.987	74.94
293.218	81.94
293.449	83.94
293.68	83.94
293.91	86.94
294.141	87.94
294.372	85.94
294.603	83.94
294.833	89.94
295.064	83.94
295.295	76.94
295.525	78.94
295.756	101.94
295.987	95.94
296.217	97.94
296.448	86.94
296.679	89.94
296.909	88.94
297.14	91.94
297.37	98.94
297.601	82.94
297.831	84.94
298.062	91.94
298.292	72.94
298.523	87.94
298.753	64.94
298.984	92.94
299.214	100.94
299.445	99.94
299.675	90.94
299.905	87.94
300.136	83.94
300.366	76.94
300.597	90.94
300.827	81.94
301.057	79.94
301.288	80.94
301.518	79.94
301.748	75.94
301.979	76.94
302.209	93.94
302.439	85.94
302.669	90.94
302.9	84.94
303.13	78.94
303.36	85.94
303.59	77.94
303.82	93.94
304.051	87.94
304.281	85.94
304.511	85.94
304.741	83.94
304.971	90.94
305.201	85.94
305.431	74.94
305.661	96.94
305.891	83.94
306.121	92.94
306.352	87.94
306.582	83.94
306.812	81.94
307.042	74.94
307.272	67.94
307.502	75.94
307.731	87.94
307.961	91.94
308.191	81.94
308.421	83.94
308.651	79.94
308.881	88.94
309.111	84.94
309.341	93.94
309.571	86.94
309.8	89.94
310.03	85.94
310.26	91.94
310.49	90.94
310.72	96.94
310.949	92.94
311.179	93.94
311.409	84.94
311.639	77.94
311.868	94.94
312.098	89.94
312.328	101.94
312.557	82.94
312.787	84.94
313.017	92.94
313.246	85.94
313.476	83.94
313.706	81.94
313.935	80.94
314.165	80.94
314.394	93.94
314.624	86.94
314.853	92.94
315.083	90.94
315.312	79.94
315.542	75.94
315.771	93.94
316.001	79.94
316.23	88.94
316.46	102.94
316.689	87.94
316.919	81.94
317.148	86.94
317.377	102.94
317.607	107.94
317.836	98.94
318.065	88.94
318.295	87.94
318.524	91.94
318.753	92.94
318.983	79.94
319.212	78.94
319.441	68.94
319.67	72.94
319.9	87.94
320.129	82.94
320.358	88.94
320.587	86.94
320.816	87.94
321.046	97.94
321.275	82.94
321.504	84.94
321.733	81.94
321.962	80.94
322.191	90.94
322.42	93.94
322.649	83.94
322.878	87.94
323.108	101.94
323.337	91.94
323.566	93.94
323.795	98.94
324.024	84.94
324.253	95.94
324.482	74.94
324.71	90.94
324.939	81.94
325.168	75.94
325.397	80.94
325.626	86.94
325.855	85.94
326.084	93.94
326.313	86.94
326.542	96.94
326.77	83.94
326.999	83.94
327.228	72.94
327.457	69.94
327.686	94.94
327.914	80.94
328.143	73.94
328.372	78.94
328.6	90.94
328.829	96.94
329.058	81.94
329.287	80.94
329.515	77.94
329.744	91.94
329.972	79.94
330.201	88.94
330.43	74.94
330.658	81.94
330.887	75.94
331.115	85.94
331.344	85.94
331.572	87.94
331.801	88.94
332.03	89.94
332.258	92.94
332.486	90.94
332.715	95.94
332.943	78.94
333.172	89.94
333.4	87.94
333.629	92.94
333.857	86.94
334.085	85.94
334.314	68.94
334.542	83.94
334.771	89.94
334.999	78.94
335.227	87.94
335.455	106.94
335.684	93.94
335.912	86.94
336.14	78.94
336.369	91.94
336.597	85.94
336.825	76.94
337.053	89.94
337.281	89.94
337.51	100.94
337.738	97.94
337.966	91.94
338.194	85.94
338.422	82.94
338.65	92.94
338.878	99.94
339.106	89.94
339.334	81.94
339.562	104.94
339.79	91.94
340.018	84.94
340.246	86.94
340.474	87.94
340.702	99.94
340.93	86.94
341.158	96.94
341.386	93.94
341.614	88.94
341.842	85.94
342.07	81.94
342.298	86.94
342.526	83.94
342.754	77.94
342.981	82.94
343.209	84.94
343.437	97.94
343.665	89.94
343.893	69.94
344.12	104.94
344.348	87.94
344.576	75.94
344.804	82.94
345.031	91.94
345.259	77.94
345.487	71.94
345.714	81.94
345.942	72.94
346.17	89.94
346.397	85.94
346.625	98.94
346.853	88.94
347.08	97.94
347.308	87.94
347.535	92.94
347.763	87.94
347.99	81.94
348.218	84.94
348.445	92.94
348.673	63.94
348.9	86.94
349.128	94.94
349.355	83.94
349.583	80.94
349.81	93.94
350.037	82.94
350.265	82.94
350.492	83.94
350.72	72.94
350.947	83.94
351.174	77.94
351.402	77.94
351.629	97.94
351.856	90.94
352.083	87.94
352.311	76.94
352.538	80.94
352.765	91.94
352.992	76.94
353.22	98.94
353.447	73.94
353.674	97.94
353.901	84.94
354.128	79.94
354.355	87.94
354.583	75.94
354.81	91.94
355.037	85.94
355.264	94.94
355.491	90.94
355.718	95.94
355.945	89.94
356.172	85.94
356.399	91.94
356.626	77.94
356.853	83.94
357.08	77.94
357.307	89.94
357.534	86.94
357.761	79.94
357.988	80.94
358.215	84.94
358.441	96.94
358.668	83.94
358.895	89.94
359.122	89.94
359.349	75.94
359.576	83.94
359.802	77.94
360.029	85.94
360.256	74.94
360.483	85.94
360.709	86.94
360.936	91.94
361.163	73.94
361.39	100.94
361.616	89.94
361.843	76.94
362.07	88.94
362.296	80.94
362.523	88.94
362.749	71.94
362.976	96.94
363.203	101.94
363.429	88.94
363.656	81.94
363.882	78.94
364.109	82.94
364.335	86.94
364.562	91.94
364.788	83.94
365.015	86.94
365.241	81.94
365.468	103.94
365.694	78.94
365.92	81.94
366.147	100.94
366.373	83.94
366.599	80.94
366.826	91.94
367.052	67.94
367.278	84.94
367.505	105.94
367.731	95.94
367.957	87.94
368.184	76.94
368.41	93.94
368.636	69.94
368.862	89.94
369.089	85.94
369.315	68.94
369.541	94.94
369.767	91.94
369.993	83.94
370.219	80.94
370.445	89.94
370.672	104.94
370.898	85.94
371.124	69.94
371.35	95.94
371.576	79.94
371.802	86.94
372.028	83.94
372.254	83.94
372.48	78.94
372.706	87.94
372.932	79.94
373.158	94.94
373.384	88.94
373.61	83.94
373.835	93.94
374.061	93.94
374.287	82.94
374.513	89.94
374.739	96.94
374.965	92.94
375.191	77.94
375.416	80.94
375.642	84.94
375.868	88.94
376.094	95.94
376.319	89.94
376.545	76.94
376.771	92.94
376.997	87.94
377.222	84.94
377.448	94.94
377.674	91.94
377.899	85.94
378.125	85.94
378.35	91.94
378.576	85.94
378.802	89.94
379.027	96.94
379.253	85.94
379.478	84.94
379.704	93.94
379.929	92.94
380.155	71.94
380.38	95.94
380.606	86.94
380.831	84.94
381.057	90.94
381.282	100.94
381.507	100.94
381.733	96.94
381.958	83.94
382.184	87.94
382.409	84.94
382.634	104.94
382.86	87.94
383.085	83.94
383.31	100.94
383.535	109.94
383.761	100.94
383.986	91.94
384.211	80.94
384.436	87.94
384.662	85.94
384.887	99.94
385.112	98.94
385.337	92.94
385.562	92.94
385.787	108.94
386.013	98.94
386.238	92.94
386.463	106.94
386.688	94.94
386.913	86.94
387.138	96.94
387.363	82.94
387.588	111.94
387.813	97.94
388.038	102.94
388.263	91.94
388.488	82.94
388.713	86.94
388.938	97.94
389.163	104.94
389.387	115.94
389.612	98.94
389.837	99.94
390.062	100.94
390.287	92.94
390.512	96.94
390.736	99.94
390.961	87.94
391.186	97.94
391.411	92.94
391.636	103.94
391.86	98.94
392.085	91.94
392.31	86.94
392.534	105.94
392.759	95.94
392.984	99.94
393.208	108.94
393.433	107.94
393.658	106.94
393.882	98.94
394.107	109.94
394.331	89.94
394.556	93.94
394.78	101.94
395.005	104.94
395.229	75.94
395.454	106.94
395.678	106.94
395.903	100.94
396.127	104.94
396.352	98.94
396.576	98.94
396.801	100.94
397.025	96.94
397.249	109.94
397.474	101.94
397.698	114.94
397.922	102.94
398.147	102.94
398.371	92.94
398.595	95.94
398.82	104.94
399.044	107.94
399.268	90.94
399.492	113.94
399.717	109.94
399.941	115.94
400.165	118.94
400.389	100.94
400.613	107.94
400.837	115.94
401.062	114.94
401.286	120.94
401.51	110.94
401.734	111.94
401.958	90.94
402.182	97.94
402.406	108.94
402.63	105.94
402.854	104.94
403.078	104.94
403.302	101.94
403.526	110.94
403.75	111.94
403.974	101.94
404.198	106.94
404.422	105.94
404.645	104.94
404.869	106.94
405.093	114.94
405.317	123.94
405.541	117.94
405.765	120.94
405.988	105.94
406.212	110.94
406.436	107.94
406.66	107.94
406.883	112.94
407.107	129.94
407.331	122.94
407.555	111.94
407.778	115.94
408.002	113.94
408.226	104.94
408.449	111.94
408.673	108.94
408.896	121.94
409.12	99.94
409.344	111.94
409.567	98.94
409.791	99.94
410.014	87.94
410.238	107.94
410.461	103.94
410.685	106.94
410.908	122.94
411.132	115.94
411.355	106.94
411.578	118.94
411.802	102.94
412.025	108.94
412.249	113.94
412.472	125.94
412.695	119.94
412.919	124.94
413.142	119.94
413.365	123.94
413.589	120.94
413.812	109.94
414.035	122.94
414.258	116.94
414.482	95.94
414.705	106.94
414.928	114.94
415.151	115.94
415.374	103.94
415.597	94.94
415.821	98.94
416.044	103.94
416.267	97.94
416.49	99.94
416.713	115.94
416.936	105.94
417.159	105.94
417.382	117.94
417.605	125.94
417.828	118.94
418.051	127.94
418.274	127.94
418.497	115.94
418.72	120.94
418.943	125.94
419.166	136.94
419.389	114.94
419.611	111.94
419.834	106.94
420.057	120.94
420.28	108.94
420.503	109.94
420.726	125.94
420.948	97.94
421.171	113.94
421.394	100.94
421.617	106.94
421.839	122.94
422.062	104.94
422.285	112.94
422.507	101.94
422.73	121.94
422.953	109.94
423.175	117.94
423.398	106.94
423.621	119.94
423.843	127.94
424.066	127.94
424.288	103.94
424.511	115.94
424.733	112.94
424.956	127.94
425.178	128.94
425.401	121.94
425.623	115.94
425.846	121.94
426.068	111.94
426.291	108.94
426.513	123.94
426.735	109.94
426.958	104.94
427.18	119.94
427.402	106.94
427.625	107.94
427.847	113.94
428.069	122.94
428.292	107.94
428.514	120.94
428.736	107.94
428.958	125.94
429.181	104.94
429.403	115.94
429.625	107.94
429.847	117.94
430.069	119.94
430.292	108.94
430.514	125.94
430.736	129.94
430.958	103.94
431.18	123.94
431.402	117.94
431.624	105.94
431.846	110.94
432.068	113.94
432.29	108.94
432.512	117.94
432.734	111.94
432.956	106.94
433.178	118.94
433.4	124.94
433.622	114.94
433.844	112.94
434.066	108.94
434.287	102.94
434.509	113.94
434.731	120.94
434.953	115.94
435.175	124.94
435.397	105.94
435.618	98.94
435.84	120.94
436.062	122.94
436.284	107.94
436.505	113.94
436.727	103.94
436.949	108.94
437.17	122.94
437.392	109.94
437.614	95.94
437.835	96.94
438.057	99.94
438.278	118.94
438.5	109.94
438.721	122.94
438.943	100.94
439.165	97.94
439.386	119.94
439.608	104.94
439.829	127.94
440.05	125.94
440.272	113.94
440.493	116.94
440.715	105.94
440.936	121.94
441.158	126.94
441.379	131.94
441.6	131.94
441.822	135.94
442.043	119.94
442.264	132.94
442.486	115.94
442.707	117.94
442.928	127.94
443.149	111.94
443.371	119.94
443.592	105.94
443.813	115.94
444.034	113.94
444.255	128.94
444.476	111.94
444.698	133.94
444.919	130.94
445.14	255.94
445.361	164.94
445.582	117.94
445.803	135.94
446.024	129.94
446.245	128.94
446.466	124.94
446.687	125.94
446.908	120.94
447.129	113.94
447.35	120.94
447.571	127.94
447.792	114.94
448.013	107.94
448.234	125.94
448.455	127.94
448.675	112.94
448.896	121.94
449.117	113.94
449.338	104.94
449.559	119.94
449.779	121.94
450	112.94
450.221	126.94
450.442	120.94
450.662	107.94
450.883	118.94
451.104	131.94
451.324	117.94
451.545	114.94
451.766	104.94
451.986	113.94
452.207	105.94
452.428	120.94
452.648	113.94
452.869	99.94
453.089	99.94
453.31	99.94
453.53	121.94
453.751	112.94
453.971	113.94
454.192	116.94
454.412	104.94
454.633	113.94
454.853	103.94
455.073	115.94
455.294	107.94
455.514	121.94
455.734	98.94
455.955	110.94
456.175	105.94
456.395	101.94
456.616	97.94
456.836	105.94
457.056	116.94
457.276	111.94
457.497	109.94
457.717	123.94
457.937	127.94
458.157	108.94
458.377	87.94
458.598	101.94
458.818	111.94
459.038	96.94
459.258	119.94
459.478	100.94
459.698	113.94
459.918	121.94
460.138	119.94
460.358	138.94
460.578	113.94
460.798	120.94
461.018	118.94
461.238	117.94
461.458	125.94
461.678	118.94
461.898	114.94
462.118	116.94
462.338	113.94
462.558	112.94
462.777	108.94
462.997	130.94
463.217	121.94
463.437	138.94
463.657	122.94
463.876	134.94
464.096	116.94
464.316	120.94
464.536	125.94
464.755	105.94
464.975	102.94
465.195	115.94
465.414	103.94
465.634	115.94
465.854	114.94
466.073	116.94
466.293	115.94
466.512	114.94
466.732	123.94
466.951	115.94
467.171	129.94
467.391	127.94
467.61	115.94
467.829	125.94
468.049	111.94
468.268	136.94
468.488	120.94
468.707	109.94
468.927	118.94
469.146	117.94
469.365	118.94
469.585	123.94
469.804	111.94
470.023	125.94
470.243	125.94
470.462	116.94
470.681	121.94
470.901	112.94
471.12	119.94
471.339	123.94
471.558	124.94
471.777	122.94
471.997	123.94
472.216	128.94
472.435	108.94
472.654	102.94
472.873	93.94
473.092	111.94
473.311	131.94
473.53	105.94
473.749	123.94
473.968	127.94
474.187	114.94
474.406	119.94
474.625	102.94
474.844	101.94
475.063	115.94
475.282	107.94
475.501	109.94
475.72	111.94
475.939	123.94
476.158	111.94
476.377	112.94
476.596	114.94
476.814	109.94
477.033	117.94
477.252	104.94
477.471	131.94
477.69	116.94
477.908	137.94
478.127	123.94
478.346	134.94
478.564	127.94
478.783	119.94
479.002	119.94
479.22	126.94
479.439	127.94
479.658	125.94
479.876	125.94
480.095	117.94
480.313	135.94
480.532	115.94
480.751	121.94
480.969	113.94
481.188	104.94
481.406	111.94
481.624	119.94
481.843	114.94
482.061	115.94
482.28	129.94
482.498	124.94
482.717	109.94
482.935	117.94
483.153	124.94
483.372	128.94
483.59	121.94
483.808	119.94
484.027	118.94
484.245	131.94
484.463	113.94
484.681	132.94
484.9	137.94
485.118	122.94
485.336	134.94
485.554	117.94
485.772	113.94
485.99	105.94
486.209	111.94
486.427	108.94
486.645	107.94
486.863	137.94
487.081	135.94
487.299	112.94
487.517	122.94
487.735	145.94
487.953	137.94
488.171	141.94
488.389	149.94
488.607	123.94
488.825	115.94
489.043	119.94
489.261	112.94
489.479	131.94
489.696	132.94
489.914	125.94
490.132	129.94
490.35	144.94
490.568	121.94
490.786	145.94
491.003	153.94
491.221	139.94
491.439	149.94
491.657	159.94
491.874	148.94
492.092	163.94
492.31	171.94
492.527	162.94
492.745	163.94
492.963	165.94
493.18	155.94
493.398	147.94
493.615	153.94
493.833	149.94
494.05	148.94
494.268	139.94
494.485	142.94
494.703	140.94
494.92	149.94
495.138	154.94
495.355	137.94
495.573	156.94
495.79	144.94
496.008	134.94
496.225	158.94
496.442	154.94
496.66	149.94
496.877	136.94
497.094	155.94
497.312	157.94
497.529	148.94
497.746	144.94
497.963	135.94
498.181	145.94
498.398	133.94
498.615	142.94
498.832	141.94
499.049	155.94
499.267	152.94
499.484	165.94
499.701	171.94
499.918	184.94
500.135	201.94
500.352	224.94
500.569	218.94
500.786	230.94
501.003	203.94
501.22	199.94
501.437	186.94
501.654	164.94
501.871	157.94
502.088	152.94
502.305	156.94
502.522	166.94
502.739	150.94
502.956	137.94
503.172	135.94
503.389	124.94
503.606	123.94
503.823	133.94
504.04	142.94
504.256	121.94
504.473	142.94
504.69	141.94
504.907	152.94
505.123	116.94
505.34	123.94
505.557	119.94
505.773	122.94
505.99	133.94
506.207	122.94
506.423	123.94
506.64	120.94
506.856	125.94
507.073	118.94
507.289	127.94
507.506	123.94
507.722	136.94
507.939	120.94
508.155	130.94
508.372	123.94
508.588	124.94
508.805	117.94
509.021	120.94
509.238	117.94
509.454	113.94
509.67	117.94
509.887	113.94
510.103	109.94
510.319	105.94
510.536	122.94
510.752	105.94
510.968	111.94
511.184	104.94
511.401	99.94
511.617	119.94
