Data from StandardFe(NO3)3.TAE.3%Agarose.FlatLispGreen.Lamp.Energy10.07252019_HRD10591_11-55-12-441.txt Node
Date: Thu Jul 25 11:55:12 EDT 2019
User: cochatt
Spectrometer: HR+D1059
Trigger mode: 1
Integration Time (sec): 1.000000E-1
Scans to average: 1
Electric dark correction enabled: true
Nonlinearity correction enabled: false
Boxcar width: 0
XAxis mode: Wavelengths
Number of Pixels in Spectrum: 2048
>>>>>Begin Spectral Data<<<<<
223.165	-23.19
223.4	-23.19
223.635	-23.19
223.869	-18.19
224.104	-15.19
224.338	-20.19
224.573	-29.19
224.808	-17.19
225.042	0.81
225.277	-5.19
225.511	1.81
225.746	8.81
225.98	1.81
226.215	-2.19
226.449	23.81
226.683	20.81
226.918	39.81
227.152	32.81
227.387	25.81
227.621	22.81
227.856	40.81
228.09	52.81
228.324	32.81
228.559	42.81
228.793	58.81
229.027	73.81
229.262	67.81
229.496	67.81
229.73	75.81
229.964	73.81
230.199	76.81
230.433	57.81
230.667	68.81
230.901	73.81
231.136	80.81
231.37	74.81
231.604	85.81
231.838	71.81
232.072	83.81
232.306	83.81
232.541	84.81
232.775	82.81
233.009	94.81
233.243	77.81
233.477	80.81
233.711	74.81
233.945	77.81
234.179	71.81
234.413	82.81
234.647	78.81
234.881	65.81
235.115	74.81
235.349	85.81
235.583	67.81
235.817	67.81
236.051	86.81
236.285	66.81
236.519	71.81
236.753	74.81
236.987	70.81
237.221	70.81
237.455	72.81
237.689	73.81
237.922	76.81
238.156	66.81
238.39	80.81
238.624	65.81
238.858	68.81
239.091	65.81
239.325	79.81
239.559	78.81
239.793	74.81
240.027	74.81
240.26	73.81
240.494	71.81
240.728	66.81
240.961	65.81
241.195	68.81
241.429	80.81
241.662	65.81
241.896	68.81
242.13	66.81
242.363	73.81
242.597	71.81
242.83	60.81
243.064	74.81
243.298	82.81
243.531	71.81
243.765	74.81
243.998	74.81
244.232	78.81
244.465	78.81
244.699	74.81
244.932	55.81
245.166	96.81
245.399	86.81
245.633	82.81
245.866	64.81
246.099	66.81
246.333	80.81
246.566	74.81
246.8	74.81
247.033	73.81
247.266	77.81
247.5	94.81
247.733	81.81
247.966	68.81
248.2	75.81
248.433	82.81
248.666	90.81
248.899	89.81
249.133	82.81
249.366	86.81
249.599	84.81
249.832	82.81
250.066	71.81
250.299	90.81
250.532	73.81
250.765	83.81
250.998	80.81
251.231	71.81
251.465	71.81
251.698	64.81
251.931	78.81
252.164	82.81
252.397	72.81
252.63	73.81
252.863	72.81
253.096	79.81
253.329	78.81
253.562	70.81
253.795	82.81
254.028	84.81
254.261	85.81
254.494	85.81
254.727	74.81
254.96	78.81
255.193	82.81
255.426	83.81
255.659	81.81
255.892	83.81
256.124	77.81
256.357	79.81
256.59	96.81
256.823	77.81
257.056	81.81
257.289	66.81
257.521	75.81
257.754	73.81
257.987	71.81
258.22	74.81
258.452	81.81
258.685	84.81
258.918	83.81
259.151	86.81
259.383	69.81
259.616	86.81
259.849	86.81
260.081	71.81
260.314	82.81
260.547	80.81
260.779	80.81
261.012	67.81
261.244	79.81
261.477	88.81
261.71	85.81
261.942	73.81
262.175	74.81
262.407	77.81
262.64	85.81
262.872	90.81
263.105	75.81
263.337	77.81
263.57	66.81
263.802	80.81
264.035	78.81
264.267	62.81
264.499	80.81
264.732	80.81
264.964	85.81
265.197	81.81
265.429	68.81
265.661	78.81
265.894	80.81
266.126	73.81
266.358	85.81
266.591	76.81
266.823	77.81
267.055	77.81
267.287	65.81
267.52	74.81
267.752	78.81
267.984	80.81
268.216	70.81
268.448	76.81
268.681	86.81
268.913	74.81
269.145	87.81
269.377	75.81
269.609	80.81
269.841	81.81
270.073	82.81
270.306	82.81
270.538	76.81
270.77	81.81
271.002	78.81
271.234	71.81
271.466	78.81
271.698	68.81
271.93	84.81
272.162	80.81
272.394	77.81
272.626	95.81
272.858	63.81
273.09	69.81
273.322	84.81
273.553	66.81
273.785	97.81
274.017	76.81
274.249	70.81
274.481	75.81
274.713	70.81
274.945	75.81
275.176	77.81
275.408	87.81
275.64	83.81
275.872	68.81
276.104	79.81
276.335	68.81
276.567	84.81
276.799	80.81
277.031	82.81
277.262	83.81
277.494	86.81
277.726	93.81
277.957	84.81
278.189	78.81
278.421	81.81
278.652	71.81
278.884	83.81
279.115	86.81
279.347	87.81
279.579	78.81
279.81	85.81
280.042	83.81
280.273	69.81
280.505	73.81
280.736	77.81
280.968	86.81
281.199	73.81
281.431	77.81
281.662	85.81
281.894	85.81
282.125	73.81
282.356	85.81
282.588	83.81
282.819	84.81
283.051	75.81
283.282	84.81
283.513	88.81
283.745	83.81
283.976	74.81
284.207	73.81
284.439	83.81
284.67	89.81
284.901	92.81
285.132	88.81
285.364	93.81
285.595	74.81
285.826	75.81
286.057	88.81
286.288	74.81
286.52	79.81
286.751	80.81
286.982	71.81
287.213	68.81
287.444	71.81
287.675	91.81
287.906	81.81
288.138	81.81
288.369	81.81
288.6	86.81
288.831	78.81
289.062	96.81
289.293	72.81
289.524	85.81
289.755	84.81
289.986	76.81
290.217	85.81
290.448	79.81
290.679	71.81
290.91	73.81
291.141	84.81
291.371	89.81
291.602	77.81
291.833	89.81
292.064	71.81
292.295	75.81
292.526	82.81
292.757	87.81
292.987	86.81
293.218	81.81
293.449	89.81
293.68	81.81
293.91	77.81
294.141	88.81
294.372	70.81
294.603	76.81
294.833	73.81
295.064	95.81
295.295	78.81
295.525	88.81
295.756	80.81
295.987	81.81
296.217	91.81
296.448	73.81
296.679	83.81
296.909	80.81
297.14	79.81
297.37	90.81
297.601	82.81
297.831	86.81
298.062	76.81
298.292	91.81
298.523	84.81
298.753	86.81
298.984	74.81
299.214	84.81
299.445	89.81
299.675	77.81
299.905	81.81
300.136	78.81
300.366	78.81
300.597	93.81
300.827	89.81
301.057	80.81
301.288	88.81
301.518	78.81
301.748	86.81
301.979	80.81
302.209	75.81
302.439	82.81
302.669	66.81
302.9	85.81
303.13	73.81
303.36	84.81
303.59	82.81
303.82	83.81
304.051	82.81
304.281	88.81
304.511	76.81
304.741	84.81
304.971	83.81
305.201	74.81
305.431	83.81
305.661	80.81
305.891	69.81
306.121	80.81
306.352	78.81
306.582	71.81
306.812	77.81
307.042	75.81
307.272	78.81
307.502	80.81
307.731	86.81
307.961	77.81
308.191	90.81
308.421	70.81
308.651	73.81
308.881	80.81
309.111	82.81
309.341	82.81
309.571	77.81
309.8	74.81
310.03	75.81
310.26	89.81
310.49	86.81
310.72	89.81
310.949	76.81
311.179	83.81
311.409	73.81
311.639	82.81
311.868	68.81
312.098	85.81
312.328	96.81
312.557	101.81
312.787	75.81
313.017	73.81
313.246	90.81
313.476	88.81
313.706	89.81
313.935	90.81
314.165	90.81
314.394	73.81
314.624	84.81
314.853	71.81
315.083	79.81
315.312	81.81
315.542	96.81
315.771	82.81
316.001	86.81
316.23	85.81
316.46	80.81
316.689	70.81
316.919	82.81
317.148	88.81
317.377	79.81
317.607	83.81
317.836	89.81
318.065	88.81
318.295	98.81
318.524	76.81
318.753	65.81
318.983	83.81
319.212	79.81
319.441	92.81
319.67	72.81
319.9	84.81
320.129	84.81
320.358	87.81
320.587	85.81
320.816	81.81
321.046	70.81
321.275	86.81
321.504	95.81
321.733	84.81
321.962	92.81
322.191	89.81
322.42	77.81
322.649	72.81
322.878	81.81
323.108	86.81
323.337	83.81
323.566	84.81
323.795	92.81
324.024	84.81
324.253	82.81
324.482	88.81
324.71	83.81
324.939	92.81
325.168	71.81
325.397	87.81
325.626	90.81
325.855	78.81
326.084	74.81
326.313	92.81
326.542	84.81
326.77	75.81
326.999	74.81
327.228	83.81
327.457	76.81
327.686	84.81
327.914	70.81
328.143	88.81
328.372	89.81
328.6	92.81
328.829	86.81
329.058	88.81
329.287	88.81
329.515	70.81
329.744	89.81
329.972	87.81
330.201	76.81
330.43	73.81
330.658	92.81
330.887	78.81
331.115	91.81
331.344	71.81
331.572	79.81
331.801	90.81
332.03	97.81
332.258	82.81
332.486	84.81
332.715	72.81
332.943	79.81
333.172	78.81
333.4	85.81
333.629	102.81
333.857	97.81
334.085	77.81
334.314	87.81
334.542	79.81
334.771	85.81
334.999	80.81
335.227	70.81
335.455	75.81
335.684	86.81
335.912	90.81
336.14	73.81
336.369	82.81
336.597	87.81
336.825	87.81
337.053	72.81
337.281	81.81
337.51	74.81
337.738	72.81
337.966	82.81
338.194	83.81
338.422	83.81
338.65	83.81
338.878	80.81
339.106	67.81
339.334	85.81
339.562	80.81
339.79	72.81
340.018	86.81
340.246	88.81
340.474	71.81
340.702	75.81
340.93	81.81
341.158	80.81
341.386	87.81
341.614	89.81
341.842	83.81
342.07	77.81
342.298	80.81
342.526	66.81
342.754	79.81
342.981	77.81
343.209	88.81
343.437	80.81
343.665	72.81
343.893	81.81
344.12	83.81
344.348	83.81
344.576	86.81
344.804	61.81
345.031	81.81
345.259	66.81
345.487	76.81
345.714	85.81
345.942	77.81
346.17	75.81
346.397	86.81
346.625	66.81
346.853	68.81
347.08	76.81
347.308	80.81
347.535	91.81
347.763	80.81
347.99	78.81
348.218	78.81
348.445	80.81
348.673	79.81
348.9	78.81
349.128	82.81
349.355	82.81
349.583	83.81
349.81	81.81
350.037	90.81
350.265	75.81
350.492	84.81
350.72	79.81
350.947	98.81
351.174	92.81
351.402	82.81
351.629	92.81
351.856	89.81
352.083	98.81
352.311	66.81
352.538	96.81
352.765	86.81
352.992	89.81
353.22	84.81
353.447	96.81
353.674	86.81
353.901	87.81
354.128	91.81
354.355	90.81
354.583	87.81
354.81	86.81
355.037	82.81
355.264	84.81
355.491	86.81
355.718	94.81
355.945	86.81
356.172	89.81
356.399	93.81
356.626	91.81
356.853	75.81
357.08	85.81
357.307	78.81
357.534	72.81
357.761	85.81
357.988	66.81
358.215	81.81
358.441	84.81
358.668	94.81
358.895	74.81
359.122	80.81
359.349	86.81
359.576	86.81
359.802	81.81
360.029	80.81
360.256	73.81
360.483	72.81
360.709	94.81
360.936	74.81
361.163	100.81
361.39	84.81
361.616	91.81
361.843	81.81
362.07	86.81
362.296	99.81
362.523	88.81
362.749	67.81
362.976	81.81
363.203	86.81
363.429	84.81
363.656	79.81
363.882	86.81
364.109	87.81
364.335	93.81
364.562	84.81
364.788	66.81
365.015	91.81
365.241	76.81
365.468	92.81
365.694	82.81
365.92	70.81
366.147	79.81
366.373	90.81
366.599	92.81
366.826	80.81
367.052	86.81
367.278	89.81
367.505	90.81
367.731	81.81
367.957	80.81
368.184	93.81
368.41	87.81
368.636	71.81
368.862	89.81
369.089	78.81
369.315	92.81
369.541	93.81
369.767	84.81
369.993	88.81
370.219	91.81
370.445	78.81
370.672	86.81
370.898	94.81
371.124	85.81
371.35	84.81
371.576	74.81
371.802	80.81
372.028	91.81
372.254	85.81
372.48	81.81
372.706	89.81
372.932	89.81
373.158	95.81
373.384	84.81
373.61	82.81
373.835	77.81
374.061	68.81
374.287	89.81
374.513	89.81
374.739	92.81
374.965	80.81
375.191	86.81
375.416	63.81
375.642	95.81
375.868	77.81
376.094	80.81
376.319	81.81
376.545	89.81
376.771	89.81
376.997	80.81
377.222	79.81
377.448	91.81
377.674	92.81
377.899	83.81
378.125	91.81
378.35	96.81
378.576	96.81
378.802	72.81
379.027	97.81
379.253	86.81
379.478	87.81
379.704	81.81
379.929	88.81
380.155	84.81
380.38	83.81
380.606	85.81
380.831	80.81
381.057	105.81
381.282	84.81
381.507	87.81
381.733	96.81
381.958	93.81
382.184	83.81
382.409	97.81
382.634	94.81
382.86	94.81
383.085	94.81
383.31	86.81
383.535	89.81
383.761	81.81
383.986	74.81
384.211	90.81
384.436	94.81
384.662	81.81
384.887	88.81
385.112	108.81
385.337	87.81
385.562	79.81
385.787	101.81
386.013	97.81
386.238	96.81
386.463	86.81
386.688	91.81
386.913	87.81
387.138	87.81
387.363	96.81
387.588	93.81
387.813	80.81
388.038	84.81
388.263	75.81
388.488	92.81
388.713	83.81
388.938	88.81
389.163	96.81
389.387	78.81
389.612	98.81
389.837	86.81
390.062	88.81
390.287	94.81
390.512	81.81
390.736	92.81
390.961	92.81
391.186	97.81
391.411	78.81
391.636	84.81
391.86	99.81
392.085	95.81
392.31	108.81
392.534	96.81
392.759	87.81
392.984	96.81
393.208	85.81
393.433	102.81
393.658	97.81
393.882	92.81
394.107	91.81
394.331	89.81
394.556	95.81
394.78	94.81
395.005	94.81
395.229	97.81
395.454	99.81
395.678	102.81
395.903	90.81
396.127	104.81
396.352	84.81
396.576	103.81
396.801	104.81
397.025	92.81
397.249	86.81
397.474	95.81
397.698	96.81
397.922	96.81
398.147	91.81
398.371	101.81
398.595	104.81
398.82	101.81
399.044	102.81
399.268	100.81
399.492	110.81
399.717	116.81
399.941	111.81
400.165	117.81
400.389	98.81
400.613	111.81
400.837	89.81
401.062	89.81
401.286	93.81
401.51	105.81
401.734	93.81
401.958	105.81
402.182	116.81
402.406	104.81
402.63	111.81
402.854	96.81
403.078	88.81
403.302	114.81
403.526	104.81
403.75	103.81
403.974	101.81
404.198	112.81
404.422	97.81
404.645	103.81
404.869	117.81
405.093	110.81
405.317	101.81
405.541	109.81
405.765	98.81
405.988	106.81
406.212	102.81
406.436	116.81
406.66	92.81
406.883	101.81
407.107	110.81
407.331	97.81
407.555	98.81
407.778	103.81
408.002	109.81
408.226	114.81
408.449	112.81
408.673	92.81
408.896	103.81
409.12	120.81
409.344	112.81
409.567	112.81
409.791	121.81
410.014	120.81
410.238	111.81
410.461	123.81
410.685	110.81
410.908	87.81
411.132	97.81
411.355	101.81
411.578	105.81
411.802	114.81
412.025	103.81
412.249	108.81
412.472	110.81
412.695	94.81
412.919	91.81
413.142	113.81
413.365	102.81
413.589	112.81
413.812	105.81
414.035	100.81
414.258	101.81
414.482	115.81
414.705	105.81
414.928	100.81
415.151	95.81
415.374	89.81
415.597	100.81
415.821	109.81
416.044	95.81
416.267	92.81
416.49	101.81
416.713	106.81
416.936	96.81
417.159	110.81
417.382	96.81
417.605	86.81
417.828	113.81
418.051	118.81
418.274	116.81
418.497	103.81
418.72	109.81
418.943	116.81
419.166	121.81
419.389	111.81
419.611	121.81
419.834	105.81
420.057	96.81
420.28	105.81
420.503	102.81
420.726	114.81
420.948	110.81
421.171	104.81
421.394	106.81
421.617	102.81
421.839	120.81
422.062	99.81
422.285	101.81
422.507	120.81
422.73	105.81
422.953	105.81
423.175	124.81
423.398	97.81
423.621	103.81
423.843	119.81
424.066	93.81
424.288	110.81
424.511	118.81
424.733	113.81
424.956	98.81
425.178	118.81
425.401	122.81
425.623	116.81
425.846	120.81
426.068	115.81
426.291	123.81
426.513	112.81
426.735	121.81
426.958	101.81
427.18	114.81
427.402	111.81
427.625	100.81
427.847	101.81
428.069	103.81
428.292	110.81
428.514	108.81
428.736	117.81
428.958	112.81
429.181	111.81
429.403	101.81
429.625	115.81
429.847	99.81
430.069	100.81
430.292	122.81
430.514	108.81
430.736	93.81
430.958	111.81
431.18	120.81
431.402	112.81
431.624	95.81
431.846	105.81
432.068	101.81
432.29	100.81
432.512	97.81
432.734	108.81
432.956	112.81
433.178	122.81
433.4	114.81
433.622	108.81
433.844	113.81
434.066	120.81
434.287	100.81
434.509	100.81
434.731	106.81
434.953	101.81
435.175	116.81
435.397	115.81
435.618	96.81
435.84	102.81
436.062	115.81
436.284	112.81
436.505	114.81
436.727	98.81
436.949	114.81
437.17	109.81
437.392	108.81
437.614	108.81
437.835	120.81
438.057	114.81
438.278	106.81
438.5	122.81
438.721	109.81
438.943	120.81
439.165	98.81
439.386	115.81
439.608	124.81
439.829	102.81
440.05	115.81
440.272	127.81
440.493	121.81
440.715	125.81
440.936	115.81
441.158	131.81
441.379	118.81
441.6	133.81
441.822	121.81
442.043	122.81
442.264	116.81
442.486	109.81
442.707	116.81
442.928	96.81
443.149	98.81
443.371	113.81
443.592	111.81
443.813	116.81
444.034	120.81
444.255	121.81
444.476	119.81
444.698	113.81
444.919	137.81
445.14	243.81
445.361	162.81
445.582	130.81
445.803	120.81
446.024	114.81
446.245	122.81
446.466	105.81
446.687	105.81
446.908	114.81
447.129	110.81
447.35	130.81
447.571	124.81
447.792	110.81
448.013	116.81
448.234	113.81
448.455	112.81
448.675	97.81
448.896	110.81
449.117	112.81
449.338	110.81
449.559	106.81
449.779	105.81
450	89.81
450.221	102.81
450.442	101.81
450.662	95.81
450.883	104.81
451.104	110.81
451.324	108.81
451.545	119.81
451.766	109.81
451.986	124.81
452.207	103.81
452.428	103.81
452.648	114.81
452.869	96.81
453.089	94.81
453.31	111.81
453.53	89.81
453.751	96.81
453.971	120.81
454.192	88.81
454.412	96.81
454.633	113.81
454.853	112.81
455.073	97.81
455.294	93.81
455.514	109.81
455.734	101.81
455.955	106.81
456.175	106.81
456.395	104.81
456.616	99.81
456.836	97.81
457.056	102.81
457.276	103.81
457.497	107.81
457.717	89.81
457.937	105.81
458.157	99.81
458.377	108.81
458.598	105.81
458.818	80.81
459.038	104.81
459.258	103.81
459.478	99.81
459.698	111.81
459.918	112.81
460.138	109.81
460.358	92.81
460.578	112.81
460.798	121.81
461.018	108.81
461.238	112.81
461.458	103.81
461.678	110.81
461.898	113.81
462.118	115.81
462.338	125.81
462.558	135.81
462.777	117.81
462.997	123.81
463.217	112.81
463.437	103.81
463.657	108.81
463.876	120.81
464.096	121.81
464.316	108.81
464.536	116.81
464.755	105.81
464.975	113.81
465.195	104.81
465.414	112.81
465.634	120.81
465.854	108.81
466.073	120.81
466.293	108.81
466.512	102.81
466.732	99.81
466.951	123.81
467.171	134.81
467.391	123.81
467.61	115.81
467.829	101.81
468.049	114.81
468.268	112.81
468.488	106.81
468.707	112.81
468.927	107.81
469.146	111.81
469.365	113.81
469.585	117.81
469.804	119.81
470.023	128.81
470.243	126.81
470.462	120.81
470.681	131.81
470.901	117.81
471.12	118.81
471.339	120.81
471.558	117.81
471.777	118.81
471.997	112.81
472.216	102.81
472.435	108.81
472.654	114.81
472.873	117.81
473.092	120.81
473.311	114.81
473.53	100.81
473.749	103.81
473.968	120.81
474.187	103.81
474.406	104.81
474.625	107.81
474.844	104.81
475.063	116.81
475.282	114.81
475.501	119.81
475.72	111.81
475.939	106.81
476.158	110.81
476.377	124.81
476.596	123.81
476.814	108.81
477.033	105.81
477.252	102.81
477.471	112.81
477.69	118.81
477.908	124.81
478.127	122.81
478.346	122.81
478.564	117.81
478.783	108.81
479.002	131.81
479.22	125.81
479.439	118.81
479.658	122.81
479.876	112.81
480.095	111.81
480.313	113.81
480.532	121.81
480.751	125.81
480.969	110.81
481.188	112.81
481.406	110.81
481.624	116.81
481.843	103.81
482.061	114.81
482.28	106.81
482.498	120.81
482.717	117.81
482.935	117.81
483.153	117.81
483.372	121.81
483.59	120.81
483.808	120.81
484.027	126.81
484.245	118.81
484.463	124.81
484.681	135.81
484.9	117.81
485.118	127.81
485.336	114.81
485.554	112.81
485.772	111.81
485.99	112.81
486.209	125.81
486.427	113.81
486.645	109.81
486.863	128.81
487.081	129.81
487.299	132.81
487.517	124.81
487.735	129.81
487.953	137.81
488.171	148.81
488.389	122.81
488.607	139.81
488.825	116.81
489.043	114.81
489.261	102.81
489.479	142.81
489.696	131.81
489.914	130.81
490.132	122.81
490.35	145.81
490.568	133.81
490.786	127.81
491.003	137.81
491.221	147.81
491.439	144.81
491.657	152.81
491.874	132.81
492.092	164.81
492.31	169.81
492.527	161.81
492.745	153.81
492.963	157.81
493.18	150.81
493.398	119.81
493.615	139.81
493.833	132.81
494.05	134.81
494.268	141.81
494.485	133.81
494.703	129.81
494.92	133.81
495.138	132.81
495.355	138.81
495.573	134.81
495.79	121.81
496.008	144.81
496.225	136.81
496.442	152.81
496.66	143.81
496.877	150.81
497.094	144.81
497.312	135.81
497.529	131.81
497.746	138.81
497.963	132.81
498.181	141.81
498.398	141.81
498.615	137.81
498.832	140.81
499.049	142.81
499.267	143.81
499.484	161.81
499.701	153.81
499.918	180.81
500.135	188.81
500.352	223.81
500.569	225.81
500.786	222.81
501.003	198.81
501.22	189.81
501.437	170.81
501.654	158.81
501.871	149.81
502.088	152.81
502.305	153.81
502.522	145.81
502.739	145.81
502.956	126.81
503.172	142.81
503.389	128.81
503.606	129.81
503.823	123.81
504.04	128.81
504.256	126.81
504.473	138.81
504.69	135.81
504.907	125.81
505.123	133.81
505.34	128.81
505.557	126.81
505.773	135.81
505.99	120.81
506.207	97.81
506.423	120.81
506.64	118.81
506.856	125.81
507.073	120.81
507.289	122.81
507.506	120.81
507.722	115.81
507.939	125.81
508.155	118.81
508.372	121.81
508.588	135.81
508.805	112.81
509.021	113.81
509.238	110.81
509.454	115.81
509.67	106.81
509.887	97.81
510.103	110.81
510.319	105.81
510.536	101.81
510.752	102.81
510.968	101.81
511.184	94.81
511.401	114.81
511.617	101.81
511.833	105.81
512.049	113.81
512.265	104.81
512.481	88.81
