Data from StandardFe(NO3)3.TAE.3%Agarose.FlatLispGreen.Lamp.Energy10.07252019_HRD10591_11-53-42-439.txt Node
Date: Thu Jul 25 11:53:42 EDT 2019
User: cochatt
Spectrometer: HR+D1059
Trigger mode: 1
Integration Time (sec): 1.000000E-1
Scans to average: 1
Electric dark correction enabled: true
Nonlinearity correction enabled: false
Boxcar width: 0
XAxis mode: Wavelengths
Number of Pixels in Spectrum: 2048
>>>>>Begin Spectral Data<<<<<
223.165	-17.19
223.4	-17.19
223.635	-17.19
223.869	-21.19
224.104	-20.19
224.338	-9.19
224.573	-25.19
224.808	-8.19
225.042	-3.19
225.277	-4.19
225.511	-6.19
225.746	-5.19
225.98	15.81
226.215	5.81
226.449	9.81
226.683	28.81
226.918	25.81
227.152	33.81
227.387	47.81
227.621	50.81
227.856	40.81
228.09	35.81
228.324	41.81
228.559	43.81
228.793	44.81
229.027	51.81
229.262	63.81
229.496	58.81
229.73	69.81
229.964	56.81
230.199	73.81
230.433	89.81
230.667	87.81
230.901	65.81
231.136	74.81
231.37	80.81
231.604	82.81
231.838	78.81
232.072	85.81
232.306	84.81
232.541	79.81
232.775	67.81
233.009	80.81
233.243	87.81
233.477	70.81
233.711	72.81
233.945	86.81
234.179	87.81
234.413	70.81
234.647	70.81
234.881	82.81
235.115	70.81
235.349	90.81
235.583	70.81
235.817	60.81
236.051	83.81
236.285	83.81
236.519	79.81
236.753	70.81
236.987	79.81
237.221	80.81
237.455	88.81
237.689	73.81
237.922	71.81
238.156	79.81
238.39	76.81
238.624	66.81
238.858	84.81
239.091	74.81
239.325	70.81
239.559	71.81
239.793	76.81
240.027	75.81
240.26	80.81
240.494	76.81
240.728	83.81
240.961	66.81
241.195	72.81
241.429	72.81
241.662	73.81
241.896	77.81
242.13	72.81
242.363	88.81
242.597	72.81
242.83	66.81
243.064	64.81
243.298	77.81
243.531	66.81
243.765	74.81
243.998	80.81
244.232	68.81
244.465	96.81
244.699	81.81
244.932	59.81
245.166	86.81
245.399	76.81
245.633	82.81
245.866	76.81
246.099	67.81
246.333	68.81
246.566	76.81
246.8	81.81
247.033	74.81
247.266	71.81
247.5	76.81
247.733	77.81
247.966	83.81
248.2	85.81
248.433	67.81
248.666	88.81
248.899	79.81
249.133	69.81
249.366	85.81
249.599	74.81
249.832	66.81
250.066	82.81
250.299	76.81
250.532	79.81
250.765	71.81
250.998	72.81
251.231	70.81
251.465	74.81
251.698	79.81
251.931	73.81
252.164	72.81
252.397	74.81
252.63	82.81
252.863	87.81
253.096	75.81
253.329	70.81
253.562	72.81
253.795	95.81
254.028	83.81
254.261	77.81
254.494	81.81
254.727	84.81
254.96	90.81
255.193	80.81
255.426	57.81
255.659	74.81
255.892	88.81
256.124	80.81
256.357	68.81
256.59	84.81
256.823	76.81
257.056	87.81
257.289	81.81
257.521	72.81
257.754	82.81
257.987	79.81
258.22	86.81
258.452	79.81
258.685	86.81
258.918	80.81
259.151	73.81
259.383	75.81
259.616	74.81
259.849	63.81
260.081	86.81
260.314	90.81
260.547	92.81
260.779	86.81
261.012	84.81
261.244	72.81
261.477	100.81
261.71	78.81
261.942	80.81
262.175	66.81
262.407	65.81
262.64	78.81
262.872	67.81
263.105	82.81
263.337	68.81
263.57	85.81
263.802	85.81
264.035	99.81
264.267	90.81
264.499	76.81
264.732	81.81
264.964	78.81
265.197	69.81
265.429	84.81
265.661	67.81
265.894	75.81
266.126	80.81
266.358	83.81
266.591	82.81
266.823	76.81
267.055	82.81
267.287	76.81
267.52	87.81
267.752	78.81
267.984	89.81
268.216	75.81
268.448	84.81
268.681	85.81
268.913	95.81
269.145	81.81
269.377	87.81
269.609	94.81
269.841	71.81
270.073	75.81
270.306	78.81
270.538	73.81
270.77	79.81
271.002	77.81
271.234	82.81
271.466	87.81
271.698	68.81
271.93	75.81
272.162	83.81
272.394	85.81
272.626	86.81
272.858	100.81
273.09	93.81
273.322	75.81
273.553	84.81
273.785	68.81
274.017	75.81
274.249	77.81
274.481	77.81
274.713	81.81
274.945	80.81
275.176	73.81
275.408	84.81
275.64	84.81
275.872	89.81
276.104	83.81
276.335	80.81
276.567	76.81
276.799	75.81
277.031	84.81
277.262	79.81
277.494	86.81
277.726	77.81
277.957	82.81
278.189	90.81
278.421	83.81
278.652	86.81
278.884	85.81
279.115	74.81
279.347	81.81
279.579	75.81
279.81	90.81
280.042	86.81
280.273	86.81
280.505	77.81
280.736	81.81
280.968	96.81
281.199	89.81
281.431	70.81
281.662	91.81
281.894	78.81
282.125	79.81
282.356	85.81
282.588	86.81
282.819	79.81
283.051	72.81
283.282	95.81
283.513	83.81
283.745	91.81
283.976	94.81
284.207	74.81
284.439	85.81
284.67	74.81
284.901	76.81
285.132	73.81
285.364	77.81
285.595	90.81
285.826	87.81
286.057	74.81
286.288	84.81
286.52	77.81
286.751	88.81
286.982	78.81
287.213	79.81
287.444	80.81
287.675	94.81
287.906	89.81
288.138	86.81
288.369	72.81
288.6	87.81
288.831	82.81
289.062	89.81
289.293	75.81
289.524	88.81
289.755	82.81
289.986	79.81
290.217	87.81
290.448	86.81
290.679	84.81
290.91	81.81
291.141	82.81
291.371	71.81
291.602	80.81
291.833	94.81
292.064	86.81
292.295	82.81
292.526	91.81
292.757	90.81
292.987	82.81
293.218	100.81
293.449	75.81
293.68	90.81
293.91	80.81
294.141	90.81
294.372	100.81
294.603	79.81
294.833	83.81
295.064	93.81
295.295	77.81
295.525	94.81
295.756	83.81
295.987	82.81
296.217	87.81
296.448	88.81
296.679	84.81
296.909	86.81
297.14	91.81
297.37	75.81
297.601	61.81
297.831	90.81
298.062	98.81
298.292	86.81
298.523	82.81
298.753	92.81
298.984	85.81
299.214	75.81
299.445	89.81
299.675	83.81
299.905	74.81
300.136	80.81
300.366	75.81
300.597	84.81
300.827	81.81
301.057	83.81
301.288	84.81
301.518	80.81
301.748	91.81
301.979	97.81
302.209	78.81
302.439	97.81
302.669	79.81
302.9	78.81
303.13	88.81
303.36	87.81
303.59	81.81
303.82	104.81
304.051	90.81
304.281	86.81
304.511	70.81
304.741	83.81
304.971	75.81
305.201	81.81
305.431	94.81
305.661	88.81
305.891	75.81
306.121	90.81
306.352	85.81
306.582	73.81
306.812	80.81
307.042	84.81
307.272	85.81
307.502	86.81
307.731	76.81
307.961	85.81
308.191	75.81
308.421	63.81
308.651	73.81
308.881	93.81
309.111	92.81
309.341	84.81
309.571	89.81
309.8	81.81
310.03	79.81
310.26	79.81
310.49	83.81
310.72	83.81
310.949	69.81
311.179	84.81
311.409	84.81
311.639	76.81
311.868	83.81
312.098	86.81
312.328	73.81
312.557	80.81
312.787	70.81
313.017	73.81
313.246	88.81
313.476	95.81
313.706	86.81
313.935	86.81
314.165	77.81
314.394	97.81
314.624	83.81
314.853	84.81
315.083	78.81
315.312	90.81
315.542	70.81
315.771	74.81
316.001	85.81
316.23	95.81
316.46	90.81
316.689	69.81
316.919	81.81
317.148	85.81
317.377	81.81
317.607	80.81
317.836	86.81
318.065	89.81
318.295	88.81
318.524	81.81
318.753	72.81
318.983	70.81
319.212	84.81
319.441	75.81
319.67	88.81
319.9	84.81
320.129	79.81
320.358	87.81
320.587	81.81
320.816	76.81
321.046	76.81
321.275	87.81
321.504	84.81
321.733	81.81
321.962	82.81
322.191	88.81
322.42	92.81
322.649	87.81
322.878	80.81
323.108	72.81
323.337	76.81
323.566	84.81
323.795	90.81
324.024	71.81
324.253	84.81
324.482	79.81
324.71	90.81
324.939	84.81
325.168	81.81
325.397	87.81
325.626	83.81
325.855	84.81
326.084	86.81
326.313	85.81
326.542	76.81
326.77	87.81
326.999	91.81
327.228	86.81
327.457	76.81
327.686	90.81
327.914	84.81
328.143	90.81
328.372	83.81
328.6	96.81
328.829	63.81
329.058	73.81
329.287	67.81
329.515	107.81
329.744	98.81
329.972	78.81
330.201	78.81
330.43	91.81
330.658	91.81
330.887	82.81
331.115	86.81
331.344	88.81
331.572	74.81
331.801	85.81
332.03	80.81
332.258	94.81
332.486	89.81
332.715	77.81
332.943	74.81
333.172	83.81
333.4	80.81
333.629	80.81
333.857	83.81
334.085	94.81
334.314	88.81
334.542	76.81
334.771	84.81
334.999	83.81
335.227	82.81
335.455	80.81
335.684	95.81
335.912	86.81
336.14	82.81
336.369	82.81
336.597	78.81
336.825	75.81
337.053	82.81
337.281	80.81
337.51	86.81
337.738	83.81
337.966	73.81
338.194	80.81
338.422	82.81
338.65	87.81
338.878	75.81
339.106	81.81
339.334	85.81
339.562	90.81
339.79	80.81
340.018	90.81
340.246	87.81
340.474	82.81
340.702	94.81
340.93	83.81
341.158	80.81
341.386	85.81
341.614	84.81
341.842	88.81
342.07	88.81
342.298	86.81
342.526	88.81
342.754	78.81
342.981	90.81
343.209	87.81
343.437	82.81
343.665	90.81
343.893	74.81
344.12	81.81
344.348	90.81
344.576	80.81
344.804	66.81
345.031	94.81
345.259	91.81
345.487	79.81
345.714	88.81
345.942	90.81
346.17	80.81
346.397	82.81
346.625	90.81
346.853	87.81
347.08	73.81
347.308	82.81
347.535	76.81
347.763	88.81
347.99	80.81
348.218	82.81
348.445	96.81
348.673	88.81
348.9	91.81
349.128	90.81
349.355	72.81
349.583	74.81
349.81	94.81
350.037	79.81
350.265	79.81
350.492	81.81
350.72	74.81
350.947	80.81
351.174	83.81
351.402	85.81
351.629	84.81
351.856	76.81
352.083	86.81
352.311	69.81
352.538	86.81
352.765	89.81
352.992	85.81
353.22	91.81
353.447	91.81
353.674	79.81
353.901	81.81
354.128	83.81
354.355	76.81
354.583	99.81
354.81	93.81
355.037	98.81
355.264	78.81
355.491	76.81
355.718	85.81
355.945	96.81
356.172	83.81
356.399	84.81
356.626	101.81
356.853	85.81
357.08	88.81
357.307	71.81
357.534	81.81
357.761	87.81
357.988	94.81
358.215	95.81
358.441	88.81
358.668	94.81
358.895	94.81
359.122	79.81
359.349	89.81
359.576	87.81
359.802	87.81
360.029	96.81
360.256	81.81
360.483	97.81
360.709	87.81
360.936	89.81
361.163	82.81
361.39	84.81
361.616	83.81
361.843	93.81
362.07	82.81
362.296	91.81
362.523	76.81
362.749	85.81
362.976	86.81
363.203	79.81
363.429	83.81
363.656	83.81
363.882	74.81
364.109	91.81
364.335	94.81
364.562	87.81
364.788	86.81
365.015	90.81
365.241	69.81
365.468	81.81
365.694	73.81
365.92	97.81
366.147	75.81
366.373	82.81
366.599	77.81
366.826	83.81
367.052	92.81
367.278	88.81
367.505	87.81
367.731	89.81
367.957	89.81
368.184	76.81
368.41	80.81
368.636	94.81
368.862	80.81
369.089	85.81
369.315	75.81
369.541	91.81
369.767	87.81
369.993	95.81
370.219	90.81
370.445	88.81
370.672	81.81
370.898	98.81
371.124	79.81
371.35	76.81
371.576	74.81
371.802	76.81
372.028	94.81
372.254	86.81
372.48	87.81
372.706	92.81
372.932	71.81
373.158	85.81
373.384	82.81
373.61	88.81
373.835	87.81
374.061	91.81
374.287	93.81
374.513	84.81
374.739	95.81
374.965	84.81
375.191	79.81
375.416	92.81
375.642	93.81
375.868	107.81
376.094	98.81
376.319	93.81
376.545	84.81
376.771	86.81
376.997	87.81
377.222	87.81
377.448	87.81
377.674	82.81
377.899	72.81
378.125	87.81
378.35	91.81
378.576	91.81
378.802	82.81
379.027	91.81
379.253	79.81
379.478	96.81
379.704	105.81
379.929	79.81
380.155	95.81
380.38	78.81
380.606	80.81
380.831	91.81
381.057	104.81
381.282	88.81
381.507	93.81
381.733	77.81
381.958	82.81
382.184	89.81
382.409	86.81
382.634	76.81
382.86	82.81
383.085	92.81
383.31	93.81
383.535	95.81
383.761	83.81
383.986	76.81
384.211	79.81
384.436	90.81
384.662	91.81
384.887	100.81
385.112	92.81
385.337	102.81
385.562	106.81
385.787	93.81
386.013	119.81
386.238	105.81
386.463	87.81
386.688	103.81
386.913	77.81
387.138	91.81
387.363	92.81
387.588	94.81
387.813	92.81
388.038	97.81
388.263	96.81
388.488	101.81
388.713	97.81
388.938	99.81
389.163	98.81
389.387	103.81
389.612	100.81
389.837	93.81
390.062	75.81
390.287	93.81
390.512	89.81
390.736	88.81
390.961	105.81
391.186	95.81
391.411	103.81
391.636	111.81
391.86	96.81
392.085	93.81
392.31	108.81
392.534	82.81
392.759	92.81
392.984	96.81
393.208	84.81
393.433	93.81
393.658	99.81
393.882	108.81
394.107	95.81
394.331	92.81
394.556	85.81
394.78	99.81
395.005	76.81
395.229	100.81
395.454	100.81
395.678	113.81
395.903	104.81
396.127	117.81
396.352	93.81
396.576	92.81
396.801	99.81
397.025	102.81
397.249	105.81
397.474	102.81
397.698	101.81
397.922	99.81
398.147	94.81
398.371	98.81
398.595	100.81
398.82	107.81
399.044	102.81
399.268	88.81
399.492	90.81
399.717	117.81
399.941	114.81
400.165	116.81
400.389	107.81
400.613	105.81
400.837	99.81
401.062	117.81
401.286	89.81
401.51	107.81
401.734	96.81
401.958	106.81
402.182	110.81
402.406	103.81
402.63	107.81
402.854	116.81
403.078	99.81
403.302	110.81
403.526	124.81
403.75	110.81
403.974	99.81
404.198	103.81
404.422	107.81
404.645	106.81
404.869	113.81
405.093	112.81
405.317	104.81
405.541	105.81
405.765	114.81
405.988	114.81
406.212	113.81
406.436	115.81
406.66	111.81
406.883	114.81
407.107	121.81
407.331	111.81
407.555	113.81
407.778	122.81
408.002	111.81
408.226	121.81
408.449	108.81
408.673	107.81
408.896	100.81
409.12	114.81
409.344	107.81
409.567	111.81
409.791	118.81
410.014	121.81
410.238	108.81
410.461	118.81
410.685	115.81
410.908	112.81
411.132	113.81
411.355	99.81
411.578	110.81
411.802	115.81
412.025	107.81
412.249	122.81
412.472	116.81
412.695	95.81
412.919	102.81
413.142	122.81
413.365	110.81
413.589	111.81
413.812	111.81
414.035	111.81
414.258	105.81
414.482	104.81
414.705	104.81
414.928	110.81
415.151	99.81
415.374	132.81
415.597	104.81
415.821	116.81
416.044	110.81
416.267	119.81
416.49	116.81
416.713	115.81
416.936	95.81
417.159	95.81
417.382	111.81
417.605	110.81
417.828	122.81
418.051	119.81
418.274	113.81
418.497	109.81
418.72	123.81
418.943	121.81
419.166	120.81
419.389	126.81
419.611	114.81
419.834	116.81
420.057	113.81
420.28	126.81
420.503	129.81
420.726	126.81
420.948	110.81
421.171	104.81
421.394	116.81
421.617	110.81
421.839	119.81
422.062	120.81
422.285	121.81
422.507	114.81
422.73	112.81
422.953	109.81
423.175	114.81
423.398	117.81
423.621	110.81
423.843	113.81
424.066	120.81
424.288	123.81
424.511	130.81
424.733	140.81
424.956	122.81
425.178	126.81
425.401	117.81
425.623	110.81
425.846	107.81
426.068	113.81
426.291	135.81
426.513	116.81
426.735	122.81
426.958	113.81
427.18	111.81
427.402	120.81
427.625	107.81
427.847	108.81
428.069	111.81
428.292	121.81
428.514	111.81
428.736	117.81
428.958	113.81
429.181	100.81
429.403	111.81
429.625	116.81
429.847	104.81
430.069	108.81
430.292	122.81
430.514	102.81
430.736	104.81
430.958	103.81
431.18	101.81
431.402	102.81
431.624	92.81
431.846	89.81
432.068	96.81
432.29	105.81
432.512	92.81
432.734	102.81
432.956	118.81
433.178	120.81
433.4	122.81
433.622	114.81
433.844	112.81
434.066	118.81
434.287	112.81
434.509	97.81
434.731	105.81
434.953	110.81
435.175	114.81
435.397	113.81
435.618	122.81
435.84	94.81
436.062	108.81
436.284	115.81
436.505	96.81
436.727	100.81
436.949	101.81
437.17	112.81
437.392	138.81
437.614	128.81
437.835	110.81
438.057	100.81
438.278	84.81
438.5	97.81
438.721	116.81
438.943	118.81
439.165	106.81
439.386	118.81
439.608	128.81
439.829	126.81
440.05	111.81
440.272	118.81
440.493	120.81
440.715	116.81
440.936	107.81
441.158	117.81
441.379	127.81
441.6	130.81
441.822	127.81
442.043	126.81
442.264	125.81
442.486	119.81
442.707	119.81
442.928	121.81
443.149	121.81
443.371	119.81
443.592	118.81
443.813	120.81
444.034	108.81
444.255	131.81
444.476	138.81
444.698	118.81
444.919	133.81
445.14	226.81
445.361	176.81
445.582	130.81
445.803	114.81
446.024	116.81
446.245	134.81
446.466	112.81
446.687	120.81
446.908	127.81
447.129	123.81
447.35	131.81
447.571	138.81
447.792	112.81
448.013	108.81
448.234	101.81
448.455	122.81
448.675	116.81
448.896	109.81
449.117	119.81
449.338	106.81
449.559	126.81
449.779	112.81
450	108.81
450.221	117.81
450.442	114.81
450.662	124.81
450.883	106.81
451.104	98.81
451.324	119.81
451.545	114.81
451.766	100.81
451.986	108.81
452.207	129.81
452.428	111.81
452.648	117.81
452.869	106.81
453.089	125.81
453.31	96.81
453.53	102.81
453.751	90.81
453.971	114.81
454.192	116.81
454.412	113.81
454.633	103.81
454.853	105.81
455.073	104.81
455.294	112.81
455.514	110.81
455.734	96.81
455.955	99.81
456.175	99.81
456.395	115.81
456.616	108.81
456.836	100.81
457.056	105.81
457.276	110.81
457.497	104.81
457.717	120.81
457.937	100.81
458.157	94.81
458.377	105.81
458.598	94.81
458.818	106.81
459.038	110.81
459.258	97.81
459.478	110.81
459.698	99.81
459.918	113.81
460.138	107.81
460.358	122.81
460.578	124.81
460.798	113.81
461.018	128.81
461.238	118.81
461.458	120.81
461.678	100.81
461.898	120.81
462.118	120.81
462.338	120.81
462.558	116.81
462.777	127.81
462.997	124.81
463.217	119.81
463.437	126.81
463.657	121.81
463.876	103.81
464.096	122.81
464.316	112.81
464.536	124.81
464.755	122.81
464.975	116.81
465.195	121.81
465.414	117.81
465.634	123.81
465.854	103.81
466.073	113.81
466.293	114.81
466.512	114.81
466.732	107.81
466.951	116.81
467.171	118.81
467.391	119.81
467.61	118.81
467.829	113.81
468.049	113.81
468.268	117.81
468.488	115.81
468.707	116.81
468.927	120.81
469.146	123.81
469.365	112.81
469.585	123.81
469.804	113.81
470.023	129.81
470.243	124.81
470.462	127.81
470.681	119.81
470.901	121.81
471.12	118.81
471.339	118.81
471.558	128.81
471.777	115.81
471.997	124.81
472.216	128.81
472.435	106.81
472.654	110.81
472.873	106.81
473.092	104.81
473.311	114.81
473.53	118.81
473.749	106.81
473.968	137.81
474.187	113.81
474.406	117.81
474.625	114.81
474.844	121.81
475.063	120.81
475.282	121.81
475.501	111.81
475.72	94.81
475.939	134.81
476.158	133.81
476.377	121.81
476.596	108.81
476.814	120.81
477.033	112.81
477.252	127.81
477.471	121.81
477.69	126.81
477.908	130.81
478.127	116.81
478.346	129.81
478.564	105.81
478.783	126.81
479.002	142.81
479.22	126.81
479.439	133.81
479.658	125.81
479.876	122.81
480.095	130.81
480.313	127.81
480.532	143.81
480.751	143.81
480.969	106.81
481.188	124.81
481.406	120.81
481.624	124.81
481.843	112.81
482.061	123.81
482.28	122.81
482.498	116.81
482.717	102.81
482.935	122.81
483.153	125.81
483.372	135.81
483.59	132.81
483.808	118.81
484.027	148.81
484.245	118.81
484.463	138.81
484.681	123.81
484.9	123.81
485.118	132.81
485.336	139.81
485.554	110.81
485.772	124.81
485.99	110.81
486.209	114.81
486.427	112.81
486.645	122.81
486.863	133.81
487.081	120.81
487.299	115.81
487.517	137.81
487.735	130.81
487.953	139.81
488.171	152.81
488.389	145.81
488.607	140.81
488.825	120.81
489.043	104.81
489.261	132.81
489.479	133.81
489.696	131.81
489.914	127.81
490.132	141.81
490.35	139.81
490.568	151.81
490.786	140.81
491.003	145.81
491.221	150.81
491.439	143.81
491.657	146.81
491.874	160.81
492.092	156.81
492.31	168.81
492.527	161.81
492.745	176.81
492.963	161.81
493.18	151.81
493.398	170.81
493.615	159.81
493.833	146.81
494.05	143.81
494.268	139.81
494.485	124.81
494.703	140.81
494.92	150.81
495.138	147.81
495.355	154.81
495.573	163.81
495.79	155.81
496.008	161.81
496.225	126.81
496.442	147.81
496.66	138.81
496.877	145.81
497.094	138.81
497.312	154.81
497.529	156.81
497.746	143.81
497.963	142.81
498.181	143.81
498.398	139.81
498.615	148.81
498.832	146.81
499.049	147.81
499.267	176.81
499.484	170.81
499.701	174.81
499.918	191.81
500.135	196.81
500.352	223.81
500.569	231.81
500.786	248.81
501.003	203.81
501.22	187.81
501.437	196.81
501.654	182.81
501.871	164.81
502.088	172.81
502.305	148.81
502.522	149.81
502.739	140.81
502.956	133.81
503.172	135.81
503.389	129.81
503.606	128.81
503.823	144.81
504.04	135.81
504.256	141.81
504.473	124.81
504.69	128.81
504.907	132.81
505.123	147.81
505.34	126.81
505.557	134.81
505.773	125.81
505.99	119.81
506.207	126.81
506.423	122.81
506.64	131.81
506.856	134.81
507.073	126.81
507.289	120.81
507.506	122.81
507.722	118.81
507.939	124.81
508.155	119.81
508.372	117.81
508.588	129.81
508.805	117.81
509.021	126.81
509.238	136.81
509.454	114.81
509.67	116.81
509.887	125.81
510.103	110.81
510.319	115.81
510.536	123.81
510.752	105.81
510.968	116.81
511.184	120.81
511.401	112.81
511.617	118.81
511.833	121.81
