Data from StandardFe(NO3)3.TAE.3%Agarose.FlatLispGreen.Lamp.Energy10.07252019_HRD10591_11-55-07-441.txt Node
Date: Thu Jul 25 11:55:07 EDT 2019
User: cochatt
Spectrometer: HR+D1059
Trigger mode: 1
Integration Time (sec): 1.000000E-1
Scans to average: 1
Electric dark correction enabled: true
Nonlinearity correction enabled: false
Boxcar width: 0
XAxis mode: Wavelengths
Number of Pixels in Spectrum: 2048
>>>>>Begin Spectral Data<<<<<
223.165	-37.44
223.4	-37.44
223.635	-37.44
223.869	-9.44
224.104	-16.44
224.338	-13.44
224.573	-14.44
224.808	-14.44
225.042	-6.44
225.277	6.56
225.511	-4.44
225.746	11.56
225.98	7.56
226.215	19.56
226.449	0.56
226.683	24.56
226.918	27.56
227.152	18.56
227.387	18.56
227.621	38.56
227.856	27.56
228.09	33.56
228.324	53.56
228.559	51.56
228.793	49.56
229.027	65.56
229.262	44.56
229.496	52.56
229.73	70.56
229.964	68.56
230.199	58.56
230.433	79.56
230.667	83.56
230.901	78.56
231.136	73.56
231.37	64.56
231.604	72.56
231.838	70.56
232.072	88.56
232.306	71.56
232.541	66.56
232.775	81.56
233.009	73.56
233.243	84.56
233.477	72.56
233.711	83.56
233.945	73.56
234.179	82.56
234.413	73.56
234.647	70.56
234.881	76.56
235.115	80.56
235.349	88.56
235.583	80.56
235.817	88.56
236.051	74.56
236.285	79.56
236.519	83.56
236.753	86.56
236.987	85.56
237.221	82.56
237.455	62.56
237.689	71.56
237.922	73.56
238.156	68.56
238.39	75.56
238.624	69.56
238.858	74.56
239.091	79.56
239.325	73.56
239.559	89.56
239.793	70.56
240.027	66.56
240.26	68.56
240.494	58.56
240.728	69.56
240.961	64.56
241.195	62.56
241.429	66.56
241.662	83.56
241.896	81.56
242.13	75.56
242.363	78.56
242.597	58.56
242.83	71.56
243.064	71.56
243.298	71.56
243.531	69.56
243.765	71.56
243.998	88.56
244.232	60.56
244.465	82.56
244.699	77.56
244.932	71.56
245.166	71.56
245.399	82.56
245.633	62.56
245.866	86.56
246.099	68.56
246.333	80.56
246.566	68.56
246.8	73.56
247.033	66.56
247.266	69.56
247.5	80.56
247.733	71.56
247.966	81.56
248.2	78.56
248.433	80.56
248.666	65.56
248.899	84.56
249.133	80.56
249.366	72.56
249.599	78.56
249.832	77.56
250.066	85.56
250.299	77.56
250.532	81.56
250.765	75.56
250.998	85.56
251.231	73.56
251.465	74.56
251.698	93.56
251.931	70.56
252.164	69.56
252.397	83.56
252.63	74.56
252.863	70.56
253.096	78.56
253.329	81.56
253.562	78.56
253.795	91.56
254.028	77.56
254.261	70.56
254.494	61.56
254.727	82.56
254.96	84.56
255.193	81.56
255.426	74.56
255.659	87.56
255.892	88.56
256.124	81.56
256.357	82.56
256.59	72.56
256.823	82.56
257.056	67.56
257.289	72.56
257.521	78.56
257.754	72.56
257.987	86.56
258.22	92.56
258.452	83.56
258.685	67.56
258.918	86.56
259.151	83.56
259.383	85.56
259.616	72.56
259.849	68.56
260.081	85.56
260.314	79.56
260.547	67.56
260.779	73.56
261.012	71.56
261.244	67.56
261.477	88.56
261.71	64.56
261.942	82.56
262.175	64.56
262.407	89.56
262.64	72.56
262.872	88.56
263.105	77.56
263.337	83.56
263.57	87.56
263.802	76.56
264.035	69.56
264.267	76.56
264.499	78.56
264.732	81.56
264.964	74.56
265.197	75.56
265.429	77.56
265.661	92.56
265.894	87.56
266.126	80.56
266.358	77.56
266.591	81.56
266.823	66.56
267.055	84.56
267.287	77.56
267.52	81.56
267.752	72.56
267.984	91.56
268.216	81.56
268.448	72.56
268.681	82.56
268.913	84.56
269.145	92.56
269.377	85.56
269.609	72.56
269.841	93.56
270.073	84.56
270.306	93.56
270.538	64.56
270.77	79.56
271.002	77.56
271.234	84.56
271.466	76.56
271.698	89.56
271.93	84.56
272.162	86.56
272.394	72.56
272.626	84.56
272.858	82.56
273.09	73.56
273.322	81.56
273.553	74.56
273.785	83.56
274.017	71.56
274.249	89.56
274.481	95.56
274.713	80.56
274.945	85.56
275.176	94.56
275.408	101.56
275.64	88.56
275.872	87.56
276.104	85.56
276.335	79.56
276.567	74.56
276.799	72.56
277.031	88.56
277.262	65.56
277.494	86.56
277.726	85.56
277.957	77.56
278.189	67.56
278.421	82.56
278.652	73.56
278.884	82.56
279.115	84.56
279.347	66.56
279.579	69.56
279.81	78.56
280.042	95.56
280.273	89.56
280.505	86.56
280.736	74.56
280.968	84.56
281.199	77.56
281.431	84.56
281.662	80.56
281.894	78.56
282.125	82.56
282.356	70.56
282.588	80.56
282.819	71.56
283.051	79.56
283.282	78.56
283.513	78.56
283.745	79.56
283.976	86.56
284.207	80.56
284.439	82.56
284.67	82.56
284.901	81.56
285.132	75.56
285.364	88.56
285.595	89.56
285.826	85.56
286.057	76.56
286.288	71.56
286.52	72.56
286.751	80.56
286.982	99.56
287.213	86.56
287.444	80.56
287.675	73.56
287.906	73.56
288.138	80.56
288.369	94.56
288.6	96.56
288.831	81.56
289.062	73.56
289.293	67.56
289.524	78.56
289.755	82.56
289.986	75.56
290.217	82.56
290.448	80.56
290.679	85.56
290.91	87.56
291.141	80.56
291.371	84.56
291.602	86.56
291.833	80.56
292.064	87.56
292.295	74.56
292.526	81.56
292.757	70.56
292.987	69.56
293.218	77.56
293.449	74.56
293.68	86.56
293.91	73.56
294.141	96.56
294.372	81.56
294.603	84.56
294.833	79.56
295.064	73.56
295.295	85.56
295.525	75.56
295.756	72.56
295.987	105.56
296.217	78.56
296.448	74.56
296.679	81.56
296.909	81.56
297.14	79.56
297.37	93.56
297.601	79.56
297.831	73.56
298.062	81.56
298.292	75.56
298.523	100.56
298.753	100.56
298.984	83.56
299.214	81.56
299.445	74.56
299.675	79.56
299.905	71.56
300.136	87.56
300.366	88.56
300.597	77.56
300.827	81.56
301.057	92.56
301.288	75.56
301.518	82.56
301.748	72.56
301.979	86.56
302.209	71.56
302.439	79.56
302.669	80.56
302.9	96.56
303.13	80.56
303.36	78.56
303.59	93.56
303.82	75.56
304.051	88.56
304.281	87.56
304.511	70.56
304.741	84.56
304.971	86.56
305.201	78.56
305.431	85.56
305.661	74.56
305.891	75.56
306.121	68.56
306.352	68.56
306.582	82.56
306.812	94.56
307.042	79.56
307.272	87.56
307.502	79.56
307.731	85.56
307.961	88.56
308.191	73.56
308.421	88.56
308.651	89.56
308.881	68.56
309.111	80.56
309.341	91.56
309.571	94.56
309.8	74.56
310.03	98.56
310.26	78.56
310.49	100.56
310.72	88.56
310.949	86.56
311.179	84.56
311.409	80.56
311.639	71.56
311.868	80.56
312.098	82.56
312.328	75.56
312.557	95.56
312.787	73.56
313.017	97.56
313.246	75.56
313.476	70.56
313.706	86.56
313.935	73.56
314.165	78.56
314.394	89.56
314.624	95.56
314.853	93.56
315.083	93.56
315.312	78.56
315.542	84.56
315.771	81.56
316.001	75.56
316.23	83.56
316.46	92.56
316.689	88.56
316.919	93.56
317.148	68.56
317.377	88.56
317.607	88.56
317.836	70.56
318.065	80.56
318.295	80.56
318.524	78.56
318.753	84.56
318.983	79.56
319.212	72.56
319.441	86.56
319.67	103.56
319.9	81.56
320.129	82.56
320.358	84.56
320.587	82.56
320.816	73.56
321.046	74.56
321.275	82.56
321.504	83.56
321.733	83.56
321.962	81.56
322.191	88.56
322.42	86.56
322.649	73.56
322.878	71.56
323.108	67.56
323.337	84.56
323.566	86.56
323.795	86.56
324.024	82.56
324.253	81.56
324.482	81.56
324.71	86.56
324.939	89.56
325.168	96.56
325.397	84.56
325.626	87.56
325.855	83.56
326.084	67.56
326.313	72.56
326.542	80.56
326.77	75.56
326.999	87.56
327.228	86.56
327.457	80.56
327.686	99.56
327.914	81.56
328.143	81.56
328.372	81.56
328.6	87.56
328.829	83.56
329.058	63.56
329.287	93.56
329.515	81.56
329.744	71.56
329.972	73.56
330.201	84.56
330.43	89.56
330.658	65.56
330.887	81.56
331.115	81.56
331.344	79.56
331.572	88.56
331.801	83.56
332.03	86.56
332.258	83.56
332.486	74.56
332.715	70.56
332.943	83.56
333.172	85.56
333.4	80.56
333.629	79.56
333.857	76.56
334.085	88.56
334.314	80.56
334.542	92.56
334.771	83.56
334.999	80.56
335.227	78.56
335.455	65.56
335.684	90.56
335.912	82.56
336.14	82.56
336.369	73.56
336.597	92.56
336.825	84.56
337.053	63.56
337.281	78.56
337.51	84.56
337.738	87.56
337.966	73.56
338.194	77.56
338.422	95.56
338.65	74.56
338.878	94.56
339.106	86.56
339.334	82.56
339.562	76.56
339.79	98.56
340.018	81.56
340.246	87.56
340.474	66.56
340.702	69.56
340.93	77.56
341.158	89.56
341.386	74.56
341.614	82.56
341.842	89.56
342.07	69.56
342.298	77.56
342.526	75.56
342.754	65.56
342.981	76.56
343.209	92.56
343.437	89.56
343.665	97.56
343.893	74.56
344.12	85.56
344.348	81.56
344.576	90.56
344.804	89.56
345.031	90.56
345.259	97.56
345.487	83.56
345.714	77.56
345.942	87.56
346.17	95.56
346.397	95.56
346.625	89.56
346.853	94.56
347.08	69.56
347.308	82.56
347.535	84.56
347.763	80.56
347.99	74.56
348.218	87.56
348.445	88.56
348.673	87.56
348.9	74.56
349.128	88.56
349.355	78.56
349.583	79.56
349.81	79.56
350.037	72.56
350.265	87.56
350.492	74.56
350.72	84.56
350.947	85.56
351.174	92.56
351.402	81.56
351.629	69.56
351.856	75.56
352.083	68.56
352.311	76.56
352.538	75.56
352.765	93.56
352.992	81.56
353.22	95.56
353.447	86.56
353.674	81.56
353.901	86.56
354.128	71.56
354.355	76.56
354.583	65.56
354.81	80.56
355.037	74.56
355.264	92.56
355.491	83.56
355.718	62.56
355.945	77.56
356.172	87.56
356.399	86.56
356.626	82.56
356.853	86.56
357.08	65.56
357.307	81.56
357.534	85.56
357.761	85.56
357.988	81.56
358.215	70.56
358.441	77.56
358.668	80.56
358.895	76.56
359.122	90.56
359.349	82.56
359.576	79.56
359.802	79.56
360.029	83.56
360.256	84.56
360.483	78.56
360.709	82.56
360.936	96.56
361.163	81.56
361.39	85.56
361.616	77.56
361.843	69.56
362.07	72.56
362.296	78.56
362.523	81.56
362.749	78.56
362.976	86.56
363.203	86.56
363.429	87.56
363.656	77.56
363.882	89.56
364.109	71.56
364.335	70.56
364.562	83.56
364.788	80.56
365.015	84.56
365.241	77.56
365.468	78.56
365.694	76.56
365.92	85.56
366.147	82.56
366.373	86.56
366.599	88.56
366.826	80.56
367.052	77.56
367.278	81.56
367.505	87.56
367.731	84.56
367.957	71.56
368.184	88.56
368.41	87.56
368.636	85.56
368.862	75.56
369.089	94.56
369.315	90.56
369.541	87.56
369.767	86.56
369.993	83.56
370.219	92.56
370.445	81.56
370.672	88.56
370.898	87.56
371.124	91.56
371.35	94.56
371.576	93.56
371.802	73.56
372.028	81.56
372.254	78.56
372.48	85.56
372.706	88.56
372.932	77.56
373.158	99.56
373.384	86.56
373.61	80.56
373.835	78.56
374.061	76.56
374.287	83.56
374.513	88.56
374.739	77.56
374.965	96.56
375.191	79.56
375.416	82.56
375.642	89.56
375.868	88.56
376.094	89.56
376.319	84.56
376.545	84.56
376.771	77.56
376.997	84.56
377.222	78.56
377.448	98.56
377.674	67.56
377.899	81.56
378.125	73.56
378.35	82.56
378.576	95.56
378.802	77.56
379.027	91.56
379.253	79.56
379.478	93.56
379.704	88.56
379.929	77.56
380.155	80.56
380.38	86.56
380.606	75.56
380.831	94.56
381.057	87.56
381.282	85.56
381.507	85.56
381.733	80.56
381.958	104.56
382.184	80.56
382.409	101.56
382.634	88.56
382.86	92.56
383.085	106.56
383.31	88.56
383.535	92.56
383.761	80.56
383.986	96.56
384.211	92.56
384.436	90.56
384.662	85.56
384.887	97.56
385.112	100.56
385.337	105.56
385.562	99.56
385.787	104.56
386.013	93.56
386.238	90.56
386.463	81.56
386.688	78.56
386.913	85.56
387.138	101.56
387.363	87.56
387.588	77.56
387.813	92.56
388.038	85.56
388.263	94.56
388.488	87.56
388.713	80.56
388.938	87.56
389.163	92.56
389.387	83.56
389.612	114.56
389.837	100.56
390.062	92.56
390.287	82.56
390.512	81.56
390.736	98.56
390.961	89.56
391.186	93.56
391.411	100.56
391.636	88.56
391.86	96.56
392.085	105.56
392.31	103.56
392.534	94.56
392.759	87.56
392.984	102.56
393.208	95.56
393.433	88.56
393.658	99.56
393.882	97.56
394.107	94.56
394.331	98.56
394.556	82.56
394.78	94.56
395.005	87.56
395.229	92.56
395.454	89.56
395.678	93.56
395.903	87.56
396.127	89.56
396.352	100.56
396.576	95.56
396.801	97.56
397.025	110.56
397.249	98.56
397.474	106.56
397.698	106.56
397.922	87.56
398.147	89.56
398.371	98.56
398.595	110.56
398.82	102.56
399.044	93.56
399.268	108.56
399.492	103.56
399.717	101.56
399.941	97.56
400.165	112.56
400.389	89.56
400.613	102.56
400.837	102.56
401.062	92.56
401.286	104.56
401.51	107.56
401.734	95.56
401.958	89.56
402.182	105.56
402.406	88.56
402.63	107.56
402.854	116.56
403.078	109.56
403.302	92.56
403.526	102.56
403.75	120.56
403.974	100.56
404.198	102.56
404.422	103.56
404.645	101.56
404.869	97.56
405.093	99.56
405.317	100.56
405.541	108.56
405.765	103.56
405.988	107.56
406.212	102.56
406.436	112.56
406.66	104.56
406.883	103.56
407.107	110.56
407.331	112.56
407.555	96.56
407.778	110.56
408.002	126.56
408.226	112.56
408.449	115.56
408.673	97.56
408.896	103.56
409.12	105.56
409.344	105.56
409.567	115.56
409.791	98.56
410.014	109.56
410.238	116.56
410.461	96.56
410.685	111.56
410.908	102.56
411.132	101.56
411.355	109.56
411.578	96.56
411.802	101.56
412.025	98.56
412.249	118.56
412.472	97.56
412.695	115.56
412.919	117.56
413.142	105.56
413.365	117.56
413.589	113.56
413.812	92.56
414.035	111.56
414.258	108.56
414.482	98.56
414.705	115.56
414.928	102.56
415.151	108.56
415.374	110.56
415.597	114.56
415.821	103.56
416.044	105.56
416.267	112.56
416.49	108.56
416.713	97.56
416.936	106.56
417.159	98.56
417.382	100.56
417.605	108.56
417.828	96.56
418.051	122.56
418.274	116.56
418.497	104.56
418.72	116.56
418.943	125.56
419.166	122.56
419.389	123.56
419.611	117.56
419.834	113.56
420.057	121.56
420.28	112.56
420.503	121.56
420.726	103.56
420.948	105.56
421.171	111.56
421.394	104.56
421.617	112.56
421.839	113.56
422.062	105.56
422.285	112.56
422.507	96.56
422.73	102.56
422.953	104.56
423.175	117.56
423.398	113.56
423.621	118.56
423.843	116.56
424.066	102.56
424.288	116.56
424.511	105.56
424.733	116.56
424.956	116.56
425.178	114.56
425.401	120.56
425.623	119.56
425.846	112.56
426.068	114.56
426.291	101.56
426.513	114.56
426.735	108.56
426.958	100.56
427.18	130.56
427.402	109.56
427.625	110.56
427.847	109.56
428.069	86.56
428.292	89.56
428.514	99.56
428.736	100.56
428.958	127.56
429.181	114.56
429.403	123.56
429.625	120.56
429.847	109.56
430.069	118.56
430.292	113.56
430.514	105.56
430.736	104.56
430.958	99.56
431.18	89.56
431.402	115.56
431.624	110.56
431.846	119.56
432.068	112.56
432.29	94.56
432.512	112.56
432.734	115.56
432.956	117.56
433.178	115.56
433.4	107.56
433.622	109.56
433.844	108.56
434.066	121.56
434.287	114.56
434.509	101.56
434.731	88.56
434.953	91.56
435.175	124.56
435.397	114.56
435.618	111.56
435.84	102.56
436.062	115.56
436.284	109.56
436.505	93.56
436.727	114.56
436.949	110.56
437.17	114.56
437.392	108.56
437.614	90.56
437.835	90.56
438.057	98.56
438.278	96.56
438.5	92.56
438.721	111.56
438.943	125.56
439.165	120.56
439.386	114.56
439.608	127.56
439.829	124.56
440.05	106.56
440.272	118.56
440.493	110.56
440.715	114.56
440.936	111.56
441.158	101.56
441.379	116.56
441.6	112.56
441.822	114.56
442.043	126.56
442.264	114.56
442.486	106.56
442.707	106.56
442.928	115.56
443.149	124.56
443.371	118.56
443.592	109.56
443.813	114.56
444.034	133.56
444.255	109.56
444.476	109.56
444.698	125.56
444.919	127.56
445.14	233.56
445.361	165.56
445.582	117.56
445.803	131.56
446.024	122.56
446.245	118.56
446.466	116.56
446.687	108.56
446.908	115.56
447.129	115.56
447.35	116.56
447.571	105.56
447.792	110.56
448.013	105.56
448.234	110.56
448.455	120.56
448.675	125.56
448.896	111.56
449.117	113.56
449.338	110.56
449.559	116.56
449.779	102.56
450	103.56
450.221	108.56
450.442	106.56
450.662	115.56
450.883	117.56
451.104	127.56
451.324	104.56
451.545	116.56
451.766	112.56
451.986	112.56
452.207	115.56
452.428	112.56
452.648	120.56
452.869	96.56
453.089	100.56
453.31	98.56
453.53	110.56
453.751	98.56
453.971	108.56
454.192	108.56
454.412	111.56
454.633	105.56
454.853	115.56
455.073	89.56
455.294	96.56
455.514	102.56
455.734	104.56
455.955	112.56
456.175	99.56
456.395	110.56
456.616	102.56
456.836	104.56
457.056	103.56
457.276	94.56
457.497	104.56
457.717	100.56
457.937	87.56
458.157	102.56
458.377	92.56
458.598	93.56
458.818	83.56
459.038	94.56
459.258	90.56
459.478	92.56
459.698	106.56
459.918	108.56
460.138	102.56
460.358	111.56
460.578	109.56
460.798	87.56
461.018	99.56
461.238	127.56
461.458	131.56
461.678	117.56
461.898	95.56
462.118	120.56
462.338	109.56
462.558	114.56
462.777	131.56
462.997	105.56
463.217	122.56
463.437	133.56
463.657	106.56
463.876	117.56
464.096	104.56
464.316	124.56
464.536	111.56
464.755	110.56
464.975	119.56
465.195	108.56
465.414	105.56
465.634	119.56
465.854	112.56
466.073	117.56
466.293	121.56
466.512	116.56
466.732	112.56
466.951	107.56
467.171	114.56
467.391	124.56
467.61	124.56
467.829	109.56
468.049	116.56
468.268	100.56
468.488	120.56
468.707	113.56
468.927	121.56
469.146	103.56
469.365	110.56
469.585	122.56
469.804	125.56
470.023	117.56
470.243	119.56
470.462	112.56
470.681	119.56
470.901	121.56
471.12	111.56
471.339	96.56
471.558	116.56
471.777	114.56
471.997	100.56
472.216	101.56
472.435	100.56
472.654	88.56
472.873	103.56
473.092	117.56
473.311	112.56
473.53	93.56
473.749	106.56
473.968	114.56
474.187	118.56
474.406	102.56
474.625	117.56
474.844	109.56
475.063	97.56
475.282	103.56
475.501	105.56
475.72	114.56
475.939	130.56
476.158	113.56
476.377	117.56
476.596	91.56
476.814	90.56
477.033	110.56
477.252	122.56
477.471	103.56
477.69	115.56
477.908	120.56
478.127	117.56
478.346	120.56
478.564	116.56
478.783	125.56
479.002	128.56
479.22	120.56
479.439	118.56
479.658	132.56
479.876	115.56
480.095	123.56
480.313	125.56
480.532	120.56
480.751	124.56
480.969	122.56
481.188	116.56
481.406	100.56
481.624	111.56
481.843	116.56
482.061	125.56
482.28	109.56
482.498	120.56
482.717	132.56
482.935	129.56
483.153	128.56
483.372	135.56
483.59	128.56
483.808	125.56
484.027	114.56
484.245	120.56
484.463	144.56
484.681	130.56
484.9	116.56
485.118	125.56
485.336	118.56
485.554	120.56
485.772	116.56
485.99	105.56
486.209	123.56
486.427	130.56
486.645	124.56
486.863	140.56
487.081	128.56
487.299	136.56
487.517	130.56
487.735	153.56
487.953	136.56
488.171	152.56
488.389	133.56
488.607	128.56
488.825	114.56
489.043	120.56
489.261	124.56
489.479	116.56
489.696	114.56
489.914	129.56
490.132	122.56
490.35	128.56
490.568	126.56
490.786	132.56
491.003	144.56
491.221	144.56
491.439	145.56
491.657	151.56
491.874	144.56
492.092	154.56
492.31	140.56
492.527	146.56
492.745	151.56
492.963	149.56
493.18	148.56
493.398	155.56
493.615	134.56
493.833	156.56
494.05	143.56
494.268	122.56
494.485	144.56
494.703	150.56
494.92	147.56
495.138	144.56
495.355	143.56
495.573	161.56
495.79	140.56
496.008	140.56
496.225	142.56
496.442	146.56
496.66	139.56
496.877	159.56
497.094	151.56
497.312	138.56
497.529	142.56
497.746	141.56
497.963	131.56
498.181	140.56
498.398	138.56
498.615	133.56
498.832	141.56
499.049	143.56
499.267	131.56
499.484	156.56
499.701	173.56
499.918	193.56
500.135	197.56
500.352	208.56
500.569	227.56
500.786	215.56
501.003	191.56
501.22	198.56
501.437	172.56
501.654	172.56
501.871	159.56
502.088	144.56
502.305	151.56
502.522	145.56
502.739	143.56
502.956	134.56
503.172	134.56
503.389	134.56
503.606	125.56
503.823	133.56
504.04	131.56
504.256	148.56
504.473	126.56
504.69	129.56
504.907	142.56
505.123	128.56
505.34	130.56
505.557	121.56
505.773	117.56
505.99	124.56
506.207	121.56
506.423	128.56
506.64	118.56
506.856	114.56
507.073	114.56
507.289	125.56
507.506	133.56
507.722	130.56
507.939	125.56
508.155	111.56
508.372	134.56
508.588	122.56
508.805	118.56
509.021	109.56
509.238	108.56
509.454	99.56
509.67	124.56
509.887	97.56
510.103	136.56
510.319	99.56
510.536	115.56
510.752	106.56
510.968	108.56
511.184	102.56
511.401	101.56
511.617	117.56
511.833	118.56
512.049	111.56
512.265	110.56
512.481	105.56
