Data from StandardFe(NO3)3.TAE.3%Agarose.FlatLispGreen.Lamp.Energy10.07252019_HRD10591_11-56-17-442.txt Node
Date: Thu Jul 25 11:56:17 EDT 2019
User: cochatt
Spectrometer: HR+D1059
Trigger mode: 1
Integration Time (sec): 1.000000E-1
Scans to average: 1
Electric dark correction enabled: true
Nonlinearity correction enabled: false
Boxcar width: 0
XAxis mode: Wavelengths
Number of Pixels in Spectrum: 2048
>>>>>Begin Spectral Data<<<<<
223.165	-18.56
223.4	-18.56
223.635	-18.56
223.869	-19.56
224.104	-11.56
224.338	-11.56
224.573	-9.56
224.808	-8.56
225.042	-5.56
225.277	-19.56
225.511	-5.56
225.746	9.44
225.98	6.44
226.215	21.44
226.449	23.44
226.683	11.44
226.918	1.44
227.152	36.44
227.387	35.44
227.621	45.44
227.856	52.44
228.09	47.44
228.324	60.44
228.559	70.44
228.793	56.44
229.027	73.44
229.262	64.44
229.496	68.44
229.73	67.44
229.964	82.44
230.199	84.44
230.433	85.44
230.667	77.44
230.901	74.44
231.136	77.44
231.37	90.44
231.604	89.44
231.838	72.44
232.072	86.44
232.306	92.44
232.541	83.44
232.775	76.44
233.009	79.44
233.243	88.44
233.477	81.44
233.711	82.44
233.945	86.44
234.179	89.44
234.413	83.44
234.647	86.44
234.881	79.44
235.115	82.44
235.349	87.44
235.583	73.44
235.817	91.44
236.051	79.44
236.285	74.44
236.519	75.44
236.753	82.44
236.987	87.44
237.221	60.44
237.455	69.44
237.689	89.44
237.922	71.44
238.156	85.44
238.39	76.44
238.624	72.44
238.858	79.44
239.091	80.44
239.325	82.44
239.559	59.44
239.793	77.44
240.027	74.44
240.26	74.44
240.494	80.44
240.728	90.44
240.961	72.44
241.195	74.44
241.429	91.44
241.662	77.44
241.896	77.44
242.13	64.44
242.363	83.44
242.597	86.44
242.83	91.44
243.064	69.44
243.298	75.44
243.531	77.44
243.765	87.44
243.998	73.44
244.232	76.44
244.465	91.44
244.699	72.44
244.932	82.44
245.166	69.44
245.399	69.44
245.633	95.44
245.866	84.44
246.099	65.44
246.333	78.44
246.566	76.44
246.8	87.44
247.033	84.44
247.266	91.44
247.5	103.44
247.733	73.44
247.966	85.44
248.2	73.44
248.433	76.44
248.666	74.44
248.899	74.44
249.133	80.44
249.366	83.44
249.599	89.44
249.832	91.44
250.066	91.44
250.299	104.44
250.532	78.44
250.765	85.44
250.998	71.44
251.231	65.44
251.465	84.44
251.698	79.44
251.931	77.44
252.164	73.44
252.397	78.44
252.63	84.44
252.863	76.44
253.096	70.44
253.329	64.44
253.562	73.44
253.795	70.44
254.028	71.44
254.261	85.44
254.494	78.44
254.727	75.44
254.96	82.44
255.193	77.44
255.426	89.44
255.659	93.44
255.892	87.44
256.124	71.44
256.357	78.44
256.59	83.44
256.823	84.44
257.056	80.44
257.289	95.44
257.521	77.44
257.754	81.44
257.987	87.44
258.22	86.44
258.452	81.44
258.685	84.44
258.918	84.44
259.151	82.44
259.383	76.44
259.616	86.44
259.849	75.44
260.081	85.44
260.314	78.44
260.547	78.44
260.779	81.44
261.012	87.44
261.244	77.44
261.477	91.44
261.71	71.44
261.942	65.44
262.175	79.44
262.407	81.44
262.64	83.44
262.872	101.44
263.105	91.44
263.337	84.44
263.57	71.44
263.802	74.44
264.035	77.44
264.267	79.44
264.499	87.44
264.732	92.44
264.964	73.44
265.197	86.44
265.429	77.44
265.661	82.44
265.894	75.44
266.126	87.44
266.358	79.44
266.591	84.44
266.823	94.44
267.055	96.44
267.287	85.44
267.52	79.44
267.752	89.44
267.984	80.44
268.216	89.44
268.448	92.44
268.681	92.44
268.913	90.44
269.145	80.44
269.377	90.44
269.609	76.44
269.841	82.44
270.073	87.44
270.306	82.44
270.538	86.44
270.77	76.44
271.002	85.44
271.234	86.44
271.466	87.44
271.698	86.44
271.93	83.44
272.162	86.44
272.394	100.44
272.626	73.44
272.858	86.44
273.09	87.44
273.322	88.44
273.553	91.44
273.785	88.44
274.017	94.44
274.249	87.44
274.481	86.44
274.713	73.44
274.945	80.44
275.176	76.44
275.408	92.44
275.64	83.44
275.872	89.44
276.104	77.44
276.335	69.44
276.567	98.44
276.799	76.44
277.031	91.44
277.262	75.44
277.494	82.44
277.726	94.44
277.957	78.44
278.189	82.44
278.421	74.44
278.652	80.44
278.884	86.44
279.115	85.44
279.347	89.44
279.579	79.44
279.81	97.44
280.042	94.44
280.273	91.44
280.505	93.44
280.736	79.44
280.968	102.44
281.199	83.44
281.431	84.44
281.662	85.44
281.894	76.44
282.125	87.44
282.356	85.44
282.588	84.44
282.819	71.44
283.051	82.44
283.282	81.44
283.513	67.44
283.745	85.44
283.976	86.44
284.207	88.44
284.439	99.44
284.67	99.44
284.901	83.44
285.132	97.44
285.364	90.44
285.595	84.44
285.826	75.44
286.057	85.44
286.288	90.44
286.52	94.44
286.751	85.44
286.982	90.44
287.213	87.44
287.444	85.44
287.675	87.44
287.906	78.44
288.138	88.44
288.369	99.44
288.6	89.44
288.831	86.44
289.062	79.44
289.293	81.44
289.524	91.44
289.755	76.44
289.986	84.44
290.217	88.44
290.448	80.44
290.679	87.44
290.91	86.44
291.141	80.44
291.371	80.44
291.602	71.44
291.833	73.44
292.064	91.44
292.295	95.44
292.526	88.44
292.757	76.44
292.987	76.44
293.218	85.44
293.449	89.44
293.68	75.44
293.91	72.44
294.141	81.44
294.372	78.44
294.603	76.44
294.833	82.44
295.064	78.44
295.295	70.44
295.525	81.44
295.756	78.44
295.987	90.44
296.217	87.44
296.448	84.44
296.679	75.44
296.909	76.44
297.14	86.44
297.37	82.44
297.601	83.44
297.831	96.44
298.062	89.44
298.292	91.44
298.523	85.44
298.753	82.44
298.984	91.44
299.214	82.44
299.445	93.44
299.675	85.44
299.905	70.44
300.136	81.44
300.366	94.44
300.597	90.44
300.827	87.44
301.057	83.44
301.288	82.44
301.518	75.44
301.748	74.44
301.979	89.44
302.209	83.44
302.439	85.44
302.669	97.44
302.9	88.44
303.13	85.44
303.36	91.44
303.59	83.44
303.82	87.44
304.051	96.44
304.281	97.44
304.511	85.44
304.741	82.44
304.971	65.44
305.201	93.44
305.431	102.44
305.661	89.44
305.891	73.44
306.121	74.44
306.352	67.44
306.582	92.44
306.812	98.44
307.042	89.44
307.272	87.44
307.502	95.44
307.731	94.44
307.961	91.44
308.191	91.44
308.421	87.44
308.651	89.44
308.881	80.44
309.111	81.44
309.341	72.44
309.571	76.44
309.8	88.44
310.03	87.44
310.26	94.44
310.49	93.44
310.72	100.44
310.949	87.44
311.179	66.44
311.409	77.44
311.639	84.44
311.868	99.44
312.098	77.44
312.328	96.44
312.557	72.44
312.787	90.44
313.017	72.44
313.246	84.44
313.476	69.44
313.706	79.44
313.935	85.44
314.165	78.44
314.394	89.44
314.624	98.44
314.853	85.44
315.083	91.44
315.312	88.44
315.542	78.44
315.771	79.44
316.001	90.44
316.23	100.44
316.46	83.44
316.689	84.44
316.919	86.44
317.148	81.44
317.377	77.44
317.607	78.44
317.836	85.44
318.065	79.44
318.295	93.44
318.524	94.44
318.753	89.44
318.983	79.44
319.212	95.44
319.441	69.44
319.67	73.44
319.9	80.44
320.129	90.44
320.358	90.44
320.587	77.44
320.816	78.44
321.046	81.44
321.275	84.44
321.504	70.44
321.733	80.44
321.962	87.44
322.191	79.44
322.42	87.44
322.649	90.44
322.878	94.44
323.108	71.44
323.337	94.44
323.566	87.44
323.795	96.44
324.024	90.44
324.253	93.44
324.482	74.44
324.71	84.44
324.939	93.44
325.168	89.44
325.397	100.44
325.626	82.44
325.855	70.44
326.084	89.44
326.313	82.44
326.542	84.44
326.77	82.44
326.999	95.44
327.228	86.44
327.457	90.44
327.686	70.44
327.914	82.44
328.143	97.44
328.372	86.44
328.6	87.44
328.829	90.44
329.058	85.44
329.287	83.44
329.515	81.44
329.744	92.44
329.972	77.44
330.201	90.44
330.43	86.44
330.658	100.44
330.887	109.44
331.115	85.44
331.344	83.44
331.572	78.44
331.801	85.44
332.03	79.44
332.258	88.44
332.486	94.44
332.715	82.44
332.943	78.44
333.172	75.44
333.4	82.44
333.629	89.44
333.857	96.44
334.085	85.44
334.314	82.44
334.542	86.44
334.771	74.44
334.999	100.44
335.227	88.44
335.455	81.44
335.684	88.44
335.912	80.44
336.14	85.44
336.369	83.44
336.597	79.44
336.825	90.44
337.053	69.44
337.281	85.44
337.51	94.44
337.738	93.44
337.966	97.44
338.194	91.44
338.422	86.44
338.65	73.44
338.878	89.44
339.106	80.44
339.334	95.44
339.562	80.44
339.79	77.44
340.018	78.44
340.246	89.44
340.474	87.44
340.702	90.44
340.93	85.44
341.158	95.44
341.386	91.44
341.614	106.44
341.842	88.44
342.07	79.44
342.298	86.44
342.526	83.44
342.754	107.44
342.981	81.44
343.209	88.44
343.437	88.44
343.665	66.44
343.893	87.44
344.12	86.44
344.348	71.44
344.576	85.44
344.804	79.44
345.031	74.44
345.259	80.44
345.487	87.44
345.714	90.44
345.942	84.44
346.17	100.44
346.397	92.44
346.625	84.44
346.853	76.44
347.08	86.44
347.308	85.44
347.535	88.44
347.763	79.44
347.99	72.44
348.218	76.44
348.445	80.44
348.673	88.44
348.9	79.44
349.128	94.44
349.355	88.44
349.583	89.44
349.81	84.44
350.037	94.44
350.265	72.44
350.492	87.44
350.72	93.44
350.947	88.44
351.174	82.44
351.402	87.44
351.629	84.44
351.856	84.44
352.083	85.44
352.311	95.44
352.538	85.44
352.765	88.44
352.992	97.44
353.22	101.44
353.447	99.44
353.674	86.44
353.901	88.44
354.128	91.44
354.355	94.44
354.583	83.44
354.81	79.44
355.037	86.44
355.264	91.44
355.491	96.44
355.718	87.44
355.945	94.44
356.172	78.44
356.399	85.44
356.626	95.44
356.853	95.44
357.08	77.44
357.307	94.44
357.534	87.44
357.761	84.44
357.988	85.44
358.215	78.44
358.441	80.44
358.668	89.44
358.895	85.44
359.122	86.44
359.349	75.44
359.576	83.44
359.802	79.44
360.029	84.44
360.256	87.44
360.483	87.44
360.709	79.44
360.936	74.44
361.163	73.44
361.39	94.44
361.616	84.44
361.843	89.44
362.07	99.44
362.296	84.44
362.523	82.44
362.749	90.44
362.976	94.44
363.203	89.44
363.429	75.44
363.656	84.44
363.882	83.44
364.109	70.44
364.335	105.44
364.562	81.44
364.788	87.44
365.015	84.44
365.241	87.44
365.468	84.44
365.694	72.44
365.92	82.44
366.147	78.44
366.373	89.44
366.599	86.44
366.826	92.44
367.052	89.44
367.278	90.44
367.505	81.44
367.731	92.44
367.957	97.44
368.184	92.44
368.41	70.44
368.636	89.44
368.862	96.44
369.089	74.44
369.315	96.44
369.541	84.44
369.767	84.44
369.993	72.44
370.219	77.44
370.445	90.44
370.672	79.44
370.898	86.44
371.124	87.44
371.35	97.44
371.576	97.44
371.802	94.44
372.028	83.44
372.254	83.44
372.48	81.44
372.706	93.44
372.932	87.44
373.158	91.44
373.384	94.44
373.61	91.44
373.835	84.44
374.061	92.44
374.287	101.44
374.513	73.44
374.739	74.44
374.965	92.44
375.191	98.44
375.416	98.44
375.642	82.44
375.868	101.44
376.094	87.44
376.319	83.44
376.545	82.44
376.771	86.44
376.997	92.44
377.222	85.44
377.448	91.44
377.674	114.44
377.899	90.44
378.125	90.44
378.35	95.44
378.576	88.44
378.802	90.44
379.027	90.44
379.253	100.44
379.478	86.44
379.704	93.44
379.929	90.44
380.155	84.44
380.38	85.44
380.606	98.44
380.831	90.44
381.057	95.44
381.282	85.44
381.507	85.44
381.733	75.44
381.958	93.44
382.184	77.44
382.409	77.44
382.634	98.44
382.86	92.44
383.085	86.44
383.31	91.44
383.535	107.44
383.761	101.44
383.986	89.44
384.211	73.44
384.436	98.44
384.662	100.44
384.887	88.44
385.112	93.44
385.337	85.44
385.562	98.44
385.787	102.44
386.013	109.44
386.238	82.44
386.463	91.44
386.688	98.44
386.913	105.44
387.138	96.44
387.363	93.44
387.588	95.44
387.813	94.44
388.038	96.44
388.263	87.44
388.488	89.44
388.713	94.44
388.938	86.44
389.163	88.44
389.387	92.44
389.612	112.44
389.837	102.44
390.062	91.44
390.287	96.44
390.512	94.44
390.736	93.44
390.961	97.44
391.186	110.44
391.411	89.44
391.636	106.44
391.86	102.44
392.085	103.44
392.31	93.44
392.534	102.44
392.759	101.44
392.984	99.44
393.208	95.44
393.433	103.44
393.658	107.44
393.882	87.44
394.107	94.44
394.331	99.44
394.556	105.44
394.78	89.44
395.005	99.44
395.229	108.44
395.454	90.44
395.678	103.44
395.903	103.44
396.127	99.44
396.352	106.44
396.576	91.44
396.801	106.44
397.025	92.44
397.249	97.44
397.474	99.44
397.698	112.44
397.922	118.44
398.147	113.44
398.371	105.44
398.595	116.44
398.82	100.44
399.044	102.44
399.268	96.44
399.492	109.44
399.717	109.44
399.941	106.44
400.165	105.44
400.389	104.44
400.613	90.44
400.837	96.44
401.062	105.44
401.286	111.44
401.51	110.44
401.734	104.44
401.958	104.44
402.182	91.44
402.406	105.44
402.63	112.44
402.854	116.44
403.078	96.44
403.302	110.44
403.526	94.44
403.75	117.44
403.974	110.44
404.198	107.44
404.422	102.44
404.645	113.44
404.869	117.44
405.093	114.44
405.317	107.44
405.541	112.44
405.765	101.44
405.988	98.44
406.212	118.44
406.436	109.44
406.66	107.44
406.883	123.44
407.107	101.44
407.331	106.44
407.555	119.44
407.778	108.44
408.002	113.44
408.226	111.44
408.449	117.44
408.673	115.44
408.896	115.44
409.12	120.44
409.344	113.44
409.567	99.44
409.791	110.44
410.014	122.44
410.238	111.44
410.461	114.44
410.685	107.44
410.908	123.44
411.132	111.44
411.355	113.44
411.578	114.44
411.802	104.44
412.025	101.44
412.249	116.44
412.472	106.44
412.695	118.44
412.919	106.44
413.142	109.44
413.365	98.44
413.589	112.44
413.812	116.44
414.035	112.44
414.258	118.44
414.482	115.44
414.705	104.44
414.928	113.44
415.151	106.44
415.374	115.44
415.597	107.44
415.821	120.44
416.044	98.44
416.267	99.44
416.49	109.44
416.713	113.44
416.936	90.44
417.159	107.44
417.382	115.44
417.605	106.44
417.828	110.44
418.051	101.44
418.274	115.44
418.497	111.44
418.72	105.44
418.943	113.44
419.166	109.44
419.389	94.44
419.611	114.44
419.834	117.44
420.057	119.44
420.28	113.44
420.503	98.44
420.726	121.44
420.948	106.44
421.171	115.44
421.394	122.44
421.617	109.44
421.839	106.44
422.062	111.44
422.285	105.44
422.507	114.44
422.73	108.44
422.953	104.44
423.175	119.44
423.398	113.44
423.621	113.44
423.843	113.44
424.066	103.44
424.288	105.44
424.511	118.44
424.733	129.44
424.956	108.44
425.178	111.44
425.401	111.44
425.623	118.44
425.846	103.44
426.068	130.44
426.291	118.44
426.513	100.44
426.735	110.44
426.958	114.44
427.18	118.44
427.402	130.44
427.625	109.44
427.847	113.44
428.069	125.44
428.292	121.44
428.514	106.44
428.736	121.44
428.958	113.44
429.181	110.44
429.403	102.44
429.625	109.44
429.847	122.44
430.069	113.44
430.292	116.44
430.514	121.44
430.736	102.44
430.958	109.44
431.18	113.44
431.402	95.44
431.624	101.44
431.846	107.44
432.068	96.44
432.29	114.44
432.512	108.44
432.734	121.44
432.956	94.44
433.178	105.44
433.4	106.44
433.622	118.44
433.844	126.44
434.066	105.44
434.287	110.44
434.509	118.44
434.731	108.44
434.953	103.44
435.175	114.44
435.397	109.44
435.618	121.44
435.84	109.44
436.062	117.44
436.284	125.44
436.505	116.44
436.727	122.44
436.949	118.44
437.17	107.44
437.392	98.44
437.614	104.44
437.835	105.44
438.057	103.44
438.278	100.44
438.5	115.44
438.721	120.44
438.943	121.44
439.165	137.44
439.386	108.44
439.608	102.44
439.829	100.44
440.05	117.44
440.272	111.44
440.493	131.44
440.715	133.44
440.936	123.44
441.158	107.44
441.379	111.44
441.6	91.44
441.822	105.44
442.043	113.44
442.264	124.44
442.486	125.44
442.707	117.44
442.928	89.44
443.149	125.44
443.371	124.44
443.592	126.44
443.813	109.44
444.034	131.44
444.255	128.44
444.476	128.44
444.698	123.44
444.919	115.44
445.14	244.44
445.361	175.44
445.582	109.44
445.803	102.44
446.024	119.44
446.245	123.44
446.466	122.44
446.687	114.44
446.908	119.44
447.129	113.44
447.35	123.44
447.571	118.44
447.792	124.44
448.013	105.44
448.234	119.44
448.455	104.44
448.675	122.44
448.896	114.44
449.117	109.44
449.338	108.44
449.559	110.44
449.779	124.44
450	116.44
450.221	127.44
450.442	109.44
450.662	103.44
450.883	110.44
451.104	117.44
451.324	108.44
451.545	125.44
451.766	119.44
451.986	96.44
452.207	109.44
452.428	92.44
452.648	109.44
452.869	109.44
453.089	107.44
453.31	106.44
453.53	107.44
453.751	113.44
453.971	116.44
454.192	114.44
454.412	104.44
454.633	114.44
454.853	114.44
455.073	105.44
455.294	113.44
455.514	119.44
455.734	120.44
455.955	117.44
456.175	113.44
456.395	114.44
456.616	99.44
456.836	113.44
457.056	110.44
457.276	103.44
457.497	98.44
457.717	103.44
457.937	97.44
458.157	114.44
458.377	106.44
458.598	109.44
458.818	90.44
459.038	101.44
459.258	118.44
459.478	102.44
459.698	112.44
459.918	114.44
460.138	119.44
460.358	126.44
460.578	115.44
460.798	121.44
461.018	115.44
461.238	120.44
461.458	127.44
461.678	135.44
461.898	127.44
462.118	111.44
462.338	117.44
462.558	113.44
462.777	120.44
462.997	110.44
463.217	112.44
463.437	128.44
463.657	118.44
463.876	120.44
464.096	108.44
464.316	123.44
464.536	121.44
464.755	118.44
464.975	116.44
465.195	127.44
465.414	107.44
465.634	107.44
465.854	103.44
466.073	123.44
466.293	107.44
466.512	109.44
466.732	122.44
466.951	128.44
467.171	123.44
467.391	110.44
467.61	104.44
467.829	111.44
468.049	121.44
468.268	134.44
468.488	127.44
468.707	117.44
468.927	116.44
469.146	131.44
469.365	115.44
469.585	126.44
469.804	131.44
470.023	135.44
470.243	127.44
470.462	120.44
470.681	131.44
470.901	130.44
471.12	127.44
471.339	114.44
471.558	125.44
471.777	116.44
471.997	118.44
472.216	123.44
472.435	111.44
472.654	114.44
472.873	105.44
473.092	100.44
473.311	122.44
473.53	119.44
473.749	116.44
473.968	122.44
474.187	107.44
474.406	104.44
474.625	127.44
474.844	102.44
475.063	116.44
475.282	114.44
475.501	132.44
475.72	113.44
475.939	115.44
476.158	110.44
476.377	129.44
476.596	113.44
476.814	102.44
477.033	112.44
477.252	132.44
477.471	136.44
477.69	121.44
477.908	135.44
478.127	141.44
478.346	129.44
478.564	133.44
478.783	127.44
479.002	125.44
479.22	125.44
479.439	133.44
479.658	119.44
479.876	126.44
480.095	119.44
480.313	108.44
480.532	116.44
480.751	130.44
480.969	131.44
481.188	122.44
481.406	110.44
481.624	115.44
481.843	109.44
482.061	106.44
482.28	117.44
482.498	117.44
482.717	122.44
482.935	120.44
483.153	131.44
483.372	126.44
483.59	135.44
483.808	126.44
484.027	118.44
484.245	123.44
484.463	118.44
484.681	129.44
484.9	135.44
485.118	129.44
485.336	123.44
485.554	123.44
485.772	119.44
485.99	124.44
486.209	120.44
486.427	126.44
486.645	119.44
486.863	131.44
487.081	125.44
487.299	133.44
487.517	135.44
487.735	135.44
487.953	148.44
488.171	145.44
488.389	136.44
488.607	131.44
488.825	138.44
489.043	113.44
489.261	137.44
489.479	135.44
489.696	136.44
489.914	118.44
490.132	131.44
490.35	132.44
490.568	135.44
490.786	130.44
491.003	150.44
491.221	162.44
491.439	146.44
491.657	151.44
491.874	153.44
492.092	172.44
492.31	164.44
492.527	159.44
492.745	163.44
492.963	166.44
493.18	146.44
493.398	150.44
493.615	158.44
493.833	146.44
494.05	142.44
494.268	149.44
494.485	159.44
494.703	154.44
494.92	126.44
495.138	147.44
495.355	167.44
495.573	138.44
495.79	152.44
496.008	153.44
496.225	150.44
496.442	153.44
496.66	156.44
496.877	159.44
497.094	147.44
497.312	148.44
497.529	156.44
497.746	152.44
497.963	135.44
498.181	142.44
498.398	141.44
498.615	146.44
498.832	149.44
499.049	161.44
499.267	141.44
499.484	155.44
499.701	177.44
499.918	179.44
500.135	198.44
500.352	202.44
500.569	229.44
500.786	228.44
501.003	198.44
501.22	196.44
501.437	174.44
501.654	154.44
501.871	150.44
502.088	161.44
502.305	149.44
502.522	150.44
502.739	155.44
502.956	142.44
503.172	133.44
503.389	135.44
503.606	143.44
503.823	127.44
504.04	135.44
504.256	137.44
504.473	141.44
504.69	143.44
504.907	133.44
505.123	133.44
505.34	129.44
505.557	134.44
505.773	134.44
505.99	130.44
506.207	138.44
506.423	122.44
506.64	116.44
506.856	124.44
507.073	134.44
507.289	126.44
507.506	116.44
507.722	104.44
507.939	131.44
508.155	139.44
508.372	126.44
508.588	124.44
508.805	134.44
509.021	130.44
509.238	125.44
509.454	113.44
509.67	114.44
509.887	124.44
510.103	123.44
510.319	125.44
510.536	122.44
510.752	104.44
510.968	125.44
511.184	117.44
511.401	116.44
511.617	125.44
