Data from StandardFe(NO3)3.TAE.3%Agarose.FlatLispGreen.Lamp.Energy10.07252019_HRD10591_11-55-26-440.txt Node
Date: Thu Jul 25 11:55:26 EDT 2019
User: cochatt
Spectrometer: HR+D1059
Trigger mode: 1
Integration Time (sec): 1.000000E-1
Scans to average: 1
Electric dark correction enabled: true
Nonlinearity correction enabled: false
Boxcar width: 0
XAxis mode: Wavelengths
Number of Pixels in Spectrum: 2048
>>>>>Begin Spectral Data<<<<<
223.165	-14.19
223.4	-14.19
223.635	-14.19
223.869	-7.19
224.104	-22.19
224.338	-18.19
224.573	-18.19
224.808	-9.19
225.042	-2.19
225.277	-4.19
225.511	-11.19
225.746	-18.19
225.98	3.81
226.215	27.81
226.449	22.81
226.683	8.81
226.918	31.81
227.152	29.81
227.387	33.81
227.621	50.81
227.856	26.81
228.09	45.81
228.324	50.81
228.559	61.81
228.793	67.81
229.027	82.81
229.262	72.81
229.496	62.81
229.73	59.81
229.964	71.81
230.199	80.81
230.433	89.81
230.667	81.81
230.901	69.81
231.136	87.81
231.37	81.81
231.604	90.81
231.838	93.81
232.072	88.81
232.306	88.81
232.541	94.81
232.775	74.81
233.009	94.81
233.243	87.81
233.477	76.81
233.711	81.81
233.945	79.81
234.179	93.81
234.413	92.81
234.647	83.81
234.881	82.81
235.115	87.81
235.349	86.81
235.583	84.81
235.817	77.81
236.051	74.81
236.285	79.81
236.519	78.81
236.753	78.81
236.987	79.81
237.221	86.81
237.455	71.81
237.689	83.81
237.922	69.81
238.156	84.81
238.39	79.81
238.624	95.81
238.858	86.81
239.091	78.81
239.325	79.81
239.559	87.81
239.793	83.81
240.027	70.81
240.26	80.81
240.494	82.81
240.728	79.81
240.961	89.81
241.195	93.81
241.429	86.81
241.662	86.81
241.896	94.81
242.13	76.81
242.363	80.81
242.597	85.81
242.83	82.81
243.064	82.81
243.298	96.81
243.531	76.81
243.765	91.81
243.998	77.81
244.232	82.81
244.465	69.81
244.699	78.81
244.932	87.81
245.166	90.81
245.399	85.81
245.633	87.81
245.866	86.81
246.099	83.81
246.333	73.81
246.566	76.81
246.8	90.81
247.033	86.81
247.266	79.81
247.5	87.81
247.733	77.81
247.966	86.81
248.2	90.81
248.433	70.81
248.666	82.81
248.899	93.81
249.133	79.81
249.366	83.81
249.599	84.81
249.832	83.81
250.066	90.81
250.299	74.81
250.532	76.81
250.765	77.81
250.998	74.81
251.231	84.81
251.465	93.81
251.698	95.81
251.931	84.81
252.164	87.81
252.397	67.81
252.63	83.81
252.863	90.81
253.096	78.81
253.329	72.81
253.562	84.81
253.795	80.81
254.028	73.81
254.261	80.81
254.494	88.81
254.727	92.81
254.96	74.81
255.193	81.81
255.426	69.81
255.659	89.81
255.892	74.81
256.124	74.81
256.357	86.81
256.59	88.81
256.823	86.81
257.056	104.81
257.289	78.81
257.521	89.81
257.754	74.81
257.987	92.81
258.22	93.81
258.452	92.81
258.685	83.81
258.918	89.81
259.151	92.81
259.383	72.81
259.616	83.81
259.849	101.81
260.081	87.81
260.314	85.81
260.547	80.81
260.779	80.81
261.012	78.81
261.244	86.81
261.477	87.81
261.71	83.81
261.942	98.81
262.175	90.81
262.407	71.81
262.64	76.81
262.872	86.81
263.105	80.81
263.337	78.81
263.57	83.81
263.802	94.81
264.035	92.81
264.267	81.81
264.499	70.81
264.732	86.81
264.964	91.81
265.197	80.81
265.429	86.81
265.661	96.81
265.894	77.81
266.126	78.81
266.358	79.81
266.591	84.81
266.823	90.81
267.055	83.81
267.287	74.81
267.52	87.81
267.752	77.81
267.984	85.81
268.216	93.81
268.448	88.81
268.681	66.81
268.913	86.81
269.145	102.81
269.377	91.81
269.609	95.81
269.841	96.81
270.073	74.81
270.306	92.81
270.538	82.81
270.77	88.81
271.002	94.81
271.234	83.81
271.466	95.81
271.698	103.81
271.93	81.81
272.162	98.81
272.394	95.81
272.626	86.81
272.858	90.81
273.09	84.81
273.322	94.81
273.553	100.81
273.785	83.81
274.017	79.81
274.249	86.81
274.481	82.81
274.713	84.81
274.945	88.81
275.176	86.81
275.408	85.81
275.64	87.81
275.872	88.81
276.104	86.81
276.335	88.81
276.567	93.81
276.799	87.81
277.031	81.81
277.262	92.81
277.494	105.81
277.726	83.81
277.957	86.81
278.189	86.81
278.421	91.81
278.652	75.81
278.884	102.81
279.115	85.81
279.347	81.81
279.579	93.81
279.81	80.81
280.042	93.81
280.273	89.81
280.505	89.81
280.736	92.81
280.968	97.81
281.199	86.81
281.431	83.81
281.662	93.81
281.894	82.81
282.125	81.81
282.356	83.81
282.588	85.81
282.819	79.81
283.051	90.81
283.282	91.81
283.513	104.81
283.745	86.81
283.976	86.81
284.207	92.81
284.439	88.81
284.67	87.81
284.901	94.81
285.132	89.81
285.364	88.81
285.595	83.81
285.826	93.81
286.057	85.81
286.288	87.81
286.52	88.81
286.751	104.81
286.982	85.81
287.213	90.81
287.444	79.81
287.675	97.81
287.906	97.81
288.138	97.81
288.369	85.81
288.6	84.81
288.831	79.81
289.062	93.81
289.293	91.81
289.524	87.81
289.755	85.81
289.986	90.81
290.217	93.81
290.448	96.81
290.679	75.81
290.91	91.81
291.141	92.81
291.371	78.81
291.602	91.81
291.833	76.81
292.064	100.81
292.295	79.81
292.526	87.81
292.757	84.81
292.987	98.81
293.218	88.81
293.449	104.81
293.68	96.81
293.91	87.81
294.141	91.81
294.372	94.81
294.603	96.81
294.833	91.81
295.064	92.81
295.295	90.81
295.525	90.81
295.756	88.81
295.987	79.81
296.217	88.81
296.448	88.81
296.679	94.81
296.909	76.81
297.14	94.81
297.37	93.81
297.601	83.81
297.831	78.81
298.062	100.81
298.292	82.81
298.523	91.81
298.753	95.81
298.984	94.81
299.214	94.81
299.445	93.81
299.675	76.81
299.905	80.81
300.136	79.81
300.366	84.81
300.597	84.81
300.827	91.81
301.057	99.81
301.288	100.81
301.518	83.81
301.748	96.81
301.979	75.81
302.209	98.81
302.439	90.81
302.669	86.81
302.9	92.81
303.13	90.81
303.36	81.81
303.59	87.81
303.82	77.81
304.051	85.81
304.281	98.81
304.511	87.81
304.741	92.81
304.971	90.81
305.201	71.81
305.431	89.81
305.661	89.81
305.891	85.81
306.121	90.81
306.352	109.81
306.582	91.81
306.812	79.81
307.042	91.81
307.272	90.81
307.502	64.81
307.731	76.81
307.961	90.81
308.191	86.81
308.421	79.81
308.651	86.81
308.881	74.81
309.111	74.81
309.341	80.81
309.571	87.81
309.8	92.81
310.03	80.81
310.26	97.81
310.49	80.81
310.72	84.81
310.949	84.81
311.179	93.81
311.409	83.81
311.639	101.81
311.868	90.81
312.098	83.81
312.328	79.81
312.557	96.81
312.787	80.81
313.017	90.81
313.246	83.81
313.476	78.81
313.706	104.81
313.935	95.81
314.165	95.81
314.394	89.81
314.624	93.81
314.853	78.81
315.083	75.81
315.312	100.81
315.542	90.81
315.771	94.81
316.001	94.81
316.23	94.81
316.46	93.81
316.689	93.81
316.919	81.81
317.148	87.81
317.377	99.81
317.607	88.81
317.836	84.81
318.065	98.81
318.295	83.81
318.524	76.81
318.753	89.81
318.983	95.81
319.212	84.81
319.441	89.81
319.67	94.81
319.9	76.81
320.129	88.81
320.358	88.81
320.587	91.81
320.816	84.81
321.046	83.81
321.275	87.81
321.504	90.81
321.733	80.81
321.962	87.81
322.191	75.81
322.42	80.81
322.649	78.81
322.878	97.81
323.108	80.81
323.337	86.81
323.566	105.81
323.795	89.81
324.024	78.81
324.253	81.81
324.482	81.81
324.71	106.81
324.939	80.81
325.168	76.81
325.397	86.81
325.626	102.81
325.855	92.81
326.084	93.81
326.313	99.81
326.542	75.81
326.77	91.81
326.999	88.81
327.228	85.81
327.457	88.81
327.686	85.81
327.914	94.81
328.143	92.81
328.372	90.81
328.6	77.81
328.829	87.81
329.058	95.81
329.287	83.81
329.515	91.81
329.744	101.81
329.972	87.81
330.201	100.81
330.43	94.81
330.658	79.81
330.887	77.81
331.115	98.81
331.344	89.81
331.572	87.81
331.801	99.81
332.03	99.81
332.258	94.81
332.486	88.81
332.715	101.81
332.943	104.81
333.172	82.81
333.4	90.81
333.629	87.81
333.857	87.81
334.085	103.81
334.314	89.81
334.542	96.81
334.771	84.81
334.999	81.81
335.227	73.81
335.455	85.81
335.684	88.81
335.912	98.81
336.14	79.81
336.369	94.81
336.597	87.81
336.825	100.81
337.053	78.81
337.281	66.81
337.51	81.81
337.738	92.81
337.966	77.81
338.194	88.81
338.422	95.81
338.65	85.81
338.878	77.81
339.106	91.81
339.334	81.81
339.562	95.81
339.79	80.81
340.018	92.81
340.246	92.81
340.474	84.81
340.702	93.81
340.93	78.81
341.158	86.81
341.386	81.81
341.614	98.81
341.842	83.81
342.07	83.81
342.298	86.81
342.526	86.81
342.754	90.81
342.981	94.81
343.209	86.81
343.437	93.81
343.665	81.81
343.893	70.81
344.12	78.81
344.348	96.81
344.576	83.81
344.804	87.81
345.031	88.81
345.259	103.81
345.487	76.81
345.714	77.81
345.942	89.81
346.17	80.81
346.397	95.81
346.625	84.81
346.853	82.81
347.08	93.81
347.308	86.81
347.535	107.81
347.763	92.81
347.99	104.81
348.218	83.81
348.445	86.81
348.673	87.81
348.9	79.81
349.128	101.81
349.355	92.81
349.583	89.81
349.81	95.81
350.037	103.81
350.265	83.81
350.492	88.81
350.72	81.81
350.947	97.81
351.174	82.81
351.402	80.81
351.629	103.81
351.856	88.81
352.083	83.81
352.311	76.81
352.538	86.81
352.765	84.81
352.992	84.81
353.22	75.81
353.447	83.81
353.674	91.81
353.901	74.81
354.128	98.81
354.355	98.81
354.583	97.81
354.81	84.81
355.037	80.81
355.264	89.81
355.491	85.81
355.718	88.81
355.945	100.81
356.172	94.81
356.399	82.81
356.626	85.81
356.853	94.81
357.08	83.81
357.307	88.81
357.534	97.81
357.761	90.81
357.988	87.81
358.215	107.81
358.441	92.81
358.668	88.81
358.895	91.81
359.122	81.81
359.349	92.81
359.576	91.81
359.802	87.81
360.029	95.81
360.256	78.81
360.483	77.81
360.709	93.81
360.936	94.81
361.163	86.81
361.39	86.81
361.616	90.81
361.843	97.81
362.07	82.81
362.296	95.81
362.523	74.81
362.749	83.81
362.976	86.81
363.203	84.81
363.429	86.81
363.656	86.81
363.882	80.81
364.109	107.81
364.335	89.81
364.562	98.81
364.788	98.81
365.015	94.81
365.241	83.81
365.468	89.81
365.694	97.81
365.92	93.81
366.147	96.81
366.373	89.81
366.599	99.81
366.826	103.81
367.052	80.81
367.278	90.81
367.505	87.81
367.731	100.81
367.957	97.81
368.184	98.81
368.41	93.81
368.636	76.81
368.862	106.81
369.089	80.81
369.315	85.81
369.541	89.81
369.767	85.81
369.993	88.81
370.219	80.81
370.445	79.81
370.672	79.81
370.898	87.81
371.124	84.81
371.35	86.81
371.576	97.81
371.802	81.81
372.028	87.81
372.254	96.81
372.48	106.81
372.706	84.81
372.932	97.81
373.158	95.81
373.384	88.81
373.61	101.81
373.835	112.81
374.061	99.81
374.287	101.81
374.513	102.81
374.739	90.81
374.965	92.81
375.191	78.81
375.416	90.81
375.642	99.81
375.868	104.81
376.094	93.81
376.319	85.81
376.545	89.81
376.771	97.81
376.997	89.81
377.222	81.81
377.448	100.81
377.674	87.81
377.899	96.81
378.125	89.81
378.35	85.81
378.576	94.81
378.802	90.81
379.027	101.81
379.253	95.81
379.478	78.81
379.704	94.81
379.929	95.81
380.155	95.81
380.38	93.81
380.606	94.81
380.831	85.81
381.057	92.81
381.282	98.81
381.507	78.81
381.733	87.81
381.958	89.81
382.184	105.81
382.409	93.81
382.634	94.81
382.86	76.81
383.085	92.81
383.31	98.81
383.535	105.81
383.761	101.81
383.986	109.81
384.211	88.81
384.436	84.81
384.662	99.81
384.887	101.81
385.112	91.81
385.337	85.81
385.562	90.81
385.787	96.81
386.013	97.81
386.238	102.81
386.463	90.81
386.688	97.81
386.913	94.81
387.138	108.81
387.363	97.81
387.588	91.81
387.813	93.81
388.038	108.81
388.263	107.81
388.488	84.81
388.713	98.81
388.938	88.81
389.163	98.81
389.387	89.81
389.612	104.81
389.837	91.81
390.062	100.81
390.287	93.81
390.512	92.81
390.736	95.81
390.961	102.81
391.186	83.81
391.411	88.81
391.636	103.81
391.86	96.81
392.085	102.81
392.31	111.81
392.534	96.81
392.759	99.81
392.984	105.81
393.208	118.81
393.433	93.81
393.658	94.81
393.882	91.81
394.107	110.81
394.331	88.81
394.556	95.81
394.78	101.81
395.005	99.81
395.229	107.81
395.454	109.81
395.678	99.81
395.903	99.81
396.127	112.81
396.352	96.81
396.576	98.81
396.801	99.81
397.025	110.81
397.249	105.81
397.474	95.81
397.698	104.81
397.922	107.81
398.147	102.81
398.371	94.81
398.595	103.81
398.82	116.81
399.044	109.81
399.268	117.81
399.492	116.81
399.717	116.81
399.941	100.81
400.165	118.81
400.389	122.81
400.613	103.81
400.837	111.81
401.062	102.81
401.286	107.81
401.51	95.81
401.734	116.81
401.958	102.81
402.182	114.81
402.406	101.81
402.63	102.81
402.854	100.81
403.078	120.81
403.302	103.81
403.526	104.81
403.75	119.81
403.974	101.81
404.198	106.81
404.422	115.81
404.645	96.81
404.869	111.81
405.093	116.81
405.317	121.81
405.541	117.81
405.765	121.81
405.988	107.81
406.212	111.81
406.436	109.81
406.66	115.81
406.883	110.81
407.107	114.81
407.331	122.81
407.555	107.81
407.778	106.81
408.002	105.81
408.226	109.81
408.449	113.81
408.673	109.81
408.896	103.81
409.12	101.81
409.344	110.81
409.567	115.81
409.791	105.81
410.014	119.81
410.238	116.81
410.461	116.81
410.685	107.81
410.908	108.81
411.132	116.81
411.355	130.81
411.578	125.81
411.802	112.81
412.025	102.81
412.249	111.81
412.472	108.81
412.695	102.81
412.919	98.81
413.142	119.81
413.365	106.81
413.589	116.81
413.812	113.81
414.035	120.81
414.258	107.81
414.482	115.81
414.705	119.81
414.928	116.81
415.151	124.81
415.374	95.81
415.597	95.81
415.821	110.81
416.044	106.81
416.267	111.81
416.49	112.81
416.713	116.81
416.936	122.81
417.159	117.81
417.382	94.81
417.605	113.81
417.828	112.81
418.051	121.81
418.274	122.81
418.497	109.81
418.72	118.81
418.943	122.81
419.166	123.81
419.389	149.81
419.611	117.81
419.834	134.81
420.057	124.81
420.28	121.81
420.503	120.81
420.726	111.81
420.948	114.81
421.171	124.81
421.394	124.81
421.617	128.81
421.839	126.81
422.062	117.81
422.285	119.81
422.507	115.81
422.73	103.81
422.953	122.81
423.175	128.81
423.398	110.81
423.621	110.81
423.843	110.81
424.066	132.81
424.288	130.81
424.511	126.81
424.733	108.81
424.956	124.81
425.178	114.81
425.401	123.81
425.623	113.81
425.846	106.81
426.068	127.81
426.291	114.81
426.513	122.81
426.735	104.81
426.958	113.81
427.18	111.81
427.402	120.81
427.625	121.81
427.847	132.81
428.069	132.81
428.292	132.81
428.514	129.81
428.736	113.81
428.958	112.81
429.181	126.81
429.403	115.81
429.625	104.81
429.847	98.81
430.069	116.81
430.292	120.81
430.514	110.81
430.736	111.81
430.958	107.81
431.18	106.81
431.402	92.81
431.624	106.81
431.846	103.81
432.068	95.81
432.29	102.81
432.512	117.81
432.734	114.81
432.956	109.81
433.178	107.81
433.4	118.81
433.622	116.81
433.844	118.81
434.066	113.81
434.287	106.81
434.509	99.81
434.731	125.81
434.953	113.81
435.175	117.81
435.397	125.81
435.618	115.81
435.84	106.81
436.062	114.81
436.284	112.81
436.505	114.81
436.727	123.81
436.949	119.81
437.17	107.81
437.392	112.81
437.614	106.81
437.835	96.81
438.057	121.81
438.278	105.81
438.5	116.81
438.721	104.81
438.943	110.81
439.165	105.81
439.386	109.81
439.608	110.81
439.829	112.81
440.05	127.81
440.272	114.81
440.493	108.81
440.715	122.81
440.936	117.81
441.158	133.81
441.379	124.81
441.6	119.81
441.822	126.81
442.043	112.81
442.264	127.81
442.486	125.81
442.707	125.81
442.928	123.81
443.149	111.81
443.371	109.81
443.592	110.81
443.813	128.81
444.034	111.81
444.255	111.81
444.476	122.81
444.698	129.81
444.919	126.81
445.14	274.81
445.361	190.81
445.582	129.81
445.803	126.81
446.024	138.81
446.245	125.81
446.466	124.81
446.687	140.81
446.908	112.81
447.129	126.81
447.35	120.81
447.571	114.81
447.792	126.81
448.013	112.81
448.234	107.81
448.455	111.81
448.675	106.81
448.896	110.81
449.117	130.81
449.338	130.81
449.559	111.81
449.779	105.81
450	119.81
450.221	111.81
450.442	109.81
450.662	127.81
450.883	116.81
451.104	111.81
451.324	116.81
451.545	100.81
451.766	123.81
451.986	109.81
452.207	117.81
452.428	101.81
452.648	130.81
452.869	99.81
453.089	113.81
453.31	111.81
453.53	118.81
453.751	102.81
453.971	108.81
454.192	105.81
454.412	114.81
454.633	114.81
454.853	100.81
455.073	114.81
455.294	123.81
455.514	115.81
455.734	100.81
455.955	116.81
456.175	96.81
456.395	110.81
456.616	93.81
456.836	104.81
457.056	108.81
457.276	94.81
457.497	103.81
457.717	99.81
457.937	112.81
458.157	105.81
458.377	120.81
458.598	104.81
458.818	96.81
459.038	123.81
459.258	99.81
459.478	104.81
459.698	111.81
459.918	111.81
460.138	113.81
460.358	116.81
460.578	117.81
460.798	115.81
461.018	108.81
461.238	119.81
461.458	116.81
461.678	123.81
461.898	114.81
462.118	103.81
462.338	114.81
462.558	134.81
462.777	122.81
462.997	113.81
463.217	111.81
463.437	126.81
463.657	128.81
463.876	128.81
464.096	121.81
464.316	116.81
464.536	126.81
464.755	122.81
464.975	126.81
465.195	129.81
465.414	132.81
465.634	116.81
465.854	115.81
466.073	119.81
466.293	127.81
466.512	108.81
466.732	106.81
466.951	120.81
467.171	130.81
467.391	116.81
467.61	131.81
467.829	122.81
468.049	116.81
468.268	121.81
468.488	110.81
468.707	110.81
468.927	116.81
469.146	140.81
469.365	116.81
469.585	113.81
469.804	122.81
470.023	117.81
470.243	116.81
470.462	123.81
470.681	126.81
470.901	123.81
471.12	127.81
471.339	139.81
471.558	116.81
471.777	139.81
471.997	120.81
472.216	117.81
472.435	114.81
472.654	109.81
472.873	116.81
473.092	111.81
473.311	119.81
473.53	118.81
473.749	121.81
473.968	126.81
474.187	122.81
474.406	119.81
474.625	111.81
474.844	111.81
475.063	117.81
475.282	105.81
475.501	124.81
475.72	136.81
475.939	122.81
476.158	123.81
476.377	130.81
476.596	133.81
476.814	120.81
477.033	119.81
477.252	107.81
477.471	114.81
477.69	104.81
477.908	121.81
478.127	132.81
478.346	128.81
478.564	138.81
478.783	135.81
479.002	127.81
479.22	117.81
479.439	132.81
479.658	125.81
479.876	119.81
480.095	131.81
480.313	134.81
480.532	134.81
480.751	110.81
480.969	124.81
481.188	108.81
481.406	108.81
481.624	118.81
481.843	116.81
482.061	132.81
482.28	115.81
482.498	127.81
482.717	123.81
482.935	116.81
483.153	126.81
483.372	122.81
483.59	139.81
483.808	129.81
484.027	116.81
484.245	130.81
484.463	130.81
484.681	124.81
484.9	145.81
485.118	124.81
485.336	99.81
485.554	118.81
485.772	102.81
485.99	104.81
486.209	126.81
486.427	131.81
486.645	130.81
486.863	132.81
487.081	129.81
487.299	131.81
487.517	124.81
487.735	134.81
487.953	140.81
488.171	143.81
488.389	158.81
488.607	142.81
488.825	135.81
489.043	124.81
489.261	125.81
489.479	127.81
489.696	118.81
489.914	135.81
490.132	119.81
490.35	149.81
490.568	148.81
490.786	163.81
491.003	144.81
491.221	147.81
491.439	150.81
491.657	157.81
491.874	160.81
492.092	162.81
492.31	160.81
492.527	163.81
492.745	169.81
492.963	182.81
493.18	146.81
493.398	165.81
493.615	140.81
493.833	158.81
494.05	152.81
494.268	154.81
494.485	140.81
494.703	159.81
494.92	157.81
495.138	152.81
495.355	170.81
495.573	156.81
495.79	138.81
496.008	149.81
496.225	150.81
496.442	160.81
496.66	151.81
496.877	145.81
497.094	154.81
497.312	151.81
497.529	141.81
497.746	151.81
497.963	138.81
498.181	163.81
498.398	158.81
498.615	140.81
498.832	164.81
499.049	150.81
499.267	158.81
499.484	171.81
499.701	175.81
499.918	192.81
500.135	202.81
500.352	202.81
500.569	211.81
500.786	221.81
501.003	196.81
501.22	208.81
501.437	188.81
501.654	172.81
501.871	167.81
502.088	169.81
502.305	150.81
502.522	151.81
502.739	147.81
502.956	134.81
503.172	134.81
503.389	152.81
503.606	134.81
503.823	150.81
504.04	135.81
504.256	140.81
504.473	144.81
504.69	146.81
504.907	144.81
505.123	135.81
505.34	143.81
505.557	131.81
505.773	125.81
505.99	131.81
506.207	122.81
506.423	107.81
506.64	126.81
506.856	134.81
507.073	116.81
507.289	125.81
507.506	109.81
507.722	122.81
507.939	126.81
508.155	128.81
508.372	123.81
508.588	107.81
508.805	125.81
509.021	111.81
509.238	116.81
509.454	130.81
509.67	110.81
509.887	114.81
510.103	116.81
510.319	125.81
510.536	109.81
510.752	95.81
510.968	127.81
511.184	112.81
