Data from StandardFe(NO3)3.TAE.3%Agarose.FlatLispGreen.Lamp.Energy10.07252019_HRD10591_11-54-58-441.txt Node
Date: Thu Jul 25 11:54:58 EDT 2019
User: cochatt
Spectrometer: HR+D1059
Trigger mode: 1
Integration Time (sec): 1.000000E-1
Scans to average: 1
Electric dark correction enabled: true
Nonlinearity correction enabled: false
Boxcar width: 0
XAxis mode: Wavelengths
Number of Pixels in Spectrum: 2048
>>>>>Begin Spectral Data<<<<<
223.165	-20.31
223.4	-20.31
223.635	-20.31
223.869	-16.31
224.104	-19.31
224.338	-16.31
224.573	-31.31
224.808	-24.31
225.042	3.69
225.277	-5.31
225.511	0.69
225.746	8.69
225.98	5.69
226.215	8.69
226.449	24.69
226.683	31.69
226.918	18.69
227.152	30.69
227.387	26.69
227.621	36.69
227.856	31.69
228.09	32.69
228.324	46.69
228.559	54.69
228.793	52.69
229.027	50.69
229.262	54.69
229.496	57.69
229.73	67.69
229.964	55.69
230.199	78.69
230.433	68.69
230.667	59.69
230.901	70.69
231.136	56.69
231.37	71.69
231.604	79.69
231.838	74.69
232.072	74.69
232.306	74.69
232.541	79.69
232.775	83.69
233.009	86.69
233.243	77.69
233.477	73.69
233.711	77.69
233.945	83.69
234.179	94.69
234.413	78.69
234.647	80.69
234.881	84.69
235.115	81.69
235.349	69.69
235.583	74.69
235.817	75.69
236.051	77.69
236.285	77.69
236.519	79.69
236.753	85.69
236.987	79.69
237.221	77.69
237.455	67.69
237.689	73.69
237.922	81.69
238.156	66.69
238.39	66.69
238.624	69.69
238.858	60.69
239.091	71.69
239.325	70.69
239.559	77.69
239.793	81.69
240.027	67.69
240.26	72.69
240.494	81.69
240.728	73.69
240.961	72.69
241.195	76.69
241.429	62.69
241.662	77.69
241.896	74.69
242.13	65.69
242.363	74.69
242.597	70.69
242.83	65.69
243.064	67.69
243.298	80.69
243.531	68.69
243.765	73.69
243.998	77.69
244.232	78.69
244.465	69.69
244.699	65.69
244.932	70.69
245.166	77.69
245.399	69.69
245.633	75.69
245.866	81.69
246.099	80.69
246.333	67.69
246.566	66.69
246.8	82.69
247.033	83.69
247.266	77.69
247.5	71.69
247.733	75.69
247.966	81.69
248.2	71.69
248.433	69.69
248.666	78.69
248.899	71.69
249.133	79.69
249.366	68.69
249.599	80.69
249.832	88.69
250.066	76.69
250.299	82.69
250.532	76.69
250.765	73.69
250.998	73.69
251.231	87.69
251.465	62.69
251.698	76.69
251.931	71.69
252.164	76.69
252.397	83.69
252.63	86.69
252.863	61.69
253.096	81.69
253.329	81.69
253.562	69.69
253.795	74.69
254.028	83.69
254.261	71.69
254.494	82.69
254.727	72.69
254.96	81.69
255.193	75.69
255.426	77.69
255.659	72.69
255.892	88.69
256.124	80.69
256.357	88.69
256.59	79.69
256.823	81.69
257.056	80.69
257.289	81.69
257.521	71.69
257.754	58.69
257.987	67.69
258.22	81.69
258.452	65.69
258.685	80.69
258.918	78.69
259.151	88.69
259.383	82.69
259.616	84.69
259.849	82.69
260.081	88.69
260.314	74.69
260.547	80.69
260.779	86.69
261.012	77.69
261.244	63.69
261.477	71.69
261.71	74.69
261.942	65.69
262.175	77.69
262.407	81.69
262.64	83.69
262.872	79.69
263.105	80.69
263.337	78.69
263.57	72.69
263.802	73.69
264.035	81.69
264.267	74.69
264.499	81.69
264.732	73.69
264.964	97.69
265.197	88.69
265.429	90.69
265.661	78.69
265.894	78.69
266.126	72.69
266.358	70.69
266.591	91.69
266.823	75.69
267.055	75.69
267.287	74.69
267.52	85.69
267.752	82.69
267.984	71.69
268.216	73.69
268.448	74.69
268.681	83.69
268.913	100.69
269.145	87.69
269.377	68.69
269.609	67.69
269.841	77.69
270.073	80.69
270.306	75.69
270.538	88.69
270.77	69.69
271.002	86.69
271.234	61.69
271.466	75.69
271.698	77.69
271.93	82.69
272.162	77.69
272.394	79.69
272.626	71.69
272.858	86.69
273.09	76.69
273.322	84.69
273.553	84.69
273.785	79.69
274.017	93.69
274.249	91.69
274.481	76.69
274.713	81.69
274.945	86.69
275.176	81.69
275.408	74.69
275.64	88.69
275.872	78.69
276.104	83.69
276.335	85.69
276.567	87.69
276.799	82.69
277.031	71.69
277.262	72.69
277.494	83.69
277.726	75.69
277.957	84.69
278.189	83.69
278.421	80.69
278.652	68.69
278.884	90.69
279.115	83.69
279.347	77.69
279.579	84.69
279.81	76.69
280.042	84.69
280.273	84.69
280.505	96.69
280.736	82.69
280.968	83.69
281.199	78.69
281.431	93.69
281.662	71.69
281.894	80.69
282.125	93.69
282.356	80.69
282.588	76.69
282.819	75.69
283.051	88.69
283.282	71.69
283.513	88.69
283.745	68.69
283.976	72.69
284.207	71.69
284.439	85.69
284.67	68.69
284.901	80.69
285.132	85.69
285.364	83.69
285.595	83.69
285.826	79.69
286.057	79.69
286.288	89.69
286.52	97.69
286.751	86.69
286.982	79.69
287.213	62.69
287.444	84.69
287.675	84.69
287.906	83.69
288.138	69.69
288.369	85.69
288.6	76.69
288.831	67.69
289.062	82.69
289.293	81.69
289.524	68.69
289.755	88.69
289.986	81.69
290.217	84.69
290.448	76.69
290.679	75.69
290.91	79.69
291.141	105.69
291.371	89.69
291.602	84.69
291.833	81.69
292.064	72.69
292.295	78.69
292.526	76.69
292.757	78.69
292.987	75.69
293.218	76.69
293.449	76.69
293.68	77.69
293.91	79.69
294.141	69.69
294.372	81.69
294.603	77.69
294.833	89.69
295.064	78.69
295.295	85.69
295.525	85.69
295.756	80.69
295.987	83.69
296.217	86.69
296.448	77.69
296.679	86.69
296.909	66.69
297.14	74.69
297.37	79.69
297.601	78.69
297.831	86.69
298.062	78.69
298.292	75.69
298.523	88.69
298.753	71.69
298.984	70.69
299.214	72.69
299.445	71.69
299.675	89.69
299.905	82.69
300.136	81.69
300.366	82.69
300.597	78.69
300.827	81.69
301.057	82.69
301.288	73.69
301.518	84.69
301.748	73.69
301.979	76.69
302.209	80.69
302.439	73.69
302.669	81.69
302.9	79.69
303.13	88.69
303.36	70.69
303.59	74.69
303.82	88.69
304.051	83.69
304.281	85.69
304.511	84.69
304.741	76.69
304.971	82.69
305.201	83.69
305.431	83.69
305.661	80.69
305.891	87.69
306.121	83.69
306.352	83.69
306.582	81.69
306.812	80.69
307.042	88.69
307.272	71.69
307.502	82.69
307.731	72.69
307.961	97.69
308.191	81.69
308.421	91.69
308.651	90.69
308.881	96.69
309.111	90.69
309.341	89.69
309.571	88.69
309.8	97.69
310.03	82.69
310.26	73.69
310.49	63.69
310.72	73.69
310.949	78.69
311.179	81.69
311.409	76.69
311.639	93.69
311.868	80.69
312.098	80.69
312.328	76.69
312.557	95.69
312.787	84.69
313.017	90.69
313.246	70.69
313.476	88.69
313.706	88.69
313.935	96.69
314.165	74.69
314.394	87.69
314.624	78.69
314.853	83.69
315.083	73.69
315.312	82.69
315.542	88.69
315.771	88.69
316.001	86.69
316.23	84.69
316.46	88.69
316.689	66.69
316.919	86.69
317.148	91.69
317.377	84.69
317.607	98.69
317.836	85.69
318.065	82.69
318.295	88.69
318.524	85.69
318.753	77.69
318.983	85.69
319.212	74.69
319.441	76.69
319.67	85.69
319.9	91.69
320.129	82.69
320.358	80.69
320.587	90.69
320.816	81.69
321.046	77.69
321.275	89.69
321.504	79.69
321.733	90.69
321.962	80.69
322.191	84.69
322.42	81.69
322.649	93.69
322.878	60.69
323.108	80.69
323.337	98.69
323.566	83.69
323.795	88.69
324.024	85.69
324.253	76.69
324.482	83.69
324.71	78.69
324.939	80.69
325.168	84.69
325.397	87.69
325.626	70.69
325.855	71.69
326.084	91.69
326.313	87.69
326.542	80.69
326.77	85.69
326.999	81.69
327.228	80.69
327.457	78.69
327.686	97.69
327.914	90.69
328.143	74.69
328.372	86.69
328.6	72.69
328.829	67.69
329.058	78.69
329.287	80.69
329.515	87.69
329.744	79.69
329.972	85.69
330.201	66.69
330.43	85.69
330.658	84.69
330.887	93.69
331.115	90.69
331.344	93.69
331.572	99.69
331.801	85.69
332.03	93.69
332.258	82.69
332.486	93.69
332.715	80.69
332.943	81.69
333.172	75.69
333.4	72.69
333.629	90.69
333.857	80.69
334.085	81.69
334.314	81.69
334.542	79.69
334.771	83.69
334.999	95.69
335.227	89.69
335.455	71.69
335.684	79.69
335.912	73.69
336.14	83.69
336.369	82.69
336.597	87.69
336.825	95.69
337.053	73.69
337.281	82.69
337.51	89.69
337.738	84.69
337.966	74.69
338.194	88.69
338.422	77.69
338.65	80.69
338.878	80.69
339.106	79.69
339.334	84.69
339.562	81.69
339.79	93.69
340.018	74.69
340.246	76.69
340.474	84.69
340.702	89.69
340.93	67.69
341.158	68.69
341.386	68.69
341.614	86.69
341.842	79.69
342.07	79.69
342.298	87.69
342.526	72.69
342.754	79.69
342.981	76.69
343.209	87.69
343.437	76.69
343.665	82.69
343.893	79.69
344.12	86.69
344.348	93.69
344.576	84.69
344.804	69.69
345.031	82.69
345.259	89.69
345.487	83.69
345.714	80.69
345.942	79.69
346.17	89.69
346.397	88.69
346.625	91.69
346.853	81.69
347.08	79.69
347.308	83.69
347.535	69.69
347.763	88.69
347.99	84.69
348.218	85.69
348.445	67.69
348.673	77.69
348.9	76.69
349.128	80.69
349.355	83.69
349.583	93.69
349.81	97.69
350.037	80.69
350.265	91.69
350.492	82.69
350.72	79.69
350.947	92.69
351.174	92.69
351.402	73.69
351.629	79.69
351.856	99.69
352.083	92.69
352.311	78.69
352.538	83.69
352.765	83.69
352.992	77.69
353.22	69.69
353.447	97.69
353.674	101.69
353.901	81.69
354.128	80.69
354.355	90.69
354.583	78.69
354.81	80.69
355.037	85.69
355.264	80.69
355.491	77.69
355.718	88.69
355.945	79.69
356.172	73.69
356.399	85.69
356.626	86.69
356.853	70.69
357.08	89.69
357.307	79.69
357.534	75.69
357.761	89.69
357.988	90.69
358.215	79.69
358.441	79.69
358.668	101.69
358.895	98.69
359.122	86.69
359.349	84.69
359.576	77.69
359.802	77.69
360.029	88.69
360.256	78.69
360.483	78.69
360.709	84.69
360.936	77.69
361.163	90.69
361.39	81.69
361.616	78.69
361.843	89.69
362.07	93.69
362.296	89.69
362.523	73.69
362.749	85.69
362.976	71.69
363.203	78.69
363.429	82.69
363.656	91.69
363.882	90.69
364.109	88.69
364.335	80.69
364.562	83.69
364.788	80.69
365.015	68.69
365.241	93.69
365.468	83.69
365.694	95.69
365.92	92.69
366.147	84.69
366.373	81.69
366.599	73.69
366.826	85.69
367.052	78.69
367.278	86.69
367.505	91.69
367.731	84.69
367.957	82.69
368.184	85.69
368.41	90.69
368.636	88.69
368.862	95.69
369.089	88.69
369.315	70.69
369.541	78.69
369.767	91.69
369.993	78.69
370.219	87.69
370.445	84.69
370.672	77.69
370.898	89.69
371.124	80.69
371.35	85.69
371.576	85.69
371.802	87.69
372.028	90.69
372.254	96.69
372.48	76.69
372.706	75.69
372.932	73.69
373.158	84.69
373.384	85.69
373.61	75.69
373.835	84.69
374.061	85.69
374.287	89.69
374.513	80.69
374.739	80.69
374.965	92.69
375.191	91.69
375.416	88.69
375.642	89.69
375.868	87.69
376.094	102.69
376.319	84.69
376.545	79.69
376.771	92.69
376.997	102.69
377.222	85.69
377.448	95.69
377.674	91.69
377.899	94.69
378.125	101.69
378.35	83.69
378.576	90.69
378.802	87.69
379.027	81.69
379.253	76.69
379.478	87.69
379.704	65.69
379.929	89.69
380.155	91.69
380.38	85.69
380.606	85.69
380.831	79.69
381.057	86.69
381.282	88.69
381.507	84.69
381.733	93.69
381.958	103.69
382.184	103.69
382.409	95.69
382.634	73.69
382.86	76.69
383.085	94.69
383.31	89.69
383.535	68.69
383.761	89.69
383.986	95.69
384.211	94.69
384.436	94.69
384.662	85.69
384.887	92.69
385.112	85.69
385.337	78.69
385.562	93.69
385.787	89.69
386.013	88.69
386.238	85.69
386.463	85.69
386.688	91.69
386.913	84.69
387.138	101.69
387.363	75.69
387.588	92.69
387.813	77.69
388.038	87.69
388.263	88.69
388.488	88.69
388.713	81.69
388.938	81.69
389.163	86.69
389.387	89.69
389.612	80.69
389.837	88.69
390.062	81.69
390.287	86.69
390.512	85.69
390.736	85.69
390.961	85.69
391.186	85.69
391.411	96.69
391.636	80.69
391.86	96.69
392.085	109.69
392.31	91.69
392.534	81.69
392.759	99.69
392.984	83.69
393.208	94.69
393.433	104.69
393.658	99.69
393.882	94.69
394.107	99.69
394.331	92.69
394.556	92.69
394.78	90.69
395.005	90.69
395.229	119.69
395.454	98.69
395.678	104.69
395.903	109.69
396.127	107.69
396.352	94.69
396.576	87.69
396.801	86.69
397.025	90.69
397.249	93.69
397.474	99.69
397.698	109.69
397.922	99.69
398.147	94.69
398.371	95.69
398.595	100.69
398.82	102.69
399.044	98.69
399.268	101.69
399.492	114.69
399.717	117.69
399.941	110.69
400.165	114.69
400.389	105.69
400.613	102.69
400.837	112.69
401.062	101.69
401.286	102.69
401.51	104.69
401.734	104.69
401.958	99.69
402.182	112.69
402.406	100.69
402.63	101.69
402.854	111.69
403.078	106.69
403.302	112.69
403.526	110.69
403.75	116.69
403.974	101.69
404.198	107.69
404.422	111.69
404.645	102.69
404.869	107.69
405.093	109.69
405.317	99.69
405.541	103.69
405.765	125.69
405.988	109.69
406.212	100.69
406.436	92.69
406.66	98.69
406.883	101.69
407.107	114.69
407.331	101.69
407.555	121.69
407.778	115.69
408.002	99.69
408.226	131.69
408.449	109.69
408.673	98.69
408.896	100.69
409.12	97.69
409.344	94.69
409.567	99.69
409.791	112.69
410.014	109.69
410.238	113.69
410.461	89.69
410.685	97.69
410.908	123.69
411.132	117.69
411.355	106.69
411.578	107.69
411.802	114.69
412.025	100.69
412.249	102.69
412.472	117.69
412.695	119.69
412.919	109.69
413.142	107.69
413.365	109.69
413.589	103.69
413.812	113.69
414.035	101.69
414.258	106.69
414.482	107.69
414.705	98.69
414.928	104.69
415.151	120.69
415.374	118.69
415.597	105.69
415.821	104.69
416.044	103.69
416.267	112.69
416.49	119.69
416.713	99.69
416.936	120.69
417.159	100.69
417.382	103.69
417.605	113.69
417.828	115.69
418.051	104.69
418.274	115.69
418.497	88.69
418.72	114.69
418.943	120.69
419.166	124.69
419.389	121.69
419.611	118.69
419.834	117.69
420.057	118.69
420.28	113.69
420.503	105.69
420.726	119.69
420.948	95.69
421.171	109.69
421.394	109.69
421.617	125.69
421.839	114.69
422.062	113.69
422.285	120.69
422.507	112.69
422.73	103.69
422.953	105.69
423.175	100.69
423.398	112.69
423.621	120.69
423.843	110.69
424.066	118.69
424.288	114.69
424.511	122.69
424.733	126.69
424.956	121.69
425.178	101.69
425.401	102.69
425.623	102.69
425.846	131.69
426.068	117.69
426.291	103.69
426.513	111.69
426.735	107.69
426.958	104.69
427.18	111.69
427.402	114.69
427.625	115.69
427.847	126.69
428.069	112.69
428.292	110.69
428.514	105.69
428.736	109.69
428.958	86.69
429.181	97.69
429.403	102.69
429.625	109.69
429.847	111.69
430.069	109.69
430.292	107.69
430.514	111.69
430.736	113.69
430.958	94.69
431.18	105.69
431.402	123.69
431.624	112.69
431.846	101.69
432.068	100.69
432.29	99.69
432.512	105.69
432.734	107.69
432.956	120.69
433.178	126.69
433.4	115.69
433.622	104.69
433.844	102.69
434.066	114.69
434.287	106.69
434.509	107.69
434.731	109.69
434.953	98.69
435.175	113.69
435.397	117.69
435.618	110.69
435.84	102.69
436.062	105.69
436.284	114.69
436.505	119.69
436.727	114.69
436.949	111.69
437.17	117.69
437.392	104.69
437.614	100.69
437.835	93.69
438.057	110.69
438.278	94.69
438.5	101.69
438.721	115.69
438.943	127.69
439.165	111.69
439.386	117.69
439.608	118.69
439.829	113.69
440.05	126.69
440.272	126.69
440.493	102.69
440.715	112.69
440.936	112.69
441.158	127.69
441.379	105.69
441.6	117.69
441.822	135.69
442.043	119.69
442.264	112.69
442.486	116.69
442.707	128.69
442.928	105.69
443.149	117.69
443.371	115.69
443.592	128.69
443.813	104.69
444.034	109.69
444.255	100.69
444.476	119.69
444.698	113.69
444.919	117.69
445.14	236.69
445.361	155.69
445.582	113.69
445.803	114.69
446.024	126.69
446.245	128.69
446.466	123.69
446.687	116.69
446.908	118.69
447.129	116.69
447.35	129.69
447.571	99.69
447.792	117.69
448.013	118.69
448.234	108.69
448.455	116.69
448.675	105.69
448.896	115.69
449.117	110.69
449.338	114.69
449.559	111.69
449.779	107.69
450	97.69
450.221	114.69
450.442	110.69
450.662	125.69
450.883	109.69
451.104	108.69
451.324	118.69
451.545	109.69
451.766	112.69
451.986	112.69
452.207	96.69
452.428	104.69
452.648	110.69
452.869	102.69
453.089	103.69
453.31	108.69
453.53	118.69
453.751	90.69
453.971	87.69
454.192	93.69
454.412	110.69
454.633	101.69
454.853	104.69
455.073	106.69
455.294	113.69
455.514	109.69
455.734	107.69
455.955	107.69
456.175	116.69
456.395	111.69
456.616	114.69
456.836	99.69
457.056	103.69
457.276	100.69
457.497	102.69
457.717	108.69
457.937	103.69
458.157	107.69
458.377	99.69
458.598	93.69
458.818	100.69
459.038	105.69
459.258	103.69
459.478	96.69
459.698	101.69
459.918	108.69
460.138	102.69
460.358	101.69
460.578	114.69
460.798	117.69
461.018	117.69
461.238	108.69
461.458	107.69
461.678	98.69
461.898	115.69
462.118	104.69
462.338	113.69
462.558	135.69
462.777	116.69
462.997	117.69
463.217	123.69
463.437	123.69
463.657	133.69
463.876	121.69
464.096	118.69
464.316	116.69
464.536	113.69
464.755	124.69
464.975	118.69
465.195	125.69
465.414	107.69
465.634	94.69
465.854	111.69
466.073	102.69
466.293	110.69
466.512	102.69
466.732	115.69
466.951	111.69
467.171	112.69
467.391	124.69
467.61	122.69
467.829	112.69
468.049	115.69
468.268	119.69
468.488	107.69
468.707	115.69
468.927	112.69
469.146	104.69
469.365	111.69
469.585	104.69
469.804	127.69
470.023	112.69
470.243	124.69
470.462	114.69
470.681	113.69
470.901	119.69
471.12	116.69
471.339	120.69
471.558	124.69
471.777	120.69
471.997	109.69
472.216	107.69
472.435	108.69
472.654	103.69
472.873	110.69
473.092	100.69
473.311	119.69
473.53	118.69
473.749	113.69
473.968	111.69
474.187	120.69
474.406	118.69
474.625	111.69
474.844	123.69
475.063	114.69
475.282	113.69
475.501	99.69
475.72	124.69
475.939	118.69
476.158	129.69
476.377	127.69
476.596	128.69
476.814	103.69
477.033	119.69
477.252	97.69
477.471	120.69
477.69	123.69
477.908	117.69
478.127	120.69
478.346	115.69
478.564	123.69
478.783	132.69
479.002	129.69
479.22	116.69
479.439	115.69
479.658	122.69
479.876	125.69
480.095	119.69
480.313	121.69
480.532	123.69
480.751	123.69
480.969	123.69
481.188	129.69
481.406	126.69
481.624	128.69
481.843	109.69
482.061	98.69
482.28	123.69
482.498	109.69
482.717	117.69
482.935	111.69
483.153	128.69
483.372	130.69
483.59	124.69
483.808	129.69
484.027	138.69
484.245	100.69
484.463	127.69
484.681	127.69
484.9	126.69
485.118	130.69
485.336	112.69
485.554	120.69
485.772	116.69
485.99	133.69
486.209	110.69
486.427	122.69
486.645	124.69
486.863	128.69
487.081	116.69
487.299	116.69
487.517	120.69
487.735	125.69
487.953	144.69
488.171	159.69
488.389	153.69
488.607	131.69
488.825	118.69
489.043	123.69
489.261	121.69
489.479	131.69
489.696	142.69
489.914	123.69
490.132	123.69
490.35	139.69
490.568	137.69
490.786	127.69
491.003	134.69
491.221	147.69
491.439	141.69
491.657	148.69
491.874	147.69
492.092	154.69
492.31	171.69
492.527	164.69
492.745	151.69
492.963	148.69
493.18	147.69
493.398	144.69
493.615	146.69
493.833	130.69
494.05	157.69
494.268	128.69
494.485	145.69
494.703	132.69
494.92	139.69
495.138	159.69
495.355	161.69
495.573	156.69
495.79	136.69
496.008	123.69
496.225	134.69
496.442	133.69
496.66	143.69
496.877	123.69
497.094	143.69
497.312	134.69
497.529	160.69
497.746	147.69
497.963	136.69
498.181	132.69
498.398	127.69
498.615	136.69
498.832	144.69
499.049	155.69
499.267	160.69
499.484	150.69
499.701	179.69
499.918	183.69
500.135	195.69
500.352	201.69
500.569	231.69
500.786	249.69
501.003	207.69
501.22	197.69
501.437	168.69
501.654	180.69
501.871	154.69
502.088	158.69
502.305	149.69
502.522	151.69
502.739	130.69
502.956	130.69
503.172	137.69
503.389	138.69
503.606	143.69
503.823	123.69
504.04	129.69
504.256	137.69
504.473	135.69
504.69	129.69
504.907	136.69
505.123	119.69
505.34	122.69
505.557	131.69
505.773	133.69
505.99	126.69
506.207	118.69
506.423	124.69
506.64	113.69
506.856	114.69
507.073	125.69
507.289	132.69
507.506	125.69
507.722	118.69
507.939	107.69
508.155	118.69
508.372	123.69
508.588	107.69
508.805	133.69
509.021	119.69
509.238	117.69
509.454	108.69
509.67	113.69
509.887	110.69
510.103	111.69
510.319	123.69
510.536	104.69
510.752	117.69
510.968	110.69
511.184	108.69
511.401	93.69
511.617	102.69
511.833	97.69
512.049	95.69
512.265	107.69
