Data from StandardFe(NO3)3.TAE.3%Agarose.FlatLispGreen.Lamp.Energy10.07252019_HRD10591_11-53-57-439.txt Node
Date: Thu Jul 25 11:53:57 EDT 2019
User: cochatt
Spectrometer: HR+D1059
Trigger mode: 1
Integration Time (sec): 1.000000E-1
Scans to average: 1
Electric dark correction enabled: true
Nonlinearity correction enabled: false
Boxcar width: 0
XAxis mode: Wavelengths
Number of Pixels in Spectrum: 2048
>>>>>Begin Spectral Data<<<<<
223.165	-16.5
223.4	-16.5
223.635	-16.5
223.869	-18.5
224.104	-16.5
224.338	-19.5
224.573	-16.5
224.808	-2.5
225.042	-19.5
225.277	3.5
225.511	-0.5
225.746	1.5
225.98	-8.5
226.215	5.5
226.449	10.5
226.683	29.5
226.918	30.5
227.152	37.5
227.387	10.5
227.621	38.5
227.856	53.5
228.09	52.5
228.324	45.5
228.559	53.5
228.793	56.5
229.027	68.5
229.262	54.5
229.496	70.5
229.73	65.5
229.964	48.5
230.199	68.5
230.433	81.5
230.667	76.5
230.901	74.5
231.136	66.5
231.37	74.5
231.604	72.5
231.838	73.5
232.072	76.5
232.306	81.5
232.541	75.5
232.775	72.5
233.009	66.5
233.243	81.5
233.477	84.5
233.711	72.5
233.945	82.5
234.179	78.5
234.413	86.5
234.647	80.5
234.881	79.5
235.115	97.5
235.349	89.5
235.583	84.5
235.817	73.5
236.051	75.5
236.285	75.5
236.519	71.5
236.753	68.5
236.987	57.5
237.221	66.5
237.455	76.5
237.689	72.5
237.922	74.5
238.156	64.5
238.39	69.5
238.624	67.5
238.858	67.5
239.091	56.5
239.325	73.5
239.559	90.5
239.793	69.5
240.027	68.5
240.26	71.5
240.494	76.5
240.728	66.5
240.961	60.5
241.195	71.5
241.429	85.5
241.662	81.5
241.896	80.5
242.13	83.5
242.363	79.5
242.597	71.5
242.83	81.5
243.064	67.5
243.298	68.5
243.531	66.5
243.765	76.5
243.998	75.5
244.232	86.5
244.465	60.5
244.699	82.5
244.932	74.5
245.166	71.5
245.399	84.5
245.633	77.5
245.866	71.5
246.099	79.5
246.333	70.5
246.566	70.5
246.8	75.5
247.033	70.5
247.266	76.5
247.5	73.5
247.733	72.5
247.966	79.5
248.2	77.5
248.433	72.5
248.666	67.5
248.899	82.5
249.133	76.5
249.366	82.5
249.599	76.5
249.832	69.5
250.066	76.5
250.299	80.5
250.532	73.5
250.765	78.5
250.998	86.5
251.231	68.5
251.465	79.5
251.698	88.5
251.931	82.5
252.164	76.5
252.397	78.5
252.63	82.5
252.863	72.5
253.096	71.5
253.329	85.5
253.562	76.5
253.795	80.5
254.028	69.5
254.261	79.5
254.494	74.5
254.727	84.5
254.96	74.5
255.193	68.5
255.426	80.5
255.659	75.5
255.892	82.5
256.124	89.5
256.357	88.5
256.59	78.5
256.823	74.5
257.056	78.5
257.289	74.5
257.521	64.5
257.754	80.5
257.987	73.5
258.22	88.5
258.452	78.5
258.685	85.5
258.918	66.5
259.151	75.5
259.383	64.5
259.616	69.5
259.849	73.5
260.081	82.5
260.314	74.5
260.547	76.5
260.779	83.5
261.012	81.5
261.244	81.5
261.477	80.5
261.71	77.5
261.942	57.5
262.175	58.5
262.407	73.5
262.64	87.5
262.872	79.5
263.105	77.5
263.337	80.5
263.57	81.5
263.802	75.5
264.035	76.5
264.267	91.5
264.499	82.5
264.732	84.5
264.964	87.5
265.197	74.5
265.429	76.5
265.661	68.5
265.894	74.5
266.126	90.5
266.358	82.5
266.591	81.5
266.823	64.5
267.055	81.5
267.287	72.5
267.52	80.5
267.752	73.5
267.984	76.5
268.216	80.5
268.448	97.5
268.681	96.5
268.913	90.5
269.145	59.5
269.377	74.5
269.609	73.5
269.841	85.5
270.073	92.5
270.306	87.5
270.538	87.5
270.77	80.5
271.002	96.5
271.234	80.5
271.466	73.5
271.698	90.5
271.93	80.5
272.162	77.5
272.394	75.5
272.626	79.5
272.858	78.5
273.09	84.5
273.322	81.5
273.553	75.5
273.785	87.5
274.017	84.5
274.249	78.5
274.481	92.5
274.713	69.5
274.945	86.5
275.176	81.5
275.408	81.5
275.64	76.5
275.872	77.5
276.104	93.5
276.335	97.5
276.567	68.5
276.799	66.5
277.031	88.5
277.262	84.5
277.494	92.5
277.726	79.5
277.957	83.5
278.189	92.5
278.421	86.5
278.652	90.5
278.884	65.5
279.115	82.5
279.347	74.5
279.579	66.5
279.81	76.5
280.042	88.5
280.273	88.5
280.505	84.5
280.736	71.5
280.968	76.5
281.199	79.5
281.431	83.5
281.662	65.5
281.894	84.5
282.125	82.5
282.356	89.5
282.588	96.5
282.819	104.5
283.051	82.5
283.282	82.5
283.513	82.5
283.745	80.5
283.976	66.5
284.207	72.5
284.439	84.5
284.67	80.5
284.901	81.5
285.132	81.5
285.364	73.5
285.595	73.5
285.826	85.5
286.057	89.5
286.288	94.5
286.52	64.5
286.751	79.5
286.982	96.5
287.213	87.5
287.444	81.5
287.675	79.5
287.906	84.5
288.138	76.5
288.369	85.5
288.6	93.5
288.831	82.5
289.062	91.5
289.293	79.5
289.524	79.5
289.755	80.5
289.986	87.5
290.217	79.5
290.448	95.5
290.679	87.5
290.91	92.5
291.141	83.5
291.371	69.5
291.602	68.5
291.833	84.5
292.064	60.5
292.295	79.5
292.526	79.5
292.757	80.5
292.987	70.5
293.218	82.5
293.449	84.5
293.68	72.5
293.91	83.5
294.141	79.5
294.372	81.5
294.603	81.5
294.833	78.5
295.064	87.5
295.295	84.5
295.525	98.5
295.756	75.5
295.987	69.5
296.217	74.5
296.448	73.5
296.679	84.5
296.909	82.5
297.14	79.5
297.37	88.5
297.601	94.5
297.831	91.5
298.062	82.5
298.292	93.5
298.523	72.5
298.753	81.5
298.984	82.5
299.214	83.5
299.445	84.5
299.675	79.5
299.905	84.5
300.136	76.5
300.366	77.5
300.597	77.5
300.827	86.5
301.057	79.5
301.288	75.5
301.518	87.5
301.748	98.5
301.979	75.5
302.209	77.5
302.439	89.5
302.669	88.5
302.9	86.5
303.13	82.5
303.36	80.5
303.59	80.5
303.82	81.5
304.051	63.5
304.281	76.5
304.511	76.5
304.741	81.5
304.971	87.5
305.201	81.5
305.431	92.5
305.661	72.5
305.891	78.5
306.121	96.5
306.352	75.5
306.582	94.5
306.812	85.5
307.042	84.5
307.272	74.5
307.502	81.5
307.731	71.5
307.961	71.5
308.191	77.5
308.421	84.5
308.651	95.5
308.881	85.5
309.111	94.5
309.341	92.5
309.571	91.5
309.8	67.5
310.03	66.5
310.26	75.5
310.49	82.5
310.72	86.5
310.949	93.5
311.179	72.5
311.409	69.5
311.639	89.5
311.868	97.5
312.098	94.5
312.328	82.5
312.557	86.5
312.787	70.5
313.017	91.5
313.246	73.5
313.476	76.5
313.706	87.5
313.935	85.5
314.165	85.5
314.394	87.5
314.624	89.5
314.853	83.5
315.083	80.5
315.312	90.5
315.542	75.5
315.771	82.5
316.001	81.5
316.23	86.5
316.46	82.5
316.689	63.5
316.919	65.5
317.148	80.5
317.377	90.5
317.607	77.5
317.836	78.5
318.065	77.5
318.295	84.5
318.524	86.5
318.753	72.5
318.983	85.5
319.212	82.5
319.441	87.5
319.67	88.5
319.9	79.5
320.129	92.5
320.358	77.5
320.587	100.5
320.816	80.5
321.046	82.5
321.275	84.5
321.504	88.5
321.733	79.5
321.962	81.5
322.191	83.5
322.42	98.5
322.649	85.5
322.878	84.5
323.108	85.5
323.337	75.5
323.566	82.5
323.795	87.5
324.024	77.5
324.253	64.5
324.482	88.5
324.71	90.5
324.939	86.5
325.168	86.5
325.397	87.5
325.626	75.5
325.855	76.5
326.084	77.5
326.313	86.5
326.542	77.5
326.77	70.5
326.999	79.5
327.228	82.5
327.457	76.5
327.686	70.5
327.914	91.5
328.143	80.5
328.372	74.5
328.6	88.5
328.829	86.5
329.058	78.5
329.287	71.5
329.515	84.5
329.744	87.5
329.972	85.5
330.201	83.5
330.43	79.5
330.658	79.5
330.887	86.5
331.115	84.5
331.344	78.5
331.572	97.5
331.801	79.5
332.03	85.5
332.258	84.5
332.486	92.5
332.715	72.5
332.943	83.5
333.172	85.5
333.4	98.5
333.629	89.5
333.857	90.5
334.085	65.5
334.314	79.5
334.542	83.5
334.771	89.5
334.999	80.5
335.227	85.5
335.455	87.5
335.684	89.5
335.912	97.5
336.14	83.5
336.369	90.5
336.597	98.5
336.825	92.5
337.053	77.5
337.281	77.5
337.51	77.5
337.738	73.5
337.966	76.5
338.194	74.5
338.422	93.5
338.65	102.5
338.878	88.5
339.106	94.5
339.334	87.5
339.562	80.5
339.79	85.5
340.018	88.5
340.246	90.5
340.474	86.5
340.702	89.5
340.93	79.5
341.158	79.5
341.386	92.5
341.614	79.5
341.842	82.5
342.07	80.5
342.298	93.5
342.526	80.5
342.754	85.5
342.981	82.5
343.209	91.5
343.437	82.5
343.665	90.5
343.893	99.5
344.12	95.5
344.348	94.5
344.576	79.5
344.804	84.5
345.031	87.5
345.259	92.5
345.487	73.5
345.714	84.5
345.942	84.5
346.17	71.5
346.397	65.5
346.625	80.5
346.853	72.5
347.08	80.5
347.308	80.5
347.535	88.5
347.763	82.5
347.99	74.5
348.218	89.5
348.445	90.5
348.673	88.5
348.9	77.5
349.128	92.5
349.355	80.5
349.583	76.5
349.81	83.5
350.037	78.5
350.265	94.5
350.492	83.5
350.72	94.5
350.947	73.5
351.174	78.5
351.402	80.5
351.629	77.5
351.856	81.5
352.083	82.5
352.311	81.5
352.538	82.5
352.765	98.5
352.992	100.5
353.22	81.5
353.447	86.5
353.674	71.5
353.901	90.5
354.128	82.5
354.355	75.5
354.583	98.5
354.81	81.5
355.037	82.5
355.264	98.5
355.491	82.5
355.718	68.5
355.945	80.5
356.172	89.5
356.399	92.5
356.626	77.5
356.853	70.5
357.08	86.5
357.307	87.5
357.534	83.5
357.761	82.5
357.988	98.5
358.215	99.5
358.441	86.5
358.668	80.5
358.895	75.5
359.122	80.5
359.349	72.5
359.576	73.5
359.802	81.5
360.029	84.5
360.256	85.5
360.483	81.5
360.709	71.5
360.936	87.5
361.163	80.5
361.39	87.5
361.616	92.5
361.843	78.5
362.07	88.5
362.296	81.5
362.523	85.5
362.749	83.5
362.976	71.5
363.203	80.5
363.429	73.5
363.656	82.5
363.882	78.5
364.109	90.5
364.335	85.5
364.562	88.5
364.788	68.5
365.015	96.5
365.241	83.5
365.468	95.5
365.694	89.5
365.92	85.5
366.147	75.5
366.373	84.5
366.599	90.5
366.826	77.5
367.052	91.5
367.278	96.5
367.505	86.5
367.731	81.5
367.957	95.5
368.184	68.5
368.41	81.5
368.636	94.5
368.862	84.5
369.089	73.5
369.315	80.5
369.541	89.5
369.767	89.5
369.993	80.5
370.219	91.5
370.445	79.5
370.672	84.5
370.898	79.5
371.124	90.5
371.35	82.5
371.576	66.5
371.802	79.5
372.028	80.5
372.254	90.5
372.48	98.5
372.706	92.5
372.932	89.5
373.158	76.5
373.384	93.5
373.61	80.5
373.835	79.5
374.061	85.5
374.287	78.5
374.513	86.5
374.739	78.5
374.965	78.5
375.191	77.5
375.416	83.5
375.642	88.5
375.868	82.5
376.094	77.5
376.319	93.5
376.545	96.5
376.771	87.5
376.997	89.5
377.222	78.5
377.448	79.5
377.674	78.5
377.899	92.5
378.125	101.5
378.35	89.5
378.576	98.5
378.802	65.5
379.027	91.5
379.253	83.5
379.478	87.5
379.704	96.5
379.929	90.5
380.155	84.5
380.38	88.5
380.606	88.5
380.831	92.5
381.057	84.5
381.282	95.5
381.507	88.5
381.733	94.5
381.958	81.5
382.184	87.5
382.409	85.5
382.634	80.5
382.86	72.5
383.085	94.5
383.31	78.5
383.535	95.5
383.761	96.5
383.986	92.5
384.211	94.5
384.436	93.5
384.662	95.5
384.887	82.5
385.112	97.5
385.337	82.5
385.562	85.5
385.787	83.5
386.013	95.5
386.238	105.5
386.463	99.5
386.688	92.5
386.913	76.5
387.138	98.5
387.363	86.5
387.588	93.5
387.813	72.5
388.038	92.5
388.263	87.5
388.488	89.5
388.713	78.5
388.938	87.5
389.163	81.5
389.387	91.5
389.612	88.5
389.837	91.5
390.062	81.5
390.287	97.5
390.512	87.5
390.736	89.5
390.961	83.5
391.186	102.5
391.411	79.5
391.636	106.5
391.86	97.5
392.085	96.5
392.31	100.5
392.534	92.5
392.759	99.5
392.984	74.5
393.208	97.5
393.433	93.5
393.658	90.5
393.882	95.5
394.107	94.5
394.331	111.5
394.556	95.5
394.78	99.5
395.005	111.5
395.229	91.5
395.454	108.5
395.678	103.5
395.903	93.5
396.127	93.5
396.352	91.5
396.576	84.5
396.801	92.5
397.025	94.5
397.249	81.5
397.474	106.5
397.698	103.5
397.922	102.5
398.147	97.5
398.371	88.5
398.595	98.5
398.82	104.5
399.044	116.5
399.268	94.5
399.492	108.5
399.717	114.5
399.941	112.5
400.165	114.5
400.389	105.5
400.613	93.5
400.837	99.5
401.062	103.5
401.286	96.5
401.51	117.5
401.734	96.5
401.958	87.5
402.182	95.5
402.406	110.5
402.63	108.5
402.854	113.5
403.078	112.5
403.302	95.5
403.526	97.5
403.75	97.5
403.974	115.5
404.198	114.5
404.422	117.5
404.645	105.5
404.869	98.5
405.093	117.5
405.317	103.5
405.541	112.5
405.765	118.5
405.988	100.5
406.212	99.5
406.436	104.5
406.66	96.5
406.883	105.5
407.107	117.5
407.331	105.5
407.555	114.5
407.778	116.5
408.002	119.5
408.226	112.5
408.449	87.5
408.673	112.5
408.896	112.5
409.12	112.5
409.344	124.5
409.567	103.5
409.791	100.5
410.014	113.5
410.238	120.5
410.461	108.5
410.685	102.5
410.908	119.5
411.132	101.5
411.355	96.5
411.578	101.5
411.802	98.5
412.025	93.5
412.249	108.5
412.472	117.5
412.695	110.5
412.919	106.5
413.142	112.5
413.365	114.5
413.589	98.5
413.812	102.5
414.035	111.5
414.258	104.5
414.482	113.5
414.705	114.5
414.928	110.5
415.151	112.5
415.374	119.5
415.597	113.5
415.821	104.5
416.044	110.5
416.267	105.5
416.49	116.5
416.713	108.5
416.936	121.5
417.159	106.5
417.382	120.5
417.605	110.5
417.828	120.5
418.051	115.5
418.274	108.5
418.497	110.5
418.72	115.5
418.943	97.5
419.166	110.5
419.389	110.5
419.611	109.5
419.834	100.5
420.057	107.5
420.28	113.5
420.503	106.5
420.726	94.5
420.948	120.5
421.171	128.5
421.394	96.5
421.617	102.5
421.839	114.5
422.062	108.5
422.285	98.5
422.507	117.5
422.73	114.5
422.953	109.5
423.175	114.5
423.398	113.5
423.621	109.5
423.843	94.5
424.066	106.5
424.288	125.5
424.511	114.5
424.733	105.5
424.956	108.5
425.178	116.5
425.401	102.5
425.623	120.5
425.846	95.5
426.068	95.5
426.291	115.5
426.513	124.5
426.735	124.5
426.958	105.5
427.18	125.5
427.402	114.5
427.625	110.5
427.847	111.5
428.069	117.5
428.292	101.5
428.514	112.5
428.736	112.5
428.958	95.5
429.181	122.5
429.403	114.5
429.625	121.5
429.847	105.5
430.069	109.5
430.292	110.5
430.514	127.5
430.736	97.5
430.958	120.5
431.18	96.5
431.402	108.5
431.624	108.5
431.846	93.5
432.068	91.5
432.29	105.5
432.512	102.5
432.734	108.5
432.956	104.5
433.178	116.5
433.4	107.5
433.622	119.5
433.844	114.5
434.066	96.5
434.287	101.5
434.509	101.5
434.731	97.5
434.953	117.5
435.175	105.5
435.397	105.5
435.618	107.5
435.84	106.5
436.062	99.5
436.284	116.5
436.505	109.5
436.727	108.5
436.949	118.5
437.17	103.5
437.392	103.5
437.614	114.5
437.835	112.5
438.057	103.5
438.278	105.5
438.5	106.5
438.721	109.5
438.943	124.5
439.165	118.5
439.386	110.5
439.608	108.5
439.829	120.5
440.05	121.5
440.272	123.5
440.493	116.5
440.715	118.5
440.936	121.5
441.158	116.5
441.379	120.5
441.6	109.5
441.822	124.5
442.043	120.5
442.264	130.5
442.486	120.5
442.707	121.5
442.928	125.5
443.149	119.5
443.371	114.5
443.592	114.5
443.813	97.5
444.034	116.5
444.255	126.5
444.476	117.5
444.698	118.5
444.919	121.5
445.14	225.5
445.361	181.5
445.582	126.5
445.803	109.5
446.024	136.5
446.245	121.5
446.466	104.5
446.687	133.5
446.908	125.5
447.129	127.5
447.35	122.5
447.571	117.5
447.792	121.5
448.013	110.5
448.234	116.5
448.455	103.5
448.675	106.5
448.896	128.5
449.117	86.5
449.338	118.5
449.559	114.5
449.779	103.5
450	115.5
450.221	112.5
450.442	122.5
450.662	119.5
450.883	89.5
451.104	128.5
451.324	109.5
451.545	108.5
451.766	97.5
451.986	103.5
452.207	112.5
452.428	102.5
452.648	110.5
452.869	94.5
453.089	115.5
453.31	102.5
453.53	101.5
453.751	95.5
453.971	99.5
454.192	111.5
454.412	101.5
454.633	102.5
454.853	103.5
455.073	114.5
455.294	110.5
455.514	117.5
455.734	102.5
455.955	94.5
456.175	86.5
456.395	90.5
456.616	104.5
456.836	99.5
457.056	108.5
457.276	123.5
457.497	106.5
457.717	100.5
457.937	108.5
458.157	80.5
458.377	104.5
458.598	107.5
458.818	102.5
459.038	96.5
459.258	90.5
459.478	91.5
459.698	102.5
459.918	108.5
460.138	105.5
460.358	96.5
460.578	98.5
460.798	108.5
461.018	120.5
461.238	127.5
461.458	112.5
461.678	101.5
461.898	109.5
462.118	122.5
462.338	108.5
462.558	122.5
462.777	114.5
462.997	119.5
463.217	129.5
463.437	130.5
463.657	119.5
463.876	107.5
464.096	124.5
464.316	130.5
464.536	120.5
464.755	126.5
464.975	123.5
465.195	113.5
465.414	122.5
465.634	113.5
465.854	105.5
466.073	118.5
466.293	112.5
466.512	113.5
466.732	120.5
466.951	120.5
467.171	120.5
467.391	108.5
467.61	109.5
467.829	109.5
468.049	117.5
468.268	96.5
468.488	119.5
468.707	132.5
468.927	113.5
469.146	116.5
469.365	115.5
469.585	114.5
469.804	119.5
470.023	118.5
470.243	108.5
470.462	109.5
470.681	123.5
470.901	111.5
471.12	115.5
471.339	116.5
471.558	130.5
471.777	111.5
471.997	111.5
472.216	116.5
472.435	113.5
472.654	111.5
472.873	111.5
473.092	118.5
473.311	119.5
473.53	103.5
473.749	110.5
473.968	122.5
474.187	109.5
474.406	115.5
474.625	112.5
474.844	109.5
475.063	126.5
475.282	111.5
475.501	116.5
475.72	110.5
475.939	132.5
476.158	109.5
476.377	121.5
476.596	120.5
476.814	111.5
477.033	116.5
477.252	108.5
477.471	103.5
477.69	116.5
477.908	125.5
478.127	113.5
478.346	102.5
478.564	124.5
478.783	128.5
479.002	109.5
479.22	102.5
479.439	116.5
479.658	115.5
479.876	117.5
480.095	123.5
480.313	128.5
480.532	120.5
480.751	120.5
480.969	101.5
481.188	120.5
481.406	108.5
481.624	110.5
481.843	105.5
482.061	111.5
482.28	121.5
482.498	118.5
482.717	119.5
482.935	118.5
483.153	136.5
483.372	132.5
483.59	124.5
483.808	127.5
484.027	128.5
484.245	116.5
484.463	102.5
484.681	144.5
484.9	116.5
485.118	130.5
485.336	132.5
485.554	117.5
485.772	119.5
485.99	118.5
486.209	121.5
486.427	121.5
486.645	105.5
486.863	136.5
487.081	120.5
487.299	127.5
487.517	135.5
487.735	143.5
487.953	166.5
488.171	158.5
488.389	126.5
488.607	127.5
488.825	131.5
489.043	114.5
489.261	128.5
489.479	128.5
489.696	115.5
489.914	112.5
490.132	137.5
490.35	132.5
490.568	136.5
490.786	143.5
491.003	142.5
491.221	160.5
491.439	151.5
491.657	158.5
491.874	160.5
492.092	155.5
492.31	154.5
492.527	156.5
492.745	140.5
492.963	149.5
493.18	144.5
493.398	156.5
493.615	135.5
493.833	144.5
494.05	148.5
494.268	151.5
494.485	152.5
494.703	138.5
494.92	127.5
495.138	150.5
495.355	144.5
495.573	165.5
495.79	153.5
496.008	142.5
496.225	138.5
496.442	135.5
496.66	143.5
496.877	137.5
497.094	154.5
497.312	140.5
497.529	144.5
497.746	131.5
497.963	133.5
498.181	133.5
498.398	124.5
498.615	141.5
498.832	144.5
499.049	140.5
499.267	138.5
499.484	156.5
499.701	161.5
499.918	197.5
500.135	194.5
500.352	230.5
500.569	227.5
500.786	236.5
501.003	199.5
501.22	196.5
501.437	180.5
501.654	161.5
501.871	150.5
502.088	151.5
502.305	144.5
502.522	135.5
502.739	144.5
502.956	136.5
503.172	134.5
503.389	128.5
503.606	134.5
503.823	134.5
504.04	120.5
504.256	122.5
504.473	129.5
504.69	139.5
504.907	156.5
505.123	141.5
505.34	120.5
505.557	116.5
505.773	130.5
505.99	129.5
506.207	132.5
506.423	128.5
506.64	131.5
506.856	124.5
507.073	123.5
507.289	126.5
507.506	125.5
507.722	116.5
507.939	128.5
508.155	120.5
508.372	127.5
508.588	117.5
508.805	120.5
509.021	121.5
509.238	136.5
509.454	111.5
509.67	112.5
509.887	111.5
510.103	108.5
510.319	113.5
510.536	114.5
510.752	107.5
510.968	95.5
511.184	101.5
511.401	101.5
511.617	118.5
511.833	126.5
512.049	108.5
512.265	103.5
512.481	97.5
512.698	119.5
512.914	124.5
513.13	115.5
513.346	104.5
513.562	118.5
513.778	114.5
513.994	115.5
514.21	104.5
514.426	138.5
514.642	113.5
514.858	98.5
515.074	113.5
515.29	113.5
515.506	121.5
515.721	120.5
515.937	126.5
516.153	126.5
516.369	116.5
516.585	114.5
516.801	121.5
517.016	138.5
517.232	109.5
517.448	124.5
517.664	113.5
517.879	127.5
518.095	146.5
518.311	118.5
518.527	122.5
518.742	124.5
518.958	130.5
519.173	118.5
519.389	118.5
519.605	113.5
519.82	122.5
520.036	120.5
520.251	116.5
520.467	121.5
520.682	112.5
520.898	113.5
521.113	113.5
521.329	103.5
521.544	117.5
521.76	116.5
521.975	106.5
522.19	120.5
522.406	104.5
522.621	118.5
522.836	110.5
523.052	99.5
523.267	123.5
523.482	109.5
523.698	113.5
523.913	114.5
524.128	131.5
524.343	126.5
524.559	113.5
524.774	112.5
524.989	124.5
525.204	124.5
525.419	117.5
525.634	121.5
525.849	112.5
526.064	114.5
526.28	121.5
526.495	108.5
526.71	108.5
526.925	101.5
527.14	100.5
527.355	106.5
527.57	111.5
527.785	103.5
527.999	108.5
528.214	106.5
528.429	116.5
528.644	124.5
528.859	136.5
529.074	128.5
529.289	132.5
529.503	127.5
529.718	109.5
529.933	109.5
530.148	105.5
530.363	98.5
530.577	113.5
530.792	109.5
531.007	100.5
