Data from StandardFe(NO3)3.TAE.3%Agarose.FlatLispGreen.Lamp.Energy10.07252019_HRD10591_11-54-20-439.txt Node
Date: Thu Jul 25 11:54:20 EDT 2019
User: cochatt
Spectrometer: HR+D1059
Trigger mode: 1
Integration Time (sec): 1.000000E-1
Scans to average: 1
Electric dark correction enabled: true
Nonlinearity correction enabled: false
Boxcar width: 0
XAxis mode: Wavelengths
Number of Pixels in Spectrum: 2048
>>>>>Begin Spectral Data<<<<<
223.165	-4.81
223.4	-4.81
223.635	-4.81
223.869	-24.81
224.104	-6.81
224.338	-2.81
224.573	-17.81
224.808	-6.81
225.042	-11.81
225.277	-15.81
225.511	8.19
225.746	-14.81
225.98	26.19
226.215	17.19
226.449	14.19
226.683	13.19
226.918	14.19
227.152	13.19
227.387	34.19
227.621	42.19
227.856	33.19
228.09	36.19
228.324	42.19
228.559	60.19
228.793	56.19
229.027	65.19
229.262	70.19
229.496	69.19
229.73	64.19
229.964	70.19
230.199	66.19
230.433	80.19
230.667	55.19
230.901	70.19
231.136	77.19
231.37	86.19
231.604	76.19
231.838	77.19
232.072	73.19
232.306	82.19
232.541	58.19
232.775	82.19
233.009	75.19
233.243	76.19
233.477	81.19
233.711	87.19
233.945	85.19
234.179	74.19
234.413	75.19
234.647	83.19
234.881	80.19
235.115	75.19
235.349	86.19
235.583	83.19
235.817	81.19
236.051	81.19
236.285	91.19
236.519	77.19
236.753	87.19
236.987	87.19
237.221	82.19
237.455	86.19
237.689	90.19
237.922	77.19
238.156	77.19
238.39	91.19
238.624	76.19
238.858	80.19
239.091	72.19
239.325	85.19
239.559	74.19
239.793	76.19
240.027	88.19
240.26	82.19
240.494	89.19
240.728	83.19
240.961	75.19
241.195	77.19
241.429	81.19
241.662	76.19
241.896	76.19
242.13	92.19
242.363	79.19
242.597	80.19
242.83	85.19
243.064	76.19
243.298	74.19
243.531	78.19
243.765	77.19
243.998	81.19
244.232	78.19
244.465	77.19
244.699	79.19
244.932	79.19
245.166	75.19
245.399	78.19
245.633	74.19
245.866	76.19
246.099	68.19
246.333	77.19
246.566	84.19
246.8	85.19
247.033	73.19
247.266	75.19
247.5	88.19
247.733	75.19
247.966	85.19
248.2	88.19
248.433	77.19
248.666	86.19
248.899	71.19
249.133	71.19
249.366	76.19
249.599	66.19
249.832	81.19
250.066	81.19
250.299	85.19
250.532	81.19
250.765	82.19
250.998	76.19
251.231	61.19
251.465	85.19
251.698	78.19
251.931	82.19
252.164	77.19
252.397	83.19
252.63	82.19
252.863	85.19
253.096	71.19
253.329	75.19
253.562	77.19
253.795	75.19
254.028	81.19
254.261	88.19
254.494	76.19
254.727	86.19
254.96	87.19
255.193	89.19
255.426	86.19
255.659	69.19
255.892	79.19
256.124	76.19
256.357	93.19
256.59	82.19
256.823	85.19
257.056	83.19
257.289	82.19
257.521	82.19
257.754	76.19
257.987	84.19
258.22	92.19
258.452	69.19
258.685	79.19
258.918	82.19
259.151	83.19
259.383	82.19
259.616	70.19
259.849	75.19
260.081	83.19
260.314	83.19
260.547	80.19
260.779	85.19
261.012	77.19
261.244	78.19
261.477	74.19
261.71	82.19
261.942	78.19
262.175	88.19
262.407	86.19
262.64	92.19
262.872	76.19
263.105	78.19
263.337	98.19
263.57	69.19
263.802	102.19
264.035	76.19
264.267	84.19
264.499	85.19
264.732	84.19
264.964	85.19
265.197	81.19
265.429	87.19
265.661	90.19
265.894	71.19
266.126	90.19
266.358	82.19
266.591	78.19
266.823	97.19
267.055	85.19
267.287	86.19
267.52	83.19
267.752	86.19
267.984	84.19
268.216	94.19
268.448	82.19
268.681	79.19
268.913	84.19
269.145	100.19
269.377	87.19
269.609	99.19
269.841	90.19
270.073	74.19
270.306	82.19
270.538	90.19
270.77	76.19
271.002	85.19
271.234	98.19
271.466	91.19
271.698	80.19
271.93	93.19
272.162	76.19
272.394	80.19
272.626	71.19
272.858	93.19
273.09	90.19
273.322	81.19
273.553	82.19
273.785	87.19
274.017	82.19
274.249	85.19
274.481	79.19
274.713	75.19
274.945	91.19
275.176	81.19
275.408	82.19
275.64	89.19
275.872	80.19
276.104	98.19
276.335	80.19
276.567	76.19
276.799	94.19
277.031	77.19
277.262	90.19
277.494	82.19
277.726	77.19
277.957	85.19
278.189	91.19
278.421	86.19
278.652	84.19
278.884	90.19
279.115	93.19
279.347	84.19
279.579	90.19
279.81	81.19
280.042	90.19
280.273	79.19
280.505	88.19
280.736	88.19
280.968	98.19
281.199	83.19
281.431	82.19
281.662	82.19
281.894	89.19
282.125	69.19
282.356	85.19
282.588	92.19
282.819	73.19
283.051	97.19
283.282	82.19
283.513	93.19
283.745	99.19
283.976	94.19
284.207	80.19
284.439	88.19
284.67	89.19
284.901	93.19
285.132	92.19
285.364	91.19
285.595	92.19
285.826	95.19
286.057	87.19
286.288	82.19
286.52	93.19
286.751	86.19
286.982	84.19
287.213	97.19
287.444	92.19
287.675	86.19
287.906	81.19
288.138	77.19
288.369	83.19
288.6	85.19
288.831	90.19
289.062	82.19
289.293	90.19
289.524	83.19
289.755	85.19
289.986	91.19
290.217	93.19
290.448	89.19
290.679	85.19
290.91	89.19
291.141	89.19
291.371	78.19
291.602	97.19
291.833	82.19
292.064	84.19
292.295	83.19
292.526	86.19
292.757	76.19
292.987	96.19
293.218	81.19
293.449	89.19
293.68	76.19
293.91	89.19
294.141	73.19
294.372	90.19
294.603	82.19
294.833	82.19
295.064	82.19
295.295	89.19
295.525	89.19
295.756	83.19
295.987	80.19
296.217	75.19
296.448	91.19
296.679	81.19
296.909	95.19
297.14	96.19
297.37	97.19
297.601	74.19
297.831	85.19
298.062	84.19
298.292	81.19
298.523	84.19
298.753	78.19
298.984	82.19
299.214	86.19
299.445	85.19
299.675	92.19
299.905	78.19
300.136	87.19
300.366	83.19
300.597	83.19
300.827	83.19
301.057	89.19
301.288	85.19
301.518	81.19
301.748	77.19
301.979	78.19
302.209	85.19
302.439	84.19
302.669	88.19
302.9	92.19
303.13	84.19
303.36	87.19
303.59	98.19
303.82	84.19
304.051	79.19
304.281	83.19
304.511	83.19
304.741	78.19
304.971	91.19
305.201	86.19
305.431	79.19
305.661	86.19
305.891	88.19
306.121	74.19
306.352	74.19
306.582	75.19
306.812	90.19
307.042	78.19
307.272	84.19
307.502	91.19
307.731	88.19
307.961	87.19
308.191	89.19
308.421	79.19
308.651	87.19
308.881	78.19
309.111	85.19
309.341	92.19
309.571	73.19
309.8	83.19
310.03	91.19
310.26	89.19
310.49	85.19
310.72	92.19
310.949	82.19
311.179	87.19
311.409	87.19
311.639	87.19
311.868	78.19
312.098	87.19
312.328	81.19
312.557	100.19
312.787	87.19
313.017	93.19
313.246	84.19
313.476	90.19
313.706	65.19
313.935	82.19
314.165	77.19
314.394	78.19
314.624	78.19
314.853	81.19
315.083	85.19
315.312	101.19
315.542	90.19
315.771	86.19
316.001	92.19
316.23	97.19
316.46	83.19
316.689	86.19
316.919	96.19
317.148	90.19
317.377	90.19
317.607	80.19
317.836	82.19
318.065	77.19
318.295	80.19
318.524	78.19
318.753	79.19
318.983	91.19
319.212	86.19
319.441	89.19
319.67	82.19
319.9	98.19
320.129	84.19
320.358	78.19
320.587	78.19
320.816	76.19
321.046	83.19
321.275	93.19
321.504	73.19
321.733	95.19
321.962	99.19
322.191	70.19
322.42	92.19
322.649	81.19
322.878	88.19
323.108	88.19
323.337	89.19
323.566	87.19
323.795	93.19
324.024	77.19
324.253	67.19
324.482	79.19
324.71	96.19
324.939	90.19
325.168	89.19
325.397	78.19
325.626	88.19
325.855	87.19
326.084	92.19
326.313	95.19
326.542	85.19
326.77	86.19
326.999	78.19
327.228	82.19
327.457	98.19
327.686	80.19
327.914	78.19
328.143	101.19
328.372	81.19
328.6	83.19
328.829	95.19
329.058	83.19
329.287	88.19
329.515	92.19
329.744	83.19
329.972	82.19
330.201	82.19
330.43	105.19
330.658	105.19
330.887	75.19
331.115	83.19
331.344	89.19
331.572	81.19
331.801	91.19
332.03	80.19
332.258	85.19
332.486	93.19
332.715	75.19
332.943	81.19
333.172	90.19
333.4	98.19
333.629	82.19
333.857	89.19
334.085	78.19
334.314	76.19
334.542	92.19
334.771	97.19
334.999	76.19
335.227	95.19
335.455	79.19
335.684	76.19
335.912	84.19
336.14	70.19
336.369	80.19
336.597	81.19
336.825	84.19
337.053	94.19
337.281	86.19
337.51	84.19
337.738	84.19
337.966	84.19
338.194	77.19
338.422	85.19
338.65	81.19
338.878	99.19
339.106	84.19
339.334	102.19
339.562	91.19
339.79	74.19
340.018	81.19
340.246	88.19
340.474	82.19
340.702	94.19
340.93	101.19
341.158	90.19
341.386	99.19
341.614	88.19
341.842	82.19
342.07	87.19
342.298	91.19
342.526	85.19
342.754	84.19
342.981	77.19
343.209	77.19
343.437	99.19
343.665	71.19
343.893	93.19
344.12	90.19
344.348	99.19
344.576	94.19
344.804	63.19
345.031	88.19
345.259	88.19
345.487	89.19
345.714	100.19
345.942	65.19
346.17	87.19
346.397	74.19
346.625	94.19
346.853	85.19
347.08	80.19
347.308	97.19
347.535	68.19
347.763	70.19
347.99	77.19
348.218	85.19
348.445	84.19
348.673	84.19
348.9	89.19
349.128	104.19
349.355	93.19
349.583	92.19
349.81	80.19
350.037	85.19
350.265	75.19
350.492	75.19
350.72	83.19
350.947	92.19
351.174	101.19
351.402	64.19
351.629	73.19
351.856	73.19
352.083	86.19
352.311	88.19
352.538	85.19
352.765	91.19
352.992	83.19
353.22	90.19
353.447	93.19
353.674	98.19
353.901	95.19
354.128	93.19
354.355	95.19
354.583	84.19
354.81	86.19
355.037	88.19
355.264	95.19
355.491	78.19
355.718	81.19
355.945	72.19
356.172	81.19
356.399	86.19
356.626	109.19
356.853	93.19
357.08	84.19
357.307	84.19
357.534	78.19
357.761	72.19
357.988	75.19
358.215	103.19
358.441	77.19
358.668	102.19
358.895	80.19
359.122	85.19
359.349	83.19
359.576	89.19
359.802	88.19
360.029	76.19
360.256	82.19
360.483	77.19
360.709	96.19
360.936	89.19
361.163	96.19
361.39	76.19
361.616	93.19
361.843	90.19
362.07	85.19
362.296	88.19
362.523	98.19
362.749	85.19
362.976	91.19
363.203	76.19
363.429	88.19
363.656	73.19
363.882	84.19
364.109	93.19
364.335	89.19
364.562	87.19
364.788	76.19
365.015	88.19
365.241	83.19
365.468	89.19
365.694	83.19
365.92	95.19
366.147	85.19
366.373	90.19
366.599	87.19
366.826	91.19
367.052	105.19
367.278	67.19
367.505	64.19
367.731	97.19
367.957	78.19
368.184	90.19
368.41	77.19
368.636	73.19
368.862	76.19
369.089	93.19
369.315	85.19
369.541	96.19
369.767	83.19
369.993	99.19
370.219	86.19
370.445	78.19
370.672	99.19
370.898	84.19
371.124	96.19
371.35	80.19
371.576	86.19
371.802	93.19
372.028	80.19
372.254	104.19
372.48	86.19
372.706	91.19
372.932	82.19
373.158	85.19
373.384	78.19
373.61	91.19
373.835	87.19
374.061	86.19
374.287	101.19
374.513	92.19
374.739	84.19
374.965	90.19
375.191	97.19
375.416	102.19
375.642	95.19
375.868	96.19
376.094	99.19
376.319	100.19
376.545	101.19
376.771	85.19
376.997	84.19
377.222	65.19
377.448	93.19
377.674	85.19
377.899	90.19
378.125	83.19
378.35	92.19
378.576	92.19
378.802	83.19
379.027	89.19
379.253	96.19
379.478	100.19
379.704	88.19
379.929	77.19
380.155	98.19
380.38	97.19
380.606	103.19
380.831	89.19
381.057	98.19
381.282	96.19
381.507	91.19
381.733	94.19
381.958	100.19
382.184	88.19
382.409	98.19
382.634	99.19
382.86	95.19
383.085	93.19
383.31	95.19
383.535	90.19
383.761	84.19
383.986	95.19
384.211	92.19
384.436	105.19
384.662	94.19
384.887	98.19
385.112	80.19
385.337	100.19
385.562	89.19
385.787	99.19
386.013	94.19
386.238	100.19
386.463	103.19
386.688	83.19
386.913	93.19
387.138	98.19
387.363	92.19
387.588	91.19
387.813	97.19
388.038	94.19
388.263	94.19
388.488	84.19
388.713	99.19
388.938	93.19
389.163	92.19
389.387	95.19
389.612	93.19
389.837	96.19
390.062	82.19
390.287	91.19
390.512	104.19
390.736	81.19
390.961	86.19
391.186	95.19
391.411	97.19
391.636	103.19
391.86	93.19
392.085	90.19
392.31	80.19
392.534	102.19
392.759	99.19
392.984	84.19
393.208	94.19
393.433	94.19
393.658	96.19
393.882	99.19
394.107	113.19
394.331	96.19
394.556	107.19
394.78	115.19
395.005	98.19
395.229	95.19
395.454	91.19
395.678	102.19
395.903	107.19
396.127	93.19
396.352	97.19
396.576	79.19
396.801	93.19
397.025	95.19
397.249	92.19
397.474	104.19
397.698	102.19
397.922	87.19
398.147	107.19
398.371	109.19
398.595	112.19
398.82	90.19
399.044	94.19
399.268	94.19
399.492	104.19
399.717	119.19
399.941	109.19
400.165	103.19
400.389	112.19
400.613	95.19
400.837	117.19
401.062	101.19
401.286	116.19
401.51	102.19
401.734	103.19
401.958	95.19
402.182	123.19
402.406	98.19
402.63	103.19
402.854	104.19
403.078	106.19
403.302	110.19
403.526	112.19
403.75	112.19
403.974	117.19
404.198	91.19
404.422	99.19
404.645	97.19
404.869	108.19
405.093	102.19
405.317	116.19
405.541	122.19
405.765	116.19
405.988	117.19
406.212	105.19
406.436	121.19
406.66	108.19
406.883	118.19
407.107	117.19
407.331	115.19
407.555	123.19
407.778	127.19
408.002	110.19
408.226	116.19
408.449	114.19
408.673	109.19
408.896	118.19
409.12	118.19
409.344	121.19
409.567	105.19
409.791	124.19
410.014	114.19
410.238	97.19
410.461	108.19
410.685	114.19
410.908	92.19
411.132	118.19
411.355	113.19
411.578	102.19
411.802	107.19
412.025	106.19
412.249	103.19
412.472	122.19
412.695	116.19
412.919	112.19
413.142	112.19
413.365	119.19
413.589	102.19
413.812	104.19
414.035	101.19
414.258	119.19
414.482	104.19
414.705	117.19
414.928	106.19
415.151	123.19
415.374	108.19
415.597	104.19
415.821	108.19
416.044	107.19
416.267	110.19
416.49	107.19
416.713	107.19
416.936	118.19
417.159	127.19
417.382	122.19
417.605	108.19
417.828	107.19
418.051	100.19
418.274	113.19
418.497	122.19
418.72	118.19
418.943	108.19
419.166	122.19
419.389	128.19
419.611	125.19
419.834	118.19
420.057	117.19
420.28	125.19
420.503	116.19
420.726	128.19
420.948	126.19
421.171	107.19
421.394	103.19
421.617	112.19
421.839	112.19
422.062	108.19
422.285	119.19
422.507	106.19
422.73	111.19
422.953	114.19
423.175	113.19
423.398	133.19
423.621	127.19
423.843	117.19
424.066	115.19
424.288	117.19
424.511	115.19
424.733	121.19
424.956	120.19
425.178	101.19
425.401	123.19
425.623	116.19
425.846	116.19
426.068	116.19
426.291	116.19
426.513	109.19
426.735	122.19
426.958	119.19
427.18	123.19
427.402	105.19
427.625	120.19
427.847	110.19
428.069	105.19
428.292	115.19
428.514	109.19
428.736	100.19
428.958	117.19
429.181	109.19
429.403	119.19
429.625	127.19
429.847	121.19
430.069	120.19
430.292	122.19
430.514	105.19
430.736	124.19
430.958	114.19
431.18	101.19
431.402	112.19
431.624	103.19
431.846	111.19
432.068	108.19
432.29	84.19
432.512	109.19
432.734	115.19
432.956	114.19
433.178	118.19
433.4	96.19
433.622	114.19
433.844	102.19
434.066	109.19
434.287	113.19
434.509	120.19
434.731	104.19
434.953	132.19
435.175	122.19
435.397	120.19
435.618	106.19
435.84	109.19
436.062	117.19
436.284	100.19
436.505	111.19
436.727	105.19
436.949	130.19
437.17	117.19
437.392	124.19
437.614	116.19
437.835	116.19
438.057	105.19
438.278	99.19
438.5	109.19
438.721	118.19
438.943	117.19
439.165	115.19
439.386	118.19
439.608	122.19
439.829	119.19
440.05	119.19
440.272	121.19
440.493	121.19
440.715	122.19
440.936	123.19
441.158	116.19
441.379	118.19
441.6	122.19
441.822	133.19
442.043	118.19
442.264	119.19
442.486	112.19
442.707	127.19
442.928	133.19
443.149	123.19
443.371	119.19
443.592	119.19
443.813	125.19
444.034	126.19
444.255	130.19
444.476	118.19
444.698	120.19
444.919	126.19
445.14	218.19
445.361	180.19
445.582	132.19
445.803	122.19
446.024	120.19
446.245	116.19
446.466	122.19
446.687	112.19
446.908	115.19
447.129	95.19
447.35	114.19
447.571	126.19
447.792	109.19
448.013	102.19
448.234	107.19
448.455	103.19
448.675	126.19
448.896	110.19
449.117	110.19
449.338	112.19
449.559	104.19
449.779	124.19
450	112.19
450.221	126.19
450.442	125.19
450.662	118.19
450.883	116.19
451.104	101.19
451.324	112.19
451.545	105.19
451.766	118.19
451.986	116.19
452.207	112.19
452.428	103.19
452.648	117.19
452.869	97.19
453.089	113.19
453.31	115.19
453.53	121.19
453.751	104.19
453.971	112.19
454.192	105.19
454.412	109.19
454.633	96.19
454.853	95.19
455.073	113.19
455.294	114.19
455.514	100.19
455.734	88.19
455.955	90.19
456.175	104.19
456.395	106.19
456.616	114.19
456.836	100.19
457.056	112.19
457.276	103.19
457.497	110.19
457.717	106.19
457.937	108.19
458.157	95.19
458.377	102.19
458.598	121.19
458.818	112.19
459.038	107.19
459.258	107.19
459.478	114.19
459.698	99.19
459.918	103.19
460.138	116.19
460.358	120.19
460.578	125.19
460.798	112.19
461.018	122.19
461.238	124.19
461.458	124.19
461.678	119.19
461.898	117.19
462.118	107.19
462.338	114.19
462.558	112.19
462.777	124.19
462.997	129.19
463.217	110.19
463.437	126.19
463.657	130.19
463.876	124.19
464.096	124.19
464.316	126.19
464.536	123.19
464.755	128.19
464.975	118.19
465.195	115.19
465.414	107.19
465.634	116.19
465.854	120.19
466.073	122.19
466.293	104.19
466.512	120.19
466.732	122.19
466.951	118.19
467.171	120.19
467.391	122.19
467.61	122.19
467.829	115.19
468.049	105.19
468.268	114.19
468.488	120.19
468.707	134.19
468.927	120.19
469.146	122.19
469.365	122.19
469.585	116.19
469.804	112.19
470.023	122.19
470.243	122.19
470.462	124.19
470.681	123.19
470.901	134.19
471.12	118.19
471.339	124.19
471.558	115.19
471.777	120.19
471.997	112.19
472.216	122.19
472.435	124.19
472.654	108.19
472.873	116.19
473.092	94.19
473.311	113.19
473.53	112.19
473.749	106.19
473.968	121.19
474.187	98.19
474.406	106.19
474.625	108.19
474.844	113.19
475.063	104.19
475.282	110.19
475.501	119.19
475.72	118.19
475.939	114.19
476.158	124.19
476.377	116.19
476.596	125.19
476.814	119.19
477.033	117.19
477.252	120.19
477.471	120.19
477.69	101.19
477.908	113.19
478.127	123.19
478.346	137.19
478.564	117.19
478.783	124.19
479.002	128.19
479.22	116.19
479.439	138.19
479.658	125.19
479.876	125.19
480.095	121.19
480.313	111.19
480.532	118.19
480.751	125.19
480.969	104.19
481.188	120.19
481.406	115.19
481.624	114.19
481.843	109.19
482.061	109.19
482.28	125.19
482.498	107.19
482.717	102.19
482.935	127.19
483.153	118.19
483.372	130.19
483.59	123.19
483.808	132.19
484.027	123.19
484.245	114.19
484.463	129.19
484.681	136.19
484.9	119.19
485.118	114.19
485.336	119.19
485.554	105.19
485.772	112.19
485.99	127.19
486.209	128.19
486.427	127.19
486.645	128.19
486.863	130.19
487.081	127.19
487.299	135.19
487.517	129.19
487.735	152.19
487.953	154.19
488.171	139.19
488.389	142.19
488.607	143.19
488.825	124.19
489.043	126.19
489.261	125.19
489.479	124.19
489.696	126.19
489.914	132.19
490.132	134.19
490.35	135.19
490.568	144.19
490.786	154.19
491.003	140.19
491.221	152.19
491.439	144.19
491.657	147.19
491.874	169.19
492.092	162.19
492.31	172.19
492.527	180.19
492.745	156.19
492.963	154.19
493.18	162.19
493.398	146.19
493.615	157.19
493.833	148.19
494.05	139.19
494.268	147.19
494.485	141.19
494.703	150.19
494.92	156.19
495.138	138.19
495.355	165.19
495.573	156.19
495.79	144.19
496.008	140.19
496.225	156.19
496.442	141.19
496.66	166.19
496.877	147.19
497.094	167.19
497.312	136.19
497.529	161.19
497.746	146.19
497.963	151.19
498.181	136.19
498.398	148.19
498.615	143.19
498.832	142.19
499.049	146.19
499.267	162.19
499.484	173.19
499.701	173.19
499.918	197.19
500.135	219.19
500.352	204.19
500.569	228.19
500.786	222.19
501.003	202.19
501.22	207.19
501.437	172.19
501.654	160.19
501.871	151.19
502.088	168.19
502.305	163.19
502.522	152.19
502.739	150.19
502.956	164.19
503.172	145.19
503.389	143.19
503.606	141.19
503.823	130.19
504.04	139.19
504.256	141.19
504.473	132.19
504.69	138.19
504.907	142.19
505.123	137.19
505.34	144.19
505.557	134.19
505.773	126.19
505.99	128.19
506.207	122.19
506.423	130.19
506.64	131.19
506.856	112.19
507.073	128.19
507.289	121.19
507.506	132.19
507.722	122.19
507.939	112.19
508.155	124.19
508.372	112.19
508.588	133.19
508.805	139.19
509.021	116.19
509.238	129.19
509.454	112.19
509.67	104.19
509.887	107.19
510.103	117.19
510.319	117.19
510.536	112.19
510.752	108.19
510.968	108.19
511.184	109.19
511.401	116.19
511.617	121.19
