Data from StandardFe(NO3)3.TAE.3%Agarose.FlatLispGreen.Lamp.Energy10.07252019_HRD10591_11-55-14-440.txt Node
Date: Thu Jul 25 11:55:14 EDT 2019
User: cochatt
Spectrometer: HR+D1059
Trigger mode: 1
Integration Time (sec): 1.000000E-1
Scans to average: 1
Electric dark correction enabled: true
Nonlinearity correction enabled: false
Boxcar width: 0
XAxis mode: Wavelengths
Number of Pixels in Spectrum: 2048
>>>>>Begin Spectral Data<<<<<
223.165	-16.12
223.4	-16.12
223.635	-16.12
223.869	-13.12
224.104	-20.12
224.338	-13.12
224.573	-5.12
224.808	-14.12
225.042	1.88
225.277	-14.12
225.511	-6.12
225.746	0.88
225.98	1.88
226.215	16.88
226.449	7.88
226.683	25.88
226.918	27.88
227.152	18.88
227.387	30.88
227.621	33.88
227.856	34.88
228.09	36.88
228.324	45.88
228.559	49.88
228.793	70.88
229.027	65.88
229.262	69.88
229.496	66.88
229.73	63.88
229.964	85.88
230.199	79.88
230.433	66.88
230.667	66.88
230.901	77.88
231.136	74.88
231.37	77.88
231.604	73.88
231.838	84.88
232.072	87.88
232.306	81.88
232.541	99.88
232.775	76.88
233.009	64.88
233.243	81.88
233.477	82.88
233.711	94.88
233.945	68.88
234.179	77.88
234.413	87.88
234.647	81.88
234.881	90.88
235.115	74.88
235.349	73.88
235.583	91.88
235.817	80.88
236.051	83.88
236.285	84.88
236.519	75.88
236.753	67.88
236.987	81.88
237.221	74.88
237.455	65.88
237.689	70.88
237.922	79.88
238.156	81.88
238.39	72.88
238.624	83.88
238.858	71.88
239.091	72.88
239.325	74.88
239.559	67.88
239.793	81.88
240.027	75.88
240.26	73.88
240.494	85.88
240.728	93.88
240.961	81.88
241.195	75.88
241.429	81.88
241.662	76.88
241.896	84.88
242.13	67.88
242.363	82.88
242.597	84.88
242.83	76.88
243.064	63.88
243.298	68.88
243.531	80.88
243.765	85.88
243.998	69.88
244.232	74.88
244.465	72.88
244.699	67.88
244.932	86.88
245.166	73.88
245.399	75.88
245.633	61.88
245.866	69.88
246.099	67.88
246.333	75.88
246.566	82.88
246.8	80.88
247.033	80.88
247.266	77.88
247.5	65.88
247.733	73.88
247.966	81.88
248.2	91.88
248.433	91.88
248.666	78.88
248.899	83.88
249.133	74.88
249.366	87.88
249.599	69.88
249.832	81.88
250.066	74.88
250.299	79.88
250.532	68.88
250.765	69.88
250.998	74.88
251.231	64.88
251.465	87.88
251.698	82.88
251.931	92.88
252.164	75.88
252.397	83.88
252.63	85.88
252.863	82.88
253.096	82.88
253.329	78.88
253.562	78.88
253.795	80.88
254.028	87.88
254.261	84.88
254.494	83.88
254.727	94.88
254.96	71.88
255.193	83.88
255.426	88.88
255.659	78.88
255.892	79.88
256.124	75.88
256.357	84.88
256.59	87.88
256.823	88.88
257.056	80.88
257.289	79.88
257.521	66.88
257.754	80.88
257.987	89.88
258.22	87.88
258.452	79.88
258.685	69.88
258.918	90.88
259.151	85.88
259.383	73.88
259.616	74.88
259.849	87.88
260.081	87.88
260.314	83.88
260.547	78.88
260.779	80.88
261.012	84.88
261.244	65.88
261.477	79.88
261.71	72.88
261.942	92.88
262.175	76.88
262.407	91.88
262.64	81.88
262.872	72.88
263.105	83.88
263.337	85.88
263.57	94.88
263.802	91.88
264.035	77.88
264.267	72.88
264.499	83.88
264.732	83.88
264.964	83.88
265.197	80.88
265.429	74.88
265.661	72.88
265.894	86.88
266.126	85.88
266.358	72.88
266.591	65.88
266.823	92.88
267.055	94.88
267.287	78.88
267.52	87.88
267.752	84.88
267.984	74.88
268.216	71.88
268.448	94.88
268.681	83.88
268.913	87.88
269.145	83.88
269.377	87.88
269.609	88.88
269.841	88.88
270.073	98.88
270.306	89.88
270.538	76.88
270.77	77.88
271.002	84.88
271.234	82.88
271.466	85.88
271.698	66.88
271.93	88.88
272.162	79.88
272.394	79.88
272.626	73.88
272.858	93.88
273.09	77.88
273.322	95.88
273.553	85.88
273.785	90.88
274.017	80.88
274.249	71.88
274.481	69.88
274.713	73.88
274.945	84.88
275.176	82.88
275.408	90.88
275.64	79.88
275.872	79.88
276.104	76.88
276.335	66.88
276.567	85.88
276.799	81.88
277.031	76.88
277.262	84.88
277.494	92.88
277.726	83.88
277.957	77.88
278.189	85.88
278.421	65.88
278.652	84.88
278.884	77.88
279.115	74.88
279.347	92.88
279.579	75.88
279.81	67.88
280.042	89.88
280.273	98.88
280.505	80.88
280.736	74.88
280.968	84.88
281.199	82.88
281.431	82.88
281.662	89.88
281.894	89.88
282.125	96.88
282.356	94.88
282.588	89.88
282.819	76.88
283.051	70.88
283.282	78.88
283.513	73.88
283.745	78.88
283.976	82.88
284.207	85.88
284.439	95.88
284.67	90.88
284.901	76.88
285.132	77.88
285.364	88.88
285.595	78.88
285.826	91.88
286.057	78.88
286.288	93.88
286.52	93.88
286.751	92.88
286.982	78.88
287.213	78.88
287.444	80.88
287.675	91.88
287.906	95.88
288.138	89.88
288.369	92.88
288.6	96.88
288.831	91.88
289.062	79.88
289.293	86.88
289.524	83.88
289.755	86.88
289.986	88.88
290.217	87.88
290.448	61.88
290.679	61.88
290.91	71.88
291.141	87.88
291.371	75.88
291.602	92.88
291.833	81.88
292.064	81.88
292.295	87.88
292.526	80.88
292.757	79.88
292.987	80.88
293.218	93.88
293.449	83.88
293.68	74.88
293.91	77.88
294.141	94.88
294.372	94.88
294.603	92.88
294.833	86.88
295.064	75.88
295.295	87.88
295.525	84.88
295.756	89.88
295.987	91.88
296.217	91.88
296.448	80.88
296.679	87.88
296.909	95.88
297.14	84.88
297.37	88.88
297.601	73.88
297.831	91.88
298.062	86.88
298.292	70.88
298.523	77.88
298.753	74.88
298.984	80.88
299.214	72.88
299.445	86.88
299.675	91.88
299.905	89.88
300.136	84.88
300.366	80.88
300.597	81.88
300.827	95.88
301.057	85.88
301.288	82.88
301.518	95.88
301.748	88.88
301.979	82.88
302.209	92.88
302.439	71.88
302.669	73.88
302.9	78.88
303.13	79.88
303.36	86.88
303.59	93.88
303.82	89.88
304.051	89.88
304.281	78.88
304.511	72.88
304.741	88.88
304.971	85.88
305.201	88.88
305.431	90.88
305.661	83.88
305.891	82.88
306.121	92.88
306.352	90.88
306.582	76.88
306.812	90.88
307.042	83.88
307.272	89.88
307.502	83.88
307.731	91.88
307.961	81.88
308.191	92.88
308.421	80.88
308.651	78.88
308.881	98.88
309.111	83.88
309.341	79.88
309.571	95.88
309.8	91.88
310.03	90.88
310.26	82.88
310.49	76.88
310.72	79.88
310.949	83.88
311.179	89.88
311.409	77.88
311.639	77.88
311.868	92.88
312.098	79.88
312.328	90.88
312.557	74.88
312.787	80.88
313.017	83.88
313.246	72.88
313.476	80.88
313.706	70.88
313.935	79.88
314.165	69.88
314.394	91.88
314.624	90.88
314.853	82.88
315.083	85.88
315.312	96.88
315.542	77.88
315.771	98.88
316.001	91.88
316.23	89.88
316.46	81.88
316.689	89.88
316.919	84.88
317.148	86.88
317.377	77.88
317.607	89.88
317.836	83.88
318.065	84.88
318.295	83.88
318.524	78.88
318.753	84.88
318.983	88.88
319.212	91.88
319.441	92.88
319.67	91.88
319.9	88.88
320.129	84.88
320.358	80.88
320.587	76.88
320.816	90.88
321.046	81.88
321.275	90.88
321.504	83.88
321.733	86.88
321.962	96.88
322.191	92.88
322.42	78.88
322.649	101.88
322.878	76.88
323.108	67.88
323.337	79.88
323.566	82.88
323.795	93.88
324.024	90.88
324.253	88.88
324.482	75.88
324.71	59.88
324.939	88.88
325.168	76.88
325.397	81.88
325.626	84.88
325.855	94.88
326.084	70.88
326.313	75.88
326.542	93.88
326.77	72.88
326.999	92.88
327.228	75.88
327.457	77.88
327.686	75.88
327.914	95.88
328.143	90.88
328.372	79.88
328.6	86.88
328.829	81.88
329.058	84.88
329.287	78.88
329.515	89.88
329.744	90.88
329.972	77.88
330.201	82.88
330.43	89.88
330.658	89.88
330.887	96.88
331.115	82.88
331.344	97.88
331.572	79.88
331.801	91.88
332.03	84.88
332.258	81.88
332.486	82.88
332.715	92.88
332.943	88.88
333.172	86.88
333.4	98.88
333.629	76.88
333.857	81.88
334.085	89.88
334.314	69.88
334.542	85.88
334.771	76.88
334.999	99.88
335.227	85.88
335.455	91.88
335.684	69.88
335.912	80.88
336.14	84.88
336.369	82.88
336.597	71.88
336.825	83.88
337.053	85.88
337.281	85.88
337.51	86.88
337.738	74.88
337.966	93.88
338.194	99.88
338.422	86.88
338.65	83.88
338.878	77.88
339.106	73.88
339.334	87.88
339.562	83.88
339.79	101.88
340.018	85.88
340.246	78.88
340.474	87.88
340.702	77.88
340.93	83.88
341.158	86.88
341.386	77.88
341.614	75.88
341.842	85.88
342.07	85.88
342.298	76.88
342.526	71.88
342.754	87.88
342.981	74.88
343.209	80.88
343.437	107.88
343.665	74.88
343.893	82.88
344.12	83.88
344.348	95.88
344.576	96.88
344.804	84.88
345.031	66.88
345.259	98.88
345.487	85.88
345.714	91.88
345.942	98.88
346.17	89.88
346.397	89.88
346.625	90.88
346.853	71.88
347.08	91.88
347.308	91.88
347.535	99.88
347.763	79.88
347.99	94.88
348.218	83.88
348.445	82.88
348.673	83.88
348.9	89.88
349.128	87.88
349.355	82.88
349.583	75.88
349.81	91.88
350.037	81.88
350.265	102.88
350.492	91.88
350.72	83.88
350.947	56.88
351.174	85.88
351.402	66.88
351.629	75.88
351.856	78.88
352.083	77.88
352.311	75.88
352.538	88.88
352.765	90.88
352.992	86.88
353.22	83.88
353.447	92.88
353.674	83.88
353.901	100.88
354.128	88.88
354.355	99.88
354.583	81.88
354.81	82.88
355.037	80.88
355.264	92.88
355.491	75.88
355.718	84.88
355.945	95.88
356.172	95.88
356.399	78.88
356.626	84.88
356.853	90.88
357.08	84.88
357.307	84.88
357.534	99.88
357.761	97.88
357.988	92.88
358.215	79.88
358.441	75.88
358.668	76.88
358.895	96.88
359.122	90.88
359.349	82.88
359.576	93.88
359.802	87.88
360.029	84.88
360.256	96.88
360.483	80.88
360.709	97.88
360.936	88.88
361.163	84.88
361.39	82.88
361.616	88.88
361.843	91.88
362.07	85.88
362.296	96.88
362.523	87.88
362.749	85.88
362.976	86.88
363.203	97.88
363.429	103.88
363.656	88.88
363.882	90.88
364.109	88.88
364.335	94.88
364.562	76.88
364.788	94.88
365.015	75.88
365.241	87.88
365.468	97.88
365.694	74.88
365.92	75.88
366.147	78.88
366.373	98.88
366.599	78.88
366.826	87.88
367.052	81.88
367.278	90.88
367.505	97.88
367.731	104.88
367.957	86.88
368.184	84.88
368.41	80.88
368.636	88.88
368.862	75.88
369.089	76.88
369.315	83.88
369.541	76.88
369.767	88.88
369.993	86.88
370.219	88.88
370.445	100.88
370.672	91.88
370.898	83.88
371.124	86.88
371.35	84.88
371.576	91.88
371.802	84.88
372.028	100.88
372.254	98.88
372.48	99.88
372.706	94.88
372.932	77.88
373.158	77.88
373.384	95.88
373.61	89.88
373.835	96.88
374.061	84.88
374.287	80.88
374.513	84.88
374.739	104.88
374.965	88.88
375.191	93.88
375.416	82.88
375.642	86.88
375.868	88.88
376.094	83.88
376.319	86.88
376.545	85.88
376.771	82.88
376.997	72.88
377.222	94.88
377.448	78.88
377.674	87.88
377.899	85.88
378.125	96.88
378.35	85.88
378.576	85.88
378.802	89.88
379.027	85.88
379.253	91.88
379.478	95.88
379.704	83.88
379.929	83.88
380.155	89.88
380.38	96.88
380.606	90.88
380.831	83.88
381.057	97.88
381.282	73.88
381.507	86.88
381.733	95.88
381.958	82.88
382.184	90.88
382.409	93.88
382.634	88.88
382.86	95.88
383.085	86.88
383.31	89.88
383.535	87.88
383.761	87.88
383.986	88.88
384.211	91.88
384.436	90.88
384.662	94.88
384.887	114.88
385.112	83.88
385.337	88.88
385.562	99.88
385.787	95.88
386.013	103.88
386.238	90.88
386.463	92.88
386.688	86.88
386.913	103.88
387.138	105.88
387.363	82.88
387.588	83.88
387.813	89.88
388.038	88.88
388.263	102.88
388.488	87.88
388.713	91.88
388.938	84.88
389.163	90.88
389.387	92.88
389.612	88.88
389.837	96.88
390.062	112.88
390.287	100.88
390.512	103.88
390.736	87.88
390.961	102.88
391.186	100.88
391.411	89.88
391.636	93.88
391.86	102.88
392.085	89.88
392.31	107.88
392.534	102.88
392.759	98.88
392.984	101.88
393.208	97.88
393.433	96.88
393.658	101.88
393.882	91.88
394.107	102.88
394.331	94.88
394.556	101.88
394.78	83.88
395.005	89.88
395.229	84.88
395.454	95.88
395.678	105.88
395.903	98.88
396.127	99.88
396.352	96.88
396.576	96.88
396.801	104.88
397.025	91.88
397.249	100.88
397.474	100.88
397.698	108.88
397.922	95.88
398.147	106.88
398.371	106.88
398.595	108.88
398.82	106.88
399.044	99.88
399.268	106.88
399.492	102.88
399.717	119.88
399.941	109.88
400.165	114.88
400.389	111.88
400.613	93.88
400.837	80.88
401.062	95.88
401.286	102.88
401.51	104.88
401.734	114.88
401.958	98.88
402.182	89.88
402.406	93.88
402.63	89.88
402.854	93.88
403.078	113.88
403.302	106.88
403.526	104.88
403.75	106.88
403.974	114.88
404.198	99.88
404.422	96.88
404.645	105.88
404.869	109.88
405.093	111.88
405.317	105.88
405.541	101.88
405.765	112.88
405.988	107.88
406.212	102.88
406.436	103.88
406.66	108.88
406.883	108.88
407.107	116.88
407.331	117.88
407.555	102.88
407.778	103.88
408.002	107.88
408.226	114.88
408.449	120.88
408.673	116.88
408.896	95.88
409.12	103.88
409.344	112.88
409.567	103.88
409.791	111.88
410.014	107.88
410.238	100.88
410.461	109.88
410.685	106.88
410.908	111.88
411.132	94.88
411.355	108.88
411.578	108.88
411.802	99.88
412.025	116.88
412.249	107.88
412.472	116.88
412.695	113.88
412.919	122.88
413.142	104.88
413.365	98.88
413.589	117.88
413.812	94.88
414.035	106.88
414.258	100.88
414.482	110.88
414.705	113.88
414.928	111.88
415.151	123.88
415.374	109.88
415.597	123.88
415.821	117.88
416.044	109.88
416.267	96.88
416.49	98.88
416.713	108.88
416.936	112.88
417.159	101.88
417.382	115.88
417.605	104.88
417.828	110.88
418.051	108.88
418.274	105.88
418.497	100.88
418.72	104.88
418.943	101.88
419.166	119.88
419.389	123.88
419.611	124.88
419.834	124.88
420.057	125.88
420.28	118.88
420.503	115.88
420.726	124.88
420.948	103.88
421.171	103.88
421.394	115.88
421.617	104.88
421.839	111.88
422.062	113.88
422.285	113.88
422.507	112.88
422.73	114.88
422.953	105.88
423.175	117.88
423.398	109.88
423.621	103.88
423.843	108.88
424.066	110.88
424.288	121.88
424.511	88.88
424.733	120.88
424.956	121.88
425.178	123.88
425.401	121.88
425.623	103.88
425.846	121.88
426.068	108.88
426.291	113.88
426.513	124.88
426.735	118.88
426.958	112.88
427.18	103.88
427.402	103.88
427.625	126.88
427.847	117.88
428.069	116.88
428.292	109.88
428.514	102.88
428.736	111.88
428.958	106.88
429.181	117.88
429.403	111.88
429.625	105.88
429.847	114.88
430.069	116.88
430.292	109.88
430.514	123.88
430.736	106.88
430.958	127.88
431.18	110.88
431.402	100.88
431.624	92.88
431.846	101.88
432.068	111.88
432.29	98.88
432.512	105.88
432.734	107.88
432.956	118.88
433.178	112.88
433.4	121.88
433.622	108.88
433.844	123.88
434.066	107.88
434.287	100.88
434.509	104.88
434.731	97.88
434.953	120.88
435.175	117.88
435.397	113.88
435.618	110.88
435.84	101.88
436.062	106.88
436.284	104.88
436.505	109.88
436.727	105.88
436.949	115.88
437.17	120.88
437.392	112.88
437.614	109.88
437.835	108.88
438.057	89.88
438.278	99.88
438.5	108.88
438.721	118.88
438.943	115.88
439.165	102.88
439.386	115.88
439.608	127.88
439.829	114.88
440.05	113.88
440.272	112.88
440.493	116.88
440.715	99.88
440.936	106.88
441.158	101.88
441.379	128.88
441.6	129.88
441.822	126.88
442.043	102.88
442.264	116.88
442.486	102.88
442.707	123.88
442.928	113.88
443.149	120.88
443.371	118.88
443.592	121.88
443.813	117.88
444.034	122.88
444.255	115.88
444.476	116.88
444.698	116.88
444.919	129.88
445.14	243.88
445.361	178.88
445.582	135.88
445.803	121.88
446.024	108.88
446.245	124.88
446.466	117.88
446.687	127.88
446.908	119.88
447.129	123.88
447.35	92.88
447.571	111.88
447.792	125.88
448.013	116.88
448.234	110.88
448.455	111.88
448.675	113.88
448.896	108.88
449.117	114.88
449.338	108.88
449.559	118.88
449.779	109.88
450	109.88
450.221	112.88
450.442	119.88
450.662	100.88
450.883	117.88
451.104	110.88
451.324	116.88
451.545	100.88
451.766	110.88
451.986	101.88
452.207	116.88
452.428	98.88
452.648	105.88
452.869	111.88
453.089	121.88
453.31	109.88
453.53	96.88
453.751	104.88
453.971	94.88
454.192	107.88
454.412	106.88
454.633	124.88
454.853	113.88
455.073	103.88
455.294	97.88
455.514	94.88
455.734	115.88
455.955	106.88
456.175	100.88
456.395	123.88
456.616	106.88
456.836	100.88
457.056	92.88
457.276	118.88
457.497	99.88
457.717	118.88
457.937	111.88
458.157	101.88
458.377	102.88
458.598	98.88
458.818	99.88
459.038	88.88
459.258	100.88
459.478	95.88
459.698	97.88
459.918	101.88
460.138	113.88
460.358	99.88
460.578	104.88
460.798	99.88
461.018	123.88
461.238	110.88
461.458	124.88
461.678	114.88
461.898	115.88
462.118	113.88
462.338	107.88
462.558	129.88
462.777	106.88
462.997	107.88
463.217	137.88
463.437	127.88
463.657	119.88
463.876	118.88
464.096	116.88
464.316	117.88
464.536	109.88
464.755	115.88
464.975	117.88
465.195	116.88
465.414	103.88
465.634	125.88
465.854	113.88
466.073	118.88
466.293	118.88
466.512	93.88
466.732	103.88
466.951	99.88
467.171	108.88
467.391	113.88
467.61	112.88
467.829	120.88
468.049	104.88
468.268	119.88
468.488	106.88
468.707	112.88
468.927	119.88
469.146	116.88
469.365	108.88
469.585	127.88
469.804	123.88
470.023	121.88
470.243	123.88
470.462	121.88
470.681	109.88
470.901	111.88
471.12	123.88
471.339	95.88
471.558	121.88
471.777	119.88
471.997	131.88
472.216	119.88
472.435	103.88
472.654	101.88
472.873	108.88
473.092	114.88
473.311	88.88
473.53	111.88
473.749	123.88
473.968	119.88
474.187	106.88
474.406	108.88
474.625	111.88
474.844	119.88
475.063	107.88
475.282	101.88
475.501	114.88
475.72	119.88
475.939	113.88
476.158	101.88
476.377	126.88
476.596	120.88
476.814	106.88
477.033	108.88
477.252	118.88
477.471	127.88
477.69	122.88
477.908	119.88
478.127	114.88
478.346	124.88
478.564	136.88
478.783	123.88
479.002	119.88
479.22	128.88
479.439	116.88
479.658	111.88
479.876	122.88
480.095	127.88
480.313	119.88
480.532	119.88
480.751	127.88
480.969	106.88
481.188	109.88
481.406	120.88
481.624	106.88
481.843	94.88
482.061	113.88
482.28	128.88
482.498	125.88
482.717	106.88
482.935	109.88
483.153	118.88
483.372	130.88
483.59	129.88
483.808	139.88
484.027	115.88
484.245	118.88
484.463	124.88
484.681	129.88
484.9	119.88
485.118	127.88
485.336	121.88
485.554	108.88
485.772	115.88
485.99	111.88
486.209	113.88
486.427	108.88
486.645	115.88
486.863	141.88
487.081	127.88
487.299	137.88
487.517	130.88
487.735	135.88
487.953	151.88
488.171	161.88
488.389	126.88
488.607	132.88
488.825	116.88
489.043	118.88
489.261	125.88
489.479	127.88
489.696	120.88
489.914	118.88
490.132	126.88
490.35	135.88
490.568	133.88
490.786	127.88
491.003	130.88
491.221	148.88
491.439	152.88
491.657	141.88
491.874	171.88
492.092	181.88
492.31	168.88
492.527	165.88
492.745	165.88
492.963	140.88
493.18	137.88
493.398	150.88
493.615	142.88
493.833	139.88
494.05	135.88
494.268	139.88
494.485	150.88
494.703	140.88
494.92	155.88
495.138	141.88
495.355	135.88
495.573	147.88
495.79	155.88
496.008	141.88
496.225	143.88
496.442	129.88
496.66	142.88
496.877	139.88
497.094	153.88
497.312	149.88
497.529	149.88
497.746	137.88
497.963	143.88
498.181	135.88
498.398	127.88
498.615	134.88
498.832	152.88
499.049	149.88
499.267	141.88
499.484	149.88
499.701	167.88
499.918	169.88
500.135	200.88
500.352	208.88
500.569	209.88
500.786	192.88
501.003	206.88
501.22	181.88
501.437	177.88
501.654	168.88
501.871	156.88
502.088	155.88
502.305	153.88
502.522	155.88
502.739	152.88
502.956	150.88
503.172	116.88
503.389	138.88
503.606	132.88
503.823	133.88
504.04	132.88
504.256	140.88
504.473	126.88
504.69	122.88
504.907	141.88
505.123	133.88
505.34	127.88
505.557	124.88
505.773	130.88
505.99	120.88
506.207	109.88
506.423	118.88
506.64	119.88
506.856	133.88
507.073	125.88
507.289	115.88
507.506	105.88
507.722	123.88
507.939	118.88
508.155	122.88
508.372	123.88
508.588	116.88
508.805	118.88
509.021	87.88
509.238	114.88
509.454	121.88
509.67	104.88
509.887	91.88
510.103	113.88
510.319	115.88
510.536	117.88
510.752	116.88
510.968	92.88
511.184	104.88
511.401	114.88
511.617	115.88
511.833	113.88
512.049	119.88
