Data from StandardFe(NO3)3.TAE.3%Agarose.FlatLispGreen.Lamp.Energy10.07252019_HRD10591_11-54-59-441.txt Node
Date: Thu Jul 25 11:54:59 EDT 2019
User: cochatt
Spectrometer: HR+D1059
Trigger mode: 1
Integration Time (sec): 1.000000E-1
Scans to average: 1
Electric dark correction enabled: true
Nonlinearity correction enabled: false
Boxcar width: 0
XAxis mode: Wavelengths
Number of Pixels in Spectrum: 2048
>>>>>Begin Spectral Data<<<<<
223.165	-2.12
223.4	-2.12
223.635	-2.12
223.869	-20.12
224.104	-5.12
224.338	-11.12
224.573	-21.12
224.808	-26.12
225.042	-6.12
225.277	-2.12
225.511	0.88
225.746	-4.12
225.98	-0.12
226.215	15.88
226.449	22.88
226.683	19.88
226.918	14.88
227.152	23.88
227.387	44.88
227.621	29.88
227.856	47.88
228.09	41.88
228.324	41.88
228.559	62.88
228.793	60.88
229.027	56.88
229.262	64.88
229.496	75.88
229.73	80.88
229.964	77.88
230.199	82.88
230.433	83.88
230.667	70.88
230.901	79.88
231.136	84.88
231.37	70.88
231.604	80.88
231.838	68.88
232.072	79.88
232.306	75.88
232.541	84.88
232.775	74.88
233.009	87.88
233.243	94.88
233.477	82.88
233.711	87.88
233.945	76.88
234.179	78.88
234.413	89.88
234.647	79.88
234.881	73.88
235.115	82.88
235.349	71.88
235.583	86.88
235.817	67.88
236.051	80.88
236.285	76.88
236.519	76.88
236.753	81.88
236.987	79.88
237.221	95.88
237.455	76.88
237.689	77.88
237.922	76.88
238.156	85.88
238.39	85.88
238.624	82.88
238.858	78.88
239.091	70.88
239.325	67.88
239.559	78.88
239.793	80.88
240.027	86.88
240.26	73.88
240.494	82.88
240.728	75.88
240.961	88.88
241.195	94.88
241.429	78.88
241.662	79.88
241.896	76.88
242.13	82.88
242.363	79.88
242.597	69.88
242.83	69.88
243.064	82.88
243.298	90.88
243.531	95.88
243.765	81.88
243.998	78.88
244.232	78.88
244.465	79.88
244.699	85.88
244.932	78.88
245.166	66.88
245.399	71.88
245.633	90.88
245.866	81.88
246.099	84.88
246.333	89.88
246.566	75.88
246.8	78.88
247.033	77.88
247.266	91.88
247.5	81.88
247.733	66.88
247.966	93.88
248.2	102.88
248.433	79.88
248.666	80.88
248.899	88.88
249.133	87.88
249.366	75.88
249.599	82.88
249.832	82.88
250.066	78.88
250.299	74.88
250.532	86.88
250.765	84.88
250.998	69.88
251.231	87.88
251.465	92.88
251.698	94.88
251.931	75.88
252.164	80.88
252.397	80.88
252.63	79.88
252.863	117.88
253.096	86.88
253.329	94.88
253.562	86.88
253.795	80.88
254.028	91.88
254.261	87.88
254.494	80.88
254.727	80.88
254.96	90.88
255.193	76.88
255.426	85.88
255.659	73.88
255.892	67.88
256.124	78.88
256.357	102.88
256.59	90.88
256.823	92.88
257.056	107.88
257.289	87.88
257.521	79.88
257.754	80.88
257.987	91.88
258.22	99.88
258.452	87.88
258.685	88.88
258.918	84.88
259.151	90.88
259.383	76.88
259.616	80.88
259.849	96.88
260.081	93.88
260.314	91.88
260.547	84.88
260.779	106.88
261.012	77.88
261.244	99.88
261.477	94.88
261.71	79.88
261.942	79.88
262.175	87.88
262.407	79.88
262.64	82.88
262.872	96.88
263.105	89.88
263.337	98.88
263.57	95.88
263.802	86.88
264.035	83.88
264.267	87.88
264.499	70.88
264.732	82.88
264.964	88.88
265.197	92.88
265.429	76.88
265.661	79.88
265.894	93.88
266.126	84.88
266.358	75.88
266.591	85.88
266.823	80.88
267.055	71.88
267.287	87.88
267.52	88.88
267.752	89.88
267.984	85.88
268.216	80.88
268.448	93.88
268.681	77.88
268.913	93.88
269.145	72.88
269.377	94.88
269.609	80.88
269.841	77.88
270.073	91.88
270.306	89.88
270.538	88.88
270.77	83.88
271.002	86.88
271.234	82.88
271.466	85.88
271.698	91.88
271.93	80.88
272.162	92.88
272.394	90.88
272.626	97.88
272.858	86.88
273.09	84.88
273.322	92.88
273.553	97.88
273.785	82.88
274.017	91.88
274.249	82.88
274.481	88.88
274.713	90.88
274.945	87.88
275.176	89.88
275.408	87.88
275.64	85.88
275.872	95.88
276.104	88.88
276.335	85.88
276.567	100.88
276.799	96.88
277.031	93.88
277.262	89.88
277.494	90.88
277.726	85.88
277.957	92.88
278.189	92.88
278.421	92.88
278.652	98.88
278.884	90.88
279.115	93.88
279.347	91.88
279.579	94.88
279.81	82.88
280.042	78.88
280.273	79.88
280.505	85.88
280.736	91.88
280.968	88.88
281.199	91.88
281.431	96.88
281.662	102.88
281.894	90.88
282.125	97.88
282.356	85.88
282.588	92.88
282.819	95.88
283.051	87.88
283.282	83.88
283.513	95.88
283.745	80.88
283.976	75.88
284.207	90.88
284.439	92.88
284.67	96.88
284.901	75.88
285.132	86.88
285.364	86.88
285.595	101.88
285.826	80.88
286.057	80.88
286.288	85.88
286.52	88.88
286.751	85.88
286.982	90.88
287.213	72.88
287.444	101.88
287.675	90.88
287.906	89.88
288.138	79.88
288.369	105.88
288.6	86.88
288.831	80.88
289.062	81.88
289.293	97.88
289.524	79.88
289.755	71.88
289.986	70.88
290.217	84.88
290.448	91.88
290.679	78.88
290.91	89.88
291.141	90.88
291.371	93.88
291.602	91.88
291.833	76.88
292.064	91.88
292.295	75.88
292.526	95.88
292.757	104.88
292.987	94.88
293.218	87.88
293.449	81.88
293.68	91.88
293.91	92.88
294.141	86.88
294.372	80.88
294.603	81.88
294.833	74.88
295.064	84.88
295.295	77.88
295.525	97.88
295.756	102.88
295.987	94.88
296.217	89.88
296.448	79.88
296.679	99.88
296.909	91.88
297.14	84.88
297.37	93.88
297.601	81.88
297.831	92.88
298.062	101.88
298.292	106.88
298.523	91.88
298.753	87.88
298.984	68.88
299.214	101.88
299.445	90.88
299.675	93.88
299.905	91.88
300.136	111.88
300.366	91.88
300.597	72.88
300.827	77.88
301.057	81.88
301.288	85.88
301.518	86.88
301.748	78.88
301.979	97.88
302.209	88.88
302.439	81.88
302.669	84.88
302.9	84.88
303.13	85.88
303.36	83.88
303.59	89.88
303.82	82.88
304.051	92.88
304.281	89.88
304.511	88.88
304.741	94.88
304.971	100.88
305.201	94.88
305.431	75.88
305.661	89.88
305.891	79.88
306.121	82.88
306.352	86.88
306.582	91.88
306.812	87.88
307.042	85.88
307.272	85.88
307.502	87.88
307.731	93.88
307.961	100.88
308.191	98.88
308.421	87.88
308.651	91.88
308.881	86.88
309.111	87.88
309.341	85.88
309.571	84.88
309.8	86.88
310.03	80.88
310.26	101.88
310.49	93.88
310.72	99.88
310.949	92.88
311.179	97.88
311.409	75.88
311.639	84.88
311.868	80.88
312.098	83.88
312.328	90.88
312.557	93.88
312.787	90.88
313.017	93.88
313.246	85.88
313.476	74.88
313.706	92.88
313.935	91.88
314.165	86.88
314.394	81.88
314.624	96.88
314.853	77.88
315.083	82.88
315.312	86.88
315.542	84.88
315.771	87.88
316.001	85.88
316.23	85.88
316.46	96.88
316.689	85.88
316.919	85.88
317.148	100.88
317.377	77.88
317.607	88.88
317.836	103.88
318.065	81.88
318.295	83.88
318.524	82.88
318.753	89.88
318.983	96.88
319.212	98.88
319.441	93.88
319.67	92.88
319.9	93.88
320.129	87.88
320.358	87.88
320.587	81.88
320.816	79.88
321.046	103.88
321.275	81.88
321.504	86.88
321.733	82.88
321.962	84.88
322.191	87.88
322.42	90.88
322.649	80.88
322.878	89.88
323.108	88.88
323.337	87.88
323.566	102.88
323.795	96.88
324.024	94.88
324.253	88.88
324.482	90.88
324.71	82.88
324.939	81.88
325.168	78.88
325.397	67.88
325.626	85.88
325.855	86.88
326.084	94.88
326.313	95.88
326.542	77.88
326.77	76.88
326.999	89.88
327.228	82.88
327.457	75.88
327.686	86.88
327.914	91.88
328.143	73.88
328.372	84.88
328.6	101.88
328.829	100.88
329.058	76.88
329.287	90.88
329.515	96.88
329.744	86.88
329.972	94.88
330.201	108.88
330.43	89.88
330.658	102.88
330.887	98.88
331.115	81.88
331.344	74.88
331.572	93.88
331.801	85.88
332.03	88.88
332.258	83.88
332.486	96.88
332.715	89.88
332.943	88.88
333.172	84.88
333.4	78.88
333.629	95.88
333.857	103.88
334.085	85.88
334.314	85.88
334.542	96.88
334.771	98.88
334.999	85.88
335.227	78.88
335.455	86.88
335.684	98.88
335.912	95.88
336.14	102.88
336.369	91.88
336.597	101.88
336.825	98.88
337.053	90.88
337.281	90.88
337.51	88.88
337.738	82.88
337.966	92.88
338.194	108.88
338.422	93.88
338.65	94.88
338.878	90.88
339.106	80.88
339.334	71.88
339.562	89.88
339.79	101.88
340.018	84.88
340.246	100.88
340.474	85.88
340.702	88.88
340.93	91.88
341.158	80.88
341.386	84.88
341.614	80.88
341.842	86.88
342.07	94.88
342.298	81.88
342.526	93.88
342.754	79.88
342.981	82.88
343.209	95.88
343.437	99.88
343.665	83.88
343.893	96.88
344.12	101.88
344.348	76.88
344.576	100.88
344.804	94.88
345.031	90.88
345.259	94.88
345.487	78.88
345.714	80.88
345.942	96.88
346.17	77.88
346.397	84.88
346.625	90.88
346.853	83.88
347.08	93.88
347.308	83.88
347.535	84.88
347.763	84.88
347.99	78.88
348.218	87.88
348.445	92.88
348.673	104.88
348.9	83.88
349.128	82.88
349.355	79.88
349.583	80.88
349.81	90.88
350.037	78.88
350.265	86.88
350.492	93.88
350.72	83.88
350.947	88.88
351.174	94.88
351.402	92.88
351.629	82.88
351.856	90.88
352.083	84.88
352.311	99.88
352.538	103.88
352.765	75.88
352.992	86.88
353.22	90.88
353.447	96.88
353.674	90.88
353.901	86.88
354.128	103.88
354.355	92.88
354.583	85.88
354.81	91.88
355.037	94.88
355.264	91.88
355.491	84.88
355.718	84.88
355.945	97.88
356.172	92.88
356.399	90.88
356.626	83.88
356.853	93.88
357.08	85.88
357.307	97.88
357.534	101.88
357.761	106.88
357.988	90.88
358.215	88.88
358.441	89.88
358.668	99.88
358.895	88.88
359.122	97.88
359.349	99.88
359.576	85.88
359.802	79.88
360.029	96.88
360.256	97.88
360.483	101.88
360.709	85.88
360.936	91.88
361.163	74.88
361.39	84.88
361.616	88.88
361.843	92.88
362.07	91.88
362.296	99.88
362.523	92.88
362.749	80.88
362.976	84.88
363.203	91.88
363.429	95.88
363.656	108.88
363.882	87.88
364.109	104.88
364.335	105.88
364.562	84.88
364.788	88.88
365.015	84.88
365.241	87.88
365.468	77.88
365.694	90.88
365.92	88.88
366.147	76.88
366.373	91.88
366.599	87.88
366.826	101.88
367.052	73.88
367.278	80.88
367.505	104.88
367.731	89.88
367.957	96.88
368.184	103.88
368.41	99.88
368.636	89.88
368.862	92.88
369.089	81.88
369.315	95.88
369.541	91.88
369.767	85.88
369.993	95.88
370.219	83.88
370.445	89.88
370.672	103.88
370.898	90.88
371.124	83.88
371.35	103.88
371.576	85.88
371.802	101.88
372.028	101.88
372.254	81.88
372.48	88.88
372.706	102.88
372.932	93.88
373.158	93.88
373.384	98.88
373.61	86.88
373.835	92.88
374.061	102.88
374.287	92.88
374.513	94.88
374.739	91.88
374.965	104.88
375.191	96.88
375.416	98.88
375.642	100.88
375.868	96.88
376.094	91.88
376.319	92.88
376.545	94.88
376.771	88.88
376.997	101.88
377.222	80.88
377.448	101.88
377.674	89.88
377.899	98.88
378.125	97.88
378.35	79.88
378.576	93.88
378.802	80.88
379.027	95.88
379.253	87.88
379.478	87.88
379.704	95.88
379.929	95.88
380.155	114.88
380.38	99.88
380.606	90.88
380.831	105.88
381.057	102.88
381.282	83.88
381.507	88.88
381.733	95.88
381.958	96.88
382.184	105.88
382.409	97.88
382.634	91.88
382.86	106.88
383.085	93.88
383.31	88.88
383.535	94.88
383.761	94.88
383.986	90.88
384.211	91.88
384.436	101.88
384.662	84.88
384.887	86.88
385.112	99.88
385.337	85.88
385.562	94.88
385.787	105.88
386.013	93.88
386.238	100.88
386.463	98.88
386.688	101.88
386.913	91.88
387.138	93.88
387.363	101.88
387.588	94.88
387.813	92.88
388.038	83.88
388.263	92.88
388.488	111.88
388.713	102.88
388.938	90.88
389.163	95.88
389.387	104.88
389.612	96.88
389.837	101.88
390.062	94.88
390.287	92.88
390.512	98.88
390.736	103.88
390.961	104.88
391.186	114.88
391.411	92.88
391.636	109.88
391.86	95.88
392.085	90.88
392.31	105.88
392.534	118.88
392.759	102.88
392.984	92.88
393.208	115.88
393.433	97.88
393.658	91.88
393.882	97.88
394.107	100.88
394.331	106.88
394.556	98.88
394.78	85.88
395.005	93.88
395.229	102.88
395.454	100.88
395.678	102.88
395.903	100.88
396.127	94.88
396.352	95.88
396.576	90.88
396.801	89.88
397.025	102.88
397.249	107.88
397.474	105.88
397.698	108.88
397.922	99.88
398.147	104.88
398.371	91.88
398.595	108.88
398.82	111.88
399.044	104.88
399.268	125.88
399.492	122.88
399.717	125.88
399.941	130.88
400.165	124.88
400.389	108.88
400.613	114.88
400.837	106.88
401.062	86.88
401.286	98.88
401.51	103.88
401.734	102.88
401.958	106.88
402.182	107.88
402.406	110.88
402.63	108.88
402.854	108.88
403.078	104.88
403.302	116.88
403.526	103.88
403.75	103.88
403.974	103.88
404.198	128.88
404.422	113.88
404.645	94.88
404.869	100.88
405.093	107.88
405.317	112.88
405.541	105.88
405.765	96.88
405.988	112.88
406.212	108.88
406.436	119.88
406.66	111.88
406.883	111.88
407.107	120.88
407.331	110.88
407.555	120.88
407.778	109.88
408.002	122.88
408.226	120.88
408.449	115.88
408.673	115.88
408.896	114.88
409.12	111.88
409.344	103.88
409.567	117.88
409.791	118.88
410.014	118.88
410.238	111.88
410.461	102.88
410.685	117.88
410.908	112.88
411.132	110.88
411.355	99.88
411.578	125.88
411.802	107.88
412.025	104.88
412.249	126.88
412.472	110.88
412.695	111.88
412.919	108.88
413.142	100.88
413.365	114.88
413.589	120.88
413.812	110.88
414.035	112.88
414.258	115.88
414.482	98.88
414.705	102.88
414.928	103.88
415.151	116.88
415.374	122.88
415.597	121.88
415.821	113.88
416.044	103.88
416.267	122.88
416.49	116.88
416.713	116.88
416.936	116.88
417.159	116.88
417.382	108.88
417.605	107.88
417.828	117.88
418.051	114.88
418.274	137.88
418.497	122.88
418.72	103.88
418.943	124.88
419.166	120.88
419.389	117.88
419.611	125.88
419.834	111.88
420.057	110.88
420.28	118.88
420.503	122.88
420.726	124.88
420.948	122.88
421.171	117.88
421.394	108.88
421.617	110.88
421.839	121.88
422.062	97.88
422.285	106.88
422.507	118.88
422.73	103.88
422.953	102.88
423.175	124.88
423.398	115.88
423.621	120.88
423.843	127.88
424.066	115.88
424.288	119.88
424.511	117.88
424.733	117.88
424.956	116.88
425.178	122.88
425.401	112.88
425.623	125.88
425.846	114.88
426.068	113.88
426.291	117.88
426.513	116.88
426.735	113.88
426.958	119.88
427.18	119.88
427.402	118.88
427.625	116.88
427.847	112.88
428.069	124.88
428.292	118.88
428.514	120.88
428.736	118.88
428.958	125.88
429.181	115.88
429.403	124.88
429.625	111.88
429.847	104.88
430.069	104.88
430.292	127.88
430.514	116.88
430.736	112.88
430.958	123.88
431.18	98.88
431.402	104.88
431.624	117.88
431.846	114.88
432.068	99.88
432.29	109.88
432.512	108.88
432.734	110.88
432.956	114.88
433.178	126.88
433.4	109.88
433.622	114.88
433.844	111.88
434.066	109.88
434.287	116.88
434.509	102.88
434.731	106.88
434.953	108.88
435.175	124.88
435.397	122.88
435.618	122.88
435.84	118.88
436.062	101.88
436.284	117.88
436.505	111.88
436.727	114.88
436.949	104.88
437.17	118.88
437.392	109.88
437.614	106.88
437.835	117.88
438.057	117.88
438.278	113.88
438.5	124.88
438.721	118.88
438.943	115.88
439.165	119.88
439.386	115.88
439.608	130.88
439.829	123.88
440.05	117.88
440.272	122.88
440.493	118.88
440.715	120.88
440.936	131.88
441.158	125.88
441.379	118.88
441.6	112.88
441.822	118.88
442.043	124.88
442.264	118.88
442.486	114.88
442.707	98.88
442.928	122.88
443.149	126.88
443.371	121.88
443.592	125.88
443.813	129.88
444.034	118.88
444.255	121.88
444.476	124.88
444.698	126.88
444.919	126.88
445.14	237.88
445.361	190.88
445.582	125.88
445.803	116.88
446.024	118.88
446.245	126.88
446.466	128.88
446.687	116.88
446.908	117.88
447.129	117.88
447.35	125.88
447.571	109.88
447.792	109.88
448.013	131.88
448.234	116.88
448.455	107.88
448.675	122.88
448.896	127.88
449.117	126.88
449.338	127.88
449.559	109.88
449.779	127.88
450	110.88
450.221	121.88
450.442	108.88
450.662	116.88
450.883	111.88
451.104	122.88
451.324	126.88
451.545	107.88
451.766	118.88
451.986	118.88
452.207	107.88
452.428	110.88
452.648	108.88
452.869	115.88
453.089	98.88
453.31	107.88
453.53	110.88
453.751	106.88
453.971	109.88
454.192	86.88
454.412	102.88
454.633	94.88
454.853	109.88
455.073	105.88
455.294	115.88
455.514	102.88
455.734	90.88
455.955	106.88
456.175	111.88
456.395	105.88
456.616	111.88
456.836	116.88
457.056	105.88
457.276	98.88
457.497	103.88
457.717	101.88
457.937	106.88
458.157	110.88
458.377	115.88
458.598	90.88
458.818	104.88
459.038	96.88
459.258	114.88
459.478	100.88
459.698	107.88
459.918	115.88
460.138	110.88
460.358	104.88
460.578	120.88
460.798	122.88
461.018	113.88
461.238	113.88
461.458	126.88
461.678	106.88
461.898	102.88
462.118	115.88
462.338	118.88
462.558	127.88
462.777	113.88
462.997	116.88
463.217	118.88
463.437	116.88
463.657	117.88
463.876	101.88
464.096	132.88
464.316	128.88
464.536	119.88
464.755	120.88
464.975	120.88
465.195	128.88
465.414	125.88
465.634	104.88
465.854	114.88
466.073	116.88
466.293	118.88
466.512	125.88
466.732	127.88
466.951	109.88
467.171	104.88
467.391	119.88
467.61	126.88
467.829	118.88
468.049	134.88
468.268	125.88
468.488	95.88
468.707	118.88
468.927	114.88
469.146	115.88
469.365	125.88
469.585	117.88
469.804	128.88
470.023	127.88
470.243	111.88
470.462	130.88
470.681	112.88
470.901	124.88
471.12	126.88
471.339	124.88
471.558	110.88
471.777	120.88
471.997	127.88
472.216	104.88
472.435	114.88
472.654	122.88
472.873	115.88
473.092	93.88
473.311	114.88
473.53	110.88
473.749	114.88
473.968	125.88
474.187	110.88
474.406	116.88
474.625	116.88
474.844	115.88
475.063	126.88
475.282	116.88
475.501	108.88
475.72	130.88
475.939	122.88
476.158	103.88
476.377	114.88
476.596	124.88
476.814	106.88
477.033	106.88
477.252	121.88
477.471	114.88
477.69	121.88
477.908	140.88
478.127	122.88
478.346	132.88
478.564	130.88
478.783	131.88
479.002	128.88
479.22	120.88
479.439	130.88
479.658	136.88
479.876	120.88
480.095	116.88
480.313	123.88
480.532	125.88
480.751	118.88
480.969	116.88
481.188	128.88
481.406	108.88
481.624	105.88
481.843	117.88
482.061	110.88
482.28	114.88
482.498	107.88
482.717	108.88
482.935	114.88
483.153	119.88
483.372	136.88
483.59	136.88
483.808	132.88
484.027	132.88
484.245	120.88
484.463	130.88
484.681	136.88
484.9	121.88
485.118	128.88
485.336	115.88
485.554	117.88
485.772	110.88
485.99	130.88
486.209	123.88
486.427	121.88
486.645	114.88
486.863	132.88
487.081	126.88
487.299	111.88
487.517	139.88
487.735	144.88
487.953	143.88
488.171	149.88
488.389	160.88
488.607	138.88
488.825	123.88
489.043	130.88
489.261	122.88
489.479	128.88
489.696	137.88
489.914	134.88
490.132	110.88
490.35	138.88
490.568	152.88
490.786	136.88
491.003	139.88
491.221	141.88
491.439	167.88
491.657	148.88
491.874	161.88
492.092	174.88
492.31	175.88
492.527	164.88
492.745	152.88
492.963	156.88
493.18	155.88
493.398	156.88
493.615	142.88
493.833	138.88
494.05	138.88
494.268	150.88
494.485	152.88
494.703	149.88
494.92	150.88
495.138	151.88
495.355	143.88
495.573	154.88
495.79	144.88
496.008	147.88
496.225	150.88
496.442	138.88
496.66	158.88
496.877	148.88
497.094	133.88
497.312	158.88
497.529	147.88
497.746	132.88
497.963	155.88
498.181	147.88
498.398	151.88
498.615	145.88
498.832	143.88
499.049	162.88
499.267	167.88
499.484	156.88
499.701	178.88
499.918	165.88
500.135	174.88
500.352	209.88
500.569	223.88
500.786	220.88
501.003	201.88
501.22	196.88
501.437	180.88
501.654	154.88
501.871	157.88
502.088	140.88
502.305	162.88
502.522	146.88
502.739	152.88
502.956	154.88
503.172	140.88
503.389	138.88
503.606	128.88
503.823	135.88
504.04	124.88
504.256	123.88
504.473	141.88
504.69	151.88
504.907	148.88
505.123	134.88
505.34	126.88
505.557	123.88
505.773	129.88
505.99	130.88
506.207	129.88
506.423	137.88
506.64	144.88
506.856	115.88
507.073	114.88
507.289	112.88
507.506	132.88
507.722	124.88
507.939	126.88
508.155	130.88
508.372	129.88
508.588	123.88
508.805	122.88
509.021	120.88
509.238	112.88
509.454	111.88
509.67	115.88
509.887	117.88
510.103	107.88
510.319	120.88
510.536	107.88
510.752	109.88
510.968	105.88
