Data from StandardFe(NO3)3.TAE.3%Agarose.FlatLispGreen.Lamp.Energy10.07252019_HRD10591_11-56-02-441.txt Node
Date: Thu Jul 25 11:56:02 EDT 2019
User: cochatt
Spectrometer: HR+D1059
Trigger mode: 1
Integration Time (sec): 1.000000E-1
Scans to average: 1
Electric dark correction enabled: true
Nonlinearity correction enabled: false
Boxcar width: 0
XAxis mode: Wavelengths
Number of Pixels in Spectrum: 2048
>>>>>Begin Spectral Data<<<<<
223.165	-7.81
223.4	-7.81
223.635	-7.81
223.869	-12.81
224.104	-7.81
224.338	-15.81
224.573	-16.81
224.808	-17.81
225.042	-10.81
225.277	-20.81
225.511	-0.81
225.746	12.19
225.98	8.19
226.215	13.19
226.449	6.19
226.683	23.19
226.918	18.19
227.152	30.19
227.387	33.19
227.621	33.19
227.856	44.19
228.09	32.19
228.324	40.19
228.559	41.19
228.793	54.19
229.027	66.19
229.262	60.19
229.496	51.19
229.73	57.19
229.964	67.19
230.199	79.19
230.433	79.19
230.667	75.19
230.901	67.19
231.136	78.19
231.37	67.19
231.604	80.19
231.838	78.19
232.072	79.19
232.306	73.19
232.541	76.19
232.775	74.19
233.009	83.19
233.243	68.19
233.477	78.19
233.711	85.19
233.945	86.19
234.179	70.19
234.413	81.19
234.647	74.19
234.881	70.19
235.115	82.19
235.349	81.19
235.583	79.19
235.817	77.19
236.051	77.19
236.285	69.19
236.519	82.19
236.753	66.19
236.987	69.19
237.221	67.19
237.455	73.19
237.689	80.19
237.922	81.19
238.156	57.19
238.39	64.19
238.624	79.19
238.858	80.19
239.091	83.19
239.325	77.19
239.559	71.19
239.793	60.19
240.027	72.19
240.26	61.19
240.494	76.19
240.728	65.19
240.961	71.19
241.195	71.19
241.429	73.19
241.662	74.19
241.896	80.19
242.13	84.19
242.363	54.19
242.597	79.19
242.83	83.19
243.064	72.19
243.298	73.19
243.531	69.19
243.765	75.19
243.998	68.19
244.232	78.19
244.465	87.19
244.699	71.19
244.932	93.19
245.166	77.19
245.399	71.19
245.633	77.19
245.866	69.19
246.099	79.19
246.333	64.19
246.566	71.19
246.8	85.19
247.033	83.19
247.266	91.19
247.5	62.19
247.733	58.19
247.966	72.19
248.2	70.19
248.433	70.19
248.666	77.19
248.899	75.19
249.133	83.19
249.366	79.19
249.599	66.19
249.832	80.19
250.066	84.19
250.299	61.19
250.532	61.19
250.765	72.19
250.998	79.19
251.231	66.19
251.465	68.19
251.698	58.19
251.931	68.19
252.164	70.19
252.397	65.19
252.63	89.19
252.863	67.19
253.096	76.19
253.329	73.19
253.562	73.19
253.795	73.19
254.028	80.19
254.261	79.19
254.494	71.19
254.727	78.19
254.96	82.19
255.193	72.19
255.426	71.19
255.659	66.19
255.892	76.19
256.124	68.19
256.357	69.19
256.59	80.19
256.823	86.19
257.056	68.19
257.289	78.19
257.521	78.19
257.754	75.19
257.987	94.19
258.22	82.19
258.452	81.19
258.685	80.19
258.918	82.19
259.151	85.19
259.383	65.19
259.616	79.19
259.849	66.19
260.081	82.19
260.314	81.19
260.547	70.19
260.779	74.19
261.012	73.19
261.244	79.19
261.477	80.19
261.71	90.19
261.942	66.19
262.175	93.19
262.407	74.19
262.64	74.19
262.872	61.19
263.105	75.19
263.337	79.19
263.57	89.19
263.802	86.19
264.035	93.19
264.267	72.19
264.499	81.19
264.732	89.19
264.964	87.19
265.197	85.19
265.429	84.19
265.661	91.19
265.894	84.19
266.126	70.19
266.358	69.19
266.591	79.19
266.823	79.19
267.055	83.19
267.287	74.19
267.52	69.19
267.752	66.19
267.984	83.19
268.216	78.19
268.448	85.19
268.681	71.19
268.913	69.19
269.145	83.19
269.377	92.19
269.609	70.19
269.841	73.19
270.073	70.19
270.306	59.19
270.538	90.19
270.77	86.19
271.002	87.19
271.234	67.19
271.466	80.19
271.698	82.19
271.93	81.19
272.162	70.19
272.394	88.19
272.626	89.19
272.858	79.19
273.09	73.19
273.322	87.19
273.553	73.19
273.785	81.19
274.017	69.19
274.249	71.19
274.481	79.19
274.713	81.19
274.945	83.19
275.176	79.19
275.408	80.19
275.64	64.19
275.872	83.19
276.104	92.19
276.335	98.19
276.567	79.19
276.799	74.19
277.031	74.19
277.262	81.19
277.494	84.19
277.726	90.19
277.957	83.19
278.189	87.19
278.421	75.19
278.652	85.19
278.884	79.19
279.115	84.19
279.347	69.19
279.579	77.19
279.81	71.19
280.042	93.19
280.273	94.19
280.505	69.19
280.736	74.19
280.968	77.19
281.199	81.19
281.431	71.19
281.662	72.19
281.894	90.19
282.125	78.19
282.356	77.19
282.588	78.19
282.819	84.19
283.051	74.19
283.282	81.19
283.513	82.19
283.745	81.19
283.976	74.19
284.207	76.19
284.439	82.19
284.67	79.19
284.901	83.19
285.132	89.19
285.364	84.19
285.595	76.19
285.826	74.19
286.057	68.19
286.288	77.19
286.52	91.19
286.751	84.19
286.982	76.19
287.213	87.19
287.444	73.19
287.675	84.19
287.906	79.19
288.138	73.19
288.369	82.19
288.6	88.19
288.831	81.19
289.062	85.19
289.293	81.19
289.524	87.19
289.755	74.19
289.986	81.19
290.217	80.19
290.448	81.19
290.679	92.19
290.91	88.19
291.141	91.19
291.371	74.19
291.602	81.19
291.833	81.19
292.064	79.19
292.295	71.19
292.526	90.19
292.757	82.19
292.987	78.19
293.218	81.19
293.449	89.19
293.68	84.19
293.91	76.19
294.141	94.19
294.372	82.19
294.603	80.19
294.833	63.19
295.064	67.19
295.295	81.19
295.525	80.19
295.756	83.19
295.987	83.19
296.217	74.19
296.448	70.19
296.679	90.19
296.909	73.19
297.14	89.19
297.37	88.19
297.601	70.19
297.831	77.19
298.062	80.19
298.292	76.19
298.523	77.19
298.753	74.19
298.984	79.19
299.214	73.19
299.445	81.19
299.675	68.19
299.905	85.19
300.136	84.19
300.366	77.19
300.597	92.19
300.827	85.19
301.057	79.19
301.288	73.19
301.518	81.19
301.748	78.19
301.979	93.19
302.209	85.19
302.439	64.19
302.669	69.19
302.9	87.19
303.13	77.19
303.36	87.19
303.59	78.19
303.82	82.19
304.051	85.19
304.281	82.19
304.511	66.19
304.741	82.19
304.971	76.19
305.201	80.19
305.431	87.19
305.661	83.19
305.891	86.19
306.121	77.19
306.352	79.19
306.582	81.19
306.812	80.19
307.042	93.19
307.272	76.19
307.502	73.19
307.731	92.19
307.961	88.19
308.191	91.19
308.421	87.19
308.651	71.19
308.881	84.19
309.111	58.19
309.341	67.19
309.571	86.19
309.8	81.19
310.03	88.19
310.26	72.19
310.49	77.19
310.72	71.19
310.949	86.19
311.179	89.19
311.409	96.19
311.639	72.19
311.868	66.19
312.098	82.19
312.328	81.19
312.557	81.19
312.787	80.19
313.017	61.19
313.246	78.19
313.476	96.19
313.706	77.19
313.935	78.19
314.165	86.19
314.394	70.19
314.624	82.19
314.853	76.19
315.083	71.19
315.312	77.19
315.542	80.19
315.771	83.19
316.001	79.19
316.23	92.19
316.46	76.19
316.689	103.19
316.919	85.19
317.148	76.19
317.377	74.19
317.607	82.19
317.836	79.19
318.065	73.19
318.295	83.19
318.524	92.19
318.753	75.19
318.983	81.19
319.212	79.19
319.441	80.19
319.67	86.19
319.9	70.19
320.129	85.19
320.358	69.19
320.587	80.19
320.816	89.19
321.046	90.19
321.275	72.19
321.504	92.19
321.733	78.19
321.962	71.19
322.191	72.19
322.42	77.19
322.649	72.19
322.878	73.19
323.108	83.19
323.337	84.19
323.566	84.19
323.795	78.19
324.024	78.19
324.253	74.19
324.482	91.19
324.71	92.19
324.939	81.19
325.168	85.19
325.397	79.19
325.626	81.19
325.855	79.19
326.084	95.19
326.313	101.19
326.542	90.19
326.77	84.19
326.999	88.19
327.228	73.19
327.457	73.19
327.686	94.19
327.914	71.19
328.143	83.19
328.372	62.19
328.6	97.19
328.829	82.19
329.058	68.19
329.287	77.19
329.515	77.19
329.744	93.19
329.972	72.19
330.201	84.19
330.43	82.19
330.658	84.19
330.887	71.19
331.115	90.19
331.344	91.19
331.572	84.19
331.801	81.19
332.03	81.19
332.258	92.19
332.486	56.19
332.715	80.19
332.943	72.19
333.172	80.19
333.4	86.19
333.629	90.19
333.857	78.19
334.085	67.19
334.314	80.19
334.542	83.19
334.771	82.19
334.999	80.19
335.227	88.19
335.455	74.19
335.684	81.19
335.912	69.19
336.14	85.19
336.369	85.19
336.597	89.19
336.825	85.19
337.053	84.19
337.281	95.19
337.51	69.19
337.738	101.19
337.966	97.19
338.194	78.19
338.422	70.19
338.65	75.19
338.878	78.19
339.106	84.19
339.334	78.19
339.562	76.19
339.79	81.19
340.018	81.19
340.246	84.19
340.474	85.19
340.702	89.19
340.93	77.19
341.158	73.19
341.386	77.19
341.614	85.19
341.842	92.19
342.07	70.19
342.298	85.19
342.526	83.19
342.754	70.19
342.981	72.19
343.209	74.19
343.437	75.19
343.665	70.19
343.893	73.19
344.12	78.19
344.348	83.19
344.576	69.19
344.804	64.19
345.031	78.19
345.259	85.19
345.487	67.19
345.714	99.19
345.942	96.19
346.17	85.19
346.397	94.19
346.625	77.19
346.853	74.19
347.08	82.19
347.308	79.19
347.535	71.19
347.763	84.19
347.99	76.19
348.218	88.19
348.445	71.19
348.673	64.19
348.9	79.19
349.128	85.19
349.355	82.19
349.583	83.19
349.81	84.19
350.037	81.19
350.265	79.19
350.492	72.19
350.72	73.19
350.947	80.19
351.174	76.19
351.402	73.19
351.629	74.19
351.856	93.19
352.083	66.19
352.311	87.19
352.538	93.19
352.765	87.19
352.992	79.19
353.22	81.19
353.447	90.19
353.674	82.19
353.901	79.19
354.128	96.19
354.355	74.19
354.583	72.19
354.81	83.19
355.037	80.19
355.264	80.19
355.491	75.19
355.718	76.19
355.945	77.19
356.172	80.19
356.399	88.19
356.626	78.19
356.853	88.19
357.08	87.19
357.307	77.19
357.534	88.19
357.761	79.19
357.988	96.19
358.215	89.19
358.441	78.19
358.668	88.19
358.895	89.19
359.122	85.19
359.349	86.19
359.576	78.19
359.802	88.19
360.029	93.19
360.256	81.19
360.483	83.19
360.709	85.19
360.936	85.19
361.163	86.19
361.39	88.19
361.616	82.19
361.843	78.19
362.07	83.19
362.296	94.19
362.523	87.19
362.749	63.19
362.976	86.19
363.203	101.19
363.429	69.19
363.656	79.19
363.882	78.19
364.109	74.19
364.335	101.19
364.562	84.19
364.788	78.19
365.015	86.19
365.241	92.19
365.468	83.19
365.694	86.19
365.92	84.19
366.147	85.19
366.373	95.19
366.599	80.19
366.826	91.19
367.052	77.19
367.278	73.19
367.505	82.19
367.731	80.19
367.957	80.19
368.184	69.19
368.41	77.19
368.636	101.19
368.862	83.19
369.089	82.19
369.315	91.19
369.541	82.19
369.767	81.19
369.993	89.19
370.219	93.19
370.445	82.19
370.672	93.19
370.898	83.19
371.124	95.19
371.35	92.19
371.576	87.19
371.802	85.19
372.028	86.19
372.254	78.19
372.48	87.19
372.706	92.19
372.932	93.19
373.158	76.19
373.384	74.19
373.61	77.19
373.835	91.19
374.061	74.19
374.287	79.19
374.513	88.19
374.739	78.19
374.965	82.19
375.191	81.19
375.416	86.19
375.642	92.19
375.868	83.19
376.094	80.19
376.319	92.19
376.545	92.19
376.771	82.19
376.997	72.19
377.222	99.19
377.448	87.19
377.674	86.19
377.899	75.19
378.125	89.19
378.35	79.19
378.576	93.19
378.802	91.19
379.027	90.19
379.253	87.19
379.478	78.19
379.704	81.19
379.929	97.19
380.155	100.19
380.38	89.19
380.606	90.19
380.831	93.19
381.057	84.19
381.282	83.19
381.507	85.19
381.733	99.19
381.958	86.19
382.184	84.19
382.409	100.19
382.634	90.19
382.86	86.19
383.085	79.19
383.31	80.19
383.535	91.19
383.761	98.19
383.986	94.19
384.211	94.19
384.436	93.19
384.662	81.19
384.887	92.19
385.112	83.19
385.337	80.19
385.562	100.19
385.787	74.19
386.013	87.19
386.238	101.19
386.463	88.19
386.688	86.19
386.913	98.19
387.138	104.19
387.363	81.19
387.588	95.19
387.813	96.19
388.038	90.19
388.263	94.19
388.488	101.19
388.713	89.19
388.938	92.19
389.163	81.19
389.387	94.19
389.612	93.19
389.837	95.19
390.062	77.19
390.287	87.19
390.512	96.19
390.736	87.19
390.961	95.19
391.186	104.19
391.411	94.19
391.636	102.19
391.86	89.19
392.085	97.19
392.31	106.19
392.534	103.19
392.759	80.19
392.984	96.19
393.208	102.19
393.433	90.19
393.658	99.19
393.882	90.19
394.107	80.19
394.331	86.19
394.556	99.19
394.78	112.19
395.005	106.19
395.229	94.19
395.454	93.19
395.678	98.19
395.903	101.19
396.127	117.19
396.352	101.19
396.576	94.19
396.801	82.19
397.025	84.19
397.249	114.19
397.474	100.19
397.698	93.19
397.922	108.19
398.147	100.19
398.371	105.19
398.595	109.19
398.82	100.19
399.044	86.19
399.268	100.19
399.492	97.19
399.717	119.19
399.941	116.19
400.165	122.19
400.389	102.19
400.613	105.19
400.837	80.19
401.062	99.19
401.286	96.19
401.51	94.19
401.734	94.19
401.958	104.19
402.182	109.19
402.406	100.19
402.63	104.19
402.854	96.19
403.078	102.19
403.302	112.19
403.526	115.19
403.75	116.19
403.974	115.19
404.198	88.19
404.422	108.19
404.645	111.19
404.869	109.19
405.093	94.19
405.317	101.19
405.541	97.19
405.765	102.19
405.988	102.19
406.212	94.19
406.436	115.19
406.66	120.19
406.883	98.19
407.107	109.19
407.331	93.19
407.555	111.19
407.778	104.19
408.002	120.19
408.226	115.19
408.449	116.19
408.673	108.19
408.896	105.19
409.12	116.19
409.344	105.19
409.567	94.19
409.791	120.19
410.014	120.19
410.238	104.19
410.461	108.19
410.685	97.19
410.908	94.19
411.132	122.19
411.355	111.19
411.578	92.19
411.802	102.19
412.025	122.19
412.249	115.19
412.472	88.19
412.695	119.19
412.919	105.19
413.142	99.19
413.365	96.19
413.589	118.19
413.812	84.19
414.035	101.19
414.258	107.19
414.482	105.19
414.705	110.19
414.928	107.19
415.151	103.19
415.374	120.19
415.597	114.19
415.821	105.19
416.044	113.19
416.267	117.19
416.49	108.19
416.713	97.19
416.936	113.19
417.159	96.19
417.382	104.19
417.605	113.19
417.828	128.19
418.051	108.19
418.274	103.19
418.497	100.19
418.72	106.19
418.943	112.19
419.166	100.19
419.389	108.19
419.611	112.19
419.834	100.19
420.057	103.19
420.28	108.19
420.503	103.19
420.726	95.19
420.948	103.19
421.171	95.19
421.394	112.19
421.617	108.19
421.839	111.19
422.062	117.19
422.285	101.19
422.507	103.19
422.73	101.19
422.953	97.19
423.175	111.19
423.398	113.19
423.621	116.19
423.843	115.19
424.066	115.19
424.288	102.19
424.511	99.19
424.733	104.19
424.956	104.19
425.178	113.19
425.401	115.19
425.623	132.19
425.846	108.19
426.068	120.19
426.291	95.19
426.513	100.19
426.735	102.19
426.958	104.19
427.18	98.19
427.402	111.19
427.625	102.19
427.847	96.19
428.069	97.19
428.292	105.19
428.514	97.19
428.736	105.19
428.958	111.19
429.181	108.19
429.403	113.19
429.625	104.19
429.847	117.19
430.069	95.19
430.292	117.19
430.514	99.19
430.736	114.19
430.958	101.19
431.18	100.19
431.402	111.19
431.624	121.19
431.846	94.19
432.068	100.19
432.29	113.19
432.512	102.19
432.734	98.19
432.956	105.19
433.178	106.19
433.4	108.19
433.622	117.19
433.844	107.19
434.066	126.19
434.287	112.19
434.509	96.19
434.731	100.19
434.953	112.19
435.175	108.19
435.397	112.19
435.618	97.19
435.84	96.19
436.062	100.19
436.284	102.19
436.505	128.19
436.727	118.19
436.949	113.19
437.17	113.19
437.392	118.19
437.614	109.19
437.835	100.19
438.057	112.19
438.278	102.19
438.5	98.19
438.721	104.19
438.943	98.19
439.165	106.19
439.386	122.19
439.608	95.19
439.829	104.19
440.05	112.19
440.272	117.19
440.493	103.19
440.715	105.19
440.936	108.19
441.158	118.19
441.379	121.19
441.6	131.19
441.822	113.19
442.043	119.19
442.264	109.19
442.486	113.19
442.707	94.19
442.928	126.19
443.149	116.19
443.371	120.19
443.592	116.19
443.813	102.19
444.034	133.19
444.255	124.19
444.476	116.19
444.698	119.19
444.919	118.19
445.14	250.19
445.361	183.19
445.582	133.19
445.803	106.19
446.024	124.19
446.245	120.19
446.466	116.19
446.687	113.19
446.908	127.19
447.129	106.19
447.35	117.19
447.571	115.19
447.792	109.19
448.013	105.19
448.234	116.19
448.455	103.19
448.675	113.19
448.896	108.19
449.117	104.19
449.338	112.19
449.559	122.19
449.779	108.19
450	115.19
450.221	115.19
450.442	99.19
450.662	103.19
450.883	94.19
451.104	122.19
451.324	96.19
451.545	90.19
451.766	115.19
451.986	101.19
452.207	104.19
452.428	114.19
452.648	104.19
452.869	126.19
453.089	96.19
453.31	92.19
453.53	95.19
453.751	94.19
453.971	93.19
454.192	87.19
454.412	95.19
454.633	108.19
454.853	120.19
455.073	108.19
455.294	97.19
455.514	110.19
455.734	106.19
455.955	87.19
456.175	109.19
456.395	105.19
456.616	101.19
456.836	95.19
457.056	108.19
457.276	92.19
457.497	89.19
457.717	94.19
457.937	103.19
458.157	89.19
458.377	118.19
458.598	98.19
458.818	113.19
459.038	106.19
459.258	92.19
459.478	104.19
459.698	93.19
459.918	96.19
460.138	110.19
460.358	98.19
460.578	112.19
460.798	107.19
461.018	113.19
461.238	110.19
461.458	112.19
461.678	111.19
461.898	109.19
462.118	110.19
462.338	114.19
462.558	117.19
462.777	118.19
462.997	126.19
463.217	128.19
463.437	124.19
463.657	122.19
463.876	113.19
464.096	113.19
464.316	119.19
464.536	118.19
464.755	126.19
464.975	111.19
465.195	104.19
465.414	100.19
465.634	116.19
465.854	110.19
466.073	118.19
466.293	102.19
466.512	116.19
466.732	110.19
466.951	128.19
467.171	119.19
467.391	119.19
467.61	114.19
467.829	129.19
468.049	129.19
468.268	122.19
468.488	113.19
468.707	110.19
468.927	112.19
469.146	114.19
469.365	115.19
469.585	113.19
469.804	107.19
470.023	114.19
470.243	117.19
470.462	120.19
470.681	111.19
470.901	117.19
471.12	119.19
471.339	118.19
471.558	117.19
471.777	105.19
471.997	102.19
472.216	109.19
472.435	108.19
472.654	98.19
472.873	116.19
473.092	117.19
473.311	115.19
473.53	101.19
473.749	110.19
473.968	104.19
474.187	112.19
474.406	93.19
474.625	118.19
474.844	112.19
475.063	105.19
475.282	108.19
475.501	110.19
475.72	115.19
475.939	108.19
476.158	113.19
476.377	117.19
476.596	116.19
476.814	105.19
477.033	103.19
477.252	116.19
477.471	107.19
477.69	101.19
477.908	103.19
478.127	124.19
478.346	126.19
478.564	116.19
478.783	114.19
479.002	117.19
479.22	138.19
479.439	122.19
479.658	114.19
479.876	112.19
480.095	105.19
480.313	105.19
480.532	125.19
480.751	135.19
480.969	127.19
481.188	89.19
481.406	119.19
481.624	112.19
481.843	106.19
482.061	117.19
482.28	103.19
482.498	110.19
482.717	106.19
482.935	123.19
483.153	113.19
483.372	134.19
483.59	113.19
483.808	119.19
484.027	129.19
484.245	121.19
484.463	111.19
484.681	124.19
484.9	129.19
485.118	118.19
485.336	126.19
485.554	120.19
485.772	117.19
485.99	113.19
486.209	122.19
486.427	99.19
486.645	126.19
486.863	130.19
487.081	122.19
487.299	115.19
487.517	131.19
487.735	128.19
487.953	152.19
488.171	143.19
488.389	143.19
488.607	129.19
488.825	128.19
489.043	111.19
489.261	125.19
489.479	124.19
489.696	130.19
489.914	137.19
490.132	126.19
490.35	138.19
490.568	146.19
490.786	140.19
491.003	132.19
491.221	123.19
491.439	150.19
491.657	140.19
491.874	154.19
492.092	152.19
492.31	160.19
492.527	161.19
492.745	157.19
492.963	150.19
493.18	142.19
493.398	139.19
493.615	149.19
493.833	161.19
494.05	149.19
494.268	144.19
494.485	144.19
494.703	147.19
494.92	144.19
495.138	154.19
495.355	159.19
495.573	142.19
495.79	146.19
496.008	143.19
496.225	143.19
496.442	114.19
496.66	150.19
496.877	140.19
497.094	135.19
497.312	130.19
497.529	138.19
497.746	135.19
497.963	139.19
498.181	116.19
498.398	140.19
498.615	157.19
498.832	135.19
499.049	153.19
499.267	167.19
499.484	158.19
499.701	160.19
499.918	197.19
500.135	215.19
500.352	206.19
500.569	212.19
500.786	196.19
501.003	213.19
501.22	190.19
501.437	184.19
501.654	176.19
501.871	171.19
502.088	153.19
502.305	138.19
502.522	134.19
502.739	143.19
502.956	146.19
503.172	145.19
503.389	139.19
503.606	133.19
503.823	120.19
504.04	122.19
504.256	133.19
504.473	142.19
504.69	133.19
504.907	128.19
505.123	131.19
505.34	122.19
505.557	136.19
505.773	127.19
505.99	114.19
506.207	125.19
506.423	117.19
506.64	122.19
506.856	134.19
507.073	117.19
507.289	113.19
507.506	121.19
507.722	121.19
507.939	128.19
508.155	104.19
508.372	106.19
508.588	115.19
508.805	119.19
509.021	112.19
509.238	119.19
509.454	125.19
509.67	121.19
509.887	95.19
510.103	110.19
510.319	104.19
510.536	124.19
510.752	118.19
510.968	112.19
511.184	122.19
511.401	119.19
511.617	111.19
511.833	122.19
512.049	98.19
512.265	113.19
512.481	104.19
