Data from StandardFe(NO3)3.TAE.3%Agarose.FlatLispGreen.Lamp.Energy10.07252019_HRD10591_11-54-32-440.txt Node
Date: Thu Jul 25 11:54:32 EDT 2019
User: cochatt
Spectrometer: HR+D1059
Trigger mode: 1
Integration Time (sec): 1.000000E-1
Scans to average: 1
Electric dark correction enabled: true
Nonlinearity correction enabled: false
Boxcar width: 0
XAxis mode: Wavelengths
Number of Pixels in Spectrum: 2048
>>>>>Begin Spectral Data<<<<<
223.165	7.81
223.4	7.81
223.635	7.81
223.869	-23.19
224.104	-23.19
224.338	-25.19
224.573	-25.19
224.808	-8.19
225.042	-19.19
225.277	-6.19
225.511	12.81
225.746	5.81
225.98	0.81
226.215	6.81
226.449	28.81
226.683	22.81
226.918	23.81
227.152	20.81
227.387	28.81
227.621	41.81
227.856	46.81
228.09	45.81
228.324	50.81
228.559	38.81
228.793	45.81
229.027	69.81
229.262	72.81
229.496	52.81
229.73	69.81
229.964	75.81
230.199	71.81
230.433	77.81
230.667	69.81
230.901	69.81
231.136	73.81
231.37	77.81
231.604	81.81
231.838	89.81
232.072	97.81
232.306	87.81
232.541	73.81
232.775	90.81
233.009	84.81
233.243	84.81
233.477	78.81
233.711	85.81
233.945	77.81
234.179	78.81
234.413	86.81
234.647	85.81
234.881	90.81
235.115	87.81
235.349	66.81
235.583	79.81
235.817	74.81
236.051	72.81
236.285	75.81
236.519	78.81
236.753	80.81
236.987	63.81
237.221	86.81
237.455	89.81
237.689	89.81
237.922	74.81
238.156	76.81
238.39	72.81
238.624	75.81
238.858	89.81
239.091	77.81
239.325	83.81
239.559	79.81
239.793	80.81
240.027	78.81
240.26	62.81
240.494	63.81
240.728	86.81
240.961	76.81
241.195	77.81
241.429	81.81
241.662	72.81
241.896	76.81
242.13	71.81
242.363	84.81
242.597	69.81
242.83	78.81
243.064	86.81
243.298	80.81
243.531	85.81
243.765	76.81
243.998	66.81
244.232	78.81
244.465	69.81
244.699	82.81
244.932	72.81
245.166	80.81
245.399	76.81
245.633	79.81
245.866	80.81
246.099	83.81
246.333	81.81
246.566	85.81
246.8	81.81
247.033	81.81
247.266	77.81
247.5	89.81
247.733	82.81
247.966	84.81
248.2	78.81
248.433	72.81
248.666	72.81
248.899	81.81
249.133	82.81
249.366	87.81
249.599	74.81
249.832	78.81
250.066	82.81
250.299	63.81
250.532	77.81
250.765	82.81
250.998	86.81
251.231	86.81
251.465	88.81
251.698	83.81
251.931	78.81
252.164	84.81
252.397	85.81
252.63	68.81
252.863	68.81
253.096	72.81
253.329	69.81
253.562	84.81
253.795	82.81
254.028	79.81
254.261	70.81
254.494	70.81
254.727	94.81
254.96	75.81
255.193	72.81
255.426	88.81
255.659	87.81
255.892	85.81
256.124	77.81
256.357	87.81
256.59	72.81
256.823	75.81
257.056	94.81
257.289	88.81
257.521	83.81
257.754	72.81
257.987	84.81
258.22	87.81
258.452	75.81
258.685	88.81
258.918	75.81
259.151	86.81
259.383	83.81
259.616	86.81
259.849	80.81
260.081	91.81
260.314	68.81
260.547	84.81
260.779	82.81
261.012	75.81
261.244	70.81
261.477	77.81
261.71	70.81
261.942	88.81
262.175	88.81
262.407	76.81
262.64	68.81
262.872	73.81
263.105	80.81
263.337	76.81
263.57	77.81
263.802	86.81
264.035	84.81
264.267	68.81
264.499	87.81
264.732	87.81
264.964	90.81
265.197	98.81
265.429	96.81
265.661	72.81
265.894	83.81
266.126	86.81
266.358	85.81
266.591	91.81
266.823	74.81
267.055	64.81
267.287	85.81
267.52	89.81
267.752	74.81
267.984	76.81
268.216	92.81
268.448	81.81
268.681	74.81
268.913	75.81
269.145	87.81
269.377	98.81
269.609	79.81
269.841	92.81
270.073	91.81
270.306	102.81
270.538	80.81
270.77	76.81
271.002	80.81
271.234	74.81
271.466	87.81
271.698	90.81
271.93	75.81
272.162	87.81
272.394	88.81
272.626	81.81
272.858	76.81
273.09	77.81
273.322	74.81
273.553	84.81
273.785	86.81
274.017	78.81
274.249	81.81
274.481	93.81
274.713	89.81
274.945	95.81
275.176	83.81
275.408	76.81
275.64	79.81
275.872	80.81
276.104	85.81
276.335	86.81
276.567	97.81
276.799	75.81
277.031	75.81
277.262	89.81
277.494	89.81
277.726	83.81
277.957	86.81
278.189	77.81
278.421	71.81
278.652	78.81
278.884	89.81
279.115	69.81
279.347	89.81
279.579	83.81
279.81	88.81
280.042	81.81
280.273	76.81
280.505	71.81
280.736	78.81
280.968	76.81
281.199	77.81
281.431	102.81
281.662	85.81
281.894	73.81
282.125	85.81
282.356	72.81
282.588	84.81
282.819	83.81
283.051	82.81
283.282	88.81
283.513	105.81
283.745	89.81
283.976	90.81
284.207	89.81
284.439	85.81
284.67	74.81
284.901	85.81
285.132	93.81
285.364	87.81
285.595	81.81
285.826	86.81
286.057	84.81
286.288	77.81
286.52	87.81
286.751	72.81
286.982	90.81
287.213	89.81
287.444	68.81
287.675	84.81
287.906	91.81
288.138	96.81
288.369	93.81
288.6	90.81
288.831	86.81
289.062	97.81
289.293	88.81
289.524	82.81
289.755	80.81
289.986	74.81
290.217	91.81
290.448	80.81
290.679	76.81
290.91	73.81
291.141	80.81
291.371	89.81
291.602	92.81
291.833	85.81
292.064	83.81
292.295	101.81
292.526	73.81
292.757	87.81
292.987	84.81
293.218	72.81
293.449	86.81
293.68	75.81
293.91	85.81
294.141	80.81
294.372	82.81
294.603	75.81
294.833	78.81
295.064	81.81
295.295	79.81
295.525	88.81
295.756	86.81
295.987	81.81
296.217	88.81
296.448	89.81
296.679	81.81
296.909	85.81
297.14	90.81
297.37	87.81
297.601	84.81
297.831	91.81
298.062	95.81
298.292	87.81
298.523	81.81
298.753	84.81
298.984	90.81
299.214	84.81
299.445	79.81
299.675	95.81
299.905	91.81
300.136	77.81
300.366	84.81
300.597	81.81
300.827	90.81
301.057	79.81
301.288	73.81
301.518	82.81
301.748	85.81
301.979	74.81
302.209	82.81
302.439	87.81
302.669	97.81
302.9	82.81
303.13	94.81
303.36	85.81
303.59	84.81
303.82	84.81
304.051	82.81
304.281	87.81
304.511	92.81
304.741	74.81
304.971	83.81
305.201	86.81
305.431	87.81
305.661	69.81
305.891	67.81
306.121	88.81
306.352	84.81
306.582	76.81
306.812	96.81
307.042	81.81
307.272	93.81
307.502	81.81
307.731	88.81
307.961	88.81
308.191	85.81
308.421	92.81
308.651	99.81
308.881	78.81
309.111	89.81
309.341	75.81
309.571	86.81
309.8	80.81
310.03	86.81
310.26	82.81
310.49	96.81
310.72	97.81
310.949	89.81
311.179	82.81
311.409	85.81
311.639	88.81
311.868	77.81
312.098	73.81
312.328	86.81
312.557	85.81
312.787	88.81
313.017	83.81
313.246	80.81
313.476	97.81
313.706	76.81
313.935	88.81
314.165	80.81
314.394	85.81
314.624	86.81
314.853	93.81
315.083	83.81
315.312	78.81
315.542	91.81
315.771	84.81
316.001	77.81
316.23	90.81
316.46	91.81
316.689	73.81
316.919	84.81
317.148	82.81
317.377	98.81
317.607	91.81
317.836	85.81
318.065	82.81
318.295	86.81
318.524	88.81
318.753	85.81
318.983	91.81
319.212	84.81
319.441	85.81
319.67	90.81
319.9	74.81
320.129	73.81
320.358	89.81
320.587	90.81
320.816	101.81
321.046	101.81
321.275	100.81
321.504	76.81
321.733	86.81
321.962	89.81
322.191	95.81
322.42	75.81
322.649	85.81
322.878	91.81
323.108	78.81
323.337	85.81
323.566	91.81
323.795	83.81
324.024	85.81
324.253	83.81
324.482	82.81
324.71	91.81
324.939	68.81
325.168	80.81
325.397	97.81
325.626	87.81
325.855	92.81
326.084	90.81
326.313	91.81
326.542	100.81
326.77	95.81
326.999	78.81
327.228	86.81
327.457	89.81
327.686	79.81
327.914	89.81
328.143	93.81
328.372	73.81
328.6	95.81
328.829	89.81
329.058	76.81
329.287	87.81
329.515	73.81
329.744	79.81
329.972	76.81
330.201	92.81
330.43	69.81
330.658	97.81
330.887	69.81
331.115	98.81
331.344	87.81
331.572	84.81
331.801	69.81
332.03	89.81
332.258	87.81
332.486	78.81
332.715	92.81
332.943	96.81
333.172	85.81
333.4	83.81
333.629	78.81
333.857	87.81
334.085	76.81
334.314	81.81
334.542	89.81
334.771	84.81
334.999	76.81
335.227	100.81
335.455	73.81
335.684	76.81
335.912	86.81
336.14	99.81
336.369	91.81
336.597	90.81
336.825	94.81
337.053	88.81
337.281	82.81
337.51	89.81
337.738	81.81
337.966	78.81
338.194	89.81
338.422	89.81
338.65	76.81
338.878	91.81
339.106	97.81
339.334	88.81
339.562	84.81
339.79	78.81
340.018	75.81
340.246	75.81
340.474	80.81
340.702	84.81
340.93	99.81
341.158	101.81
341.386	78.81
341.614	87.81
341.842	71.81
342.07	84.81
342.298	83.81
342.526	92.81
342.754	96.81
342.981	84.81
343.209	88.81
343.437	97.81
343.665	91.81
343.893	93.81
344.12	86.81
344.348	92.81
344.576	98.81
344.804	72.81
345.031	82.81
345.259	95.81
345.487	87.81
345.714	83.81
345.942	87.81
346.17	83.81
346.397	76.81
346.625	85.81
346.853	84.81
347.08	96.81
347.308	103.81
347.535	82.81
347.763	94.81
347.99	92.81
348.218	80.81
348.445	94.81
348.673	98.81
348.9	102.81
349.128	103.81
349.355	93.81
349.583	84.81
349.81	83.81
350.037	76.81
350.265	81.81
350.492	77.81
350.72	86.81
350.947	83.81
351.174	87.81
351.402	93.81
351.629	102.81
351.856	80.81
352.083	80.81
352.311	87.81
352.538	84.81
352.765	74.81
352.992	68.81
353.22	96.81
353.447	79.81
353.674	85.81
353.901	101.81
354.128	81.81
354.355	85.81
354.583	72.81
354.81	85.81
355.037	90.81
355.264	97.81
355.491	88.81
355.718	85.81
355.945	84.81
356.172	69.81
356.399	89.81
356.626	85.81
356.853	80.81
357.08	75.81
357.307	83.81
357.534	88.81
357.761	68.81
357.988	84.81
358.215	78.81
358.441	100.81
358.668	86.81
358.895	89.81
359.122	84.81
359.349	87.81
359.576	76.81
359.802	87.81
360.029	89.81
360.256	85.81
360.483	88.81
360.709	83.81
360.936	91.81
361.163	79.81
361.39	80.81
361.616	89.81
361.843	88.81
362.07	88.81
362.296	92.81
362.523	86.81
362.749	86.81
362.976	94.81
363.203	89.81
363.429	91.81
363.656	89.81
363.882	77.81
364.109	87.81
364.335	86.81
364.562	84.81
364.788	86.81
365.015	77.81
365.241	81.81
365.468	96.81
365.694	83.81
365.92	88.81
366.147	93.81
366.373	92.81
366.599	84.81
366.826	82.81
367.052	77.81
367.278	96.81
367.505	80.81
367.731	92.81
367.957	90.81
368.184	79.81
368.41	83.81
368.636	101.81
368.862	89.81
369.089	89.81
369.315	76.81
369.541	100.81
369.767	86.81
369.993	106.81
370.219	94.81
370.445	90.81
370.672	87.81
370.898	70.81
371.124	108.81
371.35	92.81
371.576	98.81
371.802	92.81
372.028	95.81
372.254	88.81
372.48	96.81
372.706	74.81
372.932	81.81
373.158	77.81
373.384	97.81
373.61	94.81
373.835	86.81
374.061	88.81
374.287	69.81
374.513	83.81
374.739	97.81
374.965	86.81
375.191	103.81
375.416	91.81
375.642	110.81
375.868	80.81
376.094	80.81
376.319	80.81
376.545	92.81
376.771	94.81
376.997	84.81
377.222	96.81
377.448	81.81
377.674	97.81
377.899	81.81
378.125	72.81
378.35	93.81
378.576	99.81
378.802	86.81
379.027	92.81
379.253	82.81
379.478	94.81
379.704	101.81
379.929	82.81
380.155	86.81
380.38	85.81
380.606	100.81
380.831	96.81
381.057	104.81
381.282	97.81
381.507	99.81
381.733	77.81
381.958	84.81
382.184	78.81
382.409	99.81
382.634	88.81
382.86	78.81
383.085	95.81
383.31	86.81
383.535	91.81
383.761	88.81
383.986	94.81
384.211	94.81
384.436	93.81
384.662	91.81
384.887	92.81
385.112	90.81
385.337	96.81
385.562	90.81
385.787	77.81
386.013	87.81
386.238	93.81
386.463	103.81
386.688	90.81
386.913	88.81
387.138	97.81
387.363	92.81
387.588	79.81
387.813	89.81
388.038	93.81
388.263	104.81
388.488	92.81
388.713	103.81
388.938	95.81
389.163	108.81
389.387	87.81
389.612	90.81
389.837	95.81
390.062	109.81
390.287	83.81
390.512	102.81
390.736	104.81
390.961	97.81
391.186	93.81
391.411	92.81
391.636	96.81
391.86	86.81
392.085	95.81
392.31	120.81
392.534	96.81
392.759	106.81
392.984	105.81
393.208	98.81
393.433	100.81
393.658	107.81
393.882	99.81
394.107	107.81
394.331	91.81
394.556	91.81
394.78	79.81
395.005	95.81
395.229	102.81
395.454	98.81
395.678	99.81
395.903	105.81
396.127	102.81
396.352	105.81
396.576	87.81
396.801	100.81
397.025	115.81
397.249	100.81
397.474	96.81
397.698	99.81
397.922	91.81
398.147	96.81
398.371	100.81
398.595	106.81
398.82	110.81
399.044	99.81
399.268	94.81
399.492	112.81
399.717	124.81
399.941	112.81
400.165	108.81
400.389	75.81
400.613	106.81
400.837	107.81
401.062	106.81
401.286	115.81
401.51	98.81
401.734	119.81
401.958	113.81
402.182	97.81
402.406	119.81
402.63	116.81
402.854	111.81
403.078	126.81
403.302	102.81
403.526	92.81
403.75	106.81
403.974	99.81
404.198	106.81
404.422	109.81
404.645	120.81
404.869	93.81
405.093	116.81
405.317	122.81
405.541	118.81
405.765	110.81
405.988	100.81
406.212	112.81
406.436	110.81
406.66	108.81
406.883	118.81
407.107	128.81
407.331	124.81
407.555	102.81
407.778	128.81
408.002	116.81
408.226	122.81
408.449	116.81
408.673	115.81
408.896	117.81
409.12	124.81
409.344	124.81
409.567	125.81
409.791	109.81
410.014	98.81
410.238	98.81
410.461	117.81
410.685	109.81
410.908	113.81
411.132	100.81
411.355	133.81
411.578	112.81
411.802	124.81
412.025	121.81
412.249	109.81
412.472	117.81
412.695	104.81
412.919	105.81
413.142	117.81
413.365	107.81
413.589	103.81
413.812	115.81
414.035	110.81
414.258	111.81
414.482	104.81
414.705	112.81
414.928	122.81
415.151	120.81
415.374	112.81
415.597	115.81
415.821	102.81
416.044	106.81
416.267	113.81
416.49	110.81
416.713	110.81
416.936	110.81
417.159	107.81
417.382	101.81
417.605	97.81
417.828	107.81
418.051	108.81
418.274	117.81
418.497	109.81
418.72	113.81
418.943	114.81
419.166	108.81
419.389	107.81
419.611	126.81
419.834	103.81
420.057	110.81
420.28	105.81
420.503	120.81
420.726	109.81
420.948	107.81
421.171	107.81
421.394	113.81
421.617	123.81
421.839	114.81
422.062	116.81
422.285	113.81
422.507	116.81
422.73	125.81
422.953	118.81
423.175	106.81
423.398	126.81
423.621	128.81
423.843	113.81
424.066	116.81
424.288	128.81
424.511	109.81
424.733	119.81
424.956	104.81
425.178	94.81
425.401	130.81
425.623	102.81
425.846	109.81
426.068	122.81
426.291	128.81
426.513	110.81
426.735	112.81
426.958	104.81
427.18	105.81
427.402	120.81
427.625	106.81
427.847	115.81
428.069	107.81
428.292	122.81
428.514	112.81
428.736	104.81
428.958	121.81
429.181	120.81
429.403	113.81
429.625	108.81
429.847	114.81
430.069	108.81
430.292	128.81
430.514	125.81
430.736	117.81
430.958	126.81
431.18	108.81
431.402	107.81
431.624	109.81
431.846	104.81
432.068	101.81
432.29	103.81
432.512	100.81
432.734	124.81
432.956	105.81
433.178	117.81
433.4	118.81
433.622	114.81
433.844	128.81
434.066	101.81
434.287	109.81
434.509	101.81
434.731	113.81
434.953	112.81
435.175	124.81
435.397	127.81
435.618	112.81
435.84	108.81
436.062	108.81
436.284	125.81
436.505	116.81
436.727	125.81
436.949	126.81
437.17	120.81
437.392	117.81
437.614	119.81
437.835	132.81
438.057	124.81
438.278	110.81
438.5	110.81
438.721	105.81
438.943	135.81
439.165	124.81
439.386	107.81
439.608	124.81
439.829	124.81
440.05	121.81
440.272	122.81
440.493	126.81
440.715	116.81
440.936	138.81
441.158	118.81
441.379	121.81
441.6	130.81
441.822	114.81
442.043	134.81
442.264	133.81
442.486	108.81
442.707	124.81
442.928	115.81
443.149	115.81
443.371	113.81
443.592	123.81
443.813	128.81
444.034	124.81
444.255	133.81
444.476	110.81
444.698	134.81
444.919	135.81
445.14	270.81
445.361	174.81
445.582	130.81
445.803	124.81
446.024	126.81
446.245	127.81
446.466	134.81
446.687	118.81
446.908	119.81
447.129	121.81
447.35	124.81
447.571	120.81
447.792	118.81
448.013	118.81
448.234	121.81
448.455	125.81
448.675	116.81
448.896	108.81
449.117	116.81
449.338	122.81
449.559	106.81
449.779	123.81
450	122.81
450.221	120.81
450.442	109.81
450.662	122.81
450.883	120.81
451.104	122.81
451.324	112.81
451.545	109.81
451.766	109.81
451.986	113.81
452.207	110.81
452.428	123.81
452.648	101.81
452.869	104.81
453.089	109.81
453.31	111.81
453.53	104.81
453.751	118.81
453.971	112.81
454.192	108.81
454.412	113.81
454.633	116.81
454.853	111.81
455.073	117.81
455.294	118.81
455.514	102.81
455.734	103.81
455.955	105.81
456.175	112.81
456.395	89.81
456.616	85.81
456.836	103.81
457.056	97.81
457.276	100.81
457.497	111.81
457.717	107.81
457.937	97.81
458.157	109.81
458.377	101.81
458.598	107.81
458.818	116.81
459.038	109.81
459.258	106.81
459.478	101.81
459.698	109.81
459.918	102.81
460.138	117.81
460.358	110.81
460.578	130.81
460.798	125.81
461.018	114.81
461.238	124.81
461.458	121.81
461.678	115.81
461.898	114.81
462.118	117.81
462.338	120.81
462.558	126.81
462.777	137.81
462.997	125.81
463.217	123.81
463.437	138.81
463.657	137.81
463.876	129.81
464.096	120.81
464.316	104.81
464.536	106.81
464.755	145.81
464.975	122.81
465.195	125.81
465.414	114.81
465.634	119.81
465.854	122.81
466.073	105.81
466.293	112.81
466.512	109.81
466.732	124.81
466.951	120.81
467.171	127.81
467.391	122.81
467.61	123.81
467.829	136.81
468.049	110.81
468.268	111.81
468.488	112.81
468.707	137.81
468.927	112.81
469.146	119.81
469.365	118.81
469.585	130.81
469.804	125.81
470.023	128.81
470.243	125.81
470.462	123.81
470.681	118.81
470.901	136.81
471.12	121.81
471.339	127.81
471.558	122.81
471.777	130.81
471.997	112.81
472.216	124.81
472.435	113.81
472.654	113.81
472.873	118.81
473.092	116.81
473.311	117.81
473.53	122.81
473.749	128.81
473.968	102.81
474.187	127.81
474.406	117.81
474.625	112.81
474.844	103.81
475.063	109.81
475.282	119.81
475.501	116.81
475.72	115.81
475.939	106.81
476.158	126.81
476.377	109.81
476.596	118.81
476.814	117.81
477.033	135.81
477.252	110.81
477.471	125.81
477.69	134.81
477.908	126.81
478.127	120.81
478.346	143.81
478.564	132.81
478.783	124.81
479.002	147.81
479.22	125.81
479.439	130.81
479.658	117.81
479.876	106.81
480.095	108.81
480.313	138.81
480.532	132.81
480.751	136.81
480.969	128.81
481.188	124.81
481.406	115.81
481.624	122.81
481.843	116.81
482.061	113.81
482.28	123.81
482.498	120.81
482.717	124.81
482.935	123.81
483.153	132.81
483.372	112.81
483.59	141.81
483.808	119.81
484.027	120.81
484.245	120.81
484.463	131.81
484.681	144.81
484.9	118.81
485.118	142.81
485.336	111.81
485.554	126.81
485.772	116.81
485.99	132.81
486.209	135.81
486.427	120.81
486.645	120.81
486.863	142.81
487.081	125.81
487.299	125.81
487.517	141.81
487.735	145.81
487.953	140.81
488.171	146.81
488.389	142.81
488.607	150.81
488.825	142.81
489.043	120.81
489.261	126.81
489.479	118.81
489.696	135.81
489.914	145.81
490.132	142.81
490.35	130.81
490.568	139.81
490.786	136.81
491.003	149.81
491.221	160.81
491.439	164.81
491.657	153.81
491.874	173.81
492.092	166.81
492.31	185.81
492.527	158.81
492.745	161.81
492.963	161.81
493.18	133.81
493.398	161.81
493.615	149.81
493.833	133.81
494.05	153.81
494.268	165.81
494.485	167.81
494.703	152.81
494.92	153.81
495.138	141.81
495.355	157.81
495.573	153.81
495.79	136.81
496.008	152.81
496.225	155.81
496.442	160.81
496.66	151.81
496.877	165.81
497.094	155.81
497.312	145.81
497.529	150.81
497.746	162.81
497.963	154.81
498.181	139.81
498.398	134.81
498.615	165.81
498.832	135.81
499.049	156.81
499.267	162.81
499.484	175.81
499.701	173.81
499.918	184.81
500.135	203.81
500.352	232.81
500.569	244.81
500.786	223.81
501.003	223.81
501.22	198.81
501.437	186.81
501.654	180.81
501.871	169.81
502.088	171.81
502.305	155.81
502.522	147.81
502.739	155.81
502.956	138.81
503.172	150.81
503.389	143.81
503.606	153.81
503.823	142.81
504.04	134.81
504.256	136.81
504.473	142.81
504.69	153.81
504.907	143.81
505.123	133.81
505.34	138.81
505.557	137.81
505.773	138.81
505.99	133.81
506.207	126.81
506.423	121.81
506.64	110.81
506.856	128.81
507.073	124.81
507.289	124.81
507.506	119.81
507.722	123.81
507.939	125.81
508.155	140.81
508.372	132.81
508.588	136.81
508.805	121.81
509.021	113.81
509.238	119.81
509.454	125.81
509.67	114.81
509.887	118.81
510.103	117.81
510.319	107.81
510.536	112.81
510.752	112.81
510.968	116.81
511.184	113.81
511.401	109.81
511.617	121.81
