Data from StandardFe(NO3)3.TAE.3%Agarose.FlatLispGreen.Lamp.Energy10.07252019_HRD10591_11-53-36-439.txt Node
Date: Thu Jul 25 11:53:36 EDT 2019
User: cochatt
Spectrometer: HR+D1059
Trigger mode: 1
Integration Time (sec): 1.000000E-1
Scans to average: 1
Electric dark correction enabled: true
Nonlinearity correction enabled: false
Boxcar width: 0
XAxis mode: Wavelengths
Number of Pixels in Spectrum: 2048
>>>>>Begin Spectral Data<<<<<
223.165	-17.88
223.4	-17.88
223.635	-17.88
223.869	-13.88
224.104	-19.88
224.338	-19.88
224.573	-29.88
224.808	-13.88
225.042	-9.88
225.277	-7.88
225.511	-25.88
225.746	12.12
225.98	-1.88
226.215	17.12
226.449	30.12
226.683	28.12
226.918	33.12
227.152	40.12
227.387	32.12
227.621	40.12
227.856	54.12
228.09	53.12
228.324	62.12
228.559	59.12
228.793	58.12
229.027	82.12
229.262	80.12
229.496	84.12
229.73	73.12
229.964	62.12
230.199	63.12
230.433	82.12
230.667	82.12
230.901	85.12
231.136	79.12
231.37	87.12
231.604	92.12
231.838	97.12
232.072	80.12
232.306	84.12
232.541	88.12
232.775	103.12
233.009	91.12
233.243	100.12
233.477	88.12
233.711	88.12
233.945	88.12
234.179	85.12
234.413	76.12
234.647	81.12
234.881	86.12
235.115	76.12
235.349	82.12
235.583	79.12
235.817	92.12
236.051	82.12
236.285	76.12
236.519	85.12
236.753	88.12
236.987	86.12
237.221	79.12
237.455	80.12
237.689	81.12
237.922	81.12
238.156	73.12
238.39	93.12
238.624	76.12
238.858	81.12
239.091	80.12
239.325	73.12
239.559	85.12
239.793	87.12
240.027	81.12
240.26	81.12
240.494	70.12
240.728	85.12
240.961	66.12
241.195	84.12
241.429	77.12
241.662	70.12
241.896	69.12
242.13	71.12
242.363	75.12
242.597	82.12
242.83	76.12
243.064	82.12
243.298	80.12
243.531	69.12
243.765	77.12
243.998	84.12
244.232	76.12
244.465	82.12
244.699	84.12
244.932	73.12
245.166	73.12
245.399	77.12
245.633	85.12
245.866	90.12
246.099	73.12
246.333	75.12
246.566	84.12
246.8	84.12
247.033	85.12
247.266	84.12
247.5	77.12
247.733	79.12
247.966	85.12
248.2	94.12
248.433	72.12
248.666	83.12
248.899	77.12
249.133	87.12
249.366	75.12
249.599	90.12
249.832	94.12
250.066	72.12
250.299	78.12
250.532	75.12
250.765	86.12
250.998	87.12
251.231	84.12
251.465	90.12
251.698	69.12
251.931	85.12
252.164	87.12
252.397	90.12
252.63	64.12
252.863	69.12
253.096	72.12
253.329	89.12
253.562	87.12
253.795	88.12
254.028	81.12
254.261	78.12
254.494	97.12
254.727	83.12
254.96	92.12
255.193	81.12
255.426	99.12
255.659	78.12
255.892	98.12
256.124	87.12
256.357	90.12
256.59	95.12
256.823	76.12
257.056	89.12
257.289	75.12
257.521	78.12
257.754	83.12
257.987	79.12
258.22	81.12
258.452	82.12
258.685	97.12
258.918	94.12
259.151	82.12
259.383	83.12
259.616	88.12
259.849	93.12
260.081	85.12
260.314	78.12
260.547	87.12
260.779	84.12
261.012	83.12
261.244	61.12
261.477	78.12
261.71	76.12
261.942	95.12
262.175	90.12
262.407	87.12
262.64	84.12
262.872	92.12
263.105	79.12
263.337	80.12
263.57	83.12
263.802	82.12
264.035	73.12
264.267	72.12
264.499	97.12
264.732	86.12
264.964	95.12
265.197	76.12
265.429	81.12
265.661	87.12
265.894	87.12
266.126	85.12
266.358	96.12
266.591	93.12
266.823	85.12
267.055	101.12
267.287	91.12
267.52	89.12
267.752	94.12
267.984	79.12
268.216	84.12
268.448	102.12
268.681	79.12
268.913	89.12
269.145	68.12
269.377	89.12
269.609	68.12
269.841	92.12
270.073	90.12
270.306	80.12
270.538	103.12
270.77	87.12
271.002	82.12
271.234	92.12
271.466	80.12
271.698	92.12
271.93	73.12
272.162	76.12
272.394	98.12
272.626	102.12
272.858	79.12
273.09	71.12
273.322	81.12
273.553	74.12
273.785	77.12
274.017	81.12
274.249	90.12
274.481	91.12
274.713	86.12
274.945	78.12
275.176	90.12
275.408	86.12
275.64	91.12
275.872	85.12
276.104	82.12
276.335	96.12
276.567	72.12
276.799	93.12
277.031	76.12
277.262	82.12
277.494	91.12
277.726	90.12
277.957	90.12
278.189	82.12
278.421	92.12
278.652	98.12
278.884	99.12
279.115	91.12
279.347	89.12
279.579	83.12
279.81	95.12
280.042	87.12
280.273	89.12
280.505	89.12
280.736	86.12
280.968	79.12
281.199	90.12
281.431	70.12
281.662	74.12
281.894	93.12
282.125	87.12
282.356	86.12
282.588	88.12
282.819	81.12
283.051	91.12
283.282	95.12
283.513	100.12
283.745	91.12
283.976	90.12
284.207	99.12
284.439	93.12
284.67	103.12
284.901	81.12
285.132	82.12
285.364	86.12
285.595	93.12
285.826	91.12
286.057	90.12
286.288	80.12
286.52	93.12
286.751	89.12
286.982	91.12
287.213	98.12
287.444	101.12
287.675	86.12
287.906	85.12
288.138	98.12
288.369	98.12
288.6	88.12
288.831	98.12
289.062	100.12
289.293	76.12
289.524	86.12
289.755	95.12
289.986	84.12
290.217	96.12
290.448	81.12
290.679	69.12
290.91	80.12
291.141	105.12
291.371	87.12
291.602	90.12
291.833	90.12
292.064	82.12
292.295	91.12
292.526	96.12
292.757	95.12
292.987	79.12
293.218	82.12
293.449	81.12
293.68	73.12
293.91	89.12
294.141	85.12
294.372	85.12
294.603	82.12
294.833	99.12
295.064	96.12
295.295	88.12
295.525	90.12
295.756	85.12
295.987	73.12
296.217	93.12
296.448	74.12
296.679	92.12
296.909	86.12
297.14	92.12
297.37	91.12
297.601	79.12
297.831	85.12
298.062	87.12
298.292	90.12
298.523	91.12
298.753	100.12
298.984	91.12
299.214	104.12
299.445	107.12
299.675	81.12
299.905	81.12
300.136	80.12
300.366	73.12
300.597	78.12
300.827	85.12
301.057	86.12
301.288	96.12
301.518	91.12
301.748	97.12
301.979	83.12
302.209	87.12
302.439	85.12
302.669	80.12
302.9	92.12
303.13	84.12
303.36	82.12
303.59	93.12
303.82	102.12
304.051	103.12
304.281	104.12
304.511	86.12
304.741	91.12
304.971	98.12
305.201	87.12
305.431	94.12
305.661	98.12
305.891	83.12
306.121	82.12
306.352	86.12
306.582	80.12
306.812	91.12
307.042	91.12
307.272	90.12
307.502	89.12
307.731	99.12
307.961	94.12
308.191	86.12
308.421	95.12
308.651	72.12
308.881	86.12
309.111	90.12
309.341	103.12
309.571	85.12
309.8	88.12
310.03	88.12
310.26	81.12
310.49	86.12
310.72	79.12
310.949	84.12
311.179	98.12
311.409	98.12
311.639	84.12
311.868	94.12
312.098	88.12
312.328	97.12
312.557	96.12
312.787	100.12
313.017	94.12
313.246	77.12
313.476	89.12
313.706	91.12
313.935	84.12
314.165	86.12
314.394	84.12
314.624	80.12
314.853	95.12
315.083	75.12
315.312	98.12
315.542	68.12
315.771	87.12
316.001	99.12
316.23	93.12
316.46	93.12
316.689	94.12
316.919	84.12
317.148	84.12
317.377	99.12
317.607	94.12
317.836	86.12
318.065	91.12
318.295	95.12
318.524	88.12
318.753	101.12
318.983	97.12
319.212	105.12
319.441	73.12
319.67	79.12
319.9	86.12
320.129	99.12
320.358	92.12
320.587	86.12
320.816	78.12
321.046	75.12
321.275	98.12
321.504	74.12
321.733	90.12
321.962	80.12
322.191	104.12
322.42	90.12
322.649	84.12
322.878	91.12
323.108	89.12
323.337	93.12
323.566	88.12
323.795	82.12
324.024	89.12
324.253	85.12
324.482	90.12
324.71	99.12
324.939	88.12
325.168	88.12
325.397	85.12
325.626	90.12
325.855	103.12
326.084	97.12
326.313	95.12
326.542	91.12
326.77	87.12
326.999	94.12
327.228	91.12
327.457	73.12
327.686	92.12
327.914	92.12
328.143	93.12
328.372	94.12
328.6	88.12
328.829	84.12
329.058	83.12
329.287	93.12
329.515	77.12
329.744	102.12
329.972	90.12
330.201	98.12
330.43	90.12
330.658	85.12
330.887	84.12
331.115	93.12
331.344	100.12
331.572	90.12
331.801	94.12
332.03	97.12
332.258	73.12
332.486	89.12
332.715	87.12
332.943	92.12
333.172	80.12
333.4	91.12
333.629	102.12
333.857	94.12
334.085	96.12
334.314	92.12
334.542	102.12
334.771	93.12
334.999	92.12
335.227	96.12
335.455	91.12
335.684	89.12
335.912	100.12
336.14	92.12
336.369	82.12
336.597	79.12
336.825	88.12
337.053	69.12
337.281	88.12
337.51	72.12
337.738	81.12
337.966	78.12
338.194	88.12
338.422	87.12
338.65	90.12
338.878	80.12
339.106	90.12
339.334	87.12
339.562	87.12
339.79	81.12
340.018	89.12
340.246	89.12
340.474	96.12
340.702	90.12
340.93	93.12
341.158	94.12
341.386	93.12
341.614	89.12
341.842	88.12
342.07	81.12
342.298	92.12
342.526	83.12
342.754	84.12
342.981	77.12
343.209	88.12
343.437	90.12
343.665	95.12
343.893	92.12
344.12	92.12
344.348	82.12
344.576	80.12
344.804	87.12
345.031	95.12
345.259	94.12
345.487	76.12
345.714	94.12
345.942	86.12
346.17	91.12
346.397	95.12
346.625	90.12
346.853	97.12
347.08	88.12
347.308	93.12
347.535	102.12
347.763	90.12
347.99	98.12
348.218	93.12
348.445	82.12
348.673	91.12
348.9	92.12
349.128	96.12
349.355	89.12
349.583	94.12
349.81	94.12
350.037	93.12
350.265	88.12
350.492	97.12
350.72	91.12
350.947	91.12
351.174	87.12
351.402	88.12
351.629	85.12
351.856	92.12
352.083	95.12
352.311	81.12
352.538	97.12
352.765	98.12
352.992	85.12
353.22	68.12
353.447	92.12
353.674	94.12
353.901	92.12
354.128	85.12
354.355	84.12
354.583	95.12
354.81	81.12
355.037	88.12
355.264	98.12
355.491	81.12
355.718	92.12
355.945	82.12
356.172	104.12
356.399	75.12
356.626	72.12
356.853	78.12
357.08	76.12
357.307	79.12
357.534	85.12
357.761	80.12
357.988	91.12
358.215	85.12
358.441	92.12
358.668	96.12
358.895	84.12
359.122	93.12
359.349	82.12
359.576	90.12
359.802	89.12
360.029	91.12
360.256	87.12
360.483	99.12
360.709	83.12
360.936	102.12
361.163	98.12
361.39	91.12
361.616	99.12
361.843	104.12
362.07	105.12
362.296	91.12
362.523	100.12
362.749	98.12
362.976	102.12
363.203	101.12
363.429	78.12
363.656	79.12
363.882	81.12
364.109	98.12
364.335	97.12
364.562	85.12
364.788	82.12
365.015	92.12
365.241	97.12
365.468	95.12
365.694	97.12
365.92	93.12
366.147	102.12
366.373	92.12
366.599	81.12
366.826	90.12
367.052	89.12
367.278	89.12
367.505	97.12
367.731	91.12
367.957	101.12
368.184	91.12
368.41	97.12
368.636	85.12
368.862	88.12
369.089	71.12
369.315	84.12
369.541	89.12
369.767	79.12
369.993	109.12
370.219	81.12
370.445	87.12
370.672	98.12
370.898	100.12
371.124	99.12
371.35	97.12
371.576	83.12
371.802	91.12
372.028	86.12
372.254	86.12
372.48	85.12
372.706	91.12
372.932	101.12
373.158	89.12
373.384	89.12
373.61	98.12
373.835	94.12
374.061	96.12
374.287	91.12
374.513	93.12
374.739	87.12
374.965	100.12
375.191	81.12
375.416	85.12
375.642	98.12
375.868	88.12
376.094	91.12
376.319	93.12
376.545	107.12
376.771	100.12
376.997	95.12
377.222	90.12
377.448	110.12
377.674	87.12
377.899	92.12
378.125	90.12
378.35	99.12
378.576	96.12
378.802	90.12
379.027	96.12
379.253	98.12
379.478	92.12
379.704	90.12
379.929	94.12
380.155	94.12
380.38	86.12
380.606	97.12
380.831	78.12
381.057	89.12
381.282	94.12
381.507	97.12
381.733	96.12
381.958	102.12
382.184	92.12
382.409	97.12
382.634	94.12
382.86	87.12
383.085	91.12
383.31	99.12
383.535	88.12
383.761	87.12
383.986	90.12
384.211	104.12
384.436	105.12
384.662	110.12
384.887	89.12
385.112	83.12
385.337	100.12
385.562	90.12
385.787	95.12
386.013	112.12
386.238	94.12
386.463	91.12
386.688	96.12
386.913	92.12
387.138	93.12
387.363	100.12
387.588	95.12
387.813	104.12
388.038	112.12
388.263	91.12
388.488	96.12
388.713	100.12
388.938	90.12
389.163	100.12
389.387	99.12
389.612	89.12
389.837	102.12
390.062	100.12
390.287	103.12
390.512	102.12
390.736	81.12
390.961	86.12
391.186	116.12
391.411	94.12
391.636	111.12
391.86	102.12
392.085	94.12
392.31	107.12
392.534	86.12
392.759	109.12
392.984	96.12
393.208	113.12
393.433	96.12
393.658	90.12
393.882	93.12
394.107	110.12
394.331	108.12
394.556	112.12
394.78	96.12
395.005	99.12
395.229	90.12
395.454	98.12
395.678	111.12
395.903	101.12
396.127	113.12
396.352	99.12
396.576	97.12
396.801	106.12
397.025	105.12
397.249	110.12
397.474	100.12
397.698	96.12
397.922	104.12
398.147	95.12
398.371	104.12
398.595	102.12
398.82	99.12
399.044	125.12
399.268	104.12
399.492	107.12
399.717	108.12
399.941	104.12
400.165	110.12
400.389	123.12
400.613	120.12
400.837	107.12
401.062	109.12
401.286	102.12
401.51	116.12
401.734	104.12
401.958	105.12
402.182	119.12
402.406	118.12
402.63	110.12
402.854	106.12
403.078	110.12
403.302	91.12
403.526	122.12
403.75	113.12
403.974	112.12
404.198	94.12
404.422	103.12
404.645	104.12
404.869	113.12
405.093	110.12
405.317	118.12
405.541	121.12
405.765	110.12
405.988	112.12
406.212	94.12
406.436	113.12
406.66	120.12
406.883	111.12
407.107	118.12
407.331	125.12
407.555	113.12
407.778	101.12
408.002	114.12
408.226	120.12
408.449	116.12
408.673	111.12
408.896	122.12
409.12	109.12
409.344	111.12
409.567	116.12
409.791	116.12
410.014	125.12
410.238	112.12
410.461	107.12
410.685	125.12
410.908	108.12
411.132	117.12
411.355	115.12
411.578	128.12
411.802	118.12
412.025	119.12
412.249	105.12
412.472	112.12
412.695	106.12
412.919	104.12
413.142	100.12
413.365	116.12
413.589	127.12
413.812	90.12
414.035	118.12
414.258	117.12
414.482	119.12
414.705	113.12
414.928	111.12
415.151	109.12
415.374	118.12
415.597	114.12
415.821	118.12
416.044	116.12
416.267	114.12
416.49	121.12
416.713	123.12
416.936	111.12
417.159	110.12
417.382	128.12
417.605	100.12
417.828	128.12
418.051	118.12
418.274	120.12
418.497	114.12
418.72	114.12
418.943	131.12
419.166	122.12
419.389	130.12
419.611	128.12
419.834	118.12
420.057	130.12
420.28	132.12
420.503	130.12
420.726	112.12
420.948	110.12
421.171	106.12
421.394	112.12
421.617	125.12
421.839	136.12
422.062	116.12
422.285	120.12
422.507	121.12
422.73	110.12
422.953	104.12
423.175	120.12
423.398	110.12
423.621	127.12
423.843	128.12
424.066	129.12
424.288	128.12
424.511	130.12
424.733	120.12
424.956	125.12
425.178	123.12
425.401	112.12
425.623	117.12
425.846	112.12
426.068	103.12
426.291	126.12
426.513	128.12
426.735	124.12
426.958	127.12
427.18	123.12
427.402	120.12
427.625	118.12
427.847	113.12
428.069	113.12
428.292	132.12
428.514	116.12
428.736	119.12
428.958	110.12
429.181	114.12
429.403	110.12
429.625	103.12
429.847	122.12
430.069	113.12
430.292	116.12
430.514	125.12
430.736	118.12
430.958	123.12
431.18	124.12
431.402	104.12
431.624	123.12
431.846	102.12
432.068	122.12
432.29	113.12
432.512	120.12
432.734	114.12
432.956	115.12
433.178	109.12
433.4	118.12
433.622	117.12
433.844	107.12
434.066	119.12
434.287	100.12
434.509	110.12
434.731	100.12
434.953	129.12
435.175	130.12
435.397	119.12
435.618	110.12
435.84	109.12
436.062	105.12
436.284	117.12
436.505	108.12
436.727	125.12
436.949	109.12
437.17	130.12
437.392	118.12
437.614	117.12
437.835	122.12
438.057	110.12
438.278	108.12
438.5	116.12
438.721	119.12
438.943	122.12
439.165	114.12
439.386	132.12
439.608	114.12
439.829	107.12
440.05	126.12
440.272	121.12
440.493	138.12
440.715	121.12
440.936	117.12
441.158	129.12
441.379	127.12
441.6	126.12
441.822	123.12
442.043	126.12
442.264	127.12
442.486	113.12
442.707	118.12
442.928	112.12
443.149	114.12
443.371	128.12
443.592	131.12
443.813	124.12
444.034	123.12
444.255	139.12
444.476	114.12
444.698	127.12
444.919	126.12
445.14	258.12
445.361	176.12
445.582	128.12
445.803	116.12
446.024	126.12
446.245	129.12
446.466	128.12
446.687	117.12
446.908	117.12
447.129	129.12
447.35	143.12
447.571	128.12
447.792	110.12
448.013	129.12
448.234	124.12
448.455	127.12
448.675	114.12
448.896	128.12
449.117	124.12
449.338	112.12
449.559	124.12
449.779	121.12
450	116.12
450.221	112.12
450.442	111.12
450.662	111.12
450.883	109.12
451.104	116.12
451.324	131.12
451.545	125.12
451.766	119.12
451.986	120.12
452.207	123.12
452.428	125.12
452.648	120.12
452.869	113.12
453.089	110.12
453.31	107.12
453.53	105.12
453.751	130.12
453.971	113.12
454.192	110.12
454.412	99.12
454.633	120.12
454.853	95.12
455.073	107.12
455.294	113.12
455.514	114.12
455.734	113.12
455.955	122.12
456.175	116.12
456.395	118.12
456.616	99.12
456.836	104.12
457.056	97.12
457.276	114.12
457.497	113.12
457.717	110.12
457.937	128.12
458.157	100.12
458.377	104.12
458.598	109.12
458.818	101.12
459.038	116.12
459.258	120.12
459.478	103.12
459.698	114.12
459.918	112.12
460.138	112.12
460.358	129.12
460.578	126.12
460.798	130.12
461.018	114.12
461.238	122.12
461.458	115.12
461.678	117.12
461.898	111.12
462.118	120.12
462.338	115.12
462.558	107.12
462.777	127.12
462.997	117.12
463.217	130.12
463.437	138.12
463.657	118.12
463.876	127.12
464.096	127.12
464.316	127.12
464.536	117.12
464.755	129.12
464.975	127.12
465.195	132.12
465.414	114.12
465.634	119.12
465.854	120.12
466.073	117.12
466.293	125.12
466.512	119.12
466.732	122.12
466.951	124.12
467.171	130.12
467.391	132.12
467.61	129.12
467.829	119.12
468.049	127.12
468.268	119.12
468.488	135.12
468.707	122.12
468.927	133.12
469.146	111.12
469.365	125.12
469.585	120.12
469.804	107.12
470.023	137.12
470.243	130.12
470.462	124.12
470.681	146.12
470.901	141.12
471.12	130.12
471.339	121.12
471.558	130.12
471.777	123.12
471.997	120.12
472.216	127.12
472.435	123.12
472.654	116.12
472.873	121.12
473.092	108.12
473.311	116.12
473.53	118.12
473.749	130.12
473.968	126.12
474.187	123.12
474.406	121.12
474.625	122.12
474.844	118.12
475.063	126.12
475.282	112.12
475.501	120.12
475.72	120.12
475.939	128.12
476.158	124.12
476.377	125.12
476.596	113.12
476.814	106.12
477.033	122.12
477.252	121.12
477.471	129.12
477.69	131.12
477.908	120.12
478.127	143.12
478.346	133.12
478.564	137.12
478.783	124.12
479.002	142.12
479.22	129.12
479.439	120.12
479.658	136.12
479.876	123.12
480.095	132.12
480.313	130.12
480.532	131.12
480.751	128.12
480.969	107.12
481.188	122.12
481.406	115.12
481.624	105.12
481.843	116.12
482.061	107.12
482.28	117.12
482.498	120.12
482.717	103.12
482.935	140.12
483.153	138.12
483.372	128.12
483.59	146.12
483.808	137.12
484.027	138.12
484.245	136.12
484.463	144.12
484.681	142.12
484.9	122.12
485.118	123.12
485.336	121.12
485.554	106.12
485.772	129.12
485.99	136.12
486.209	124.12
486.427	130.12
486.645	132.12
486.863	136.12
487.081	151.12
487.299	124.12
487.517	139.12
487.735	160.12
487.953	142.12
488.171	154.12
488.389	151.12
488.607	129.12
488.825	148.12
489.043	136.12
489.261	138.12
489.479	145.12
489.696	134.12
489.914	138.12
490.132	138.12
490.35	157.12
490.568	142.12
490.786	143.12
491.003	150.12
491.221	160.12
491.439	163.12
491.657	158.12
491.874	151.12
492.092	164.12
492.31	191.12
492.527	169.12
492.745	164.12
492.963	160.12
493.18	151.12
493.398	156.12
493.615	157.12
493.833	157.12
494.05	152.12
494.268	160.12
494.485	167.12
494.703	160.12
494.92	172.12
495.138	148.12
495.355	150.12
495.573	152.12
495.79	158.12
496.008	160.12
496.225	152.12
496.442	141.12
496.66	150.12
496.877	155.12
497.094	151.12
497.312	150.12
497.529	147.12
497.746	158.12
497.963	158.12
498.181	134.12
498.398	128.12
498.615	140.12
498.832	142.12
499.049	158.12
499.267	172.12
499.484	165.12
499.701	172.12
499.918	196.12
500.135	206.12
500.352	229.12
500.569	225.12
500.786	231.12
501.003	202.12
501.22	190.12
501.437	169.12
501.654	180.12
501.871	170.12
502.088	155.12
502.305	167.12
502.522	146.12
502.739	144.12
502.956	157.12
503.172	152.12
503.389	132.12
503.606	142.12
503.823	142.12
504.04	144.12
504.256	143.12
504.473	142.12
504.69	139.12
504.907	134.12
505.123	137.12
505.34	148.12
505.557	131.12
505.773	142.12
505.99	137.12
506.207	135.12
506.423	140.12
506.64	110.12
506.856	130.12
507.073	132.12
507.289	118.12
507.506	122.12
507.722	125.12
507.939	136.12
508.155	136.12
508.372	129.12
508.588	139.12
508.805	128.12
509.021	122.12
509.238	105.12
509.454	120.12
509.67	110.12
509.887	112.12
510.103	120.12
510.319	120.12
510.536	105.12
510.752	120.12
