Data from StandardFe(NO3)3.TAE.3%Agarose.FlatLispGreen.Lamp.Energy10.07252019_HRD10591_11-54-43-440.txt Node
Date: Thu Jul 25 11:54:43 EDT 2019
User: cochatt
Spectrometer: HR+D1059
Trigger mode: 1
Integration Time (sec): 1.000000E-1
Scans to average: 1
Electric dark correction enabled: true
Nonlinearity correction enabled: false
Boxcar width: 0
XAxis mode: Wavelengths
Number of Pixels in Spectrum: 2048
>>>>>Begin Spectral Data<<<<<
223.165	-15.25
223.4	-15.25
223.635	-15.25
223.869	-15.25
224.104	-11.25
224.338	-8.25
224.573	-12.25
224.808	-13.25
225.042	-2.25
225.277	-14.25
225.511	4.75
225.746	-3.25
225.98	2.75
226.215	0.75
226.449	12.75
226.683	23.75
226.918	28.75
227.152	21.75
227.387	24.75
227.621	33.75
227.856	40.75
228.09	37.75
228.324	55.75
228.559	41.75
228.793	50.75
229.027	74.75
229.262	71.75
229.496	61.75
229.73	64.75
229.964	68.75
230.199	74.75
230.433	77.75
230.667	72.75
230.901	78.75
231.136	69.75
231.37	65.75
231.604	82.75
231.838	76.75
232.072	81.75
232.306	84.75
232.541	89.75
232.775	78.75
233.009	86.75
233.243	83.75
233.477	86.75
233.711	83.75
233.945	84.75
234.179	85.75
234.413	76.75
234.647	86.75
234.881	73.75
235.115	88.75
235.349	79.75
235.583	73.75
235.817	67.75
236.051	71.75
236.285	89.75
236.519	76.75
236.753	73.75
236.987	79.75
237.221	76.75
237.455	82.75
237.689	88.75
237.922	86.75
238.156	85.75
238.39	59.75
238.624	83.75
238.858	77.75
239.091	90.75
239.325	85.75
239.559	76.75
239.793	71.75
240.027	62.75
240.26	64.75
240.494	78.75
240.728	62.75
240.961	71.75
241.195	82.75
241.429	65.75
241.662	61.75
241.896	76.75
242.13	76.75
242.363	80.75
242.597	71.75
242.83	89.75
243.064	75.75
243.298	78.75
243.531	80.75
243.765	68.75
243.998	82.75
244.232	71.75
244.465	93.75
244.699	76.75
244.932	72.75
245.166	86.75
245.399	80.75
245.633	76.75
245.866	80.75
246.099	70.75
246.333	71.75
246.566	75.75
246.8	83.75
247.033	81.75
247.266	67.75
247.5	82.75
247.733	67.75
247.966	86.75
248.2	86.75
248.433	65.75
248.666	78.75
248.899	99.75
249.133	73.75
249.366	87.75
249.599	76.75
249.832	79.75
250.066	84.75
250.299	83.75
250.532	85.75
250.765	78.75
250.998	73.75
251.231	81.75
251.465	88.75
251.698	83.75
251.931	86.75
252.164	72.75
252.397	82.75
252.63	83.75
252.863	82.75
253.096	73.75
253.329	85.75
253.562	74.75
253.795	69.75
254.028	70.75
254.261	78.75
254.494	79.75
254.727	81.75
254.96	96.75
255.193	82.75
255.426	96.75
255.659	82.75
255.892	88.75
256.124	84.75
256.357	83.75
256.59	90.75
256.823	90.75
257.056	88.75
257.289	70.75
257.521	90.75
257.754	83.75
257.987	75.75
258.22	78.75
258.452	85.75
258.685	77.75
258.918	75.75
259.151	69.75
259.383	89.75
259.616	75.75
259.849	91.75
260.081	84.75
260.314	91.75
260.547	93.75
260.779	88.75
261.012	83.75
261.244	88.75
261.477	84.75
261.71	76.75
261.942	92.75
262.175	78.75
262.407	83.75
262.64	72.75
262.872	76.75
263.105	78.75
263.337	90.75
263.57	82.75
263.802	80.75
264.035	74.75
264.267	84.75
264.499	91.75
264.732	97.75
264.964	98.75
265.197	92.75
265.429	92.75
265.661	81.75
265.894	93.75
266.126	87.75
266.358	65.75
266.591	73.75
266.823	89.75
267.055	79.75
267.287	76.75
267.52	84.75
267.752	88.75
267.984	74.75
268.216	77.75
268.448	89.75
268.681	83.75
268.913	83.75
269.145	81.75
269.377	85.75
269.609	96.75
269.841	75.75
270.073	81.75
270.306	81.75
270.538	75.75
270.77	84.75
271.002	77.75
271.234	72.75
271.466	82.75
271.698	84.75
271.93	84.75
272.162	85.75
272.394	87.75
272.626	79.75
272.858	81.75
273.09	83.75
273.322	89.75
273.553	74.75
273.785	87.75
274.017	78.75
274.249	72.75
274.481	83.75
274.713	84.75
274.945	73.75
275.176	73.75
275.408	82.75
275.64	85.75
275.872	67.75
276.104	92.75
276.335	85.75
276.567	71.75
276.799	64.75
277.031	80.75
277.262	86.75
277.494	81.75
277.726	101.75
277.957	82.75
278.189	76.75
278.421	89.75
278.652	82.75
278.884	84.75
279.115	84.75
279.347	90.75
279.579	84.75
279.81	88.75
280.042	82.75
280.273	92.75
280.505	84.75
280.736	76.75
280.968	77.75
281.199	81.75
281.431	80.75
281.662	83.75
281.894	98.75
282.125	84.75
282.356	84.75
282.588	81.75
282.819	85.75
283.051	81.75
283.282	83.75
283.513	86.75
283.745	101.75
283.976	66.75
284.207	95.75
284.439	88.75
284.67	89.75
284.901	75.75
285.132	73.75
285.364	89.75
285.595	86.75
285.826	79.75
286.057	85.75
286.288	90.75
286.52	92.75
286.751	105.75
286.982	97.75
287.213	76.75
287.444	94.75
287.675	75.75
287.906	88.75
288.138	77.75
288.369	89.75
288.6	99.75
288.831	94.75
289.062	102.75
289.293	83.75
289.524	73.75
289.755	74.75
289.986	84.75
290.217	82.75
290.448	84.75
290.679	86.75
290.91	86.75
291.141	81.75
291.371	85.75
291.602	98.75
291.833	88.75
292.064	83.75
292.295	82.75
292.526	97.75
292.757	93.75
292.987	88.75
293.218	97.75
293.449	76.75
293.68	89.75
293.91	91.75
294.141	86.75
294.372	86.75
294.603	91.75
294.833	84.75
295.064	83.75
295.295	79.75
295.525	92.75
295.756	81.75
295.987	76.75
296.217	94.75
296.448	77.75
296.679	82.75
296.909	92.75
297.14	84.75
297.37	103.75
297.601	77.75
297.831	73.75
298.062	74.75
298.292	89.75
298.523	87.75
298.753	87.75
298.984	81.75
299.214	84.75
299.445	78.75
299.675	78.75
299.905	68.75
300.136	81.75
300.366	84.75
300.597	86.75
300.827	94.75
301.057	89.75
301.288	87.75
301.518	85.75
301.748	78.75
301.979	82.75
302.209	90.75
302.439	100.75
302.669	82.75
302.9	81.75
303.13	88.75
303.36	95.75
303.59	74.75
303.82	86.75
304.051	92.75
304.281	86.75
304.511	85.75
304.741	83.75
304.971	86.75
305.201	81.75
305.431	93.75
305.661	84.75
305.891	90.75
306.121	84.75
306.352	75.75
306.582	75.75
306.812	75.75
307.042	104.75
307.272	88.75
307.502	84.75
307.731	97.75
307.961	90.75
308.191	82.75
308.421	92.75
308.651	75.75
308.881	84.75
309.111	92.75
309.341	83.75
309.571	82.75
309.8	73.75
310.03	79.75
310.26	94.75
310.49	87.75
310.72	86.75
310.949	89.75
311.179	84.75
311.409	88.75
311.639	83.75
311.868	75.75
312.098	96.75
312.328	102.75
312.557	75.75
312.787	89.75
313.017	84.75
313.246	76.75
313.476	70.75
313.706	84.75
313.935	76.75
314.165	84.75
314.394	95.75
314.624	92.75
314.853	97.75
315.083	96.75
315.312	88.75
315.542	96.75
315.771	77.75
316.001	93.75
316.23	74.75
316.46	82.75
316.689	91.75
316.919	78.75
317.148	99.75
317.377	84.75
317.607	81.75
317.836	92.75
318.065	97.75
318.295	80.75
318.524	97.75
318.753	90.75
318.983	93.75
319.212	87.75
319.441	96.75
319.67	91.75
319.9	90.75
320.129	90.75
320.358	97.75
320.587	85.75
320.816	85.75
321.046	102.75
321.275	92.75
321.504	94.75
321.733	81.75
321.962	88.75
322.191	85.75
322.42	90.75
322.649	82.75
322.878	103.75
323.108	100.75
323.337	89.75
323.566	77.75
323.795	88.75
324.024	70.75
324.253	82.75
324.482	83.75
324.71	96.75
324.939	82.75
325.168	62.75
325.397	74.75
325.626	84.75
325.855	98.75
326.084	80.75
326.313	96.75
326.542	76.75
326.77	77.75
326.999	79.75
327.228	77.75
327.457	87.75
327.686	98.75
327.914	103.75
328.143	80.75
328.372	94.75
328.6	93.75
328.829	83.75
329.058	88.75
329.287	83.75
329.515	74.75
329.744	85.75
329.972	87.75
330.201	79.75
330.43	98.75
330.658	85.75
330.887	87.75
331.115	92.75
331.344	86.75
331.572	94.75
331.801	81.75
332.03	85.75
332.258	81.75
332.486	99.75
332.715	91.75
332.943	78.75
333.172	91.75
333.4	84.75
333.629	80.75
333.857	83.75
334.085	92.75
334.314	89.75
334.542	97.75
334.771	85.75
334.999	84.75
335.227	80.75
335.455	81.75
335.684	107.75
335.912	87.75
336.14	83.75
336.369	83.75
336.597	81.75
336.825	74.75
337.053	89.75
337.281	90.75
337.51	76.75
337.738	90.75
337.966	71.75
338.194	83.75
338.422	82.75
338.65	89.75
338.878	92.75
339.106	84.75
339.334	96.75
339.562	78.75
339.79	88.75
340.018	83.75
340.246	86.75
340.474	100.75
340.702	88.75
340.93	91.75
341.158	80.75
341.386	90.75
341.614	88.75
341.842	90.75
342.07	77.75
342.298	84.75
342.526	96.75
342.754	91.75
342.981	84.75
343.209	83.75
343.437	88.75
343.665	88.75
343.893	82.75
344.12	93.75
344.348	77.75
344.576	93.75
344.804	71.75
345.031	81.75
345.259	82.75
345.487	91.75
345.714	68.75
345.942	80.75
346.17	101.75
346.397	73.75
346.625	77.75
346.853	85.75
347.08	94.75
347.308	81.75
347.535	70.75
347.763	80.75
347.99	89.75
348.218	78.75
348.445	86.75
348.673	82.75
348.9	89.75
349.128	82.75
349.355	83.75
349.583	85.75
349.81	93.75
350.037	93.75
350.265	84.75
350.492	84.75
350.72	78.75
350.947	83.75
351.174	80.75
351.402	96.75
351.629	81.75
351.856	93.75
352.083	86.75
352.311	94.75
352.538	78.75
352.765	95.75
352.992	82.75
353.22	69.75
353.447	100.75
353.674	86.75
353.901	78.75
354.128	99.75
354.355	88.75
354.583	81.75
354.81	76.75
355.037	81.75
355.264	96.75
355.491	78.75
355.718	84.75
355.945	85.75
356.172	83.75
356.399	83.75
356.626	85.75
356.853	86.75
357.08	81.75
357.307	87.75
357.534	91.75
357.761	88.75
357.988	84.75
358.215	93.75
358.441	93.75
358.668	91.75
358.895	90.75
359.122	84.75
359.349	82.75
359.576	99.75
359.802	77.75
360.029	85.75
360.256	81.75
360.483	94.75
360.709	79.75
360.936	87.75
361.163	76.75
361.39	93.75
361.616	91.75
361.843	70.75
362.07	84.75
362.296	91.75
362.523	75.75
362.749	80.75
362.976	98.75
363.203	82.75
363.429	96.75
363.656	85.75
363.882	91.75
364.109	80.75
364.335	91.75
364.562	88.75
364.788	82.75
365.015	83.75
365.241	96.75
365.468	93.75
365.694	82.75
365.92	98.75
366.147	106.75
366.373	86.75
366.599	88.75
366.826	75.75
367.052	93.75
367.278	76.75
367.505	90.75
367.731	79.75
367.957	92.75
368.184	83.75
368.41	78.75
368.636	87.75
368.862	91.75
369.089	73.75
369.315	88.75
369.541	93.75
369.767	102.75
369.993	83.75
370.219	76.75
370.445	84.75
370.672	84.75
370.898	84.75
371.124	84.75
371.35	89.75
371.576	85.75
371.802	98.75
372.028	79.75
372.254	83.75
372.48	84.75
372.706	85.75
372.932	101.75
373.158	84.75
373.384	80.75
373.61	78.75
373.835	86.75
374.061	88.75
374.287	100.75
374.513	77.75
374.739	91.75
374.965	93.75
375.191	106.75
375.416	93.75
375.642	80.75
375.868	80.75
376.094	84.75
376.319	91.75
376.545	84.75
376.771	77.75
376.997	86.75
377.222	101.75
377.448	78.75
377.674	88.75
377.899	90.75
378.125	89.75
378.35	100.75
378.576	85.75
378.802	92.75
379.027	90.75
379.253	105.75
379.478	87.75
379.704	89.75
379.929	84.75
380.155	96.75
380.38	87.75
380.606	93.75
380.831	72.75
381.057	100.75
381.282	110.75
381.507	95.75
381.733	90.75
381.958	75.75
382.184	84.75
382.409	89.75
382.634	94.75
382.86	101.75
383.085	97.75
383.31	89.75
383.535	89.75
383.761	90.75
383.986	89.75
384.211	79.75
384.436	80.75
384.662	94.75
384.887	99.75
385.112	94.75
385.337	91.75
385.562	103.75
385.787	88.75
386.013	93.75
386.238	94.75
386.463	94.75
386.688	86.75
386.913	87.75
387.138	101.75
387.363	94.75
387.588	102.75
387.813	103.75
388.038	80.75
388.263	91.75
388.488	99.75
388.713	85.75
388.938	101.75
389.163	93.75
389.387	105.75
389.612	100.75
389.837	96.75
390.062	90.75
390.287	88.75
390.512	90.75
390.736	90.75
390.961	106.75
391.186	101.75
391.411	90.75
391.636	102.75
391.86	99.75
392.085	102.75
392.31	107.75
392.534	96.75
392.759	97.75
392.984	103.75
393.208	78.75
393.433	91.75
393.658	100.75
393.882	106.75
394.107	108.75
394.331	91.75
394.556	88.75
394.78	97.75
395.005	86.75
395.229	107.75
395.454	98.75
395.678	101.75
395.903	101.75
396.127	100.75
396.352	101.75
396.576	104.75
396.801	104.75
397.025	92.75
397.249	100.75
397.474	105.75
397.698	99.75
397.922	107.75
398.147	107.75
398.371	105.75
398.595	106.75
398.82	103.75
399.044	99.75
399.268	105.75
399.492	131.75
399.717	115.75
399.941	113.75
400.165	124.75
400.389	118.75
400.613	91.75
400.837	101.75
401.062	97.75
401.286	99.75
401.51	86.75
401.734	90.75
401.958	109.75
402.182	95.75
402.406	109.75
402.63	109.75
402.854	106.75
403.078	102.75
403.302	113.75
403.526	112.75
403.75	117.75
403.974	103.75
404.198	104.75
404.422	106.75
404.645	107.75
404.869	102.75
405.093	102.75
405.317	117.75
405.541	107.75
405.765	92.75
405.988	107.75
406.212	106.75
406.436	92.75
406.66	112.75
406.883	113.75
407.107	112.75
407.331	108.75
407.555	97.75
407.778	110.75
408.002	112.75
408.226	128.75
408.449	118.75
408.673	109.75
408.896	112.75
409.12	103.75
409.344	125.75
409.567	112.75
409.791	114.75
410.014	108.75
410.238	116.75
410.461	103.75
410.685	118.75
410.908	122.75
411.132	113.75
411.355	105.75
411.578	110.75
411.802	93.75
412.025	104.75
412.249	91.75
412.472	105.75
412.695	101.75
412.919	108.75
413.142	114.75
413.365	109.75
413.589	102.75
413.812	112.75
414.035	112.75
414.258	104.75
414.482	107.75
414.705	128.75
414.928	118.75
415.151	114.75
415.374	109.75
415.597	96.75
415.821	118.75
416.044	108.75
416.267	116.75
416.49	107.75
416.713	112.75
416.936	105.75
417.159	117.75
417.382	114.75
417.605	120.75
417.828	115.75
418.051	102.75
418.274	108.75
418.497	113.75
418.72	118.75
418.943	109.75
419.166	120.75
419.389	127.75
419.611	113.75
419.834	123.75
420.057	120.75
420.28	120.75
420.503	111.75
420.726	118.75
420.948	117.75
421.171	119.75
421.394	112.75
421.617	121.75
421.839	105.75
422.062	107.75
422.285	100.75
422.507	113.75
422.73	117.75
422.953	117.75
423.175	109.75
423.398	112.75
423.621	119.75
423.843	117.75
424.066	109.75
424.288	116.75
424.511	125.75
424.733	129.75
424.956	139.75
425.178	126.75
425.401	128.75
425.623	96.75
425.846	106.75
426.068	102.75
426.291	131.75
426.513	108.75
426.735	118.75
426.958	118.75
427.18	125.75
427.402	114.75
427.625	119.75
427.847	93.75
428.069	106.75
428.292	118.75
428.514	113.75
428.736	98.75
428.958	113.75
429.181	114.75
429.403	108.75
429.625	125.75
429.847	122.75
430.069	101.75
430.292	118.75
430.514	113.75
430.736	114.75
430.958	110.75
431.18	119.75
431.402	113.75
431.624	115.75
431.846	101.75
432.068	100.75
432.29	102.75
432.512	99.75
432.734	109.75
432.956	112.75
433.178	98.75
433.4	116.75
433.622	119.75
433.844	110.75
434.066	115.75
434.287	109.75
434.509	109.75
434.731	111.75
434.953	104.75
435.175	101.75
435.397	128.75
435.618	111.75
435.84	102.75
436.062	104.75
436.284	106.75
436.505	105.75
436.727	114.75
436.949	100.75
437.17	93.75
437.392	104.75
437.614	92.75
437.835	107.75
438.057	98.75
438.278	122.75
438.5	99.75
438.721	110.75
438.943	125.75
439.165	125.75
439.386	115.75
439.608	126.75
439.829	113.75
440.05	103.75
440.272	114.75
440.493	104.75
440.715	119.75
440.936	126.75
441.158	128.75
441.379	110.75
441.6	124.75
441.822	106.75
442.043	122.75
442.264	124.75
442.486	114.75
442.707	102.75
442.928	123.75
443.149	112.75
443.371	116.75
443.592	124.75
443.813	124.75
444.034	129.75
444.255	122.75
444.476	122.75
444.698	122.75
444.919	129.75
445.14	243.75
445.361	179.75
445.582	122.75
445.803	128.75
446.024	128.75
446.245	110.75
446.466	121.75
446.687	116.75
446.908	126.75
447.129	128.75
447.35	114.75
447.571	113.75
447.792	108.75
448.013	119.75
448.234	116.75
448.455	108.75
448.675	116.75
448.896	114.75
449.117	110.75
449.338	98.75
449.559	110.75
449.779	115.75
450	117.75
450.221	108.75
450.442	107.75
450.662	108.75
450.883	125.75
451.104	115.75
451.324	126.75
451.545	106.75
451.766	112.75
451.986	116.75
452.207	103.75
452.428	114.75
452.648	118.75
452.869	121.75
453.089	98.75
453.31	114.75
453.53	105.75
453.751	98.75
453.971	103.75
454.192	102.75
454.412	110.75
454.633	107.75
454.853	105.75
455.073	111.75
455.294	106.75
455.514	86.75
455.734	99.75
455.955	100.75
456.175	95.75
456.395	107.75
456.616	104.75
456.836	103.75
457.056	110.75
457.276	111.75
457.497	100.75
457.717	112.75
457.937	124.75
458.157	94.75
458.377	101.75
458.598	103.75
458.818	92.75
459.038	96.75
459.258	110.75
459.478	115.75
459.698	110.75
459.918	112.75
460.138	108.75
460.358	103.75
460.578	97.75
460.798	104.75
461.018	121.75
461.238	114.75
461.458	115.75
461.678	116.75
461.898	118.75
462.118	100.75
462.338	117.75
462.558	126.75
462.777	128.75
462.997	119.75
463.217	106.75
463.437	130.75
463.657	122.75
463.876	112.75
464.096	120.75
464.316	109.75
464.536	127.75
464.755	123.75
464.975	126.75
465.195	134.75
465.414	112.75
465.634	113.75
465.854	95.75
466.073	108.75
466.293	106.75
466.512	124.75
466.732	120.75
466.951	122.75
467.171	108.75
467.391	98.75
467.61	107.75
467.829	124.75
468.049	115.75
468.268	133.75
468.488	129.75
468.707	113.75
468.927	128.75
469.146	117.75
469.365	117.75
469.585	112.75
469.804	134.75
470.023	109.75
470.243	119.75
470.462	119.75
470.681	123.75
470.901	122.75
471.12	130.75
471.339	121.75
471.558	128.75
471.777	124.75
471.997	107.75
472.216	95.75
472.435	119.75
472.654	97.75
472.873	102.75
473.092	128.75
473.311	118.75
473.53	115.75
473.749	116.75
473.968	122.75
474.187	117.75
474.406	107.75
474.625	118.75
474.844	112.75
475.063	105.75
475.282	126.75
475.501	115.75
475.72	118.75
475.939	107.75
476.158	116.75
476.377	124.75
476.596	120.75
476.814	110.75
477.033	110.75
477.252	117.75
477.471	124.75
477.69	106.75
477.908	124.75
478.127	130.75
478.346	117.75
478.564	118.75
478.783	120.75
479.002	122.75
479.22	135.75
479.439	117.75
479.658	125.75
479.876	113.75
480.095	107.75
480.313	107.75
480.532	142.75
480.751	112.75
480.969	114.75
481.188	111.75
481.406	110.75
481.624	119.75
481.843	116.75
482.061	91.75
482.28	116.75
482.498	130.75
482.717	117.75
482.935	113.75
483.153	148.75
483.372	126.75
483.59	114.75
483.808	124.75
484.027	120.75
484.245	115.75
484.463	124.75
484.681	125.75
484.9	134.75
485.118	117.75
485.336	132.75
485.554	127.75
485.772	125.75
485.99	121.75
486.209	116.75
486.427	123.75
486.645	121.75
486.863	148.75
487.081	144.75
487.299	142.75
487.517	125.75
487.735	141.75
487.953	146.75
488.171	148.75
488.389	142.75
488.607	150.75
488.825	128.75
489.043	130.75
489.261	126.75
489.479	115.75
489.696	129.75
489.914	122.75
490.132	134.75
490.35	122.75
490.568	148.75
490.786	138.75
491.003	143.75
491.221	150.75
491.439	158.75
491.657	149.75
491.874	151.75
492.092	164.75
492.31	173.75
492.527	178.75
492.745	162.75
492.963	159.75
493.18	147.75
493.398	133.75
493.615	155.75
493.833	156.75
494.05	149.75
494.268	141.75
494.485	161.75
494.703	164.75
494.92	152.75
495.138	148.75
495.355	128.75
495.573	142.75
495.79	156.75
496.008	148.75
496.225	144.75
496.442	154.75
496.66	156.75
496.877	163.75
497.094	166.75
497.312	154.75
497.529	141.75
497.746	146.75
497.963	135.75
498.181	125.75
498.398	138.75
498.615	133.75
498.832	138.75
499.049	134.75
499.267	158.75
499.484	153.75
499.701	158.75
499.918	186.75
500.135	200.75
500.352	200.75
500.569	240.75
500.786	223.75
501.003	201.75
501.22	169.75
501.437	173.75
501.654	149.75
501.871	160.75
502.088	165.75
502.305	164.75
502.522	141.75
502.739	142.75
502.956	142.75
503.172	136.75
503.389	145.75
503.606	125.75
503.823	140.75
504.04	132.75
504.256	129.75
504.473	132.75
504.69	137.75
504.907	157.75
505.123	130.75
505.34	144.75
505.557	116.75
505.773	122.75
505.99	133.75
506.207	125.75
506.423	120.75
506.64	130.75
506.856	136.75
507.073	127.75
507.289	125.75
507.506	127.75
507.722	118.75
507.939	122.75
508.155	128.75
508.372	121.75
508.588	120.75
508.805	115.75
509.021	122.75
509.238	125.75
509.454	118.75
509.67	108.75
509.887	117.75
510.103	110.75
510.319	116.75
510.536	101.75
510.752	130.75
510.968	104.75
511.184	119.75
511.401	122.75
511.617	108.75
