Data from StandardFe(NO3)3.TAE.3%Agarose.FlatLispGreen.Lamp.Energy10.07252019_HRD10591_11-53-19-439.txt Node
Date: Thu Jul 25 11:53:19 EDT 2019
User: cochatt
Spectrometer: HR+D1059
Trigger mode: 1
Integration Time (sec): 1.000000E-1
Scans to average: 1
Electric dark correction enabled: true
Nonlinearity correction enabled: false
Boxcar width: 0
XAxis mode: Wavelengths
Number of Pixels in Spectrum: 2048
>>>>>Begin Spectral Data<<<<<
223.165	-2.5
223.4	-2.5
223.635	-2.5
223.869	-8.5
224.104	-23.5
224.338	-19.5
224.573	-4.5
224.808	-25.5
225.042	-21.5
225.277	3.5
225.511	7.5
225.746	-0.5
225.98	-0.5
226.215	13.5
226.449	6.5
226.683	11.5
226.918	28.5
227.152	35.5
227.387	33.5
227.621	33.5
227.856	43.5
228.09	32.5
228.324	47.5
228.559	39.5
228.793	56.5
229.027	62.5
229.262	70.5
229.496	58.5
229.73	67.5
229.964	82.5
230.199	75.5
230.433	60.5
230.667	74.5
230.901	87.5
231.136	77.5
231.37	81.5
231.604	85.5
231.838	88.5
232.072	75.5
232.306	91.5
232.541	97.5
232.775	95.5
233.009	80.5
233.243	89.5
233.477	79.5
233.711	78.5
233.945	81.5
234.179	93.5
234.413	81.5
234.647	103.5
234.881	86.5
235.115	81.5
235.349	91.5
235.583	72.5
235.817	82.5
236.051	73.5
236.285	85.5
236.519	72.5
236.753	75.5
236.987	67.5
237.221	72.5
237.455	72.5
237.689	96.5
237.922	75.5
238.156	71.5
238.39	81.5
238.624	74.5
238.858	78.5
239.091	64.5
239.325	65.5
239.559	65.5
239.793	78.5
240.027	70.5
240.26	73.5
240.494	75.5
240.728	67.5
240.961	92.5
241.195	63.5
241.429	85.5
241.662	71.5
241.896	81.5
242.13	81.5
242.363	70.5
242.597	83.5
242.83	78.5
243.064	82.5
243.298	72.5
243.531	82.5
243.765	73.5
243.998	71.5
244.232	77.5
244.465	70.5
244.699	83.5
244.932	81.5
245.166	78.5
245.399	93.5
245.633	77.5
245.866	71.5
246.099	77.5
246.333	80.5
246.566	71.5
246.8	78.5
247.033	79.5
247.266	72.5
247.5	71.5
247.733	68.5
247.966	71.5
248.2	90.5
248.433	64.5
248.666	77.5
248.899	72.5
249.133	75.5
249.366	87.5
249.599	92.5
249.832	73.5
250.066	91.5
250.299	72.5
250.532	88.5
250.765	77.5
250.998	75.5
251.231	82.5
251.465	82.5
251.698	72.5
251.931	77.5
252.164	83.5
252.397	74.5
252.63	84.5
252.863	78.5
253.096	87.5
253.329	90.5
253.562	66.5
253.795	71.5
254.028	92.5
254.261	87.5
254.494	69.5
254.727	77.5
254.96	66.5
255.193	89.5
255.426	84.5
255.659	73.5
255.892	89.5
256.124	78.5
256.357	81.5
256.59	73.5
256.823	80.5
257.056	86.5
257.289	71.5
257.521	86.5
257.754	75.5
257.987	73.5
258.22	78.5
258.452	99.5
258.685	78.5
258.918	73.5
259.151	75.5
259.383	81.5
259.616	78.5
259.849	83.5
260.081	93.5
260.314	89.5
260.547	78.5
260.779	83.5
261.012	90.5
261.244	74.5
261.477	92.5
261.71	87.5
261.942	76.5
262.175	79.5
262.407	78.5
262.64	77.5
262.872	76.5
263.105	83.5
263.337	79.5
263.57	72.5
263.802	77.5
264.035	76.5
264.267	93.5
264.499	99.5
264.732	76.5
264.964	74.5
265.197	73.5
265.429	86.5
265.661	76.5
265.894	69.5
266.126	85.5
266.358	79.5
266.591	83.5
266.823	88.5
267.055	88.5
267.287	89.5
267.52	81.5
267.752	87.5
267.984	82.5
268.216	84.5
268.448	93.5
268.681	81.5
268.913	78.5
269.145	75.5
269.377	98.5
269.609	75.5
269.841	97.5
270.073	82.5
270.306	79.5
270.538	81.5
270.77	69.5
271.002	83.5
271.234	85.5
271.466	96.5
271.698	95.5
271.93	74.5
272.162	71.5
272.394	86.5
272.626	81.5
272.858	70.5
273.09	81.5
273.322	75.5
273.553	86.5
273.785	69.5
274.017	81.5
274.249	84.5
274.481	86.5
274.713	88.5
274.945	80.5
275.176	81.5
275.408	84.5
275.64	82.5
275.872	84.5
276.104	92.5
276.335	90.5
276.567	73.5
276.799	79.5
277.031	91.5
277.262	81.5
277.494	98.5
277.726	75.5
277.957	92.5
278.189	82.5
278.421	84.5
278.652	74.5
278.884	72.5
279.115	67.5
279.347	95.5
279.579	77.5
279.81	73.5
280.042	90.5
280.273	73.5
280.505	93.5
280.736	88.5
280.968	81.5
281.199	89.5
281.431	98.5
281.662	89.5
281.894	92.5
282.125	90.5
282.356	89.5
282.588	70.5
282.819	76.5
283.051	77.5
283.282	87.5
283.513	74.5
283.745	77.5
283.976	80.5
284.207	70.5
284.439	72.5
284.67	73.5
284.901	85.5
285.132	85.5
285.364	77.5
285.595	87.5
285.826	86.5
286.057	84.5
286.288	74.5
286.52	86.5
286.751	92.5
286.982	91.5
287.213	88.5
287.444	96.5
287.675	86.5
287.906	100.5
288.138	88.5
288.369	91.5
288.6	80.5
288.831	71.5
289.062	91.5
289.293	78.5
289.524	84.5
289.755	87.5
289.986	81.5
290.217	89.5
290.448	90.5
290.679	84.5
290.91	97.5
291.141	75.5
291.371	98.5
291.602	85.5
291.833	93.5
292.064	83.5
292.295	95.5
292.526	90.5
292.757	87.5
292.987	90.5
293.218	92.5
293.449	85.5
293.68	75.5
293.91	82.5
294.141	90.5
294.372	100.5
294.603	83.5
294.833	93.5
295.064	86.5
295.295	100.5
295.525	99.5
295.756	89.5
295.987	92.5
296.217	65.5
296.448	81.5
296.679	92.5
296.909	75.5
297.14	87.5
297.37	89.5
297.601	88.5
297.831	72.5
298.062	88.5
298.292	81.5
298.523	87.5
298.753	89.5
298.984	90.5
299.214	86.5
299.445	79.5
299.675	88.5
299.905	77.5
300.136	84.5
300.366	107.5
300.597	98.5
300.827	85.5
301.057	90.5
301.288	84.5
301.518	76.5
301.748	70.5
301.979	83.5
302.209	83.5
302.439	90.5
302.669	74.5
302.9	74.5
303.13	83.5
303.36	88.5
303.59	86.5
303.82	79.5
304.051	82.5
304.281	90.5
304.511	80.5
304.741	80.5
304.971	85.5
305.201	83.5
305.431	77.5
305.661	90.5
305.891	83.5
306.121	84.5
306.352	91.5
306.582	79.5
306.812	90.5
307.042	80.5
307.272	86.5
307.502	99.5
307.731	77.5
307.961	87.5
308.191	79.5
308.421	80.5
308.651	91.5
308.881	83.5
309.111	87.5
309.341	76.5
309.571	75.5
309.8	82.5
310.03	79.5
310.26	78.5
310.49	104.5
310.72	91.5
310.949	89.5
311.179	76.5
311.409	72.5
311.639	82.5
311.868	91.5
312.098	80.5
312.328	87.5
312.557	91.5
312.787	92.5
313.017	82.5
313.246	68.5
313.476	71.5
313.706	81.5
313.935	89.5
314.165	88.5
314.394	97.5
314.624	82.5
314.853	91.5
315.083	89.5
315.312	81.5
315.542	93.5
315.771	92.5
316.001	80.5
316.23	83.5
316.46	83.5
316.689	70.5
316.919	79.5
317.148	85.5
317.377	91.5
317.607	79.5
317.836	83.5
318.065	86.5
318.295	89.5
318.524	82.5
318.753	77.5
318.983	75.5
319.212	82.5
319.441	87.5
319.67	88.5
319.9	74.5
320.129	76.5
320.358	85.5
320.587	67.5
320.816	68.5
321.046	87.5
321.275	87.5
321.504	75.5
321.733	76.5
321.962	82.5
322.191	88.5
322.42	98.5
322.649	75.5
322.878	101.5
323.108	76.5
323.337	84.5
323.566	72.5
323.795	98.5
324.024	87.5
324.253	81.5
324.482	89.5
324.71	90.5
324.939	89.5
325.168	84.5
325.397	82.5
325.626	87.5
325.855	89.5
326.084	92.5
326.313	75.5
326.542	97.5
326.77	82.5
326.999	90.5
327.228	84.5
327.457	93.5
327.686	90.5
327.914	90.5
328.143	93.5
328.372	90.5
328.6	75.5
328.829	86.5
329.058	76.5
329.287	104.5
329.515	83.5
329.744	92.5
329.972	83.5
330.201	80.5
330.43	82.5
330.658	81.5
330.887	88.5
331.115	91.5
331.344	73.5
331.572	73.5
331.801	95.5
332.03	85.5
332.258	89.5
332.486	83.5
332.715	91.5
332.943	72.5
333.172	89.5
333.4	85.5
333.629	89.5
333.857	81.5
334.085	86.5
334.314	79.5
334.542	88.5
334.771	90.5
334.999	87.5
335.227	96.5
335.455	76.5
335.684	86.5
335.912	76.5
336.14	67.5
336.369	91.5
336.597	93.5
336.825	82.5
337.053	85.5
337.281	88.5
337.51	85.5
337.738	95.5
337.966	74.5
338.194	87.5
338.422	84.5
338.65	82.5
338.878	84.5
339.106	95.5
339.334	99.5
339.562	96.5
339.79	84.5
340.018	93.5
340.246	88.5
340.474	86.5
340.702	85.5
340.93	85.5
341.158	77.5
341.386	80.5
341.614	88.5
341.842	77.5
342.07	93.5
342.298	97.5
342.526	84.5
342.754	96.5
342.981	92.5
343.209	85.5
343.437	70.5
343.665	80.5
343.893	82.5
344.12	94.5
344.348	73.5
344.576	85.5
344.804	84.5
345.031	82.5
345.259	99.5
345.487	92.5
345.714	87.5
345.942	75.5
346.17	89.5
346.397	83.5
346.625	68.5
346.853	74.5
347.08	77.5
347.308	80.5
347.535	88.5
347.763	77.5
347.99	62.5
348.218	65.5
348.445	80.5
348.673	78.5
348.9	83.5
349.128	99.5
349.355	81.5
349.583	78.5
349.81	97.5
350.037	91.5
350.265	84.5
350.492	99.5
350.72	83.5
350.947	94.5
351.174	94.5
351.402	96.5
351.629	84.5
351.856	83.5
352.083	69.5
352.311	87.5
352.538	85.5
352.765	84.5
352.992	101.5
353.22	90.5
353.447	91.5
353.674	91.5
353.901	85.5
354.128	94.5
354.355	80.5
354.583	79.5
354.81	76.5
355.037	87.5
355.264	74.5
355.491	88.5
355.718	80.5
355.945	87.5
356.172	88.5
356.399	77.5
356.626	87.5
356.853	69.5
357.08	83.5
357.307	92.5
357.534	90.5
357.761	90.5
357.988	69.5
358.215	95.5
358.441	83.5
358.668	72.5
358.895	88.5
359.122	80.5
359.349	84.5
359.576	76.5
359.802	86.5
360.029	84.5
360.256	93.5
360.483	73.5
360.709	88.5
360.936	99.5
361.163	92.5
361.39	78.5
361.616	85.5
361.843	83.5
362.07	84.5
362.296	93.5
362.523	85.5
362.749	88.5
362.976	71.5
363.203	98.5
363.429	87.5
363.656	84.5
363.882	89.5
364.109	91.5
364.335	95.5
364.562	88.5
364.788	90.5
365.015	84.5
365.241	89.5
365.468	93.5
365.694	100.5
365.92	83.5
366.147	75.5
366.373	77.5
366.599	87.5
366.826	86.5
367.052	89.5
367.278	82.5
367.505	91.5
367.731	91.5
367.957	81.5
368.184	78.5
368.41	83.5
368.636	95.5
368.862	91.5
369.089	90.5
369.315	83.5
369.541	107.5
369.767	107.5
369.993	83.5
370.219	96.5
370.445	79.5
370.672	73.5
370.898	83.5
371.124	96.5
371.35	63.5
371.576	88.5
371.802	95.5
372.028	84.5
372.254	89.5
372.48	92.5
372.706	94.5
372.932	89.5
373.158	98.5
373.384	94.5
373.61	92.5
373.835	87.5
374.061	88.5
374.287	91.5
374.513	91.5
374.739	90.5
374.965	98.5
375.191	86.5
375.416	87.5
375.642	84.5
375.868	84.5
376.094	101.5
376.319	89.5
376.545	83.5
376.771	81.5
376.997	86.5
377.222	96.5
377.448	87.5
377.674	93.5
377.899	84.5
378.125	96.5
378.35	93.5
378.576	92.5
378.802	85.5
379.027	85.5
379.253	87.5
379.478	87.5
379.704	74.5
379.929	94.5
380.155	85.5
380.38	97.5
380.606	84.5
380.831	79.5
381.057	96.5
381.282	95.5
381.507	103.5
381.733	79.5
381.958	89.5
382.184	101.5
382.409	91.5
382.634	87.5
382.86	92.5
383.085	97.5
383.31	95.5
383.535	91.5
383.761	92.5
383.986	87.5
384.211	81.5
384.436	82.5
384.662	97.5
384.887	93.5
385.112	100.5
385.337	94.5
385.562	92.5
385.787	96.5
386.013	117.5
386.238	93.5
386.463	86.5
386.688	90.5
386.913	104.5
387.138	102.5
387.363	100.5
387.588	90.5
387.813	87.5
388.038	105.5
388.263	84.5
388.488	83.5
388.713	102.5
388.938	95.5
389.163	92.5
389.387	101.5
389.612	89.5
389.837	90.5
390.062	100.5
390.287	99.5
390.512	99.5
390.736	97.5
390.961	105.5
391.186	101.5
391.411	94.5
391.636	96.5
391.86	88.5
392.085	111.5
392.31	95.5
392.534	111.5
392.759	103.5
392.984	102.5
393.208	92.5
393.433	92.5
393.658	100.5
393.882	97.5
394.107	116.5
394.331	94.5
394.556	104.5
394.78	108.5
395.005	89.5
395.229	111.5
395.454	97.5
395.678	113.5
395.903	95.5
396.127	97.5
396.352	96.5
396.576	105.5
396.801	96.5
397.025	93.5
397.249	105.5
397.474	103.5
397.698	108.5
397.922	112.5
398.147	98.5
398.371	91.5
398.595	99.5
398.82	108.5
399.044	103.5
399.268	98.5
399.492	112.5
399.717	116.5
399.941	113.5
400.165	118.5
400.389	115.5
400.613	115.5
400.837	105.5
401.062	106.5
401.286	115.5
401.51	103.5
401.734	104.5
401.958	103.5
402.182	101.5
402.406	101.5
402.63	95.5
402.854	104.5
403.078	109.5
403.302	124.5
403.526	123.5
403.75	106.5
403.974	96.5
404.198	115.5
404.422	103.5
404.645	91.5
404.869	103.5
405.093	101.5
405.317	113.5
405.541	108.5
405.765	104.5
405.988	111.5
406.212	115.5
406.436	104.5
406.66	117.5
406.883	108.5
407.107	95.5
407.331	113.5
407.555	116.5
407.778	123.5
408.002	117.5
408.226	114.5
408.449	121.5
408.673	98.5
408.896	122.5
409.12	111.5
409.344	115.5
409.567	108.5
409.791	109.5
410.014	112.5
410.238	111.5
410.461	104.5
410.685	109.5
410.908	115.5
411.132	112.5
411.355	101.5
411.578	109.5
411.802	112.5
412.025	99.5
412.249	102.5
412.472	107.5
412.695	111.5
412.919	118.5
413.142	107.5
413.365	123.5
413.589	110.5
413.812	104.5
414.035	109.5
414.258	113.5
414.482	125.5
414.705	104.5
414.928	115.5
415.151	111.5
415.374	108.5
415.597	107.5
415.821	111.5
416.044	109.5
416.267	109.5
416.49	106.5
416.713	113.5
416.936	109.5
417.159	112.5
417.382	111.5
417.605	120.5
417.828	118.5
418.051	111.5
418.274	125.5
418.497	124.5
418.72	119.5
418.943	126.5
419.166	127.5
419.389	129.5
419.611	120.5
419.834	118.5
420.057	122.5
420.28	115.5
420.503	108.5
420.726	115.5
420.948	121.5
421.171	115.5
421.394	114.5
421.617	109.5
421.839	106.5
422.062	115.5
422.285	119.5
422.507	113.5
422.73	106.5
422.953	124.5
423.175	112.5
423.398	111.5
423.621	127.5
423.843	108.5
424.066	116.5
424.288	109.5
424.511	124.5
424.733	121.5
424.956	138.5
425.178	121.5
425.401	124.5
425.623	118.5
425.846	115.5
426.068	99.5
426.291	98.5
426.513	118.5
426.735	130.5
426.958	105.5
427.18	115.5
427.402	117.5
427.625	109.5
427.847	120.5
428.069	98.5
428.292	117.5
428.514	107.5
428.736	101.5
428.958	108.5
429.181	99.5
429.403	108.5
429.625	113.5
429.847	113.5
430.069	106.5
430.292	103.5
430.514	115.5
430.736	104.5
430.958	101.5
431.18	111.5
431.402	119.5
431.624	99.5
431.846	98.5
432.068	95.5
432.29	104.5
432.512	108.5
432.734	105.5
432.956	125.5
433.178	120.5
433.4	111.5
433.622	121.5
433.844	117.5
434.066	116.5
434.287	111.5
434.509	95.5
434.731	97.5
434.953	96.5
435.175	114.5
435.397	115.5
435.618	108.5
435.84	97.5
436.062	104.5
436.284	131.5
436.505	115.5
436.727	113.5
436.949	123.5
437.17	115.5
437.392	107.5
437.614	111.5
437.835	123.5
438.057	112.5
438.278	111.5
438.5	109.5
438.721	115.5
438.943	127.5
439.165	122.5
439.386	108.5
439.608	117.5
439.829	129.5
440.05	123.5
440.272	127.5
440.493	129.5
440.715	131.5
440.936	122.5
441.158	125.5
441.379	125.5
441.6	107.5
441.822	100.5
442.043	111.5
442.264	121.5
442.486	119.5
442.707	119.5
442.928	116.5
443.149	120.5
443.371	119.5
443.592	125.5
443.813	118.5
444.034	119.5
444.255	120.5
444.476	129.5
444.698	133.5
444.919	131.5
445.14	247.5
445.361	159.5
445.582	117.5
445.803	125.5
446.024	117.5
446.245	122.5
446.466	131.5
446.687	115.5
446.908	127.5
447.129	125.5
447.35	125.5
447.571	115.5
447.792	106.5
448.013	111.5
448.234	115.5
448.455	126.5
448.675	129.5
448.896	118.5
449.117	131.5
449.338	132.5
449.559	108.5
449.779	104.5
450	109.5
450.221	124.5
450.442	122.5
450.662	112.5
450.883	119.5
451.104	104.5
451.324	108.5
451.545	114.5
451.766	114.5
451.986	117.5
452.207	115.5
452.428	112.5
452.648	115.5
452.869	103.5
453.089	96.5
453.31	115.5
453.53	102.5
453.751	108.5
453.971	113.5
454.192	115.5
454.412	109.5
454.633	112.5
454.853	85.5
455.073	101.5
455.294	116.5
455.514	108.5
455.734	100.5
455.955	92.5
456.175	108.5
456.395	105.5
456.616	109.5
456.836	103.5
457.056	101.5
457.276	113.5
457.497	98.5
457.717	117.5
457.937	95.5
458.157	98.5
458.377	87.5
458.598	104.5
458.818	89.5
459.038	97.5
459.258	112.5
459.478	102.5
459.698	111.5
459.918	103.5
460.138	109.5
460.358	112.5
460.578	119.5
460.798	111.5
461.018	114.5
461.238	111.5
461.458	121.5
461.678	113.5
461.898	122.5
462.118	125.5
462.338	128.5
462.558	127.5
462.777	123.5
462.997	109.5
463.217	139.5
463.437	129.5
463.657	125.5
463.876	117.5
464.096	115.5
464.316	119.5
464.536	123.5
464.755	135.5
464.975	112.5
465.195	118.5
465.414	108.5
465.634	119.5
465.854	114.5
466.073	122.5
466.293	121.5
466.512	114.5
466.732	106.5
466.951	123.5
467.171	117.5
467.391	126.5
467.61	115.5
467.829	101.5
468.049	115.5
468.268	115.5
468.488	122.5
468.707	130.5
468.927	104.5
469.146	133.5
469.365	137.5
469.585	112.5
469.804	123.5
470.023	117.5
470.243	120.5
470.462	149.5
470.681	121.5
470.901	108.5
471.12	131.5
471.339	129.5
471.558	117.5
471.777	121.5
471.997	127.5
472.216	99.5
472.435	112.5
472.654	119.5
472.873	102.5
473.092	107.5
473.311	126.5
473.53	108.5
473.749	120.5
473.968	115.5
474.187	113.5
474.406	105.5
474.625	127.5
474.844	105.5
475.063	111.5
475.282	106.5
475.501	112.5
475.72	108.5
475.939	100.5
476.158	124.5
476.377	135.5
476.596	114.5
476.814	115.5
477.033	114.5
477.252	120.5
477.471	127.5
477.69	125.5
477.908	129.5
478.127	141.5
478.346	139.5
478.564	118.5
478.783	112.5
479.002	115.5
479.22	133.5
479.439	126.5
479.658	105.5
479.876	94.5
480.095	119.5
480.313	137.5
480.532	124.5
480.751	119.5
480.969	112.5
481.188	105.5
481.406	101.5
481.624	103.5
481.843	118.5
482.061	98.5
482.28	104.5
482.498	120.5
482.717	112.5
482.935	106.5
483.153	129.5
483.372	138.5
483.59	141.5
483.808	129.5
484.027	108.5
484.245	115.5
484.463	97.5
484.681	136.5
484.9	122.5
485.118	135.5
485.336	129.5
485.554	117.5
485.772	122.5
485.99	120.5
486.209	101.5
486.427	123.5
486.645	122.5
486.863	133.5
487.081	136.5
487.299	131.5
487.517	123.5
487.735	137.5
487.953	140.5
488.171	138.5
488.389	139.5
488.607	139.5
488.825	112.5
489.043	120.5
489.261	123.5
489.479	149.5
489.696	135.5
489.914	134.5
490.132	128.5
490.35	117.5
490.568	126.5
490.786	152.5
491.003	157.5
491.221	169.5
491.439	153.5
491.657	164.5
491.874	157.5
492.092	169.5
492.31	178.5
492.527	154.5
492.745	162.5
492.963	157.5
493.18	146.5
493.398	140.5
493.615	143.5
493.833	139.5
494.05	151.5
494.268	148.5
494.485	139.5
494.703	164.5
494.92	139.5
495.138	141.5
495.355	155.5
495.573	161.5
495.79	151.5
496.008	152.5
496.225	145.5
496.442	151.5
496.66	150.5
496.877	142.5
497.094	159.5
497.312	146.5
497.529	152.5
497.746	141.5
497.963	128.5
498.181	131.5
498.398	136.5
498.615	155.5
498.832	139.5
499.049	131.5
499.267	148.5
499.484	165.5
499.701	179.5
499.918	176.5
500.135	209.5
500.352	198.5
500.569	227.5
500.786	232.5
501.003	209.5
501.22	201.5
501.437	176.5
501.654	179.5
501.871	161.5
502.088	162.5
502.305	151.5
502.522	148.5
502.739	148.5
502.956	151.5
503.172	142.5
503.389	134.5
503.606	142.5
503.823	141.5
504.04	133.5
504.256	133.5
504.473	144.5
504.69	135.5
504.907	151.5
505.123	120.5
505.34	131.5
505.557	132.5
505.773	129.5
505.99	136.5
506.207	139.5
506.423	147.5
506.64	123.5
506.856	133.5
507.073	124.5
507.289	134.5
507.506	122.5
507.722	127.5
507.939	121.5
508.155	107.5
508.372	123.5
508.588	124.5
508.805	116.5
509.021	115.5
509.238	119.5
509.454	117.5
509.67	111.5
509.887	112.5
510.103	114.5
510.319	108.5
510.536	109.5
510.752	113.5
510.968	131.5
511.184	116.5
511.401	117.5
511.617	114.5
511.833	123.5
512.049	111.5
512.265	113.5
512.481	112.5
512.698	111.5
512.914	124.5
513.13	112.5
513.346	95.5
513.562	113.5
513.778	119.5
513.994	122.5
514.21	108.5
514.426	103.5
514.642	117.5
514.858	114.5
515.074	112.5
515.29	121.5
515.506	116.5
515.721	109.5
515.937	113.5
516.153	118.5
516.369	113.5
516.585	126.5
516.801	117.5
517.016	119.5
517.232	127.5
517.448	123.5
517.664	121.5
517.879	117.5
518.095	131.5
518.311	110.5
518.527	129.5
518.742	130.5
518.958	129.5
519.173	117.5
519.389	127.5
519.605	128.5
519.82	134.5
520.036	128.5
520.251	121.5
520.467	121.5
520.682	101.5
520.898	111.5
521.113	121.5
521.329	133.5
521.544	105.5
521.76	118.5
521.975	107.5
522.19	120.5
522.406	105.5
522.621	117.5
522.836	123.5
523.052	114.5
523.267	115.5
523.482	97.5
523.698	111.5
523.913	115.5
524.128	129.5
524.343	138.5
524.559	122.5
524.774	137.5
524.989	119.5
525.204	129.5
525.419	139.5
525.634	129.5
525.849	129.5
526.064	121.5
526.28	123.5
526.495	115.5
526.71	100.5
526.925	107.5
527.14	122.5
527.355	115.5
527.57	114.5
527.785	119.5
527.999	115.5
528.214	125.5
528.429	119.5
528.644	115.5
528.859	139.5
529.074	122.5
529.289	115.5
529.503	125.5
529.718	116.5
529.933	112.5
530.148	122.5
530.363	103.5
