Data from StandardFe(NO3)3.TAE.3%Agarose.FlatLispGreen.Lamp.Energy10.07252019_HRD10591_11-56-07-442.txt Node
Date: Thu Jul 25 11:56:07 EDT 2019
User: cochatt
Spectrometer: HR+D1059
Trigger mode: 1
Integration Time (sec): 1.000000E-1
Scans to average: 1
Electric dark correction enabled: true
Nonlinearity correction enabled: false
Boxcar width: 0
XAxis mode: Wavelengths
Number of Pixels in Spectrum: 2048
>>>>>Begin Spectral Data<<<<<
223.165	-7.56
223.4	-7.56
223.635	-7.56
223.869	-7.56
224.104	-25.56
224.338	-13.56
224.573	-15.56
224.808	-14.56
225.042	-3.56
225.277	-3.56
225.511	5.44
225.746	23.44
225.98	-1.56
226.215	1.44
226.449	8.44
226.683	4.44
226.918	16.44
227.152	33.44
227.387	31.44
227.621	43.44
227.856	65.44
228.09	49.44
228.324	45.44
228.559	62.44
228.793	76.44
229.027	71.44
229.262	72.44
229.496	57.44
229.73	88.44
229.964	64.44
230.199	74.44
230.433	66.44
230.667	57.44
230.901	63.44
231.136	71.44
231.37	82.44
231.604	81.44
231.838	89.44
232.072	97.44
232.306	74.44
232.541	80.44
232.775	85.44
233.009	78.44
233.243	82.44
233.477	84.44
233.711	82.44
233.945	94.44
234.179	81.44
234.413	88.44
234.647	78.44
234.881	80.44
235.115	78.44
235.349	74.44
235.583	91.44
235.817	80.44
236.051	71.44
236.285	78.44
236.519	68.44
236.753	81.44
236.987	80.44
237.221	90.44
237.455	85.44
237.689	83.44
237.922	86.44
238.156	75.44
238.39	79.44
238.624	80.44
238.858	79.44
239.091	82.44
239.325	81.44
239.559	76.44
239.793	80.44
240.027	80.44
240.26	77.44
240.494	83.44
240.728	78.44
240.961	74.44
241.195	74.44
241.429	76.44
241.662	86.44
241.896	75.44
242.13	73.44
242.363	76.44
242.597	77.44
242.83	96.44
243.064	92.44
243.298	85.44
243.531	73.44
243.765	76.44
243.998	73.44
244.232	76.44
244.465	81.44
244.699	61.44
244.932	79.44
245.166	78.44
245.399	81.44
245.633	87.44
245.866	64.44
246.099	82.44
246.333	83.44
246.566	82.44
246.8	76.44
247.033	85.44
247.266	73.44
247.5	75.44
247.733	85.44
247.966	80.44
248.2	85.44
248.433	66.44
248.666	83.44
248.899	89.44
249.133	83.44
249.366	83.44
249.599	80.44
249.832	77.44
250.066	69.44
250.299	78.44
250.532	76.44
250.765	74.44
250.998	80.44
251.231	81.44
251.465	77.44
251.698	77.44
251.931	80.44
252.164	72.44
252.397	67.44
252.63	71.44
252.863	88.44
253.096	85.44
253.329	73.44
253.562	85.44
253.795	90.44
254.028	87.44
254.261	88.44
254.494	77.44
254.727	100.44
254.96	86.44
255.193	69.44
255.426	86.44
255.659	90.44
255.892	75.44
256.124	97.44
256.357	81.44
256.59	78.44
256.823	77.44
257.056	81.44
257.289	74.44
257.521	80.44
257.754	90.44
257.987	75.44
258.22	77.44
258.452	79.44
258.685	77.44
258.918	78.44
259.151	76.44
259.383	81.44
259.616	71.44
259.849	74.44
260.081	76.44
260.314	83.44
260.547	89.44
260.779	86.44
261.012	85.44
261.244	93.44
261.477	87.44
261.71	89.44
261.942	77.44
262.175	67.44
262.407	76.44
262.64	94.44
262.872	80.44
263.105	63.44
263.337	77.44
263.57	85.44
263.802	77.44
264.035	83.44
264.267	81.44
264.499	78.44
264.732	80.44
264.964	84.44
265.197	99.44
265.429	101.44
265.661	76.44
265.894	87.44
266.126	101.44
266.358	81.44
266.591	85.44
266.823	77.44
267.055	78.44
267.287	74.44
267.52	82.44
267.752	78.44
267.984	82.44
268.216	76.44
268.448	83.44
268.681	87.44
268.913	85.44
269.145	85.44
269.377	85.44
269.609	97.44
269.841	81.44
270.073	84.44
270.306	93.44
270.538	95.44
270.77	83.44
271.002	84.44
271.234	87.44
271.466	89.44
271.698	88.44
271.93	73.44
272.162	83.44
272.394	77.44
272.626	81.44
272.858	85.44
273.09	85.44
273.322	86.44
273.553	100.44
273.785	98.44
274.017	90.44
274.249	89.44
274.481	68.44
274.713	86.44
274.945	85.44
275.176	98.44
275.408	90.44
275.64	71.44
275.872	92.44
276.104	84.44
276.335	77.44
276.567	88.44
276.799	97.44
277.031	78.44
277.262	85.44
277.494	96.44
277.726	94.44
277.957	78.44
278.189	82.44
278.421	83.44
278.652	85.44
278.884	86.44
279.115	100.44
279.347	80.44
279.579	82.44
279.81	82.44
280.042	86.44
280.273	93.44
280.505	90.44
280.736	93.44
280.968	84.44
281.199	89.44
281.431	76.44
281.662	98.44
281.894	92.44
282.125	95.44
282.356	92.44
282.588	85.44
282.819	87.44
283.051	84.44
283.282	91.44
283.513	81.44
283.745	94.44
283.976	82.44
284.207	89.44
284.439	83.44
284.67	89.44
284.901	90.44
285.132	87.44
285.364	83.44
285.595	90.44
285.826	88.44
286.057	94.44
286.288	84.44
286.52	97.44
286.751	80.44
286.982	77.44
287.213	63.44
287.444	87.44
287.675	93.44
287.906	94.44
288.138	92.44
288.369	77.44
288.6	103.44
288.831	85.44
289.062	86.44
289.293	89.44
289.524	94.44
289.755	88.44
289.986	102.44
290.217	88.44
290.448	97.44
290.679	89.44
290.91	64.44
291.141	75.44
291.371	89.44
291.602	84.44
291.833	79.44
292.064	79.44
292.295	76.44
292.526	82.44
292.757	92.44
292.987	88.44
293.218	72.44
293.449	100.44
293.68	81.44
293.91	93.44
294.141	91.44
294.372	92.44
294.603	90.44
294.833	74.44
295.064	87.44
295.295	89.44
295.525	87.44
295.756	105.44
295.987	85.44
296.217	93.44
296.448	83.44
296.679	78.44
296.909	85.44
297.14	79.44
297.37	100.44
297.601	96.44
297.831	78.44
298.062	86.44
298.292	88.44
298.523	88.44
298.753	86.44
298.984	92.44
299.214	92.44
299.445	85.44
299.675	91.44
299.905	88.44
300.136	80.44
300.366	93.44
300.597	78.44
300.827	83.44
301.057	87.44
301.288	91.44
301.518	82.44
301.748	81.44
301.979	81.44
302.209	85.44
302.439	90.44
302.669	83.44
302.9	84.44
303.13	82.44
303.36	89.44
303.59	74.44
303.82	100.44
304.051	74.44
304.281	92.44
304.511	97.44
304.741	86.44
304.971	85.44
305.201	92.44
305.431	86.44
305.661	88.44
305.891	88.44
306.121	101.44
306.352	86.44
306.582	89.44
306.812	91.44
307.042	89.44
307.272	89.44
307.502	91.44
307.731	78.44
307.961	86.44
308.191	81.44
308.421	93.44
308.651	89.44
308.881	92.44
309.111	82.44
309.341	93.44
309.571	88.44
309.8	100.44
310.03	85.44
310.26	85.44
310.49	83.44
310.72	82.44
310.949	86.44
311.179	88.44
311.409	72.44
311.639	92.44
311.868	82.44
312.098	75.44
312.328	90.44
312.557	82.44
312.787	83.44
313.017	86.44
313.246	92.44
313.476	74.44
313.706	87.44
313.935	84.44
314.165	104.44
314.394	90.44
314.624	91.44
314.853	93.44
315.083	84.44
315.312	82.44
315.542	97.44
315.771	91.44
316.001	92.44
316.23	99.44
316.46	90.44
316.689	101.44
316.919	85.44
317.148	84.44
317.377	86.44
317.607	77.44
317.836	91.44
318.065	94.44
318.295	78.44
318.524	86.44
318.753	82.44
318.983	89.44
319.212	88.44
319.441	102.44
319.67	83.44
319.9	75.44
320.129	76.44
320.358	96.44
320.587	98.44
320.816	70.44
321.046	72.44
321.275	92.44
321.504	81.44
321.733	77.44
321.962	77.44
322.191	93.44
322.42	65.44
322.649	98.44
322.878	94.44
323.108	95.44
323.337	78.44
323.566	86.44
323.795	104.44
324.024	90.44
324.253	100.44
324.482	81.44
324.71	69.44
324.939	91.44
325.168	85.44
325.397	107.44
325.626	99.44
325.855	90.44
326.084	89.44
326.313	74.44
326.542	81.44
326.77	86.44
326.999	85.44
327.228	109.44
327.457	86.44
327.686	90.44
327.914	80.44
328.143	85.44
328.372	92.44
328.6	79.44
328.829	85.44
329.058	81.44
329.287	73.44
329.515	88.44
329.744	80.44
329.972	94.44
330.201	95.44
330.43	90.44
330.658	91.44
330.887	87.44
331.115	90.44
331.344	96.44
331.572	93.44
331.801	82.44
332.03	97.44
332.258	87.44
332.486	87.44
332.715	93.44
332.943	82.44
333.172	80.44
333.4	87.44
333.629	89.44
333.857	74.44
334.085	84.44
334.314	91.44
334.542	84.44
334.771	88.44
334.999	109.44
335.227	86.44
335.455	104.44
335.684	82.44
335.912	98.44
336.14	67.44
336.369	77.44
336.597	85.44
336.825	74.44
337.053	93.44
337.281	82.44
337.51	89.44
337.738	91.44
337.966	84.44
338.194	86.44
338.422	89.44
338.65	93.44
338.878	90.44
339.106	93.44
339.334	92.44
339.562	82.44
339.79	89.44
340.018	96.44
340.246	86.44
340.474	80.44
340.702	90.44
340.93	76.44
341.158	86.44
341.386	84.44
341.614	75.44
341.842	91.44
342.07	80.44
342.298	92.44
342.526	80.44
342.754	92.44
342.981	91.44
343.209	89.44
343.437	93.44
343.665	77.44
343.893	81.44
344.12	86.44
344.348	97.44
344.576	75.44
344.804	89.44
345.031	78.44
345.259	96.44
345.487	89.44
345.714	78.44
345.942	85.44
346.17	90.44
346.397	83.44
346.625	84.44
346.853	98.44
347.08	83.44
347.308	85.44
347.535	90.44
347.763	89.44
347.99	90.44
348.218	84.44
348.445	86.44
348.673	93.44
348.9	82.44
349.128	87.44
349.355	82.44
349.583	92.44
349.81	104.44
350.037	87.44
350.265	84.44
350.492	85.44
350.72	89.44
350.947	100.44
351.174	77.44
351.402	86.44
351.629	78.44
351.856	89.44
352.083	78.44
352.311	81.44
352.538	83.44
352.765	88.44
352.992	91.44
353.22	87.44
353.447	83.44
353.674	91.44
353.901	94.44
354.128	92.44
354.355	83.44
354.583	84.44
354.81	87.44
355.037	88.44
355.264	81.44
355.491	97.44
355.718	83.44
355.945	69.44
356.172	86.44
356.399	96.44
356.626	92.44
356.853	94.44
357.08	88.44
357.307	100.44
357.534	72.44
357.761	85.44
357.988	92.44
358.215	81.44
358.441	91.44
358.668	83.44
358.895	102.44
359.122	86.44
359.349	89.44
359.576	81.44
359.802	90.44
360.029	91.44
360.256	78.44
360.483	90.44
360.709	85.44
360.936	106.44
361.163	97.44
361.39	81.44
361.616	89.44
361.843	86.44
362.07	75.44
362.296	87.44
362.523	90.44
362.749	85.44
362.976	84.44
363.203	76.44
363.429	91.44
363.656	84.44
363.882	92.44
364.109	86.44
364.335	84.44
364.562	92.44
364.788	76.44
365.015	94.44
365.241	92.44
365.468	86.44
365.694	89.44
365.92	98.44
366.147	84.44
366.373	81.44
366.599	94.44
366.826	89.44
367.052	87.44
367.278	84.44
367.505	81.44
367.731	85.44
367.957	81.44
368.184	91.44
368.41	87.44
368.636	91.44
368.862	94.44
369.089	83.44
369.315	94.44
369.541	96.44
369.767	87.44
369.993	81.44
370.219	82.44
370.445	99.44
370.672	98.44
370.898	88.44
371.124	84.44
371.35	99.44
371.576	79.44
371.802	86.44
372.028	95.44
372.254	110.44
372.48	98.44
372.706	85.44
372.932	92.44
373.158	95.44
373.384	99.44
373.61	94.44
373.835	97.44
374.061	82.44
374.287	88.44
374.513	91.44
374.739	83.44
374.965	84.44
375.191	85.44
375.416	93.44
375.642	94.44
375.868	112.44
376.094	92.44
376.319	89.44
376.545	96.44
376.771	97.44
376.997	99.44
377.222	93.44
377.448	74.44
377.674	88.44
377.899	90.44
378.125	83.44
378.35	101.44
378.576	93.44
378.802	84.44
379.027	96.44
379.253	100.44
379.478	78.44
379.704	78.44
379.929	77.44
380.155	88.44
380.38	98.44
380.606	76.44
380.831	101.44
381.057	93.44
381.282	86.44
381.507	76.44
381.733	96.44
381.958	85.44
382.184	95.44
382.409	95.44
382.634	100.44
382.86	92.44
383.085	92.44
383.31	104.44
383.535	86.44
383.761	89.44
383.986	94.44
384.211	91.44
384.436	76.44
384.662	90.44
384.887	109.44
385.112	89.44
385.337	100.44
385.562	75.44
385.787	93.44
386.013	85.44
386.238	97.44
386.463	91.44
386.688	90.44
386.913	102.44
387.138	103.44
387.363	87.44
387.588	106.44
387.813	93.44
388.038	84.44
388.263	91.44
388.488	100.44
388.713	83.44
388.938	87.44
389.163	96.44
389.387	89.44
389.612	85.44
389.837	98.44
390.062	73.44
390.287	99.44
390.512	88.44
390.736	104.44
390.961	93.44
391.186	93.44
391.411	96.44
391.636	108.44
391.86	104.44
392.085	79.44
392.31	102.44
392.534	95.44
392.759	77.44
392.984	100.44
393.208	98.44
393.433	100.44
393.658	92.44
393.882	83.44
394.107	105.44
394.331	90.44
394.556	88.44
394.78	99.44
395.005	100.44
395.229	91.44
395.454	92.44
395.678	104.44
395.903	102.44
396.127	96.44
396.352	105.44
396.576	101.44
396.801	107.44
397.025	103.44
397.249	108.44
397.474	99.44
397.698	104.44
397.922	112.44
398.147	97.44
398.371	92.44
398.595	93.44
398.82	106.44
399.044	99.44
399.268	105.44
399.492	118.44
399.717	111.44
399.941	105.44
400.165	109.44
400.389	98.44
400.613	116.44
400.837	98.44
401.062	113.44
401.286	110.44
401.51	107.44
401.734	98.44
401.958	106.44
402.182	94.44
402.406	107.44
402.63	107.44
402.854	95.44
403.078	114.44
403.302	112.44
403.526	99.44
403.75	112.44
403.974	99.44
404.198	101.44
404.422	114.44
404.645	105.44
404.869	85.44
405.093	112.44
405.317	116.44
405.541	117.44
405.765	106.44
405.988	114.44
406.212	110.44
406.436	104.44
406.66	96.44
406.883	114.44
407.107	109.44
407.331	113.44
407.555	110.44
407.778	113.44
408.002	118.44
408.226	99.44
408.449	106.44
408.673	115.44
408.896	108.44
409.12	103.44
409.344	115.44
409.567	107.44
409.791	117.44
410.014	120.44
410.238	92.44
410.461	118.44
410.685	112.44
410.908	108.44
411.132	124.44
411.355	123.44
411.578	110.44
411.802	96.44
412.025	110.44
412.249	99.44
412.472	109.44
412.695	100.44
412.919	108.44
413.142	100.44
413.365	124.44
413.589	96.44
413.812	103.44
414.035	127.44
414.258	104.44
414.482	109.44
414.705	118.44
414.928	97.44
415.151	122.44
415.374	120.44
415.597	108.44
415.821	90.44
416.044	105.44
416.267	92.44
416.49	95.44
416.713	124.44
416.936	108.44
417.159	101.44
417.382	109.44
417.605	100.44
417.828	90.44
418.051	103.44
418.274	104.44
418.497	110.44
418.72	122.44
418.943	124.44
419.166	122.44
419.389	114.44
419.611	109.44
419.834	119.44
420.057	121.44
420.28	105.44
420.503	114.44
420.726	109.44
420.948	100.44
421.171	118.44
421.394	116.44
421.617	107.44
421.839	113.44
422.062	119.44
422.285	125.44
422.507	97.44
422.73	106.44
422.953	116.44
423.175	104.44
423.398	120.44
423.621	110.44
423.843	96.44
424.066	109.44
424.288	108.44
424.511	108.44
424.733	102.44
424.956	119.44
425.178	100.44
425.401	128.44
425.623	114.44
425.846	120.44
426.068	107.44
426.291	115.44
426.513	106.44
426.735	100.44
426.958	105.44
427.18	112.44
427.402	126.44
427.625	117.44
427.847	118.44
428.069	113.44
428.292	112.44
428.514	94.44
428.736	115.44
428.958	105.44
429.181	102.44
429.403	107.44
429.625	98.44
429.847	111.44
430.069	109.44
430.292	120.44
430.514	105.44
430.736	94.44
430.958	110.44
431.18	124.44
431.402	104.44
431.624	97.44
431.846	104.44
432.068	109.44
432.29	86.44
432.512	100.44
432.734	89.44
432.956	109.44
433.178	106.44
433.4	121.44
433.622	117.44
433.844	104.44
434.066	122.44
434.287	93.44
434.509	97.44
434.731	102.44
434.953	111.44
435.175	124.44
435.397	104.44
435.618	109.44
435.84	112.44
436.062	121.44
436.284	120.44
436.505	109.44
436.727	114.44
436.949	118.44
437.17	114.44
437.392	101.44
437.614	114.44
437.835	92.44
438.057	97.44
438.278	94.44
438.5	104.44
438.721	122.44
438.943	118.44
439.165	109.44
439.386	115.44
439.608	116.44
439.829	112.44
440.05	105.44
440.272	105.44
440.493	109.44
440.715	119.44
440.936	119.44
441.158	114.44
441.379	103.44
441.6	116.44
441.822	115.44
442.043	132.44
442.264	97.44
442.486	109.44
442.707	118.44
442.928	112.44
443.149	110.44
443.371	116.44
443.592	136.44
443.813	128.44
444.034	131.44
444.255	124.44
444.476	132.44
444.698	117.44
444.919	123.44
445.14	232.44
445.361	162.44
445.582	113.44
445.803	116.44
446.024	108.44
446.245	116.44
446.466	114.44
446.687	102.44
446.908	116.44
447.129	129.44
447.35	130.44
447.571	116.44
447.792	120.44
448.013	123.44
448.234	110.44
448.455	104.44
448.675	113.44
448.896	108.44
449.117	99.44
449.338	96.44
449.559	120.44
449.779	125.44
450	113.44
450.221	122.44
450.442	119.44
450.662	114.44
450.883	109.44
451.104	112.44
451.324	108.44
451.545	115.44
451.766	117.44
451.986	121.44
452.207	108.44
452.428	107.44
452.648	122.44
452.869	100.44
453.089	114.44
453.31	105.44
453.53	108.44
453.751	93.44
453.971	91.44
454.192	99.44
454.412	106.44
454.633	106.44
454.853	110.44
455.073	112.44
455.294	107.44
455.514	105.44
455.734	97.44
455.955	107.44
456.175	106.44
456.395	112.44
456.616	105.44
456.836	107.44
457.056	90.44
457.276	76.44
457.497	98.44
457.717	122.44
457.937	112.44
458.157	90.44
458.377	100.44
458.598	88.44
458.818	107.44
459.038	100.44
459.258	104.44
459.478	116.44
459.698	115.44
459.918	106.44
460.138	116.44
460.358	107.44
460.578	112.44
460.798	112.44
461.018	116.44
461.238	119.44
461.458	114.44
461.678	125.44
461.898	115.44
462.118	112.44
462.338	108.44
462.558	121.44
462.777	112.44
462.997	119.44
463.217	119.44
463.437	120.44
463.657	125.44
463.876	124.44
464.096	124.44
464.316	128.44
464.536	119.44
464.755	115.44
464.975	121.44
465.195	123.44
465.414	109.44
465.634	96.44
465.854	114.44
466.073	113.44
466.293	116.44
466.512	116.44
466.732	107.44
466.951	119.44
467.171	112.44
467.391	112.44
467.61	118.44
467.829	135.44
468.049	104.44
468.268	105.44
468.488	109.44
468.707	123.44
468.927	117.44
469.146	115.44
469.365	127.44
469.585	117.44
469.804	135.44
470.023	120.44
470.243	126.44
470.462	122.44
470.681	120.44
470.901	124.44
471.12	121.44
471.339	123.44
471.558	121.44
471.777	131.44
471.997	114.44
472.216	118.44
472.435	121.44
472.654	112.44
472.873	108.44
473.092	124.44
473.311	124.44
473.53	121.44
473.749	118.44
473.968	130.44
474.187	113.44
474.406	108.44
474.625	106.44
474.844	114.44
475.063	100.44
475.282	122.44
475.501	119.44
475.72	117.44
475.939	111.44
476.158	115.44
476.377	119.44
476.596	104.44
476.814	98.44
477.033	107.44
477.252	102.44
477.471	120.44
477.69	120.44
477.908	122.44
478.127	129.44
478.346	126.44
478.564	123.44
478.783	116.44
479.002	128.44
479.22	127.44
479.439	141.44
479.658	132.44
479.876	122.44
480.095	124.44
480.313	117.44
480.532	132.44
480.751	121.44
480.969	112.44
481.188	122.44
481.406	126.44
481.624	113.44
481.843	113.44
482.061	123.44
482.28	115.44
482.498	117.44
482.717	118.44
482.935	110.44
483.153	122.44
483.372	128.44
483.59	139.44
483.808	111.44
484.027	121.44
484.245	113.44
484.463	120.44
484.681	134.44
484.9	135.44
485.118	131.44
485.336	141.44
485.554	122.44
485.772	124.44
485.99	127.44
486.209	125.44
486.427	100.44
486.645	122.44
486.863	118.44
487.081	120.44
487.299	130.44
487.517	136.44
487.735	134.44
487.953	148.44
488.171	142.44
488.389	128.44
488.607	135.44
488.825	128.44
489.043	138.44
489.261	143.44
489.479	137.44
489.696	129.44
489.914	116.44
490.132	137.44
490.35	134.44
490.568	133.44
490.786	129.44
491.003	152.44
491.221	150.44
491.439	169.44
491.657	148.44
491.874	142.44
492.092	142.44
492.31	159.44
492.527	149.44
492.745	164.44
492.963	157.44
493.18	142.44
493.398	153.44
493.615	136.44
493.833	154.44
494.05	139.44
494.268	128.44
494.485	142.44
494.703	132.44
494.92	158.44
495.138	134.44
495.355	150.44
495.573	150.44
495.79	138.44
496.008	148.44
496.225	138.44
496.442	143.44
496.66	155.44
496.877	152.44
497.094	150.44
497.312	148.44
497.529	131.44
497.746	136.44
497.963	138.44
498.181	145.44
498.398	134.44
498.615	147.44
498.832	145.44
499.049	157.44
499.267	166.44
499.484	153.44
499.701	168.44
499.918	178.44
500.135	187.44
500.352	208.44
500.569	206.44
500.786	225.44
501.003	204.44
501.22	172.44
501.437	178.44
501.654	172.44
501.871	155.44
502.088	134.44
502.305	144.44
502.522	173.44
502.739	139.44
502.956	140.44
503.172	146.44
503.389	125.44
503.606	121.44
503.823	137.44
504.04	131.44
504.256	135.44
504.473	128.44
504.69	132.44
504.907	133.44
505.123	141.44
505.34	126.44
505.557	128.44
505.773	132.44
505.99	132.44
506.207	122.44
506.423	122.44
506.64	124.44
506.856	140.44
507.073	125.44
507.289	118.44
507.506	110.44
507.722	132.44
507.939	117.44
508.155	143.44
508.372	122.44
508.588	131.44
508.805	123.44
509.021	128.44
509.238	109.44
509.454	106.44
509.67	118.44
509.887	120.44
510.103	121.44
510.319	118.44
510.536	116.44
510.752	108.44
510.968	106.44
511.184	118.44
511.401	116.44
511.617	120.44
511.833	112.44
