Data from StandardFe(NO3)3.TAE.3%Agarose.FlatLispGreen.Lamp.Energy10.07252019_HRD10591_11-55-23-441.txt Node
Date: Thu Jul 25 11:55:23 EDT 2019
User: cochatt
Spectrometer: HR+D1059
Trigger mode: 1
Integration Time (sec): 1.000000E-1
Scans to average: 1
Electric dark correction enabled: true
Nonlinearity correction enabled: false
Boxcar width: 0
XAxis mode: Wavelengths
Number of Pixels in Spectrum: 2048
>>>>>Begin Spectral Data<<<<<
223.165	-30.12
223.4	-30.12
223.635	-30.12
223.869	-11.12
224.104	-32.12
224.338	-8.12
224.573	-11.12
224.808	-7.12
225.042	-14.12
225.277	-14.12
225.511	3.88
225.746	-5.12
225.98	9.88
226.215	14.88
226.449	18.88
226.683	24.88
226.918	31.88
227.152	28.88
227.387	38.88
227.621	43.88
227.856	49.88
228.09	44.88
228.324	47.88
228.559	38.88
228.793	51.88
229.027	54.88
229.262	63.88
229.496	65.88
229.73	76.88
229.964	69.88
230.199	74.88
230.433	80.88
230.667	94.88
230.901	75.88
231.136	96.88
231.37	82.88
231.604	83.88
231.838	88.88
232.072	82.88
232.306	83.88
232.541	94.88
232.775	92.88
233.009	86.88
233.243	84.88
233.477	76.88
233.711	80.88
233.945	83.88
234.179	89.88
234.413	86.88
234.647	73.88
234.881	82.88
235.115	87.88
235.349	79.88
235.583	73.88
235.817	84.88
236.051	84.88
236.285	79.88
236.519	67.88
236.753	79.88
236.987	81.88
237.221	85.88
237.455	69.88
237.689	78.88
237.922	82.88
238.156	64.88
238.39	73.88
238.624	72.88
238.858	79.88
239.091	80.88
239.325	71.88
239.559	81.88
239.793	70.88
240.027	68.88
240.26	82.88
240.494	91.88
240.728	82.88
240.961	88.88
241.195	101.88
241.429	82.88
241.662	74.88
241.896	65.88
242.13	68.88
242.363	79.88
242.597	84.88
242.83	95.88
243.064	69.88
243.298	88.88
243.531	70.88
243.765	77.88
243.998	57.88
244.232	90.88
244.465	75.88
244.699	65.88
244.932	83.88
245.166	69.88
245.399	89.88
245.633	75.88
245.866	81.88
246.099	77.88
246.333	83.88
246.566	97.88
246.8	75.88
247.033	72.88
247.266	84.88
247.5	95.88
247.733	83.88
247.966	73.88
248.2	80.88
248.433	62.88
248.666	69.88
248.899	96.88
249.133	85.88
249.366	82.88
249.599	83.88
249.832	79.88
250.066	71.88
250.299	89.88
250.532	90.88
250.765	81.88
250.998	80.88
251.231	82.88
251.465	79.88
251.698	77.88
251.931	66.88
252.164	88.88
252.397	71.88
252.63	83.88
252.863	80.88
253.096	96.88
253.329	90.88
253.562	82.88
253.795	88.88
254.028	80.88
254.261	85.88
254.494	76.88
254.727	77.88
254.96	98.88
255.193	87.88
255.426	88.88
255.659	84.88
255.892	86.88
256.124	72.88
256.357	84.88
256.59	80.88
256.823	85.88
257.056	82.88
257.289	71.88
257.521	78.88
257.754	77.88
257.987	80.88
258.22	91.88
258.452	73.88
258.685	76.88
258.918	83.88
259.151	77.88
259.383	73.88
259.616	83.88
259.849	93.88
260.081	86.88
260.314	74.88
260.547	77.88
260.779	82.88
261.012	76.88
261.244	87.88
261.477	88.88
261.71	82.88
261.942	86.88
262.175	90.88
262.407	79.88
262.64	82.88
262.872	73.88
263.105	77.88
263.337	92.88
263.57	79.88
263.802	70.88
264.035	88.88
264.267	82.88
264.499	89.88
264.732	78.88
264.964	84.88
265.197	73.88
265.429	88.88
265.661	95.88
265.894	86.88
266.126	73.88
266.358	85.88
266.591	77.88
266.823	73.88
267.055	76.88
267.287	80.88
267.52	63.88
267.752	66.88
267.984	95.88
268.216	80.88
268.448	79.88
268.681	72.88
268.913	78.88
269.145	80.88
269.377	105.88
269.609	88.88
269.841	79.88
270.073	72.88
270.306	96.88
270.538	79.88
270.77	81.88
271.002	79.88
271.234	86.88
271.466	85.88
271.698	83.88
271.93	72.88
272.162	84.88
272.394	71.88
272.626	73.88
272.858	92.88
273.09	77.88
273.322	76.88
273.553	92.88
273.785	73.88
274.017	76.88
274.249	75.88
274.481	66.88
274.713	96.88
274.945	99.88
275.176	87.88
275.408	86.88
275.64	93.88
275.872	88.88
276.104	99.88
276.335	84.88
276.567	76.88
276.799	80.88
277.031	90.88
277.262	78.88
277.494	91.88
277.726	102.88
277.957	67.88
278.189	82.88
278.421	79.88
278.652	84.88
278.884	82.88
279.115	67.88
279.347	81.88
279.579	81.88
279.81	74.88
280.042	78.88
280.273	78.88
280.505	91.88
280.736	90.88
280.968	87.88
281.199	92.88
281.431	85.88
281.662	87.88
281.894	74.88
282.125	83.88
282.356	98.88
282.588	90.88
282.819	70.88
283.051	78.88
283.282	89.88
283.513	90.88
283.745	86.88
283.976	86.88
284.207	73.88
284.439	86.88
284.67	71.88
284.901	88.88
285.132	81.88
285.364	96.88
285.595	73.88
285.826	89.88
286.057	76.88
286.288	87.88
286.52	86.88
286.751	88.88
286.982	65.88
287.213	80.88
287.444	92.88
287.675	73.88
287.906	91.88
288.138	89.88
288.369	94.88
288.6	77.88
288.831	59.88
289.062	73.88
289.293	75.88
289.524	94.88
289.755	78.88
289.986	90.88
290.217	91.88
290.448	73.88
290.679	73.88
290.91	85.88
291.141	88.88
291.371	82.88
291.602	89.88
291.833	72.88
292.064	96.88
292.295	88.88
292.526	83.88
292.757	80.88
292.987	82.88
293.218	73.88
293.449	87.88
293.68	86.88
293.91	83.88
294.141	86.88
294.372	89.88
294.603	83.88
294.833	87.88
295.064	74.88
295.295	82.88
295.525	80.88
295.756	77.88
295.987	89.88
296.217	79.88
296.448	75.88
296.679	79.88
296.909	86.88
297.14	82.88
297.37	91.88
297.601	74.88
297.831	93.88
298.062	85.88
298.292	81.88
298.523	73.88
298.753	72.88
298.984	68.88
299.214	83.88
299.445	88.88
299.675	76.88
299.905	74.88
300.136	82.88
300.366	88.88
300.597	85.88
300.827	79.88
301.057	78.88
301.288	77.88
301.518	92.88
301.748	87.88
301.979	86.88
302.209	81.88
302.439	77.88
302.669	78.88
302.9	92.88
303.13	78.88
303.36	78.88
303.59	79.88
303.82	98.88
304.051	100.88
304.281	95.88
304.511	80.88
304.741	99.88
304.971	83.88
305.201	99.88
305.431	88.88
305.661	72.88
305.891	86.88
306.121	80.88
306.352	82.88
306.582	86.88
306.812	82.88
307.042	95.88
307.272	79.88
307.502	89.88
307.731	82.88
307.961	85.88
308.191	91.88
308.421	95.88
308.651	80.88
308.881	88.88
309.111	81.88
309.341	86.88
309.571	96.88
309.8	86.88
310.03	86.88
310.26	67.88
310.49	81.88
310.72	85.88
310.949	75.88
311.179	88.88
311.409	76.88
311.639	96.88
311.868	94.88
312.098	83.88
312.328	102.88
312.557	82.88
312.787	79.88
313.017	88.88
313.246	89.88
313.476	72.88
313.706	76.88
313.935	86.88
314.165	97.88
314.394	88.88
314.624	87.88
314.853	75.88
315.083	88.88
315.312	79.88
315.542	76.88
315.771	86.88
316.001	80.88
316.23	74.88
316.46	86.88
316.689	90.88
316.919	83.88
317.148	79.88
317.377	85.88
317.607	95.88
317.836	79.88
318.065	91.88
318.295	76.88
318.524	95.88
318.753	96.88
318.983	81.88
319.212	100.88
319.441	81.88
319.67	74.88
319.9	67.88
320.129	91.88
320.358	80.88
320.587	84.88
320.816	87.88
321.046	87.88
321.275	75.88
321.504	94.88
321.733	80.88
321.962	81.88
322.191	95.88
322.42	91.88
322.649	88.88
322.878	91.88
323.108	88.88
323.337	99.88
323.566	77.88
323.795	78.88
324.024	89.88
324.253	92.88
324.482	76.88
324.71	84.88
324.939	74.88
325.168	79.88
325.397	90.88
325.626	96.88
325.855	95.88
326.084	91.88
326.313	85.88
326.542	84.88
326.77	85.88
326.999	84.88
327.228	80.88
327.457	91.88
327.686	89.88
327.914	71.88
328.143	83.88
328.372	79.88
328.6	87.88
328.829	82.88
329.058	97.88
329.287	76.88
329.515	94.88
329.744	79.88
329.972	93.88
330.201	90.88
330.43	80.88
330.658	84.88
330.887	84.88
331.115	82.88
331.344	77.88
331.572	84.88
331.801	81.88
332.03	82.88
332.258	74.88
332.486	83.88
332.715	105.88
332.943	92.88
333.172	78.88
333.4	81.88
333.629	89.88
333.857	72.88
334.085	76.88
334.314	73.88
334.542	94.88
334.771	95.88
334.999	91.88
335.227	85.88
335.455	87.88
335.684	99.88
335.912	85.88
336.14	92.88
336.369	86.88
336.597	82.88
336.825	77.88
337.053	76.88
337.281	76.88
337.51	99.88
337.738	95.88
337.966	88.88
338.194	90.88
338.422	90.88
338.65	88.88
338.878	93.88
339.106	104.88
339.334	93.88
339.562	83.88
339.79	67.88
340.018	78.88
340.246	105.88
340.474	85.88
340.702	84.88
340.93	87.88
341.158	86.88
341.386	85.88
341.614	79.88
341.842	72.88
342.07	76.88
342.298	95.88
342.526	95.88
342.754	80.88
342.981	95.88
343.209	79.88
343.437	89.88
343.665	84.88
343.893	92.88
344.12	94.88
344.348	79.88
344.576	73.88
344.804	100.88
345.031	90.88
345.259	77.88
345.487	75.88
345.714	75.88
345.942	81.88
346.17	83.88
346.397	97.88
346.625	74.88
346.853	68.88
347.08	73.88
347.308	83.88
347.535	92.88
347.763	91.88
347.99	97.88
348.218	80.88
348.445	94.88
348.673	88.88
348.9	100.88
349.128	84.88
349.355	88.88
349.583	85.88
349.81	81.88
350.037	73.88
350.265	90.88
350.492	76.88
350.72	79.88
350.947	80.88
351.174	84.88
351.402	85.88
351.629	80.88
351.856	100.88
352.083	82.88
352.311	100.88
352.538	91.88
352.765	86.88
352.992	84.88
353.22	92.88
353.447	88.88
353.674	80.88
353.901	86.88
354.128	78.88
354.355	80.88
354.583	77.88
354.81	87.88
355.037	74.88
355.264	91.88
355.491	91.88
355.718	83.88
355.945	82.88
356.172	83.88
356.399	76.88
356.626	86.88
356.853	98.88
357.08	89.88
357.307	90.88
357.534	89.88
357.761	77.88
357.988	87.88
358.215	80.88
358.441	82.88
358.668	89.88
358.895	91.88
359.122	88.88
359.349	88.88
359.576	84.88
359.802	90.88
360.029	84.88
360.256	88.88
360.483	87.88
360.709	86.88
360.936	88.88
361.163	88.88
361.39	102.88
361.616	82.88
361.843	83.88
362.07	90.88
362.296	82.88
362.523	73.88
362.749	102.88
362.976	92.88
363.203	71.88
363.429	94.88
363.656	83.88
363.882	100.88
364.109	97.88
364.335	77.88
364.562	93.88
364.788	79.88
365.015	80.88
365.241	90.88
365.468	84.88
365.694	91.88
365.92	86.88
366.147	76.88
366.373	89.88
366.599	84.88
366.826	95.88
367.052	95.88
367.278	86.88
367.505	101.88
367.731	99.88
367.957	86.88
368.184	90.88
368.41	93.88
368.636	81.88
368.862	87.88
369.089	77.88
369.315	92.88
369.541	97.88
369.767	82.88
369.993	86.88
370.219	82.88
370.445	71.88
370.672	94.88
370.898	89.88
371.124	87.88
371.35	90.88
371.576	89.88
371.802	105.88
372.028	96.88
372.254	94.88
372.48	88.88
372.706	83.88
372.932	86.88
373.158	86.88
373.384	100.88
373.61	92.88
373.835	87.88
374.061	90.88
374.287	96.88
374.513	92.88
374.739	94.88
374.965	79.88
375.191	89.88
375.416	91.88
375.642	90.88
375.868	97.88
376.094	86.88
376.319	87.88
376.545	86.88
376.771	92.88
376.997	85.88
377.222	86.88
377.448	94.88
377.674	93.88
377.899	83.88
378.125	91.88
378.35	97.88
378.576	102.88
378.802	82.88
379.027	94.88
379.253	87.88
379.478	86.88
379.704	83.88
379.929	84.88
380.155	91.88
380.38	84.88
380.606	82.88
380.831	82.88
381.057	95.88
381.282	89.88
381.507	85.88
381.733	94.88
381.958	99.88
382.184	83.88
382.409	94.88
382.634	107.88
382.86	95.88
383.085	81.88
383.31	79.88
383.535	104.88
383.761	92.88
383.986	96.88
384.211	99.88
384.436	104.88
384.662	97.88
384.887	101.88
385.112	87.88
385.337	92.88
385.562	89.88
385.787	86.88
386.013	102.88
386.238	105.88
386.463	100.88
386.688	101.88
386.913	90.88
387.138	92.88
387.363	105.88
387.588	97.88
387.813	94.88
388.038	102.88
388.263	100.88
388.488	100.88
388.713	107.88
388.938	90.88
389.163	80.88
389.387	89.88
389.612	105.88
389.837	86.88
390.062	94.88
390.287	93.88
390.512	81.88
390.736	96.88
390.961	106.88
391.186	91.88
391.411	85.88
391.636	90.88
391.86	91.88
392.085	110.88
392.31	93.88
392.534	93.88
392.759	106.88
392.984	97.88
393.208	105.88
393.433	101.88
393.658	94.88
393.882	90.88
394.107	94.88
394.331	100.88
394.556	105.88
394.78	99.88
395.005	94.88
395.229	104.88
395.454	97.88
395.678	102.88
395.903	96.88
396.127	106.88
396.352	101.88
396.576	111.88
396.801	99.88
397.025	104.88
397.249	103.88
397.474	100.88
397.698	109.88
397.922	89.88
398.147	101.88
398.371	107.88
398.595	100.88
398.82	96.88
399.044	105.88
399.268	111.88
399.492	110.88
399.717	125.88
399.941	122.88
400.165	107.88
400.389	106.88
400.613	105.88
400.837	116.88
401.062	101.88
401.286	88.88
401.51	92.88
401.734	101.88
401.958	122.88
402.182	112.88
402.406	105.88
402.63	102.88
402.854	89.88
403.078	101.88
403.302	110.88
403.526	113.88
403.75	120.88
403.974	99.88
404.198	107.88
404.422	113.88
404.645	111.88
404.869	114.88
405.093	115.88
405.317	110.88
405.541	100.88
405.765	110.88
405.988	100.88
406.212	115.88
406.436	114.88
406.66	111.88
406.883	128.88
407.107	111.88
407.331	106.88
407.555	110.88
407.778	117.88
408.002	119.88
408.226	111.88
408.449	108.88
408.673	94.88
408.896	90.88
409.12	113.88
409.344	110.88
409.567	100.88
409.791	98.88
410.014	104.88
410.238	106.88
410.461	116.88
410.685	124.88
410.908	95.88
411.132	107.88
411.355	105.88
411.578	117.88
411.802	123.88
412.025	110.88
412.249	108.88
412.472	114.88
412.695	112.88
412.919	105.88
413.142	130.88
413.365	98.88
413.589	105.88
413.812	107.88
414.035	120.88
414.258	96.88
414.482	116.88
414.705	107.88
414.928	106.88
415.151	115.88
415.374	122.88
415.597	108.88
415.821	90.88
416.044	105.88
416.267	105.88
416.49	111.88
416.713	107.88
416.936	120.88
417.159	116.88
417.382	96.88
417.605	102.88
417.828	106.88
418.051	118.88
418.274	96.88
418.497	109.88
418.72	111.88
418.943	109.88
419.166	116.88
419.389	112.88
419.611	116.88
419.834	115.88
420.057	119.88
420.28	117.88
420.503	115.88
420.726	122.88
420.948	107.88
421.171	121.88
421.394	106.88
421.617	108.88
421.839	111.88
422.062	111.88
422.285	108.88
422.507	120.88
422.73	118.88
422.953	108.88
423.175	108.88
423.398	114.88
423.621	119.88
423.843	107.88
424.066	112.88
424.288	126.88
424.511	111.88
424.733	110.88
424.956	110.88
425.178	120.88
425.401	116.88
425.623	112.88
425.846	107.88
426.068	117.88
426.291	110.88
426.513	111.88
426.735	122.88
426.958	119.88
427.18	120.88
427.402	127.88
427.625	100.88
427.847	110.88
428.069	98.88
428.292	97.88
428.514	108.88
428.736	110.88
428.958	116.88
429.181	103.88
429.403	116.88
429.625	114.88
429.847	102.88
430.069	108.88
430.292	116.88
430.514	111.88
430.736	115.88
430.958	105.88
431.18	110.88
431.402	109.88
431.624	113.88
431.846	104.88
432.068	100.88
432.29	107.88
432.512	89.88
432.734	89.88
432.956	116.88
433.178	106.88
433.4	108.88
433.622	118.88
433.844	104.88
434.066	111.88
434.287	110.88
434.509	105.88
434.731	109.88
434.953	108.88
435.175	116.88
435.397	115.88
435.618	121.88
435.84	104.88
436.062	101.88
436.284	116.88
436.505	113.88
436.727	102.88
436.949	120.88
437.17	101.88
437.392	104.88
437.614	115.88
437.835	96.88
438.057	104.88
438.278	125.88
438.5	100.88
438.721	115.88
438.943	123.88
439.165	109.88
439.386	113.88
439.608	115.88
439.829	110.88
440.05	113.88
440.272	131.88
440.493	123.88
440.715	131.88
440.936	122.88
441.158	115.88
441.379	113.88
441.6	120.88
441.822	110.88
442.043	125.88
442.264	120.88
442.486	111.88
442.707	102.88
442.928	108.88
443.149	111.88
443.371	118.88
443.592	114.88
443.813	112.88
444.034	119.88
444.255	131.88
444.476	120.88
444.698	128.88
444.919	121.88
445.14	230.88
445.361	186.88
445.582	139.88
445.803	122.88
446.024	107.88
446.245	130.88
446.466	114.88
446.687	116.88
446.908	121.88
447.129	122.88
447.35	108.88
447.571	108.88
447.792	124.88
448.013	113.88
448.234	112.88
448.455	110.88
448.675	101.88
448.896	114.88
449.117	129.88
449.338	117.88
449.559	117.88
449.779	98.88
450	121.88
450.221	115.88
450.442	113.88
450.662	104.88
450.883	115.88
451.104	120.88
451.324	110.88
451.545	127.88
451.766	98.88
451.986	112.88
452.207	102.88
452.428	115.88
452.648	102.88
452.869	100.88
453.089	110.88
453.31	102.88
453.53	114.88
453.751	104.88
453.971	114.88
454.192	115.88
454.412	106.88
454.633	112.88
454.853	93.88
455.073	105.88
455.294	104.88
455.514	118.88
455.734	109.88
455.955	104.88
456.175	122.88
456.395	116.88
456.616	117.88
456.836	109.88
457.056	95.88
457.276	110.88
457.497	113.88
457.717	96.88
457.937	100.88
458.157	118.88
458.377	110.88
458.598	100.88
458.818	119.88
459.038	97.88
459.258	95.88
459.478	99.88
459.698	111.88
459.918	106.88
460.138	86.88
460.358	112.88
460.578	106.88
460.798	112.88
461.018	114.88
461.238	120.88
461.458	104.88
461.678	120.88
461.898	105.88
462.118	110.88
462.338	120.88
462.558	133.88
462.777	120.88
462.997	123.88
463.217	118.88
463.437	129.88
463.657	107.88
463.876	119.88
464.096	114.88
464.316	132.88
464.536	113.88
464.755	116.88
464.975	121.88
465.195	118.88
465.414	121.88
465.634	95.88
465.854	105.88
466.073	114.88
466.293	112.88
466.512	120.88
466.732	99.88
466.951	114.88
467.171	119.88
467.391	116.88
467.61	123.88
467.829	119.88
468.049	118.88
468.268	128.88
468.488	121.88
468.707	115.88
468.927	105.88
469.146	114.88
469.365	118.88
469.585	118.88
469.804	116.88
470.023	114.88
470.243	105.88
470.462	122.88
470.681	131.88
470.901	122.88
471.12	123.88
471.339	107.88
471.558	123.88
471.777	111.88
471.997	130.88
472.216	111.88
472.435	95.88
472.654	91.88
472.873	106.88
473.092	122.88
473.311	102.88
473.53	118.88
473.749	118.88
473.968	115.88
474.187	108.88
474.406	108.88
474.625	107.88
474.844	113.88
475.063	121.88
475.282	112.88
475.501	113.88
475.72	122.88
475.939	107.88
476.158	126.88
476.377	104.88
476.596	107.88
476.814	116.88
477.033	95.88
477.252	112.88
477.471	112.88
477.69	119.88
477.908	102.88
478.127	103.88
478.346	114.88
478.564	106.88
478.783	134.88
479.002	133.88
479.22	126.88
479.439	127.88
479.658	135.88
479.876	116.88
480.095	130.88
480.313	117.88
480.532	138.88
480.751	127.88
480.969	121.88
481.188	131.88
481.406	108.88
481.624	102.88
481.843	113.88
482.061	122.88
482.28	104.88
482.498	112.88
482.717	107.88
482.935	118.88
483.153	119.88
483.372	142.88
483.59	127.88
483.808	128.88
484.027	133.88
484.245	129.88
484.463	124.88
484.681	142.88
484.9	125.88
485.118	122.88
485.336	124.88
485.554	111.88
485.772	100.88
485.99	106.88
486.209	121.88
486.427	115.88
486.645	133.88
486.863	127.88
487.081	116.88
487.299	126.88
487.517	131.88
487.735	124.88
487.953	146.88
488.171	152.88
488.389	139.88
488.607	148.88
488.825	137.88
489.043	121.88
489.261	132.88
489.479	125.88
489.696	128.88
489.914	140.88
490.132	138.88
490.35	129.88
490.568	127.88
490.786	147.88
491.003	151.88
491.221	145.88
491.439	138.88
491.657	140.88
491.874	166.88
492.092	167.88
492.31	153.88
492.527	159.88
492.745	172.88
492.963	144.88
493.18	141.88
493.398	149.88
493.615	137.88
493.833	144.88
494.05	156.88
494.268	147.88
494.485	160.88
494.703	146.88
494.92	137.88
495.138	144.88
495.355	139.88
495.573	150.88
495.79	154.88
496.008	159.88
496.225	152.88
496.442	140.88
496.66	140.88
496.877	151.88
497.094	163.88
497.312	143.88
497.529	134.88
497.746	148.88
497.963	138.88
498.181	142.88
498.398	133.88
498.615	150.88
498.832	154.88
499.049	149.88
499.267	152.88
499.484	157.88
499.701	186.88
499.918	189.88
500.135	200.88
500.352	202.88
500.569	213.88
500.786	242.88
501.003	205.88
501.22	197.88
501.437	165.88
501.654	170.88
501.871	155.88
502.088	150.88
502.305	164.88
502.522	157.88
502.739	132.88
502.956	134.88
503.172	150.88
503.389	136.88
503.606	147.88
503.823	135.88
504.04	127.88
504.256	131.88
504.473	137.88
504.69	136.88
504.907	143.88
505.123	127.88
505.34	140.88
505.557	129.88
505.773	129.88
505.99	132.88
506.207	125.88
506.423	123.88
506.64	124.88
506.856	123.88
507.073	126.88
507.289	122.88
507.506	133.88
507.722	110.88
507.939	123.88
508.155	123.88
508.372	108.88
508.588	121.88
508.805	126.88
509.021	122.88
509.238	105.88
509.454	111.88
509.67	106.88
509.887	122.88
510.103	128.88
510.319	118.88
510.536	105.88
510.752	110.88
510.968	121.88
511.184	114.88
511.401	121.88
511.617	121.88
