Data from StandardFe(NO3)3.TAE.3%Agarose.FlatLispGreen.Lamp.Energy10.07252019_HRD10591_11-56-23-442.txt Node
Date: Thu Jul 25 11:56:23 EDT 2019
User: cochatt
Spectrometer: HR+D1059
Trigger mode: 1
Integration Time (sec): 1.000000E-1
Scans to average: 1
Electric dark correction enabled: true
Nonlinearity correction enabled: false
Boxcar width: 0
XAxis mode: Wavelengths
Number of Pixels in Spectrum: 2048
>>>>>Begin Spectral Data<<<<<
223.165	-21.56
223.4	-21.56
223.635	-21.56
223.869	-25.56
224.104	-37.56
224.338	-14.56
224.573	-9.56
224.808	-6.56
225.042	0.44
225.277	-8.56
225.511	5.44
225.746	10.44
225.98	4.44
226.215	14.44
226.449	8.44
226.683	25.44
226.918	28.44
227.152	26.44
227.387	41.44
227.621	31.44
227.856	48.44
228.09	38.44
228.324	54.44
228.559	57.44
228.793	58.44
229.027	52.44
229.262	80.44
229.496	79.44
229.73	68.44
229.964	74.44
230.199	78.44
230.433	75.44
230.667	64.44
230.901	68.44
231.136	72.44
231.37	79.44
231.604	84.44
231.838	78.44
232.072	76.44
232.306	77.44
232.541	88.44
232.775	61.44
233.009	87.44
233.243	72.44
233.477	81.44
233.711	78.44
233.945	87.44
234.179	76.44
234.413	81.44
234.647	84.44
234.881	77.44
235.115	76.44
235.349	72.44
235.583	81.44
235.817	69.44
236.051	69.44
236.285	74.44
236.519	81.44
236.753	66.44
236.987	58.44
237.221	67.44
237.455	71.44
237.689	64.44
237.922	72.44
238.156	71.44
238.39	76.44
238.624	72.44
238.858	78.44
239.091	65.44
239.325	71.44
239.559	71.44
239.793	84.44
240.027	69.44
240.26	66.44
240.494	72.44
240.728	65.44
240.961	72.44
241.195	70.44
241.429	70.44
241.662	78.44
241.896	81.44
242.13	80.44
242.363	85.44
242.597	62.44
242.83	82.44
243.064	73.44
243.298	78.44
243.531	94.44
243.765	80.44
243.998	76.44
244.232	58.44
244.465	95.44
244.699	86.44
244.932	69.44
245.166	73.44
245.399	69.44
245.633	81.44
245.866	84.44
246.099	70.44
246.333	72.44
246.566	73.44
246.8	71.44
247.033	85.44
247.266	86.44
247.5	73.44
247.733	88.44
247.966	85.44
248.2	68.44
248.433	66.44
248.666	74.44
248.899	73.44
249.133	73.44
249.366	76.44
249.599	75.44
249.832	75.44
250.066	74.44
250.299	87.44
250.532	78.44
250.765	80.44
250.998	78.44
251.231	64.44
251.465	70.44
251.698	84.44
251.931	81.44
252.164	74.44
252.397	69.44
252.63	84.44
252.863	89.44
253.096	86.44
253.329	84.44
253.562	84.44
253.795	86.44
254.028	70.44
254.261	74.44
254.494	74.44
254.727	77.44
254.96	93.44
255.193	80.44
255.426	74.44
255.659	71.44
255.892	73.44
256.124	83.44
256.357	78.44
256.59	87.44
256.823	84.44
257.056	78.44
257.289	82.44
257.521	80.44
257.754	79.44
257.987	78.44
258.22	88.44
258.452	78.44
258.685	72.44
258.918	69.44
259.151	78.44
259.383	65.44
259.616	76.44
259.849	81.44
260.081	83.44
260.314	80.44
260.547	103.44
260.779	85.44
261.012	81.44
261.244	72.44
261.477	84.44
261.71	76.44
261.942	63.44
262.175	80.44
262.407	78.44
262.64	85.44
262.872	65.44
263.105	81.44
263.337	85.44
263.57	74.44
263.802	46.44
264.035	78.44
264.267	84.44
264.499	72.44
264.732	80.44
264.964	80.44
265.197	86.44
265.429	67.44
265.661	70.44
265.894	80.44
266.126	82.44
266.358	72.44
266.591	93.44
266.823	85.44
267.055	81.44
267.287	82.44
267.52	74.44
267.752	82.44
267.984	73.44
268.216	83.44
268.448	65.44
268.681	73.44
268.913	80.44
269.145	75.44
269.377	90.44
269.609	82.44
269.841	80.44
270.073	92.44
270.306	89.44
270.538	86.44
270.77	69.44
271.002	84.44
271.234	88.44
271.466	84.44
271.698	89.44
271.93	84.44
272.162	73.44
272.394	89.44
272.626	76.44
272.858	74.44
273.09	85.44
273.322	78.44
273.553	77.44
273.785	69.44
274.017	80.44
274.249	65.44
274.481	76.44
274.713	79.44
274.945	86.44
275.176	79.44
275.408	92.44
275.64	84.44
275.872	79.44
276.104	79.44
276.335	79.44
276.567	79.44
276.799	73.44
277.031	77.44
277.262	79.44
277.494	84.44
277.726	69.44
277.957	79.44
278.189	79.44
278.421	83.44
278.652	78.44
278.884	80.44
279.115	77.44
279.347	68.44
279.579	88.44
279.81	93.44
280.042	74.44
280.273	91.44
280.505	72.44
280.736	83.44
280.968	70.44
281.199	81.44
281.431	76.44
281.662	89.44
281.894	78.44
282.125	84.44
282.356	86.44
282.588	75.44
282.819	87.44
283.051	81.44
283.282	83.44
283.513	85.44
283.745	84.44
283.976	91.44
284.207	81.44
284.439	92.44
284.67	82.44
284.901	85.44
285.132	87.44
285.364	86.44
285.595	83.44
285.826	96.44
286.057	82.44
286.288	75.44
286.52	80.44
286.751	81.44
286.982	70.44
287.213	79.44
287.444	88.44
287.675	74.44
287.906	88.44
288.138	71.44
288.369	72.44
288.6	76.44
288.831	74.44
289.062	91.44
289.293	68.44
289.524	78.44
289.755	80.44
289.986	91.44
290.217	76.44
290.448	69.44
290.679	86.44
290.91	79.44
291.141	86.44
291.371	80.44
291.602	79.44
291.833	88.44
292.064	90.44
292.295	77.44
292.526	80.44
292.757	83.44
292.987	89.44
293.218	82.44
293.449	80.44
293.68	80.44
293.91	80.44
294.141	87.44
294.372	68.44
294.603	89.44
294.833	74.44
295.064	74.44
295.295	79.44
295.525	96.44
295.756	92.44
295.987	87.44
296.217	92.44
296.448	80.44
296.679	74.44
296.909	87.44
297.14	78.44
297.37	82.44
297.601	78.44
297.831	87.44
298.062	71.44
298.292	77.44
298.523	66.44
298.753	93.44
298.984	77.44
299.214	76.44
299.445	87.44
299.675	75.44
299.905	87.44
300.136	82.44
300.366	85.44
300.597	70.44
300.827	79.44
301.057	85.44
301.288	101.44
301.518	83.44
301.748	77.44
301.979	78.44
302.209	83.44
302.439	76.44
302.669	83.44
302.9	82.44
303.13	90.44
303.36	74.44
303.59	78.44
303.82	84.44
304.051	73.44
304.281	81.44
304.511	78.44
304.741	74.44
304.971	73.44
305.201	84.44
305.431	78.44
305.661	85.44
305.891	90.44
306.121	82.44
306.352	78.44
306.582	84.44
306.812	90.44
307.042	92.44
307.272	77.44
307.502	84.44
307.731	80.44
307.961	89.44
308.191	79.44
308.421	70.44
308.651	68.44
308.881	67.44
309.111	95.44
309.341	73.44
309.571	80.44
309.8	75.44
310.03	92.44
310.26	86.44
310.49	71.44
310.72	84.44
310.949	76.44
311.179	66.44
311.409	82.44
311.639	85.44
311.868	75.44
312.098	83.44
312.328	66.44
312.557	72.44
312.787	72.44
313.017	70.44
313.246	72.44
313.476	73.44
313.706	80.44
313.935	92.44
314.165	83.44
314.394	78.44
314.624	75.44
314.853	82.44
315.083	78.44
315.312	81.44
315.542	85.44
315.771	76.44
316.001	91.44
316.23	91.44
316.46	78.44
316.689	65.44
316.919	94.44
317.148	88.44
317.377	84.44
317.607	88.44
317.836	78.44
318.065	89.44
318.295	93.44
318.524	75.44
318.753	88.44
318.983	81.44
319.212	84.44
319.441	75.44
319.67	72.44
319.9	71.44
320.129	88.44
320.358	104.44
320.587	88.44
320.816	79.44
321.046	70.44
321.275	79.44
321.504	91.44
321.733	86.44
321.962	82.44
322.191	71.44
322.42	78.44
322.649	89.44
322.878	71.44
323.108	87.44
323.337	93.44
323.566	79.44
323.795	78.44
324.024	78.44
324.253	76.44
324.482	86.44
324.71	94.44
324.939	81.44
325.168	88.44
325.397	73.44
325.626	84.44
325.855	78.44
326.084	75.44
326.313	82.44
326.542	87.44
326.77	75.44
326.999	87.44
327.228	69.44
327.457	70.44
327.686	95.44
327.914	88.44
328.143	86.44
328.372	88.44
328.6	98.44
328.829	74.44
329.058	72.44
329.287	82.44
329.515	72.44
329.744	75.44
329.972	76.44
330.201	79.44
330.43	80.44
330.658	77.44
330.887	72.44
331.115	80.44
331.344	81.44
331.572	86.44
331.801	94.44
332.03	84.44
332.258	78.44
332.486	79.44
332.715	89.44
332.943	91.44
333.172	69.44
333.4	84.44
333.629	93.44
333.857	90.44
334.085	90.44
334.314	84.44
334.542	80.44
334.771	81.44
334.999	78.44
335.227	68.44
335.455	76.44
335.684	80.44
335.912	108.44
336.14	82.44
336.369	83.44
336.597	90.44
336.825	77.44
337.053	85.44
337.281	83.44
337.51	51.44
337.738	85.44
337.966	78.44
338.194	80.44
338.422	85.44
338.65	75.44
338.878	77.44
339.106	77.44
339.334	81.44
339.562	74.44
339.79	85.44
340.018	83.44
340.246	75.44
340.474	74.44
340.702	85.44
340.93	86.44
341.158	72.44
341.386	85.44
341.614	71.44
341.842	74.44
342.07	69.44
342.298	74.44
342.526	85.44
342.754	82.44
342.981	68.44
343.209	84.44
343.437	85.44
343.665	85.44
343.893	76.44
344.12	88.44
344.348	72.44
344.576	73.44
344.804	79.44
345.031	69.44
345.259	83.44
345.487	90.44
345.714	75.44
345.942	78.44
346.17	79.44
346.397	71.44
346.625	77.44
346.853	86.44
347.08	99.44
347.308	84.44
347.535	87.44
347.763	88.44
347.99	81.44
348.218	90.44
348.445	86.44
348.673	84.44
348.9	84.44
349.128	81.44
349.355	74.44
349.583	68.44
349.81	85.44
350.037	74.44
350.265	76.44
350.492	74.44
350.72	66.44
350.947	83.44
351.174	77.44
351.402	80.44
351.629	87.44
351.856	86.44
352.083	91.44
352.311	83.44
352.538	80.44
352.765	87.44
352.992	78.44
353.22	85.44
353.447	72.44
353.674	78.44
353.901	82.44
354.128	90.44
354.355	78.44
354.583	86.44
354.81	82.44
355.037	78.44
355.264	71.44
355.491	69.44
355.718	81.44
355.945	71.44
356.172	78.44
356.399	79.44
356.626	71.44
356.853	74.44
357.08	82.44
357.307	78.44
357.534	85.44
357.761	84.44
357.988	69.44
358.215	84.44
358.441	75.44
358.668	70.44
358.895	85.44
359.122	87.44
359.349	83.44
359.576	73.44
359.802	85.44
360.029	83.44
360.256	89.44
360.483	84.44
360.709	78.44
360.936	82.44
361.163	84.44
361.39	84.44
361.616	77.44
361.843	71.44
362.07	67.44
362.296	73.44
362.523	77.44
362.749	88.44
362.976	102.44
363.203	75.44
363.429	73.44
363.656	85.44
363.882	72.44
364.109	84.44
364.335	81.44
364.562	82.44
364.788	88.44
365.015	86.44
365.241	94.44
365.468	79.44
365.694	88.44
365.92	99.44
366.147	67.44
366.373	100.44
366.599	86.44
366.826	69.44
367.052	83.44
367.278	101.44
367.505	85.44
367.731	76.44
367.957	73.44
368.184	89.44
368.41	80.44
368.636	97.44
368.862	80.44
369.089	72.44
369.315	90.44
369.541	98.44
369.767	93.44
369.993	81.44
370.219	87.44
370.445	86.44
370.672	88.44
370.898	82.44
371.124	86.44
371.35	79.44
371.576	86.44
371.802	82.44
372.028	88.44
372.254	85.44
372.48	81.44
372.706	98.44
372.932	84.44
373.158	77.44
373.384	86.44
373.61	86.44
373.835	78.44
374.061	95.44
374.287	85.44
374.513	93.44
374.739	87.44
374.965	88.44
375.191	87.44
375.416	91.44
375.642	95.44
375.868	84.44
376.094	73.44
376.319	79.44
376.545	88.44
376.771	92.44
376.997	92.44
377.222	84.44
377.448	88.44
377.674	88.44
377.899	77.44
378.125	79.44
378.35	87.44
378.576	86.44
378.802	94.44
379.027	92.44
379.253	78.44
379.478	81.44
379.704	80.44
379.929	74.44
380.155	89.44
380.38	88.44
380.606	87.44
380.831	98.44
381.057	93.44
381.282	84.44
381.507	92.44
381.733	97.44
381.958	65.44
382.184	87.44
382.409	98.44
382.634	92.44
382.86	105.44
383.085	83.44
383.31	82.44
383.535	88.44
383.761	90.44
383.986	85.44
384.211	98.44
384.436	91.44
384.662	97.44
384.887	77.44
385.112	91.44
385.337	89.44
385.562	104.44
385.787	90.44
386.013	95.44
386.238	93.44
386.463	98.44
386.688	91.44
386.913	85.44
387.138	76.44
387.363	82.44
387.588	87.44
387.813	85.44
388.038	88.44
388.263	87.44
388.488	93.44
388.713	84.44
388.938	77.44
389.163	89.44
389.387	81.44
389.612	89.44
389.837	98.44
390.062	100.44
390.287	93.44
390.512	97.44
390.736	88.44
390.961	93.44
391.186	100.44
391.411	98.44
391.636	85.44
391.86	106.44
392.085	95.44
392.31	96.44
392.534	96.44
392.759	97.44
392.984	85.44
393.208	96.44
393.433	94.44
393.658	88.44
393.882	88.44
394.107	96.44
394.331	105.44
394.556	91.44
394.78	98.44
395.005	91.44
395.229	108.44
395.454	94.44
395.678	98.44
395.903	96.44
396.127	99.44
396.352	103.44
396.576	102.44
396.801	104.44
397.025	97.44
397.249	99.44
397.474	89.44
397.698	110.44
397.922	99.44
398.147	97.44
398.371	101.44
398.595	98.44
398.82	94.44
399.044	99.44
399.268	115.44
399.492	109.44
399.717	100.44
399.941	112.44
400.165	93.44
400.389	82.44
400.613	93.44
400.837	88.44
401.062	98.44
401.286	106.44
401.51	103.44
401.734	98.44
401.958	101.44
402.182	105.44
402.406	117.44
402.63	100.44
402.854	83.44
403.078	101.44
403.302	110.44
403.526	110.44
403.75	106.44
403.974	102.44
404.198	93.44
404.422	103.44
404.645	97.44
404.869	103.44
405.093	87.44
405.317	88.44
405.541	98.44
405.765	105.44
405.988	102.44
406.212	119.44
406.436	97.44
406.66	119.44
406.883	96.44
407.107	100.44
407.331	102.44
407.555	97.44
407.778	118.44
408.002	100.44
408.226	100.44
408.449	109.44
408.673	114.44
408.896	111.44
409.12	116.44
409.344	97.44
409.567	102.44
409.791	91.44
410.014	115.44
410.238	107.44
410.461	111.44
410.685	104.44
410.908	100.44
411.132	99.44
411.355	112.44
411.578	104.44
411.802	128.44
412.025	112.44
412.249	83.44
412.472	95.44
412.695	98.44
412.919	103.44
413.142	104.44
413.365	95.44
413.589	111.44
413.812	110.44
414.035	124.44
414.258	101.44
414.482	97.44
414.705	101.44
414.928	112.44
415.151	107.44
415.374	111.44
415.597	110.44
415.821	106.44
416.044	118.44
416.267	112.44
416.49	106.44
416.713	113.44
416.936	120.44
417.159	101.44
417.382	115.44
417.605	109.44
417.828	94.44
418.051	120.44
418.274	110.44
418.497	116.44
418.72	111.44
418.943	113.44
419.166	113.44
419.389	104.44
419.611	110.44
419.834	117.44
420.057	119.44
420.28	113.44
420.503	113.44
420.726	103.44
420.948	102.44
421.171	106.44
421.394	116.44
421.617	109.44
421.839	105.44
422.062	108.44
422.285	110.44
422.507	112.44
422.73	121.44
422.953	117.44
423.175	94.44
423.398	113.44
423.621	116.44
423.843	122.44
424.066	105.44
424.288	120.44
424.511	118.44
424.733	105.44
424.956	120.44
425.178	103.44
425.401	113.44
425.623	115.44
425.846	112.44
426.068	103.44
426.291	102.44
426.513	111.44
426.735	126.44
426.958	121.44
427.18	101.44
427.402	124.44
427.625	107.44
427.847	101.44
428.069	104.44
428.292	118.44
428.514	112.44
428.736	96.44
428.958	104.44
429.181	120.44
429.403	104.44
429.625	97.44
429.847	103.44
430.069	103.44
430.292	101.44
430.514	98.44
430.736	107.44
430.958	124.44
431.18	96.44
431.402	112.44
431.624	112.44
431.846	101.44
432.068	104.44
432.29	101.44
432.512	105.44
432.734	109.44
432.956	97.44
433.178	108.44
433.4	112.44
433.622	114.44
433.844	121.44
434.066	97.44
434.287	106.44
434.509	100.44
434.731	88.44
434.953	105.44
435.175	112.44
435.397	108.44
435.618	114.44
435.84	106.44
436.062	102.44
436.284	121.44
436.505	103.44
436.727	101.44
436.949	118.44
437.17	89.44
437.392	100.44
437.614	115.44
437.835	113.44
438.057	116.44
438.278	102.44
438.5	109.44
438.721	105.44
438.943	122.44
439.165	116.44
439.386	105.44
439.608	121.44
439.829	114.44
440.05	113.44
440.272	103.44
440.493	111.44
440.715	100.44
440.936	111.44
441.158	125.44
441.379	94.44
441.6	120.44
441.822	108.44
442.043	101.44
442.264	118.44
442.486	118.44
442.707	129.44
442.928	123.44
443.149	113.44
443.371	105.44
443.592	102.44
443.813	135.44
444.034	104.44
444.255	102.44
444.476	111.44
444.698	115.44
444.919	126.44
445.14	255.44
445.361	168.44
445.582	120.44
445.803	114.44
446.024	130.44
446.245	124.44
446.466	103.44
446.687	96.44
446.908	114.44
447.129	107.44
447.35	100.44
447.571	105.44
447.792	108.44
448.013	113.44
448.234	113.44
448.455	100.44
448.675	94.44
448.896	110.44
449.117	110.44
449.338	108.44
449.559	110.44
449.779	128.44
450	105.44
450.221	108.44
450.442	128.44
450.662	103.44
450.883	96.44
451.104	102.44
451.324	84.44
451.545	93.44
451.766	94.44
451.986	94.44
452.207	107.44
452.428	103.44
452.648	100.44
452.869	114.44
453.089	111.44
453.31	96.44
453.53	96.44
453.751	112.44
453.971	93.44
454.192	112.44
454.412	82.44
454.633	87.44
454.853	124.44
455.073	100.44
455.294	104.44
455.514	99.44
455.734	100.44
455.955	97.44
456.175	102.44
456.395	101.44
456.616	105.44
456.836	92.44
457.056	99.44
457.276	85.44
457.497	101.44
457.717	98.44
457.937	111.44
458.157	92.44
458.377	94.44
458.598	105.44
458.818	105.44
459.038	99.44
459.258	103.44
459.478	97.44
459.698	81.44
459.918	99.44
460.138	104.44
460.358	115.44
460.578	114.44
460.798	112.44
461.018	115.44
461.238	114.44
461.458	104.44
461.678	116.44
461.898	117.44
462.118	112.44
462.338	120.44
462.558	120.44
462.777	109.44
462.997	114.44
463.217	120.44
463.437	128.44
463.657	104.44
463.876	112.44
464.096	112.44
464.316	122.44
464.536	113.44
464.755	113.44
464.975	109.44
465.195	111.44
465.414	120.44
465.634	118.44
465.854	90.44
466.073	115.44
466.293	113.44
466.512	98.44
466.732	106.44
466.951	106.44
467.171	122.44
467.391	105.44
467.61	108.44
467.829	118.44
468.049	119.44
468.268	122.44
468.488	132.44
468.707	108.44
468.927	113.44
469.146	117.44
469.365	109.44
469.585	106.44
469.804	120.44
470.023	111.44
470.243	119.44
470.462	127.44
470.681	111.44
470.901	120.44
471.12	110.44
471.339	119.44
471.558	116.44
471.777	127.44
471.997	114.44
472.216	120.44
472.435	98.44
472.654	106.44
472.873	104.44
473.092	115.44
473.311	112.44
473.53	120.44
473.749	101.44
473.968	117.44
474.187	109.44
474.406	118.44
474.625	113.44
474.844	106.44
475.063	106.44
475.282	96.44
475.501	114.44
475.72	115.44
475.939	126.44
476.158	116.44
476.377	116.44
476.596	111.44
476.814	97.44
477.033	101.44
477.252	114.44
477.471	103.44
477.69	122.44
477.908	113.44
478.127	123.44
478.346	128.44
478.564	113.44
478.783	122.44
479.002	111.44
479.22	110.44
479.439	129.44
479.658	113.44
479.876	109.44
480.095	116.44
480.313	120.44
480.532	104.44
480.751	114.44
480.969	108.44
481.188	114.44
481.406	96.44
481.624	102.44
481.843	92.44
482.061	102.44
482.28	110.44
482.498	89.44
482.717	99.44
482.935	116.44
483.153	110.44
483.372	122.44
483.59	124.44
483.808	128.44
484.027	126.44
484.245	115.44
484.463	110.44
484.681	120.44
484.9	108.44
485.118	115.44
485.336	133.44
485.554	129.44
485.772	104.44
485.99	126.44
486.209	107.44
486.427	102.44
486.645	120.44
486.863	128.44
487.081	120.44
487.299	135.44
487.517	117.44
487.735	130.44
487.953	136.44
488.171	158.44
488.389	139.44
488.607	130.44
488.825	124.44
489.043	120.44
489.261	127.44
489.479	142.44
489.696	128.44
489.914	120.44
490.132	137.44
490.35	138.44
490.568	156.44
490.786	144.44
491.003	141.44
491.221	146.44
491.439	157.44
491.657	153.44
491.874	150.44
492.092	148.44
492.31	159.44
492.527	153.44
492.745	166.44
492.963	148.44
493.18	151.44
493.398	146.44
493.615	133.44
493.833	145.44
494.05	140.44
494.268	146.44
494.485	150.44
494.703	149.44
494.92	142.44
495.138	145.44
495.355	144.44
495.573	135.44
495.79	145.44
496.008	147.44
496.225	141.44
496.442	131.44
496.66	130.44
496.877	138.44
497.094	137.44
497.312	159.44
497.529	135.44
497.746	141.44
497.963	137.44
498.181	143.44
498.398	142.44
498.615	137.44
498.832	147.44
499.049	156.44
499.267	154.44
499.484	153.44
499.701	170.44
499.918	205.44
500.135	196.44
500.352	203.44
500.569	210.44
500.786	194.44
501.003	206.44
501.22	186.44
501.437	161.44
501.654	154.44
501.871	168.44
502.088	147.44
502.305	138.44
502.522	144.44
502.739	148.44
502.956	139.44
503.172	132.44
503.389	112.44
503.606	118.44
503.823	128.44
504.04	128.44
504.256	144.44
504.473	133.44
504.69	134.44
504.907	132.44
505.123	125.44
505.34	119.44
505.557	120.44
505.773	118.44
505.99	120.44
506.207	129.44
506.423	122.44
506.64	120.44
506.856	117.44
507.073	124.44
507.289	128.44
507.506	116.44
507.722	131.44
507.939	121.44
508.155	115.44
508.372	126.44
508.588	120.44
508.805	126.44
509.021	116.44
509.238	109.44
509.454	99.44
509.67	114.44
509.887	111.44
510.103	116.44
510.319	113.44
510.536	116.44
510.752	105.44
510.968	98.44
511.184	106.44
511.401	112.44
511.617	107.44
511.833	117.44
512.049	106.44
512.265	111.44
512.481	123.44
512.698	115.44
