Data from StandardFe(NO3)3.TAE.3%Agarose.FlatLispGreen.Lamp.Energy10.07252019_HRD10591_11-53-26-439.txt Node
Date: Thu Jul 25 11:53:26 EDT 2019
User: cochatt
Spectrometer: HR+D1059
Trigger mode: 1
Integration Time (sec): 1.000000E-1
Scans to average: 1
Electric dark correction enabled: true
Nonlinearity correction enabled: false
Boxcar width: 0
XAxis mode: Wavelengths
Number of Pixels in Spectrum: 2048
>>>>>Begin Spectral Data<<<<<
223.165	-9.44
223.4	-9.44
223.635	-9.44
223.869	-7.44
224.104	-11.44
224.338	-17.44
224.573	-14.44
224.808	-18.44
225.042	-10.44
225.277	-2.44
225.511	-3.44
225.746	10.56
225.98	3.56
226.215	3.56
226.449	19.56
226.683	6.56
226.918	13.56
227.152	37.56
227.387	27.56
227.621	47.56
227.856	50.56
228.09	54.56
228.324	58.56
228.559	65.56
228.793	66.56
229.027	70.56
229.262	53.56
229.496	51.56
229.73	61.56
229.964	76.56
230.199	56.56
230.433	86.56
230.667	74.56
230.901	75.56
231.136	75.56
231.37	62.56
231.604	92.56
231.838	75.56
232.072	83.56
232.306	83.56
232.541	80.56
232.775	85.56
233.009	75.56
233.243	87.56
233.477	83.56
233.711	78.56
233.945	83.56
234.179	93.56
234.413	86.56
234.647	84.56
234.881	78.56
235.115	78.56
235.349	85.56
235.583	79.56
235.817	85.56
236.051	79.56
236.285	68.56
236.519	77.56
236.753	88.56
236.987	76.56
237.221	80.56
237.455	82.56
237.689	77.56
237.922	65.56
238.156	74.56
238.39	72.56
238.624	92.56
238.858	86.56
239.091	65.56
239.325	72.56
239.559	81.56
239.793	86.56
240.027	84.56
240.26	84.56
240.494	76.56
240.728	71.56
240.961	79.56
241.195	77.56
241.429	85.56
241.662	62.56
241.896	74.56
242.13	86.56
242.363	75.56
242.597	89.56
242.83	78.56
243.064	74.56
243.298	76.56
243.531	87.56
243.765	76.56
243.998	76.56
244.232	79.56
244.465	72.56
244.699	79.56
244.932	86.56
245.166	89.56
245.399	81.56
245.633	82.56
245.866	76.56
246.099	74.56
246.333	69.56
246.566	65.56
246.8	79.56
247.033	87.56
247.266	91.56
247.5	77.56
247.733	67.56
247.966	75.56
248.2	72.56
248.433	72.56
248.666	85.56
248.899	74.56
249.133	93.56
249.366	84.56
249.599	72.56
249.832	97.56
250.066	86.56
250.299	69.56
250.532	85.56
250.765	78.56
250.998	86.56
251.231	73.56
251.465	91.56
251.698	91.56
251.931	91.56
252.164	79.56
252.397	75.56
252.63	87.56
252.863	89.56
253.096	58.56
253.329	81.56
253.562	94.56
253.795	84.56
254.028	89.56
254.261	82.56
254.494	91.56
254.727	81.56
254.96	73.56
255.193	79.56
255.426	79.56
255.659	90.56
255.892	85.56
256.124	76.56
256.357	82.56
256.59	77.56
256.823	82.56
257.056	85.56
257.289	86.56
257.521	77.56
257.754	72.56
257.987	93.56
258.22	97.56
258.452	81.56
258.685	86.56
258.918	88.56
259.151	91.56
259.383	91.56
259.616	78.56
259.849	75.56
260.081	85.56
260.314	79.56
260.547	74.56
260.779	91.56
261.012	94.56
261.244	94.56
261.477	103.56
261.71	79.56
261.942	77.56
262.175	99.56
262.407	81.56
262.64	79.56
262.872	76.56
263.105	80.56
263.337	86.56
263.57	93.56
263.802	74.56
264.035	94.56
264.267	90.56
264.499	79.56
264.732	82.56
264.964	83.56
265.197	88.56
265.429	68.56
265.661	76.56
265.894	83.56
266.126	83.56
266.358	83.56
266.591	69.56
266.823	80.56
267.055	77.56
267.287	77.56
267.52	94.56
267.752	92.56
267.984	71.56
268.216	87.56
268.448	83.56
268.681	89.56
268.913	91.56
269.145	89.56
269.377	92.56
269.609	86.56
269.841	82.56
270.073	84.56
270.306	74.56
270.538	81.56
270.77	83.56
271.002	93.56
271.234	75.56
271.466	91.56
271.698	92.56
271.93	73.56
272.162	89.56
272.394	90.56
272.626	89.56
272.858	97.56
273.09	91.56
273.322	103.56
273.553	84.56
273.785	90.56
274.017	78.56
274.249	85.56
274.481	89.56
274.713	88.56
274.945	87.56
275.176	77.56
275.408	82.56
275.64	94.56
275.872	80.56
276.104	93.56
276.335	90.56
276.567	87.56
276.799	69.56
277.031	95.56
277.262	78.56
277.494	84.56
277.726	94.56
277.957	86.56
278.189	87.56
278.421	97.56
278.652	70.56
278.884	85.56
279.115	79.56
279.347	86.56
279.579	79.56
279.81	101.56
280.042	87.56
280.273	82.56
280.505	86.56
280.736	85.56
280.968	85.56
281.199	85.56
281.431	88.56
281.662	93.56
281.894	74.56
282.125	74.56
282.356	95.56
282.588	90.56
282.819	84.56
283.051	84.56
283.282	78.56
283.513	84.56
283.745	91.56
283.976	89.56
284.207	98.56
284.439	101.56
284.67	84.56
284.901	89.56
285.132	81.56
285.364	81.56
285.595	93.56
285.826	77.56
286.057	84.56
286.288	83.56
286.52	85.56
286.751	72.56
286.982	71.56
287.213	86.56
287.444	78.56
287.675	79.56
287.906	87.56
288.138	83.56
288.369	74.56
288.6	89.56
288.831	88.56
289.062	79.56
289.293	86.56
289.524	88.56
289.755	77.56
289.986	83.56
290.217	69.56
290.448	97.56
290.679	91.56
290.91	104.56
291.141	85.56
291.371	81.56
291.602	81.56
291.833	94.56
292.064	79.56
292.295	94.56
292.526	82.56
292.757	85.56
292.987	82.56
293.218	76.56
293.449	85.56
293.68	92.56
293.91	91.56
294.141	84.56
294.372	95.56
294.603	85.56
294.833	88.56
295.064	81.56
295.295	84.56
295.525	76.56
295.756	94.56
295.987	77.56
296.217	86.56
296.448	86.56
296.679	91.56
296.909	82.56
297.14	87.56
297.37	91.56
297.601	97.56
297.831	102.56
298.062	95.56
298.292	82.56
298.523	98.56
298.753	84.56
298.984	89.56
299.214	91.56
299.445	84.56
299.675	78.56
299.905	91.56
300.136	95.56
300.366	85.56
300.597	87.56
300.827	90.56
301.057	75.56
301.288	82.56
301.518	92.56
301.748	90.56
301.979	83.56
302.209	83.56
302.439	83.56
302.669	79.56
302.9	76.56
303.13	82.56
303.36	89.56
303.59	71.56
303.82	85.56
304.051	85.56
304.281	77.56
304.511	84.56
304.741	96.56
304.971	87.56
305.201	77.56
305.431	83.56
305.661	66.56
305.891	88.56
306.121	86.56
306.352	86.56
306.582	93.56
306.812	85.56
307.042	96.56
307.272	94.56
307.502	75.56
307.731	90.56
307.961	98.56
308.191	94.56
308.421	85.56
308.651	92.56
308.881	78.56
309.111	92.56
309.341	86.56
309.571	87.56
309.8	90.56
310.03	84.56
310.26	85.56
310.49	98.56
310.72	93.56
310.949	77.56
311.179	92.56
311.409	93.56
311.639	77.56
311.868	85.56
312.098	82.56
312.328	98.56
312.557	89.56
312.787	73.56
313.017	100.56
313.246	79.56
313.476	71.56
313.706	84.56
313.935	79.56
314.165	85.56
314.394	85.56
314.624	91.56
314.853	89.56
315.083	92.56
315.312	97.56
315.542	82.56
315.771	83.56
316.001	82.56
316.23	78.56
316.46	77.56
316.689	90.56
316.919	85.56
317.148	91.56
317.377	85.56
317.607	80.56
317.836	83.56
318.065	79.56
318.295	75.56
318.524	85.56
318.753	98.56
318.983	85.56
319.212	81.56
319.441	96.56
319.67	88.56
319.9	88.56
320.129	98.56
320.358	91.56
320.587	81.56
320.816	88.56
321.046	71.56
321.275	98.56
321.504	82.56
321.733	83.56
321.962	85.56
322.191	93.56
322.42	95.56
322.649	81.56
322.878	93.56
323.108	95.56
323.337	92.56
323.566	88.56
323.795	87.56
324.024	91.56
324.253	91.56
324.482	68.56
324.71	83.56
324.939	92.56
325.168	96.56
325.397	94.56
325.626	90.56
325.855	87.56
326.084	79.56
326.313	81.56
326.542	94.56
326.77	103.56
326.999	93.56
327.228	88.56
327.457	84.56
327.686	93.56
327.914	97.56
328.143	86.56
328.372	105.56
328.6	73.56
328.829	79.56
329.058	75.56
329.287	83.56
329.515	86.56
329.744	90.56
329.972	81.56
330.201	90.56
330.43	88.56
330.658	88.56
330.887	89.56
331.115	93.56
331.344	75.56
331.572	92.56
331.801	87.56
332.03	74.56
332.258	90.56
332.486	74.56
332.715	89.56
332.943	87.56
333.172	89.56
333.4	85.56
333.629	94.56
333.857	91.56
334.085	80.56
334.314	89.56
334.542	95.56
334.771	93.56
334.999	98.56
335.227	99.56
335.455	87.56
335.684	109.56
335.912	99.56
336.14	91.56
336.369	91.56
336.597	98.56
336.825	89.56
337.053	86.56
337.281	98.56
337.51	86.56
337.738	96.56
337.966	91.56
338.194	76.56
338.422	91.56
338.65	88.56
338.878	92.56
339.106	101.56
339.334	104.56
339.562	89.56
339.79	89.56
340.018	79.56
340.246	103.56
340.474	100.56
340.702	98.56
340.93	92.56
341.158	77.56
341.386	91.56
341.614	81.56
341.842	78.56
342.07	88.56
342.298	86.56
342.526	96.56
342.754	98.56
342.981	95.56
343.209	94.56
343.437	90.56
343.665	104.56
343.893	69.56
344.12	87.56
344.348	98.56
344.576	75.56
344.804	79.56
345.031	87.56
345.259	85.56
345.487	106.56
345.714	82.56
345.942	87.56
346.17	103.56
346.397	88.56
346.625	93.56
346.853	79.56
347.08	83.56
347.308	83.56
347.535	88.56
347.763	86.56
347.99	53.56
348.218	85.56
348.445	89.56
348.673	83.56
348.9	92.56
349.128	99.56
349.355	81.56
349.583	90.56
349.81	79.56
350.037	72.56
350.265	96.56
350.492	87.56
350.72	73.56
350.947	78.56
351.174	81.56
351.402	96.56
351.629	87.56
351.856	93.56
352.083	69.56
352.311	90.56
352.538	86.56
352.765	88.56
352.992	89.56
353.22	91.56
353.447	80.56
353.674	74.56
353.901	89.56
354.128	86.56
354.355	75.56
354.583	72.56
354.81	93.56
355.037	90.56
355.264	99.56
355.491	91.56
355.718	85.56
355.945	79.56
356.172	89.56
356.399	81.56
356.626	85.56
356.853	80.56
357.08	92.56
357.307	82.56
357.534	79.56
357.761	83.56
357.988	80.56
358.215	97.56
358.441	76.56
358.668	92.56
358.895	87.56
359.122	91.56
359.349	89.56
359.576	72.56
359.802	87.56
360.029	91.56
360.256	87.56
360.483	81.56
360.709	79.56
360.936	92.56
361.163	85.56
361.39	102.56
361.616	109.56
361.843	85.56
362.07	79.56
362.296	90.56
362.523	85.56
362.749	100.56
362.976	85.56
363.203	83.56
363.429	91.56
363.656	90.56
363.882	84.56
364.109	85.56
364.335	88.56
364.562	91.56
364.788	105.56
365.015	75.56
365.241	84.56
365.468	87.56
365.694	93.56
365.92	100.56
366.147	82.56
366.373	93.56
366.599	85.56
366.826	86.56
367.052	71.56
367.278	96.56
367.505	86.56
367.731	89.56
367.957	72.56
368.184	80.56
368.41	99.56
368.636	82.56
368.862	79.56
369.089	92.56
369.315	108.56
369.541	94.56
369.767	98.56
369.993	85.56
370.219	86.56
370.445	89.56
370.672	86.56
370.898	86.56
371.124	102.56
371.35	96.56
371.576	95.56
371.802	96.56
372.028	80.56
372.254	87.56
372.48	97.56
372.706	83.56
372.932	91.56
373.158	93.56
373.384	84.56
373.61	82.56
373.835	90.56
374.061	83.56
374.287	86.56
374.513	92.56
374.739	93.56
374.965	90.56
375.191	85.56
375.416	87.56
375.642	100.56
375.868	95.56
376.094	93.56
376.319	98.56
376.545	102.56
376.771	103.56
376.997	97.56
377.222	95.56
377.448	95.56
377.674	85.56
377.899	87.56
378.125	82.56
378.35	89.56
378.576	77.56
378.802	94.56
379.027	80.56
379.253	93.56
379.478	87.56
379.704	94.56
379.929	93.56
380.155	97.56
380.38	101.56
380.606	88.56
380.831	89.56
381.057	102.56
381.282	94.56
381.507	98.56
381.733	95.56
381.958	89.56
382.184	76.56
382.409	89.56
382.634	95.56
382.86	101.56
383.085	103.56
383.31	103.56
383.535	101.56
383.761	104.56
383.986	94.56
384.211	97.56
384.436	95.56
384.662	93.56
384.887	93.56
385.112	102.56
385.337	92.56
385.562	86.56
385.787	100.56
386.013	107.56
386.238	88.56
386.463	101.56
386.688	79.56
386.913	93.56
387.138	97.56
387.363	92.56
387.588	97.56
387.813	99.56
388.038	101.56
388.263	99.56
388.488	105.56
388.713	96.56
388.938	95.56
389.163	76.56
389.387	96.56
389.612	97.56
389.837	94.56
390.062	108.56
390.287	99.56
390.512	104.56
390.736	101.56
390.961	101.56
391.186	88.56
391.411	107.56
391.636	99.56
391.86	108.56
392.085	110.56
392.31	100.56
392.534	99.56
392.759	106.56
392.984	110.56
393.208	96.56
393.433	106.56
393.658	86.56
393.882	89.56
394.107	114.56
394.331	117.56
394.556	86.56
394.78	97.56
395.005	116.56
395.229	123.56
395.454	110.56
395.678	110.56
395.903	100.56
396.127	109.56
396.352	87.56
396.576	99.56
396.801	100.56
397.025	107.56
397.249	103.56
397.474	95.56
397.698	106.56
397.922	99.56
398.147	95.56
398.371	102.56
398.595	115.56
398.82	91.56
399.044	106.56
399.268	106.56
399.492	124.56
399.717	119.56
399.941	115.56
400.165	125.56
400.389	116.56
400.613	104.56
400.837	108.56
401.062	120.56
401.286	108.56
401.51	105.56
401.734	102.56
401.958	105.56
402.182	105.56
402.406	88.56
402.63	117.56
402.854	121.56
403.078	119.56
403.302	99.56
403.526	113.56
403.75	111.56
403.974	102.56
404.198	108.56
404.422	109.56
404.645	119.56
404.869	113.56
405.093	118.56
405.317	105.56
405.541	98.56
405.765	106.56
405.988	102.56
406.212	112.56
406.436	117.56
406.66	122.56
406.883	108.56
407.107	126.56
407.331	117.56
407.555	119.56
407.778	119.56
408.002	115.56
408.226	105.56
408.449	106.56
408.673	114.56
408.896	123.56
409.12	110.56
409.344	119.56
409.567	123.56
409.791	106.56
410.014	117.56
410.238	113.56
410.461	110.56
410.685	112.56
410.908	127.56
411.132	126.56
411.355	119.56
411.578	110.56
411.802	106.56
412.025	116.56
412.249	112.56
412.472	123.56
412.695	105.56
412.919	111.56
413.142	109.56
413.365	109.56
413.589	111.56
413.812	108.56
414.035	104.56
414.258	96.56
414.482	99.56
414.705	106.56
414.928	117.56
415.151	118.56
415.374	93.56
415.597	121.56
415.821	116.56
416.044	94.56
416.267	125.56
416.49	110.56
416.713	111.56
416.936	104.56
417.159	118.56
417.382	121.56
417.605	118.56
417.828	100.56
418.051	106.56
418.274	108.56
418.497	123.56
418.72	121.56
418.943	109.56
419.166	111.56
419.389	124.56
419.611	114.56
419.834	111.56
420.057	114.56
420.28	113.56
420.503	107.56
420.726	125.56
420.948	124.56
421.171	98.56
421.394	111.56
421.617	115.56
421.839	119.56
422.062	118.56
422.285	114.56
422.507	113.56
422.73	113.56
422.953	107.56
423.175	107.56
423.398	118.56
423.621	107.56
423.843	121.56
424.066	121.56
424.288	118.56
424.511	123.56
424.733	116.56
424.956	125.56
425.178	123.56
425.401	114.56
425.623	110.56
425.846	123.56
426.068	121.56
426.291	115.56
426.513	113.56
426.735	125.56
426.958	114.56
427.18	115.56
427.402	113.56
427.625	105.56
427.847	119.56
428.069	116.56
428.292	102.56
428.514	119.56
428.736	111.56
428.958	118.56
429.181	124.56
429.403	119.56
429.625	113.56
429.847	109.56
430.069	111.56
430.292	101.56
430.514	111.56
430.736	119.56
430.958	104.56
431.18	110.56
431.402	102.56
431.624	105.56
431.846	110.56
432.068	88.56
432.29	115.56
432.512	116.56
432.734	100.56
432.956	113.56
433.178	114.56
433.4	107.56
433.622	119.56
433.844	101.56
434.066	116.56
434.287	123.56
434.509	110.56
434.731	108.56
434.953	105.56
435.175	108.56
435.397	124.56
435.618	121.56
435.84	113.56
436.062	118.56
436.284	117.56
436.505	97.56
436.727	115.56
436.949	107.56
437.17	120.56
437.392	101.56
437.614	121.56
437.835	105.56
438.057	100.56
438.278	108.56
438.5	104.56
438.721	102.56
438.943	110.56
439.165	117.56
439.386	116.56
439.608	113.56
439.829	115.56
440.05	122.56
440.272	117.56
440.493	143.56
440.715	127.56
440.936	110.56
441.158	123.56
441.379	117.56
441.6	115.56
441.822	118.56
442.043	116.56
442.264	103.56
442.486	125.56
442.707	123.56
442.928	102.56
443.149	121.56
443.371	123.56
443.592	123.56
443.813	132.56
444.034	111.56
444.255	125.56
444.476	129.56
444.698	123.56
444.919	139.56
445.14	250.56
445.361	174.56
445.582	117.56
445.803	117.56
446.024	124.56
446.245	124.56
446.466	119.56
446.687	132.56
446.908	123.56
447.129	120.56
447.35	104.56
447.571	132.56
447.792	120.56
448.013	116.56
448.234	105.56
448.455	107.56
448.675	101.56
448.896	108.56
449.117	114.56
449.338	117.56
449.559	90.56
449.779	97.56
450	113.56
450.221	104.56
450.442	113.56
450.662	110.56
450.883	104.56
451.104	122.56
451.324	106.56
451.545	90.56
451.766	98.56
451.986	110.56
452.207	128.56
452.428	113.56
452.648	125.56
452.869	105.56
453.089	106.56
453.31	98.56
453.53	95.56
453.751	99.56
453.971	116.56
454.192	123.56
454.412	100.56
454.633	109.56
454.853	105.56
455.073	103.56
455.294	116.56
455.514	111.56
455.734	103.56
455.955	109.56
456.175	109.56
456.395	89.56
456.616	99.56
456.836	116.56
457.056	101.56
457.276	114.56
457.497	100.56
457.717	105.56
457.937	96.56
458.157	116.56
458.377	102.56
458.598	110.56
458.818	103.56
459.038	98.56
459.258	99.56
459.478	103.56
459.698	114.56
459.918	102.56
460.138	101.56
460.358	100.56
460.578	117.56
460.798	116.56
461.018	117.56
461.238	119.56
461.458	123.56
461.678	124.56
461.898	111.56
462.118	122.56
462.338	130.56
462.558	123.56
462.777	117.56
462.997	129.56
463.217	136.56
463.437	123.56
463.657	134.56
463.876	119.56
464.096	123.56
464.316	125.56
464.536	131.56
464.755	125.56
464.975	111.56
465.195	117.56
465.414	133.56
465.634	123.56
465.854	113.56
466.073	133.56
466.293	125.56
466.512	110.56
466.732	112.56
466.951	105.56
467.171	121.56
467.391	121.56
467.61	120.56
467.829	123.56
468.049	107.56
468.268	102.56
468.488	125.56
468.707	123.56
468.927	105.56
469.146	113.56
469.365	133.56
469.585	123.56
469.804	127.56
470.023	119.56
470.243	121.56
470.462	135.56
470.681	105.56
470.901	117.56
471.12	124.56
471.339	111.56
471.558	122.56
471.777	119.56
471.997	119.56
472.216	132.56
472.435	123.56
472.654	108.56
472.873	125.56
473.092	113.56
473.311	111.56
473.53	118.56
473.749	131.56
473.968	107.56
474.187	120.56
474.406	122.56
474.625	116.56
474.844	113.56
475.063	108.56
475.282	118.56
475.501	109.56
475.72	130.56
475.939	111.56
476.158	99.56
476.377	125.56
476.596	110.56
476.814	104.56
477.033	127.56
477.252	111.56
477.471	112.56
477.69	115.56
477.908	128.56
478.127	131.56
478.346	109.56
478.564	115.56
478.783	122.56
479.002	132.56
479.22	125.56
479.439	135.56
479.658	128.56
479.876	123.56
480.095	110.56
480.313	120.56
480.532	133.56
480.751	127.56
480.969	114.56
481.188	117.56
481.406	102.56
481.624	116.56
481.843	101.56
482.061	109.56
482.28	117.56
482.498	127.56
482.717	125.56
482.935	120.56
483.153	124.56
483.372	126.56
483.59	122.56
483.808	124.56
484.027	115.56
484.245	125.56
484.463	125.56
484.681	137.56
484.9	128.56
485.118	127.56
485.336	114.56
485.554	118.56
485.772	113.56
485.99	122.56
486.209	129.56
486.427	123.56
486.645	118.56
486.863	139.56
487.081	133.56
487.299	121.56
487.517	137.56
487.735	131.56
487.953	143.56
488.171	137.56
488.389	143.56
488.607	130.56
488.825	111.56
489.043	129.56
489.261	107.56
489.479	120.56
489.696	130.56
489.914	129.56
490.132	130.56
490.35	138.56
490.568	143.56
490.786	146.56
491.003	136.56
491.221	152.56
491.439	149.56
491.657	163.56
491.874	153.56
492.092	164.56
492.31	152.56
492.527	159.56
492.745	161.56
492.963	151.56
493.18	148.56
493.398	149.56
493.615	149.56
493.833	149.56
494.05	146.56
494.268	147.56
494.485	149.56
494.703	142.56
494.92	148.56
495.138	135.56
495.355	145.56
495.573	156.56
495.79	153.56
496.008	151.56
496.225	141.56
496.442	153.56
496.66	145.56
496.877	138.56
497.094	149.56
497.312	159.56
497.529	153.56
497.746	138.56
497.963	133.56
498.181	153.56
498.398	138.56
498.615	136.56
498.832	141.56
499.049	138.56
499.267	139.56
499.484	162.56
499.701	170.56
499.918	196.56
500.135	209.56
500.352	225.56
500.569	223.56
500.786	234.56
501.003	205.56
501.22	196.56
501.437	185.56
501.654	174.56
501.871	149.56
502.088	136.56
502.305	129.56
502.522	150.56
502.739	149.56
502.956	133.56
503.172	140.56
503.389	124.56
503.606	120.56
503.823	119.56
504.04	137.56
504.256	127.56
504.473	124.56
504.69	147.56
504.907	149.56
505.123	136.56
505.34	135.56
505.557	125.56
505.773	121.56
505.99	119.56
506.207	130.56
506.423	129.56
506.64	126.56
506.856	127.56
507.073	138.56
507.289	121.56
507.506	137.56
507.722	121.56
507.939	123.56
508.155	140.56
508.372	131.56
508.588	113.56
508.805	111.56
509.021	121.56
509.238	113.56
509.454	120.56
509.67	120.56
509.887	116.56
510.103	108.56
510.319	114.56
510.536	110.56
510.752	100.56
510.968	110.56
511.184	111.56
511.401	113.56
