Data from StandardFe(NO3)3.TAE.3%Agarose.FlatLispGreen.Lamp.Energy10.07252019_HRD10591_11-54-52-440.txt Node
Date: Thu Jul 25 11:54:52 EDT 2019
User: cochatt
Spectrometer: HR+D1059
Trigger mode: 1
Integration Time (sec): 1.000000E-1
Scans to average: 1
Electric dark correction enabled: true
Nonlinearity correction enabled: false
Boxcar width: 0
XAxis mode: Wavelengths
Number of Pixels in Spectrum: 2048
>>>>>Begin Spectral Data<<<<<
223.165	-11.25
223.4	-11.25
223.635	-11.25
223.869	-14.25
224.104	-24.25
224.338	-26.25
224.573	-22.25
224.808	-14.25
225.042	2.75
225.277	-6.25
225.511	-5.25
225.746	4.75
225.98	8.75
226.215	15.75
226.449	16.75
226.683	17.75
226.918	24.75
227.152	32.75
227.387	26.75
227.621	46.75
227.856	50.75
228.09	50.75
228.324	55.75
228.559	57.75
228.793	60.75
229.027	54.75
229.262	60.75
229.496	75.75
229.73	63.75
229.964	70.75
230.199	68.75
230.433	82.75
230.667	73.75
230.901	68.75
231.136	83.75
231.37	81.75
231.604	73.75
231.838	81.75
232.072	79.75
232.306	85.75
232.541	69.75
232.775	82.75
233.009	91.75
233.243	87.75
233.477	77.75
233.711	88.75
233.945	89.75
234.179	75.75
234.413	71.75
234.647	70.75
234.881	89.75
235.115	64.75
235.349	75.75
235.583	77.75
235.817	87.75
236.051	74.75
236.285	73.75
236.519	71.75
236.753	78.75
236.987	76.75
237.221	64.75
237.455	87.75
237.689	70.75
237.922	74.75
238.156	66.75
238.39	61.75
238.624	74.75
238.858	68.75
239.091	72.75
239.325	60.75
239.559	89.75
239.793	84.75
240.027	82.75
240.26	65.75
240.494	72.75
240.728	76.75
240.961	84.75
241.195	98.75
241.429	91.75
241.662	80.75
241.896	68.75
242.13	66.75
242.363	59.75
242.597	75.75
242.83	85.75
243.064	79.75
243.298	75.75
243.531	76.75
243.765	93.75
243.998	72.75
244.232	71.75
244.465	78.75
244.699	65.75
244.932	76.75
245.166	70.75
245.399	87.75
245.633	91.75
245.866	75.75
246.099	72.75
246.333	72.75
246.566	70.75
246.8	59.75
247.033	76.75
247.266	86.75
247.5	78.75
247.733	68.75
247.966	69.75
248.2	71.75
248.433	92.75
248.666	83.75
248.899	86.75
249.133	76.75
249.366	87.75
249.599	68.75
249.832	74.75
250.066	86.75
250.299	82.75
250.532	81.75
250.765	78.75
250.998	69.75
251.231	86.75
251.465	83.75
251.698	62.75
251.931	80.75
252.164	74.75
252.397	71.75
252.63	73.75
252.863	75.75
253.096	70.75
253.329	86.75
253.562	86.75
253.795	76.75
254.028	96.75
254.261	94.75
254.494	83.75
254.727	94.75
254.96	69.75
255.193	79.75
255.426	74.75
255.659	84.75
255.892	95.75
256.124	72.75
256.357	76.75
256.59	79.75
256.823	72.75
257.056	79.75
257.289	82.75
257.521	86.75
257.754	82.75
257.987	74.75
258.22	85.75
258.452	72.75
258.685	65.75
258.918	64.75
259.151	79.75
259.383	98.75
259.616	86.75
259.849	81.75
260.081	87.75
260.314	91.75
260.547	75.75
260.779	72.75
261.012	66.75
261.244	73.75
261.477	87.75
261.71	75.75
261.942	79.75
262.175	72.75
262.407	84.75
262.64	73.75
262.872	91.75
263.105	69.75
263.337	82.75
263.57	82.75
263.802	89.75
264.035	81.75
264.267	75.75
264.499	78.75
264.732	87.75
264.964	85.75
265.197	89.75
265.429	72.75
265.661	89.75
265.894	78.75
266.126	79.75
266.358	67.75
266.591	75.75
266.823	62.75
267.055	75.75
267.287	84.75
267.52	72.75
267.752	83.75
267.984	97.75
268.216	87.75
268.448	82.75
268.681	75.75
268.913	86.75
269.145	75.75
269.377	93.75
269.609	73.75
269.841	84.75
270.073	82.75
270.306	81.75
270.538	74.75
270.77	92.75
271.002	71.75
271.234	78.75
271.466	79.75
271.698	84.75
271.93	76.75
272.162	75.75
272.394	88.75
272.626	74.75
272.858	75.75
273.09	90.75
273.322	87.75
273.553	73.75
273.785	86.75
274.017	90.75
274.249	82.75
274.481	64.75
274.713	80.75
274.945	72.75
275.176	84.75
275.408	77.75
275.64	66.75
275.872	73.75
276.104	86.75
276.335	75.75
276.567	81.75
276.799	90.75
277.031	87.75
277.262	74.75
277.494	93.75
277.726	92.75
277.957	77.75
278.189	80.75
278.421	89.75
278.652	73.75
278.884	73.75
279.115	91.75
279.347	98.75
279.579	88.75
279.81	79.75
280.042	79.75
280.273	90.75
280.505	84.75
280.736	74.75
280.968	77.75
281.199	70.75
281.431	81.75
281.662	83.75
281.894	86.75
282.125	79.75
282.356	78.75
282.588	83.75
282.819	81.75
283.051	75.75
283.282	74.75
283.513	87.75
283.745	83.75
283.976	86.75
284.207	98.75
284.439	102.75
284.67	83.75
284.901	88.75
285.132	86.75
285.364	71.75
285.595	80.75
285.826	85.75
286.057	93.75
286.288	91.75
286.52	73.75
286.751	103.75
286.982	85.75
287.213	76.75
287.444	77.75
287.675	74.75
287.906	80.75
288.138	72.75
288.369	94.75
288.6	88.75
288.831	94.75
289.062	100.75
289.293	77.75
289.524	91.75
289.755	86.75
289.986	84.75
290.217	108.75
290.448	92.75
290.679	88.75
290.91	83.75
291.141	95.75
291.371	83.75
291.602	71.75
291.833	74.75
292.064	92.75
292.295	73.75
292.526	84.75
292.757	93.75
292.987	94.75
293.218	89.75
293.449	81.75
293.68	83.75
293.91	74.75
294.141	90.75
294.372	94.75
294.603	89.75
294.833	75.75
295.064	89.75
295.295	82.75
295.525	92.75
295.756	73.75
295.987	93.75
296.217	82.75
296.448	85.75
296.679	90.75
296.909	89.75
297.14	92.75
297.37	88.75
297.601	71.75
297.831	83.75
298.062	90.75
298.292	91.75
298.523	89.75
298.753	74.75
298.984	70.75
299.214	73.75
299.445	76.75
299.675	87.75
299.905	72.75
300.136	87.75
300.366	90.75
300.597	79.75
300.827	89.75
301.057	80.75
301.288	98.75
301.518	84.75
301.748	80.75
301.979	71.75
302.209	82.75
302.439	82.75
302.669	86.75
302.9	72.75
303.13	77.75
303.36	100.75
303.59	83.75
303.82	78.75
304.051	95.75
304.281	89.75
304.511	86.75
304.741	86.75
304.971	73.75
305.201	96.75
305.431	86.75
305.661	81.75
305.891	82.75
306.121	83.75
306.352	83.75
306.582	81.75
306.812	90.75
307.042	75.75
307.272	91.75
307.502	89.75
307.731	82.75
307.961	77.75
308.191	90.75
308.421	83.75
308.651	81.75
308.881	84.75
309.111	87.75
309.341	93.75
309.571	79.75
309.8	82.75
310.03	94.75
310.26	88.75
310.49	88.75
310.72	76.75
310.949	87.75
311.179	89.75
311.409	81.75
311.639	79.75
311.868	93.75
312.098	86.75
312.328	84.75
312.557	81.75
312.787	71.75
313.017	88.75
313.246	70.75
313.476	85.75
313.706	83.75
313.935	84.75
314.165	76.75
314.394	79.75
314.624	88.75
314.853	88.75
315.083	91.75
315.312	97.75
315.542	86.75
315.771	91.75
316.001	92.75
316.23	86.75
316.46	78.75
316.689	88.75
316.919	91.75
317.148	92.75
317.377	85.75
317.607	84.75
317.836	96.75
318.065	70.75
318.295	90.75
318.524	81.75
318.753	73.75
318.983	76.75
319.212	94.75
319.441	73.75
319.67	76.75
319.9	70.75
320.129	79.75
320.358	87.75
320.587	79.75
320.816	83.75
321.046	79.75
321.275	96.75
321.504	84.75
321.733	80.75
321.962	72.75
322.191	82.75
322.42	82.75
322.649	73.75
322.878	93.75
323.108	98.75
323.337	80.75
323.566	88.75
323.795	82.75
324.024	84.75
324.253	83.75
324.482	69.75
324.71	85.75
324.939	90.75
325.168	84.75
325.397	79.75
325.626	86.75
325.855	92.75
326.084	90.75
326.313	86.75
326.542	81.75
326.77	83.75
326.999	90.75
327.228	90.75
327.457	89.75
327.686	86.75
327.914	91.75
328.143	92.75
328.372	80.75
328.6	68.75
328.829	80.75
329.058	81.75
329.287	81.75
329.515	80.75
329.744	87.75
329.972	82.75
330.201	83.75
330.43	69.75
330.658	82.75
330.887	81.75
331.115	77.75
331.344	71.75
331.572	95.75
331.801	84.75
332.03	85.75
332.258	96.75
332.486	91.75
332.715	71.75
332.943	100.75
333.172	84.75
333.4	87.75
333.629	98.75
333.857	82.75
334.085	91.75
334.314	90.75
334.542	99.75
334.771	94.75
334.999	83.75
335.227	89.75
335.455	85.75
335.684	85.75
335.912	87.75
336.14	77.75
336.369	86.75
336.597	83.75
336.825	92.75
337.053	100.75
337.281	87.75
337.51	76.75
337.738	87.75
337.966	71.75
338.194	76.75
338.422	79.75
338.65	84.75
338.878	86.75
339.106	106.75
339.334	99.75
339.562	86.75
339.79	99.75
340.018	77.75
340.246	86.75
340.474	84.75
340.702	97.75
340.93	89.75
341.158	79.75
341.386	97.75
341.614	85.75
341.842	71.75
342.07	83.75
342.298	69.75
342.526	90.75
342.754	68.75
342.981	82.75
343.209	106.75
343.437	91.75
343.665	81.75
343.893	89.75
344.12	82.75
344.348	85.75
344.576	87.75
344.804	86.75
345.031	80.75
345.259	92.75
345.487	89.75
345.714	75.75
345.942	79.75
346.17	87.75
346.397	91.75
346.625	73.75
346.853	89.75
347.08	81.75
347.308	90.75
347.535	90.75
347.763	86.75
347.99	93.75
348.218	93.75
348.445	80.75
348.673	73.75
348.9	89.75
349.128	93.75
349.355	76.75
349.583	101.75
349.81	97.75
350.037	79.75
350.265	85.75
350.492	77.75
350.72	83.75
350.947	84.75
351.174	97.75
351.402	87.75
351.629	89.75
351.856	92.75
352.083	94.75
352.311	90.75
352.538	68.75
352.765	80.75
352.992	88.75
353.22	91.75
353.447	98.75
353.674	99.75
353.901	74.75
354.128	72.75
354.355	83.75
354.583	79.75
354.81	81.75
355.037	95.75
355.264	90.75
355.491	84.75
355.718	92.75
355.945	89.75
356.172	87.75
356.399	81.75
356.626	87.75
356.853	94.75
357.08	91.75
357.307	84.75
357.534	90.75
357.761	87.75
357.988	79.75
358.215	74.75
358.441	80.75
358.668	88.75
358.895	95.75
359.122	75.75
359.349	79.75
359.576	81.75
359.802	83.75
360.029	90.75
360.256	91.75
360.483	79.75
360.709	105.75
360.936	92.75
361.163	90.75
361.39	82.75
361.616	96.75
361.843	97.75
362.07	89.75
362.296	96.75
362.523	90.75
362.749	78.75
362.976	84.75
363.203	102.75
363.429	83.75
363.656	89.75
363.882	91.75
364.109	97.75
364.335	79.75
364.562	79.75
364.788	90.75
365.015	82.75
365.241	84.75
365.468	88.75
365.694	83.75
365.92	88.75
366.147	89.75
366.373	85.75
366.599	88.75
366.826	81.75
367.052	80.75
367.278	101.75
367.505	85.75
367.731	86.75
367.957	86.75
368.184	83.75
368.41	82.75
368.636	82.75
368.862	93.75
369.089	89.75
369.315	92.75
369.541	90.75
369.767	92.75
369.993	87.75
370.219	89.75
370.445	83.75
370.672	86.75
370.898	89.75
371.124	84.75
371.35	97.75
371.576	95.75
371.802	93.75
372.028	98.75
372.254	90.75
372.48	88.75
372.706	86.75
372.932	83.75
373.158	79.75
373.384	81.75
373.61	106.75
373.835	79.75
374.061	83.75
374.287	77.75
374.513	88.75
374.739	93.75
374.965	86.75
375.191	97.75
375.416	95.75
375.642	90.75
375.868	91.75
376.094	86.75
376.319	87.75
376.545	83.75
376.771	104.75
376.997	92.75
377.222	86.75
377.448	74.75
377.674	100.75
377.899	93.75
378.125	84.75
378.35	75.75
378.576	80.75
378.802	76.75
379.027	83.75
379.253	79.75
379.478	91.75
379.704	74.75
379.929	80.75
380.155	88.75
380.38	91.75
380.606	102.75
380.831	86.75
381.057	88.75
381.282	98.75
381.507	79.75
381.733	92.75
381.958	100.75
382.184	88.75
382.409	77.75
382.634	95.75
382.86	87.75
383.085	82.75
383.31	87.75
383.535	93.75
383.761	88.75
383.986	88.75
384.211	92.75
384.436	96.75
384.662	89.75
384.887	97.75
385.112	93.75
385.337	83.75
385.562	107.75
385.787	96.75
386.013	109.75
386.238	96.75
386.463	108.75
386.688	82.75
386.913	89.75
387.138	95.75
387.363	83.75
387.588	98.75
387.813	101.75
388.038	94.75
388.263	83.75
388.488	87.75
388.713	94.75
388.938	90.75
389.163	94.75
389.387	87.75
389.612	90.75
389.837	106.75
390.062	81.75
390.287	86.75
390.512	99.75
390.736	106.75
390.961	90.75
391.186	102.75
391.411	99.75
391.636	84.75
391.86	92.75
392.085	91.75
392.31	83.75
392.534	94.75
392.759	99.75
392.984	95.75
393.208	88.75
393.433	92.75
393.658	89.75
393.882	115.75
394.107	110.75
394.331	87.75
394.556	90.75
394.78	77.75
395.005	89.75
395.229	100.75
395.454	99.75
395.678	87.75
395.903	92.75
396.127	103.75
396.352	90.75
396.576	86.75
396.801	85.75
397.025	105.75
397.249	100.75
397.474	92.75
397.698	95.75
397.922	110.75
398.147	97.75
398.371	112.75
398.595	104.75
398.82	102.75
399.044	110.75
399.268	105.75
399.492	115.75
399.717	114.75
399.941	106.75
400.165	110.75
400.389	114.75
400.613	107.75
400.837	115.75
401.062	110.75
401.286	102.75
401.51	98.75
401.734	93.75
401.958	113.75
402.182	103.75
402.406	90.75
402.63	112.75
402.854	106.75
403.078	110.75
403.302	108.75
403.526	121.75
403.75	110.75
403.974	118.75
404.198	107.75
404.422	96.75
404.645	111.75
404.869	120.75
405.093	121.75
405.317	121.75
405.541	120.75
405.765	115.75
405.988	101.75
406.212	102.75
406.436	108.75
406.66	108.75
406.883	114.75
407.107	112.75
407.331	110.75
407.555	119.75
407.778	111.75
408.002	105.75
408.226	119.75
408.449	108.75
408.673	112.75
408.896	121.75
409.12	97.75
409.344	111.75
409.567	121.75
409.791	109.75
410.014	112.75
410.238	123.75
410.461	119.75
410.685	102.75
410.908	98.75
411.132	95.75
411.355	107.75
411.578	121.75
411.802	114.75
412.025	117.75
412.249	114.75
412.472	111.75
412.695	104.75
412.919	110.75
413.142	114.75
413.365	112.75
413.589	117.75
413.812	120.75
414.035	96.75
414.258	116.75
414.482	100.75
414.705	114.75
414.928	112.75
415.151	121.75
415.374	103.75
415.597	112.75
415.821	96.75
416.044	107.75
416.267	108.75
416.49	116.75
416.713	121.75
416.936	119.75
417.159	115.75
417.382	120.75
417.605	110.75
417.828	110.75
418.051	113.75
418.274	102.75
418.497	100.75
418.72	108.75
418.943	118.75
419.166	116.75
419.389	116.75
419.611	115.75
419.834	107.75
420.057	112.75
420.28	118.75
420.503	118.75
420.726	123.75
420.948	115.75
421.171	118.75
421.394	120.75
421.617	129.75
421.839	117.75
422.062	97.75
422.285	106.75
422.507	111.75
422.73	115.75
422.953	108.75
423.175	104.75
423.398	121.75
423.621	107.75
423.843	114.75
424.066	112.75
424.288	117.75
424.511	119.75
424.733	103.75
424.956	106.75
425.178	112.75
425.401	107.75
425.623	136.75
425.846	114.75
426.068	115.75
426.291	106.75
426.513	96.75
426.735	124.75
426.958	123.75
427.18	106.75
427.402	118.75
427.625	115.75
427.847	113.75
428.069	124.75
428.292	105.75
428.514	122.75
428.736	116.75
428.958	110.75
429.181	122.75
429.403	113.75
429.625	118.75
429.847	121.75
430.069	113.75
430.292	118.75
430.514	120.75
430.736	107.75
430.958	107.75
431.18	106.75
431.402	104.75
431.624	99.75
431.846	98.75
432.068	112.75
432.29	106.75
432.512	105.75
432.734	120.75
432.956	113.75
433.178	119.75
433.4	101.75
433.622	110.75
433.844	115.75
434.066	115.75
434.287	110.75
434.509	100.75
434.731	101.75
434.953	123.75
435.175	108.75
435.397	125.75
435.618	96.75
435.84	98.75
436.062	93.75
436.284	107.75
436.505	109.75
436.727	122.75
436.949	127.75
437.17	120.75
437.392	111.75
437.614	101.75
437.835	106.75
438.057	101.75
438.278	103.75
438.5	112.75
438.721	96.75
438.943	121.75
439.165	118.75
439.386	126.75
439.608	116.75
439.829	118.75
440.05	105.75
440.272	119.75
440.493	118.75
440.715	122.75
440.936	122.75
441.158	117.75
441.379	106.75
441.6	122.75
441.822	119.75
442.043	118.75
442.264	117.75
442.486	113.75
442.707	127.75
442.928	127.75
443.149	123.75
443.371	126.75
443.592	101.75
443.813	122.75
444.034	126.75
444.255	123.75
444.476	108.75
444.698	121.75
444.919	120.75
445.14	232.75
445.361	180.75
445.582	131.75
445.803	122.75
446.024	118.75
446.245	123.75
446.466	123.75
446.687	112.75
446.908	118.75
447.129	113.75
447.35	113.75
447.571	97.75
447.792	120.75
448.013	102.75
448.234	120.75
448.455	132.75
448.675	126.75
448.896	94.75
449.117	126.75
449.338	107.75
449.559	100.75
449.779	115.75
450	111.75
450.221	100.75
450.442	100.75
450.662	115.75
450.883	108.75
451.104	115.75
451.324	118.75
451.545	108.75
451.766	106.75
451.986	115.75
452.207	116.75
452.428	104.75
452.648	117.75
452.869	103.75
453.089	110.75
453.31	107.75
453.53	112.75
453.751	102.75
453.971	105.75
454.192	104.75
454.412	109.75
454.633	114.75
454.853	103.75
455.073	112.75
455.294	110.75
455.514	105.75
455.734	96.75
455.955	110.75
456.175	111.75
456.395	98.75
456.616	113.75
456.836	106.75
457.056	104.75
457.276	103.75
457.497	118.75
457.717	105.75
457.937	110.75
458.157	106.75
458.377	103.75
458.598	99.75
458.818	105.75
459.038	92.75
459.258	98.75
459.478	103.75
459.698	106.75
459.918	103.75
460.138	122.75
460.358	112.75
460.578	122.75
460.798	115.75
461.018	114.75
461.238	118.75
461.458	117.75
461.678	118.75
461.898	111.75
462.118	129.75
462.338	123.75
462.558	116.75
462.777	103.75
462.997	122.75
463.217	116.75
463.437	114.75
463.657	113.75
463.876	118.75
464.096	123.75
464.316	119.75
464.536	125.75
464.755	116.75
464.975	133.75
465.195	117.75
465.414	118.75
465.634	106.75
465.854	112.75
466.073	117.75
466.293	113.75
466.512	100.75
466.732	118.75
466.951	120.75
467.171	108.75
467.391	122.75
467.61	123.75
467.829	101.75
468.049	135.75
468.268	121.75
468.488	104.75
468.707	119.75
468.927	116.75
469.146	122.75
469.365	126.75
469.585	117.75
469.804	113.75
470.023	121.75
470.243	134.75
470.462	130.75
470.681	125.75
470.901	121.75
471.12	114.75
471.339	129.75
471.558	111.75
471.777	117.75
471.997	113.75
472.216	111.75
472.435	107.75
472.654	114.75
472.873	93.75
473.092	99.75
473.311	107.75
473.53	100.75
473.749	116.75
473.968	129.75
474.187	111.75
474.406	110.75
474.625	117.75
474.844	126.75
475.063	124.75
475.282	123.75
475.501	115.75
475.72	110.75
475.939	104.75
476.158	111.75
476.377	120.75
476.596	116.75
476.814	121.75
477.033	113.75
477.252	104.75
477.471	113.75
477.69	128.75
477.908	126.75
478.127	126.75
478.346	107.75
478.564	115.75
478.783	134.75
479.002	131.75
479.22	140.75
479.439	127.75
479.658	116.75
479.876	134.75
480.095	122.75
480.313	112.75
480.532	127.75
480.751	108.75
480.969	117.75
481.188	95.75
481.406	101.75
481.624	103.75
481.843	107.75
482.061	105.75
482.28	117.75
482.498	107.75
482.717	123.75
482.935	124.75
483.153	120.75
483.372	142.75
483.59	126.75
483.808	130.75
484.027	120.75
484.245	110.75
484.463	119.75
484.681	139.75
484.9	133.75
485.118	132.75
485.336	114.75
485.554	137.75
485.772	126.75
485.99	126.75
486.209	133.75
486.427	117.75
486.645	119.75
486.863	125.75
487.081	126.75
487.299	130.75
487.517	156.75
487.735	147.75
487.953	142.75
488.171	141.75
488.389	129.75
488.607	130.75
488.825	116.75
489.043	128.75
489.261	140.75
489.479	137.75
489.696	130.75
489.914	137.75
490.132	159.75
490.35	147.75
490.568	142.75
490.786	142.75
491.003	146.75
491.221	151.75
491.439	153.75
491.657	148.75
491.874	142.75
492.092	149.75
492.31	163.75
492.527	163.75
492.745	168.75
492.963	148.75
493.18	148.75
493.398	167.75
493.615	159.75
493.833	157.75
494.05	124.75
494.268	144.75
494.485	140.75
494.703	153.75
494.92	152.75
495.138	150.75
495.355	136.75
495.573	152.75
495.79	141.75
496.008	152.75
496.225	137.75
496.442	160.75
496.66	156.75
496.877	145.75
497.094	140.75
497.312	141.75
497.529	140.75
497.746	139.75
497.963	143.75
498.181	140.75
498.398	134.75
498.615	148.75
498.832	148.75
499.049	153.75
499.267	165.75
499.484	160.75
499.701	159.75
499.918	191.75
500.135	185.75
500.352	224.75
500.569	205.75
500.786	224.75
501.003	211.75
501.22	204.75
501.437	163.75
501.654	166.75
501.871	162.75
502.088	157.75
502.305	157.75
502.522	158.75
502.739	130.75
502.956	137.75
503.172	127.75
503.389	127.75
503.606	147.75
503.823	132.75
504.04	138.75
504.256	139.75
504.473	130.75
504.69	118.75
504.907	135.75
505.123	127.75
505.34	141.75
505.557	138.75
505.773	124.75
505.99	135.75
506.207	122.75
506.423	140.75
506.64	116.75
506.856	140.75
507.073	125.75
507.289	119.75
507.506	130.75
507.722	124.75
507.939	119.75
508.155	108.75
508.372	113.75
508.588	123.75
508.805	121.75
509.021	123.75
509.238	118.75
509.454	122.75
509.67	125.75
509.887	119.75
510.103	109.75
510.319	104.75
510.536	123.75
510.752	118.75
510.968	114.75
511.184	118.75
511.401	111.75
511.617	116.75
511.833	115.75
