Data from StandardFe(NO3)3.TAE.3%Agarose.FlatLispGreen.Lamp.Energy10.07252019_HRD10591_11-56-12-441.txt Node
Date: Thu Jul 25 11:56:12 EDT 2019
User: cochatt
Spectrometer: HR+D1059
Trigger mode: 1
Integration Time (sec): 1.000000E-1
Scans to average: 1
Electric dark correction enabled: true
Nonlinearity correction enabled: false
Boxcar width: 0
XAxis mode: Wavelengths
Number of Pixels in Spectrum: 2048
>>>>>Begin Spectral Data<<<<<
223.165	-24.5
223.4	-24.5
223.635	-24.5
223.869	-9.5
224.104	-12.5
224.338	-11.5
224.573	-2.5
224.808	-14.5
225.042	-12.5
225.277	1.5
225.511	-6.5
225.746	0.5
225.98	5.5
226.215	7.5
226.449	14.5
226.683	15.5
226.918	19.5
227.152	29.5
227.387	30.5
227.621	46.5
227.856	30.5
228.09	48.5
228.324	44.5
228.559	42.5
228.793	50.5
229.027	60.5
229.262	65.5
229.496	54.5
229.73	72.5
229.964	62.5
230.199	60.5
230.433	81.5
230.667	82.5
230.901	70.5
231.136	78.5
231.37	79.5
231.604	68.5
231.838	77.5
232.072	68.5
232.306	78.5
232.541	76.5
232.775	77.5
233.009	66.5
233.243	74.5
233.477	78.5
233.711	85.5
233.945	72.5
234.179	81.5
234.413	83.5
234.647	79.5
234.881	80.5
235.115	76.5
235.349	82.5
235.583	88.5
235.817	73.5
236.051	83.5
236.285	76.5
236.519	82.5
236.753	90.5
236.987	78.5
237.221	71.5
237.455	79.5
237.689	76.5
237.922	67.5
238.156	74.5
238.39	72.5
238.624	86.5
238.858	78.5
239.091	69.5
239.325	72.5
239.559	71.5
239.793	76.5
240.027	84.5
240.26	69.5
240.494	81.5
240.728	64.5
240.961	75.5
241.195	80.5
241.429	64.5
241.662	75.5
241.896	68.5
242.13	71.5
242.363	81.5
242.597	68.5
242.83	67.5
243.064	72.5
243.298	83.5
243.531	73.5
243.765	71.5
243.998	81.5
244.232	81.5
244.465	88.5
244.699	81.5
244.932	73.5
245.166	76.5
245.399	74.5
245.633	78.5
245.866	85.5
246.099	74.5
246.333	93.5
246.566	80.5
246.8	68.5
247.033	71.5
247.266	87.5
247.5	77.5
247.733	60.5
247.966	72.5
248.2	72.5
248.433	77.5
248.666	76.5
248.899	77.5
249.133	82.5
249.366	83.5
249.599	62.5
249.832	74.5
250.066	76.5
250.299	78.5
250.532	78.5
250.765	77.5
250.998	69.5
251.231	79.5
251.465	84.5
251.698	74.5
251.931	68.5
252.164	73.5
252.397	78.5
252.63	79.5
252.863	77.5
253.096	82.5
253.329	79.5
253.562	85.5
253.795	68.5
254.028	79.5
254.261	78.5
254.494	95.5
254.727	79.5
254.96	79.5
255.193	69.5
255.426	73.5
255.659	71.5
255.892	84.5
256.124	61.5
256.357	80.5
256.59	68.5
256.823	90.5
257.056	72.5
257.289	68.5
257.521	73.5
257.754	75.5
257.987	73.5
258.22	79.5
258.452	70.5
258.685	57.5
258.918	73.5
259.151	80.5
259.383	68.5
259.616	81.5
259.849	83.5
260.081	72.5
260.314	61.5
260.547	75.5
260.779	88.5
261.012	85.5
261.244	82.5
261.477	78.5
261.71	74.5
261.942	77.5
262.175	82.5
262.407	79.5
262.64	81.5
262.872	79.5
263.105	78.5
263.337	78.5
263.57	82.5
263.802	89.5
264.035	82.5
264.267	78.5
264.499	80.5
264.732	87.5
264.964	72.5
265.197	71.5
265.429	87.5
265.661	81.5
265.894	70.5
266.126	84.5
266.358	86.5
266.591	70.5
266.823	88.5
267.055	72.5
267.287	79.5
267.52	72.5
267.752	71.5
267.984	79.5
268.216	69.5
268.448	78.5
268.681	68.5
268.913	75.5
269.145	82.5
269.377	74.5
269.609	81.5
269.841	80.5
270.073	72.5
270.306	76.5
270.538	82.5
270.77	78.5
271.002	71.5
271.234	89.5
271.466	88.5
271.698	62.5
271.93	81.5
272.162	88.5
272.394	94.5
272.626	81.5
272.858	88.5
273.09	102.5
273.322	85.5
273.553	78.5
273.785	91.5
274.017	97.5
274.249	71.5
274.481	76.5
274.713	62.5
274.945	88.5
275.176	69.5
275.408	84.5
275.64	82.5
275.872	95.5
276.104	81.5
276.335	94.5
276.567	92.5
276.799	80.5
277.031	74.5
277.262	81.5
277.494	83.5
277.726	82.5
277.957	72.5
278.189	72.5
278.421	87.5
278.652	80.5
278.884	81.5
279.115	90.5
279.347	82.5
279.579	82.5
279.81	81.5
280.042	68.5
280.273	76.5
280.505	69.5
280.736	97.5
280.968	80.5
281.199	83.5
281.431	69.5
281.662	78.5
281.894	75.5
282.125	86.5
282.356	69.5
282.588	75.5
282.819	79.5
283.051	74.5
283.282	79.5
283.513	82.5
283.745	71.5
283.976	78.5
284.207	78.5
284.439	84.5
284.67	79.5
284.901	98.5
285.132	85.5
285.364	80.5
285.595	82.5
285.826	77.5
286.057	72.5
286.288	82.5
286.52	76.5
286.751	78.5
286.982	79.5
287.213	84.5
287.444	76.5
287.675	74.5
287.906	87.5
288.138	83.5
288.369	88.5
288.6	90.5
288.831	74.5
289.062	86.5
289.293	67.5
289.524	69.5
289.755	78.5
289.986	88.5
290.217	86.5
290.448	79.5
290.679	82.5
290.91	99.5
291.141	75.5
291.371	79.5
291.602	72.5
291.833	80.5
292.064	78.5
292.295	82.5
292.526	81.5
292.757	79.5
292.987	93.5
293.218	79.5
293.449	90.5
293.68	84.5
293.91	80.5
294.141	82.5
294.372	92.5
294.603	98.5
294.833	73.5
295.064	82.5
295.295	71.5
295.525	73.5
295.756	100.5
295.987	87.5
296.217	82.5
296.448	90.5
296.679	78.5
296.909	76.5
297.14	89.5
297.37	79.5
297.601	84.5
297.831	76.5
298.062	66.5
298.292	94.5
298.523	101.5
298.753	80.5
298.984	86.5
299.214	92.5
299.445	97.5
299.675	81.5
299.905	80.5
300.136	79.5
300.366	82.5
300.597	64.5
300.827	83.5
301.057	70.5
301.288	81.5
301.518	74.5
301.748	79.5
301.979	85.5
302.209	72.5
302.439	72.5
302.669	71.5
302.9	94.5
303.13	77.5
303.36	76.5
303.59	76.5
303.82	64.5
304.051	90.5
304.281	65.5
304.511	92.5
304.741	86.5
304.971	85.5
305.201	72.5
305.431	78.5
305.661	78.5
305.891	85.5
306.121	82.5
306.352	82.5
306.582	81.5
306.812	80.5
307.042	69.5
307.272	82.5
307.502	90.5
307.731	83.5
307.961	77.5
308.191	85.5
308.421	85.5
308.651	85.5
308.881	76.5
309.111	78.5
309.341	78.5
309.571	84.5
309.8	88.5
310.03	76.5
310.26	93.5
310.49	89.5
310.72	87.5
310.949	84.5
311.179	82.5
311.409	90.5
311.639	89.5
311.868	82.5
312.098	84.5
312.328	81.5
312.557	85.5
312.787	78.5
313.017	82.5
313.246	96.5
313.476	94.5
313.706	80.5
313.935	88.5
314.165	79.5
314.394	79.5
314.624	76.5
314.853	92.5
315.083	72.5
315.312	92.5
315.542	88.5
315.771	77.5
316.001	90.5
316.23	74.5
316.46	82.5
316.689	81.5
316.919	83.5
317.148	84.5
317.377	89.5
317.607	76.5
317.836	81.5
318.065	78.5
318.295	91.5
318.524	85.5
318.753	65.5
318.983	74.5
319.212	92.5
319.441	81.5
319.67	83.5
319.9	81.5
320.129	75.5
320.358	85.5
320.587	97.5
320.816	92.5
321.046	78.5
321.275	91.5
321.504	92.5
321.733	78.5
321.962	87.5
322.191	88.5
322.42	88.5
322.649	90.5
322.878	93.5
323.108	84.5
323.337	85.5
323.566	83.5
323.795	86.5
324.024	90.5
324.253	86.5
324.482	82.5
324.71	74.5
324.939	71.5
325.168	74.5
325.397	93.5
325.626	74.5
325.855	81.5
326.084	83.5
326.313	88.5
326.542	80.5
326.77	65.5
326.999	87.5
327.228	87.5
327.457	79.5
327.686	84.5
327.914	71.5
328.143	79.5
328.372	78.5
328.6	65.5
328.829	87.5
329.058	72.5
329.287	95.5
329.515	84.5
329.744	86.5
329.972	78.5
330.201	84.5
330.43	66.5
330.658	79.5
330.887	93.5
331.115	86.5
331.344	66.5
331.572	81.5
331.801	89.5
332.03	89.5
332.258	77.5
332.486	82.5
332.715	48.5
332.943	87.5
333.172	99.5
333.4	80.5
333.629	81.5
333.857	85.5
334.085	92.5
334.314	88.5
334.542	79.5
334.771	92.5
334.999	78.5
335.227	71.5
335.455	92.5
335.684	79.5
335.912	83.5
336.14	72.5
336.369	86.5
336.597	83.5
336.825	74.5
337.053	88.5
337.281	87.5
337.51	65.5
337.738	84.5
337.966	84.5
338.194	69.5
338.422	70.5
338.65	81.5
338.878	79.5
339.106	78.5
339.334	76.5
339.562	79.5
339.79	92.5
340.018	86.5
340.246	81.5
340.474	88.5
340.702	81.5
340.93	80.5
341.158	87.5
341.386	81.5
341.614	85.5
341.842	89.5
342.07	75.5
342.298	72.5
342.526	83.5
342.754	98.5
342.981	79.5
343.209	84.5
343.437	98.5
343.665	80.5
343.893	61.5
344.12	76.5
344.348	85.5
344.576	76.5
344.804	82.5
345.031	97.5
345.259	90.5
345.487	83.5
345.714	88.5
345.942	75.5
346.17	83.5
346.397	94.5
346.625	89.5
346.853	72.5
347.08	81.5
347.308	67.5
347.535	86.5
347.763	59.5
347.99	85.5
348.218	81.5
348.445	82.5
348.673	70.5
348.9	80.5
349.128	83.5
349.355	84.5
349.583	82.5
349.81	80.5
350.037	78.5
350.265	84.5
350.492	83.5
350.72	78.5
350.947	85.5
351.174	82.5
351.402	96.5
351.629	74.5
351.856	73.5
352.083	78.5
352.311	62.5
352.538	77.5
352.765	79.5
352.992	97.5
353.22	76.5
353.447	82.5
353.674	86.5
353.901	81.5
354.128	89.5
354.355	86.5
354.583	84.5
354.81	68.5
355.037	95.5
355.264	80.5
355.491	83.5
355.718	73.5
355.945	77.5
356.172	80.5
356.399	84.5
356.626	94.5
356.853	73.5
357.08	90.5
357.307	81.5
357.534	70.5
357.761	90.5
357.988	82.5
358.215	94.5
358.441	89.5
358.668	78.5
358.895	73.5
359.122	71.5
359.349	80.5
359.576	92.5
359.802	86.5
360.029	80.5
360.256	86.5
360.483	75.5
360.709	75.5
360.936	77.5
361.163	78.5
361.39	88.5
361.616	89.5
361.843	81.5
362.07	93.5
362.296	89.5
362.523	79.5
362.749	92.5
362.976	93.5
363.203	87.5
363.429	74.5
363.656	83.5
363.882	90.5
364.109	81.5
364.335	73.5
364.562	82.5
364.788	81.5
365.015	70.5
365.241	95.5
365.468	82.5
365.694	72.5
365.92	80.5
366.147	92.5
366.373	73.5
366.599	79.5
366.826	76.5
367.052	70.5
367.278	75.5
367.505	85.5
367.731	76.5
367.957	81.5
368.184	74.5
368.41	76.5
368.636	91.5
368.862	81.5
369.089	71.5
369.315	73.5
369.541	87.5
369.767	101.5
369.993	78.5
370.219	79.5
370.445	90.5
370.672	84.5
370.898	81.5
371.124	89.5
371.35	88.5
371.576	87.5
371.802	87.5
372.028	102.5
372.254	82.5
372.48	79.5
372.706	101.5
372.932	81.5
373.158	77.5
373.384	89.5
373.61	90.5
373.835	84.5
374.061	78.5
374.287	90.5
374.513	91.5
374.739	94.5
374.965	80.5
375.191	97.5
375.416	82.5
375.642	84.5
375.868	73.5
376.094	88.5
376.319	87.5
376.545	81.5
376.771	81.5
376.997	80.5
377.222	74.5
377.448	68.5
377.674	96.5
377.899	93.5
378.125	97.5
378.35	86.5
378.576	95.5
378.802	82.5
379.027	97.5
379.253	92.5
379.478	86.5
379.704	77.5
379.929	78.5
380.155	79.5
380.38	78.5
380.606	94.5
380.831	81.5
381.057	88.5
381.282	78.5
381.507	84.5
381.733	78.5
381.958	86.5
382.184	84.5
382.409	79.5
382.634	90.5
382.86	92.5
383.085	93.5
383.31	80.5
383.535	92.5
383.761	85.5
383.986	85.5
384.211	71.5
384.436	96.5
384.662	94.5
384.887	85.5
385.112	86.5
385.337	79.5
385.562	84.5
385.787	78.5
386.013	88.5
386.238	90.5
386.463	87.5
386.688	84.5
386.913	100.5
387.138	98.5
387.363	101.5
387.588	86.5
387.813	88.5
388.038	88.5
388.263	83.5
388.488	97.5
388.713	77.5
388.938	77.5
389.163	78.5
389.387	86.5
389.612	96.5
389.837	98.5
390.062	92.5
390.287	83.5
390.512	96.5
390.736	95.5
390.961	100.5
391.186	101.5
391.411	91.5
391.636	93.5
391.86	91.5
392.085	82.5
392.31	95.5
392.534	99.5
392.759	89.5
392.984	89.5
393.208	85.5
393.433	89.5
393.658	97.5
393.882	109.5
394.107	94.5
394.331	89.5
394.556	105.5
394.78	94.5
395.005	83.5
395.229	110.5
395.454	96.5
395.678	82.5
395.903	103.5
396.127	85.5
396.352	104.5
396.576	98.5
396.801	110.5
397.025	90.5
397.249	96.5
397.474	99.5
397.698	109.5
397.922	86.5
398.147	84.5
398.371	92.5
398.595	89.5
398.82	94.5
399.044	97.5
399.268	103.5
399.492	110.5
399.717	120.5
399.941	100.5
400.165	108.5
400.389	113.5
400.613	103.5
400.837	116.5
401.062	96.5
401.286	102.5
401.51	104.5
401.734	99.5
401.958	108.5
402.182	114.5
402.406	103.5
402.63	92.5
402.854	104.5
403.078	98.5
403.302	109.5
403.526	106.5
403.75	110.5
403.974	100.5
404.198	106.5
404.422	97.5
404.645	95.5
404.869	107.5
405.093	89.5
405.317	98.5
405.541	104.5
405.765	110.5
405.988	96.5
406.212	114.5
406.436	105.5
406.66	100.5
406.883	101.5
407.107	106.5
407.331	112.5
407.555	108.5
407.778	93.5
408.002	114.5
408.226	106.5
408.449	115.5
408.673	103.5
408.896	120.5
409.12	103.5
409.344	114.5
409.567	105.5
409.791	110.5
410.014	120.5
410.238	108.5
410.461	103.5
410.685	116.5
410.908	107.5
411.132	113.5
411.355	96.5
411.578	99.5
411.802	98.5
412.025	105.5
412.249	111.5
412.472	105.5
412.695	109.5
412.919	114.5
413.142	112.5
413.365	112.5
413.589	111.5
413.812	98.5
414.035	113.5
414.258	104.5
414.482	101.5
414.705	100.5
414.928	113.5
415.151	90.5
415.374	97.5
415.597	103.5
415.821	96.5
416.044	83.5
416.267	110.5
416.49	112.5
416.713	114.5
416.936	112.5
417.159	114.5
417.382	104.5
417.605	108.5
417.828	122.5
418.051	116.5
418.274	118.5
418.497	111.5
418.72	101.5
418.943	111.5
419.166	116.5
419.389	114.5
419.611	123.5
419.834	112.5
420.057	106.5
420.28	104.5
420.503	99.5
420.726	115.5
420.948	108.5
421.171	112.5
421.394	105.5
421.617	117.5
421.839	101.5
422.062	102.5
422.285	98.5
422.507	108.5
422.73	101.5
422.953	114.5
423.175	114.5
423.398	115.5
423.621	118.5
423.843	95.5
424.066	101.5
424.288	120.5
424.511	112.5
424.733	118.5
424.956	101.5
425.178	97.5
425.401	99.5
425.623	108.5
425.846	110.5
426.068	100.5
426.291	104.5
426.513	119.5
426.735	86.5
426.958	105.5
427.18	122.5
427.402	105.5
427.625	105.5
427.847	110.5
428.069	110.5
428.292	114.5
428.514	97.5
428.736	103.5
428.958	115.5
429.181	100.5
429.403	126.5
429.625	98.5
429.847	102.5
430.069	97.5
430.292	95.5
430.514	104.5
430.736	90.5
430.958	110.5
431.18	101.5
431.402	112.5
431.624	115.5
431.846	106.5
432.068	98.5
432.29	96.5
432.512	112.5
432.734	116.5
432.956	115.5
433.178	109.5
433.4	103.5
433.622	125.5
433.844	96.5
434.066	114.5
434.287	103.5
434.509	103.5
434.731	88.5
434.953	95.5
435.175	88.5
435.397	105.5
435.618	101.5
435.84	107.5
436.062	98.5
436.284	98.5
436.505	101.5
436.727	108.5
436.949	100.5
437.17	120.5
437.392	108.5
437.614	92.5
437.835	94.5
438.057	99.5
438.278	120.5
438.5	118.5
438.721	108.5
438.943	104.5
439.165	122.5
439.386	110.5
439.608	109.5
439.829	120.5
440.05	108.5
440.272	101.5
440.493	112.5
440.715	114.5
440.936	110.5
441.158	117.5
441.379	99.5
441.6	116.5
441.822	118.5
442.043	105.5
442.264	104.5
442.486	97.5
442.707	98.5
442.928	120.5
443.149	94.5
443.371	126.5
443.592	108.5
443.813	113.5
444.034	115.5
444.255	124.5
444.476	111.5
444.698	118.5
444.919	129.5
445.14	233.5
445.361	150.5
445.582	115.5
445.803	114.5
446.024	124.5
446.245	121.5
446.466	114.5
446.687	112.5
446.908	124.5
447.129	113.5
447.35	113.5
447.571	114.5
447.792	111.5
448.013	102.5
448.234	100.5
448.455	106.5
448.675	116.5
448.896	99.5
449.117	99.5
449.338	99.5
449.559	98.5
449.779	110.5
450	113.5
450.221	103.5
450.442	110.5
450.662	101.5
450.883	103.5
451.104	98.5
451.324	99.5
451.545	97.5
451.766	110.5
451.986	116.5
452.207	113.5
452.428	91.5
452.648	106.5
452.869	108.5
453.089	81.5
453.31	106.5
453.53	104.5
453.751	113.5
453.971	116.5
454.192	96.5
454.412	106.5
454.633	95.5
454.853	102.5
455.073	97.5
455.294	95.5
455.514	113.5
455.734	124.5
455.955	109.5
456.175	96.5
456.395	98.5
456.616	105.5
456.836	102.5
457.056	108.5
457.276	100.5
457.497	108.5
457.717	112.5
457.937	94.5
458.157	105.5
458.377	113.5
458.598	102.5
458.818	90.5
459.038	106.5
459.258	92.5
459.478	104.5
459.698	92.5
459.918	101.5
460.138	118.5
460.358	118.5
460.578	114.5
460.798	98.5
461.018	106.5
461.238	123.5
461.458	104.5
461.678	112.5
461.898	107.5
462.118	100.5
462.338	120.5
462.558	124.5
462.777	114.5
462.997	129.5
463.217	125.5
463.437	124.5
463.657	108.5
463.876	104.5
464.096	113.5
464.316	103.5
464.536	116.5
464.755	119.5
464.975	120.5
465.195	120.5
465.414	123.5
465.634	105.5
465.854	100.5
466.073	117.5
466.293	119.5
466.512	113.5
466.732	104.5
466.951	113.5
467.171	118.5
467.391	126.5
467.61	116.5
467.829	104.5
468.049	112.5
468.268	126.5
468.488	114.5
468.707	112.5
468.927	115.5
469.146	114.5
469.365	114.5
469.585	114.5
469.804	113.5
470.023	121.5
470.243	120.5
470.462	115.5
470.681	101.5
470.901	110.5
471.12	118.5
471.339	112.5
471.558	108.5
471.777	120.5
471.997	130.5
472.216	101.5
472.435	106.5
472.654	105.5
472.873	103.5
473.092	101.5
473.311	108.5
473.53	96.5
473.749	107.5
473.968	122.5
474.187	100.5
474.406	111.5
474.625	113.5
474.844	90.5
475.063	108.5
475.282	101.5
475.501	119.5
475.72	118.5
475.939	100.5
476.158	111.5
476.377	117.5
476.596	117.5
476.814	128.5
477.033	124.5
477.252	119.5
477.471	114.5
477.69	114.5
477.908	138.5
478.127	119.5
478.346	105.5
478.564	108.5
478.783	109.5
479.002	121.5
479.22	127.5
479.439	121.5
479.658	113.5
479.876	119.5
480.095	118.5
480.313	116.5
480.532	118.5
480.751	135.5
480.969	114.5
481.188	112.5
481.406	106.5
481.624	105.5
481.843	105.5
482.061	110.5
482.28	118.5
482.498	114.5
482.717	103.5
482.935	117.5
483.153	119.5
483.372	121.5
483.59	126.5
483.808	118.5
484.027	111.5
484.245	105.5
484.463	120.5
484.681	120.5
484.9	129.5
485.118	123.5
485.336	106.5
485.554	110.5
485.772	103.5
485.99	105.5
486.209	125.5
486.427	111.5
486.645	104.5
486.863	113.5
487.081	127.5
487.299	126.5
487.517	125.5
487.735	123.5
487.953	132.5
488.171	140.5
488.389	141.5
488.607	127.5
488.825	136.5
489.043	121.5
489.261	120.5
489.479	122.5
489.696	148.5
489.914	124.5
490.132	121.5
490.35	137.5
490.568	124.5
490.786	131.5
491.003	131.5
491.221	140.5
491.439	146.5
491.657	132.5
491.874	142.5
492.092	150.5
492.31	163.5
492.527	139.5
492.745	165.5
492.963	149.5
493.18	142.5
493.398	125.5
493.615	140.5
493.833	141.5
494.05	146.5
494.268	149.5
494.485	125.5
494.703	138.5
494.92	135.5
495.138	138.5
495.355	136.5
495.573	126.5
495.79	137.5
496.008	142.5
496.225	152.5
496.442	138.5
496.66	146.5
496.877	153.5
497.094	129.5
497.312	141.5
497.529	145.5
497.746	124.5
497.963	134.5
498.181	138.5
498.398	134.5
498.615	152.5
498.832	149.5
499.049	142.5
499.267	144.5
499.484	147.5
499.701	163.5
499.918	176.5
500.135	182.5
500.352	208.5
500.569	220.5
500.786	209.5
501.003	194.5
501.22	185.5
501.437	180.5
501.654	166.5
501.871	149.5
502.088	149.5
502.305	150.5
502.522	133.5
502.739	132.5
502.956	145.5
503.172	137.5
503.389	129.5
503.606	142.5
503.823	133.5
504.04	132.5
504.256	125.5
504.473	137.5
504.69	137.5
504.907	131.5
505.123	113.5
505.34	124.5
505.557	118.5
505.773	124.5
505.99	125.5
506.207	121.5
506.423	120.5
506.64	109.5
506.856	114.5
507.073	101.5
507.289	112.5
507.506	106.5
507.722	124.5
507.939	119.5
508.155	127.5
508.372	119.5
508.588	127.5
508.805	112.5
509.021	120.5
509.238	95.5
509.454	112.5
509.67	114.5
509.887	113.5
510.103	97.5
510.319	123.5
510.536	104.5
510.752	99.5
510.968	101.5
511.184	87.5
511.401	110.5
511.617	105.5
511.833	115.5
512.049	121.5
512.265	116.5
512.481	118.5
512.698	111.5
512.914	112.5
513.13	118.5
513.346	108.5
513.562	113.5
513.778	113.5
513.994	97.5
514.21	112.5
514.426	113.5
514.642	121.5
514.858	103.5
515.074	118.5
515.29	108.5
515.506	104.5
515.721	116.5
515.937	116.5
516.153	113.5
516.369	116.5
516.585	113.5
516.801	109.5
517.016	123.5
517.232	130.5
517.448	132.5
517.664	122.5
517.879	128.5
518.095	140.5
518.311	120.5
518.527	119.5
518.742	128.5
518.958	114.5
519.173	126.5
519.389	116.5
519.605	112.5
519.82	110.5
520.036	124.5
520.251	128.5
520.467	118.5
520.682	108.5
520.898	88.5
521.113	94.5
521.329	114.5
521.544	114.5
521.76	111.5
521.975	110.5
522.19	113.5
522.406	109.5
522.621	97.5
522.836	135.5
523.052	114.5
523.267	115.5
523.482	122.5
523.698	99.5
523.913	110.5
524.128	117.5
524.343	114.5
524.559	103.5
524.774	110.5
524.989	128.5
525.204	118.5
525.419	116.5
525.634	123.5
525.849	120.5
526.064	118.5
526.28	101.5
526.495	111.5
526.71	122.5
526.925	108.5
527.14	99.5
527.355	123.5
527.57	112.5
527.785	115.5
527.999	105.5
528.214	119.5
528.429	120.5
528.644	125.5
528.859	106.5
529.074	128.5
529.289	144.5
529.503	124.5
529.718	120.5
529.933	105.5
530.148	94.5
530.363	116.5
530.577	92.5
530.792	112.5
531.007	98.5
531.221	105.5
531.436	97.5
