Data from StandardFe(NO3)3.TAE.3%Agarose.FlatLispGreen.Lamp.Energy10.07252019_HRD10591_11-54-01-439.txt Node
Date: Thu Jul 25 11:54:01 EDT 2019
User: cochatt
Spectrometer: HR+D1059
Trigger mode: 1
Integration Time (sec): 1.000000E-1
Scans to average: 1
Electric dark correction enabled: true
Nonlinearity correction enabled: false
Boxcar width: 0
XAxis mode: Wavelengths
Number of Pixels in Spectrum: 2048
>>>>>Begin Spectral Data<<<<<
223.165	-6.62
223.4	-6.62
223.635	-6.62
223.869	-21.62
224.104	-20.62
224.338	-12.62
224.573	-7.62
224.808	-10.62
225.042	-18.62
225.277	-8.62
225.511	1.38
225.746	3.38
225.98	2.38
226.215	11.38
226.449	3.38
226.683	28.38
226.918	33.38
227.152	23.38
227.387	34.38
227.621	42.38
227.856	35.38
228.09	42.38
228.324	45.38
228.559	62.38
228.793	52.38
229.027	61.38
229.262	57.38
229.496	67.38
229.73	72.38
229.964	61.38
230.199	74.38
230.433	58.38
230.667	81.38
230.901	71.38
231.136	80.38
231.37	79.38
231.604	75.38
231.838	81.38
232.072	79.38
232.306	84.38
232.541	90.38
232.775	93.38
233.009	75.38
233.243	76.38
233.477	73.38
233.711	78.38
233.945	87.38
234.179	85.38
234.413	81.38
234.647	76.38
234.881	67.38
235.115	84.38
235.349	75.38
235.583	74.38
235.817	79.38
236.051	86.38
236.285	80.38
236.519	82.38
236.753	68.38
236.987	93.38
237.221	79.38
237.455	68.38
237.689	100.38
237.922	75.38
238.156	78.38
238.39	70.38
238.624	79.38
238.858	78.38
239.091	79.38
239.325	86.38
239.559	79.38
239.793	87.38
240.027	63.38
240.26	85.38
240.494	75.38
240.728	78.38
240.961	80.38
241.195	87.38
241.429	82.38
241.662	74.38
241.896	81.38
242.13	78.38
242.363	83.38
242.597	71.38
242.83	81.38
243.064	85.38
243.298	74.38
243.531	79.38
243.765	69.38
243.998	77.38
244.232	72.38
244.465	76.38
244.699	75.38
244.932	81.38
245.166	87.38
245.399	77.38
245.633	85.38
245.866	86.38
246.099	72.38
246.333	90.38
246.566	78.38
246.8	85.38
247.033	81.38
247.266	70.38
247.5	79.38
247.733	76.38
247.966	78.38
248.2	79.38
248.433	91.38
248.666	69.38
248.899	78.38
249.133	85.38
249.366	82.38
249.599	89.38
249.832	77.38
250.066	82.38
250.299	73.38
250.532	74.38
250.765	62.38
250.998	87.38
251.231	63.38
251.465	83.38
251.698	91.38
251.931	75.38
252.164	85.38
252.397	77.38
252.63	76.38
252.863	73.38
253.096	77.38
253.329	87.38
253.562	84.38
253.795	81.38
254.028	80.38
254.261	73.38
254.494	76.38
254.727	78.38
254.96	85.38
255.193	83.38
255.426	79.38
255.659	85.38
255.892	78.38
256.124	71.38
256.357	82.38
256.59	91.38
256.823	83.38
257.056	85.38
257.289	83.38
257.521	83.38
257.754	86.38
257.987	85.38
258.22	77.38
258.452	75.38
258.685	80.38
258.918	74.38
259.151	70.38
259.383	78.38
259.616	86.38
259.849	89.38
260.081	89.38
260.314	94.38
260.547	85.38
260.779	76.38
261.012	82.38
261.244	81.38
261.477	91.38
261.71	79.38
261.942	82.38
262.175	69.38
262.407	86.38
262.64	87.38
262.872	87.38
263.105	81.38
263.337	80.38
263.57	74.38
263.802	77.38
264.035	89.38
264.267	85.38
264.499	77.38
264.732	87.38
264.964	88.38
265.197	89.38
265.429	76.38
265.661	95.38
265.894	79.38
266.126	88.38
266.358	96.38
266.591	71.38
266.823	85.38
267.055	85.38
267.287	78.38
267.52	70.38
267.752	86.38
267.984	82.38
268.216	84.38
268.448	86.38
268.681	89.38
268.913	72.38
269.145	83.38
269.377	82.38
269.609	101.38
269.841	95.38
270.073	91.38
270.306	76.38
270.538	89.38
270.77	80.38
271.002	85.38
271.234	85.38
271.466	79.38
271.698	79.38
271.93	84.38
272.162	90.38
272.394	92.38
272.626	83.38
272.858	85.38
273.09	90.38
273.322	85.38
273.553	87.38
273.785	91.38
274.017	70.38
274.249	95.38
274.481	79.38
274.713	87.38
274.945	80.38
275.176	85.38
275.408	79.38
275.64	79.38
275.872	78.38
276.104	84.38
276.335	85.38
276.567	88.38
276.799	93.38
277.031	88.38
277.262	83.38
277.494	83.38
277.726	84.38
277.957	74.38
278.189	82.38
278.421	83.38
278.652	80.38
278.884	78.38
279.115	87.38
279.347	89.38
279.579	87.38
279.81	99.38
280.042	95.38
280.273	83.38
280.505	85.38
280.736	86.38
280.968	98.38
281.199	85.38
281.431	95.38
281.662	78.38
281.894	82.38
282.125	83.38
282.356	87.38
282.588	83.38
282.819	95.38
283.051	91.38
283.282	88.38
283.513	83.38
283.745	77.38
283.976	90.38
284.207	87.38
284.439	83.38
284.67	98.38
284.901	81.38
285.132	80.38
285.364	87.38
285.595	89.38
285.826	80.38
286.057	96.38
286.288	97.38
286.52	106.38
286.751	90.38
286.982	89.38
287.213	91.38
287.444	81.38
287.675	77.38
287.906	84.38
288.138	91.38
288.369	83.38
288.6	89.38
288.831	86.38
289.062	98.38
289.293	87.38
289.524	74.38
289.755	93.38
289.986	77.38
290.217	86.38
290.448	87.38
290.679	102.38
290.91	86.38
291.141	83.38
291.371	79.38
291.602	79.38
291.833	95.38
292.064	97.38
292.295	86.38
292.526	90.38
292.757	87.38
292.987	77.38
293.218	93.38
293.449	100.38
293.68	78.38
293.91	85.38
294.141	92.38
294.372	92.38
294.603	90.38
294.833	89.38
295.064	79.38
295.295	78.38
295.525	90.38
295.756	85.38
295.987	94.38
296.217	80.38
296.448	99.38
296.679	80.38
296.909	91.38
297.14	86.38
297.37	95.38
297.601	90.38
297.831	89.38
298.062	91.38
298.292	86.38
298.523	77.38
298.753	79.38
298.984	83.38
299.214	79.38
299.445	79.38
299.675	85.38
299.905	98.38
300.136	82.38
300.366	85.38
300.597	85.38
300.827	98.38
301.057	94.38
301.288	94.38
301.518	72.38
301.748	85.38
301.979	85.38
302.209	81.38
302.439	76.38
302.669	92.38
302.9	92.38
303.13	86.38
303.36	80.38
303.59	85.38
303.82	92.38
304.051	86.38
304.281	78.38
304.511	85.38
304.741	94.38
304.971	97.38
305.201	88.38
305.431	101.38
305.661	85.38
305.891	83.38
306.121	101.38
306.352	105.38
306.582	86.38
306.812	85.38
307.042	89.38
307.272	91.38
307.502	88.38
307.731	81.38
307.961	85.38
308.191	83.38
308.421	98.38
308.651	100.38
308.881	88.38
309.111	97.38
309.341	93.38
309.571	89.38
309.8	88.38
310.03	91.38
310.26	84.38
310.49	91.38
310.72	78.38
310.949	87.38
311.179	73.38
311.409	96.38
311.639	101.38
311.868	92.38
312.098	89.38
312.328	78.38
312.557	88.38
312.787	81.38
313.017	93.38
313.246	83.38
313.476	74.38
313.706	89.38
313.935	82.38
314.165	83.38
314.394	87.38
314.624	77.38
314.853	78.38
315.083	92.38
315.312	93.38
315.542	85.38
315.771	90.38
316.001	92.38
316.23	94.38
316.46	82.38
316.689	85.38
316.919	83.38
317.148	78.38
317.377	89.38
317.607	82.38
317.836	89.38
318.065	89.38
318.295	92.38
318.524	86.38
318.753	88.38
318.983	88.38
319.212	88.38
319.441	83.38
319.67	81.38
319.9	91.38
320.129	94.38
320.358	85.38
320.587	78.38
320.816	94.38
321.046	83.38
321.275	77.38
321.504	78.38
321.733	82.38
321.962	92.38
322.191	91.38
322.42	91.38
322.649	86.38
322.878	90.38
323.108	79.38
323.337	77.38
323.566	77.38
323.795	84.38
324.024	93.38
324.253	89.38
324.482	89.38
324.71	88.38
324.939	75.38
325.168	80.38
325.397	85.38
325.626	98.38
325.855	96.38
326.084	94.38
326.313	100.38
326.542	87.38
326.77	94.38
326.999	77.38
327.228	85.38
327.457	85.38
327.686	97.38
327.914	98.38
328.143	85.38
328.372	92.38
328.6	82.38
328.829	91.38
329.058	81.38
329.287	85.38
329.515	68.38
329.744	98.38
329.972	105.38
330.201	70.38
330.43	93.38
330.658	105.38
330.887	97.38
331.115	91.38
331.344	77.38
331.572	84.38
331.801	92.38
332.03	86.38
332.258	90.38
332.486	78.38
332.715	89.38
332.943	88.38
333.172	99.38
333.4	94.38
333.629	80.38
333.857	87.38
334.085	90.38
334.314	86.38
334.542	85.38
334.771	91.38
334.999	91.38
335.227	67.38
335.455	93.38
335.684	85.38
335.912	94.38
336.14	93.38
336.369	95.38
336.597	84.38
336.825	80.38
337.053	96.38
337.281	96.38
337.51	82.38
337.738	85.38
337.966	66.38
338.194	87.38
338.422	97.38
338.65	95.38
338.878	84.38
339.106	85.38
339.334	88.38
339.562	77.38
339.79	79.38
340.018	83.38
340.246	91.38
340.474	86.38
340.702	98.38
340.93	96.38
341.158	97.38
341.386	87.38
341.614	80.38
341.842	92.38
342.07	80.38
342.298	93.38
342.526	96.38
342.754	92.38
342.981	90.38
343.209	94.38
343.437	92.38
343.665	85.38
343.893	88.38
344.12	90.38
344.348	80.38
344.576	84.38
344.804	84.38
345.031	82.38
345.259	93.38
345.487	75.38
345.714	90.38
345.942	97.38
346.17	88.38
346.397	89.38
346.625	92.38
346.853	84.38
347.08	80.38
347.308	101.38
347.535	93.38
347.763	92.38
347.99	89.38
348.218	86.38
348.445	92.38
348.673	92.38
348.9	80.38
349.128	92.38
349.355	64.38
349.583	79.38
349.81	98.38
350.037	77.38
350.265	90.38
350.492	94.38
350.72	91.38
350.947	90.38
351.174	73.38
351.402	78.38
351.629	81.38
351.856	78.38
352.083	77.38
352.311	70.38
352.538	65.38
352.765	89.38
352.992	94.38
353.22	83.38
353.447	88.38
353.674	92.38
353.901	90.38
354.128	86.38
354.355	81.38
354.583	89.38
354.81	78.38
355.037	88.38
355.264	86.38
355.491	89.38
355.718	87.38
355.945	82.38
356.172	92.38
356.399	78.38
356.626	85.38
356.853	94.38
357.08	79.38
357.307	77.38
357.534	84.38
357.761	89.38
357.988	100.38
358.215	87.38
358.441	76.38
358.668	85.38
358.895	76.38
359.122	82.38
359.349	88.38
359.576	85.38
359.802	80.38
360.029	86.38
360.256	78.38
360.483	87.38
360.709	89.38
360.936	77.38
361.163	95.38
361.39	80.38
361.616	85.38
361.843	76.38
362.07	85.38
362.296	93.38
362.523	85.38
362.749	82.38
362.976	102.38
363.203	87.38
363.429	107.38
363.656	95.38
363.882	91.38
364.109	76.38
364.335	82.38
364.562	74.38
364.788	96.38
365.015	96.38
365.241	83.38
365.468	87.38
365.694	95.38
365.92	88.38
366.147	101.38
366.373	84.38
366.599	92.38
366.826	92.38
367.052	96.38
367.278	89.38
367.505	100.38
367.731	99.38
367.957	85.38
368.184	75.38
368.41	78.38
368.636	100.38
368.862	93.38
369.089	74.38
369.315	79.38
369.541	105.38
369.767	99.38
369.993	86.38
370.219	93.38
370.445	91.38
370.672	69.38
370.898	91.38
371.124	83.38
371.35	85.38
371.576	97.38
371.802	94.38
372.028	90.38
372.254	100.38
372.48	87.38
372.706	104.38
372.932	83.38
373.158	71.38
373.384	86.38
373.61	79.38
373.835	102.38
374.061	79.38
374.287	75.38
374.513	99.38
374.739	101.38
374.965	97.38
375.191	81.38
375.416	92.38
375.642	92.38
375.868	91.38
376.094	78.38
376.319	102.38
376.545	85.38
376.771	85.38
376.997	80.38
377.222	79.38
377.448	94.38
377.674	94.38
377.899	87.38
378.125	74.38
378.35	89.38
378.576	83.38
378.802	103.38
379.027	97.38
379.253	90.38
379.478	95.38
379.704	83.38
379.929	105.38
380.155	86.38
380.38	85.38
380.606	89.38
380.831	90.38
381.057	98.38
381.282	98.38
381.507	93.38
381.733	104.38
381.958	109.38
382.184	98.38
382.409	96.38
382.634	90.38
382.86	87.38
383.085	95.38
383.31	98.38
383.535	82.38
383.761	90.38
383.986	114.38
384.211	75.38
384.436	89.38
384.662	100.38
384.887	96.38
385.112	90.38
385.337	80.38
385.562	108.38
385.787	84.38
386.013	97.38
386.238	94.38
386.463	86.38
386.688	94.38
386.913	91.38
387.138	92.38
387.363	96.38
387.588	107.38
387.813	95.38
388.038	95.38
388.263	81.38
388.488	111.38
388.713	99.38
388.938	96.38
389.163	96.38
389.387	89.38
389.612	85.38
389.837	96.38
390.062	88.38
390.287	92.38
390.512	110.38
390.736	98.38
390.961	88.38
391.186	90.38
391.411	92.38
391.636	98.38
391.86	101.38
392.085	105.38
392.31	91.38
392.534	102.38
392.759	111.38
392.984	103.38
393.208	107.38
393.433	107.38
393.658	98.38
393.882	115.38
394.107	95.38
394.331	94.38
394.556	110.38
394.78	114.38
395.005	113.38
395.229	108.38
395.454	108.38
395.678	103.38
395.903	102.38
396.127	102.38
396.352	114.38
396.576	101.38
396.801	101.38
397.025	82.38
397.249	103.38
397.474	113.38
397.698	101.38
397.922	89.38
398.147	103.38
398.371	105.38
398.595	107.38
398.82	104.38
399.044	98.38
399.268	104.38
399.492	113.38
399.717	106.38
399.941	113.38
400.165	115.38
400.389	104.38
400.613	115.38
400.837	101.38
401.062	121.38
401.286	114.38
401.51	105.38
401.734	109.38
401.958	115.38
402.182	106.38
402.406	109.38
402.63	107.38
402.854	118.38
403.078	119.38
403.302	113.38
403.526	125.38
403.75	103.38
403.974	117.38
404.198	103.38
404.422	115.38
404.645	95.38
404.869	97.38
405.093	116.38
405.317	117.38
405.541	99.38
405.765	111.38
405.988	104.38
406.212	125.38
406.436	118.38
406.66	121.38
406.883	116.38
407.107	104.38
407.331	115.38
407.555	107.38
407.778	123.38
408.002	112.38
408.226	106.38
408.449	110.38
408.673	116.38
408.896	125.38
409.12	115.38
409.344	115.38
409.567	116.38
409.791	131.38
410.014	109.38
410.238	114.38
410.461	115.38
410.685	124.38
410.908	110.38
411.132	140.38
411.355	117.38
411.578	96.38
411.802	109.38
412.025	116.38
412.249	126.38
412.472	128.38
412.695	113.38
412.919	107.38
413.142	113.38
413.365	129.38
413.589	118.38
413.812	122.38
414.035	121.38
414.258	111.38
414.482	117.38
414.705	105.38
414.928	115.38
415.151	97.38
415.374	117.38
415.597	110.38
415.821	92.38
416.044	113.38
416.267	121.38
416.49	119.38
416.713	113.38
416.936	107.38
417.159	122.38
417.382	102.38
417.605	126.38
417.828	128.38
418.051	130.38
418.274	126.38
418.497	110.38
418.72	139.38
418.943	113.38
419.166	128.38
419.389	114.38
419.611	105.38
419.834	111.38
420.057	119.38
420.28	120.38
420.503	111.38
420.726	113.38
420.948	118.38
421.171	125.38
421.394	115.38
421.617	116.38
421.839	113.38
422.062	120.38
422.285	108.38
422.507	122.38
422.73	119.38
422.953	117.38
423.175	119.38
423.398	117.38
423.621	122.38
423.843	106.38
424.066	121.38
424.288	129.38
424.511	124.38
424.733	131.38
424.956	131.38
425.178	128.38
425.401	133.38
425.623	123.38
425.846	128.38
426.068	115.38
426.291	123.38
426.513	129.38
426.735	110.38
426.958	119.38
427.18	115.38
427.402	133.38
427.625	107.38
427.847	121.38
428.069	111.38
428.292	123.38
428.514	123.38
428.736	124.38
428.958	126.38
429.181	118.38
429.403	116.38
429.625	118.38
429.847	129.38
430.069	102.38
430.292	121.38
430.514	117.38
430.736	115.38
430.958	109.38
431.18	119.38
431.402	119.38
431.624	127.38
431.846	113.38
432.068	119.38
432.29	110.38
432.512	94.38
432.734	102.38
432.956	125.38
433.178	109.38
433.4	127.38
433.622	130.38
433.844	120.38
434.066	122.38
434.287	135.38
434.509	113.38
434.731	102.38
434.953	109.38
435.175	111.38
435.397	110.38
435.618	126.38
435.84	114.38
436.062	120.38
436.284	113.38
436.505	115.38
436.727	103.38
436.949	113.38
437.17	117.38
437.392	119.38
437.614	111.38
437.835	115.38
438.057	123.38
438.278	122.38
438.5	118.38
438.721	113.38
438.943	121.38
439.165	111.38
439.386	135.38
439.608	129.38
439.829	121.38
440.05	114.38
440.272	102.38
440.493	115.38
440.715	124.38
440.936	128.38
441.158	133.38
441.379	123.38
441.6	129.38
441.822	107.38
442.043	137.38
442.264	131.38
442.486	130.38
442.707	106.38
442.928	116.38
443.149	114.38
443.371	130.38
443.592	129.38
443.813	119.38
444.034	119.38
444.255	131.38
444.476	133.38
444.698	131.38
444.919	119.38
445.14	270.38
445.361	183.38
445.582	129.38
445.803	123.38
446.024	122.38
446.245	128.38
446.466	128.38
446.687	129.38
446.908	133.38
447.129	130.38
447.35	117.38
447.571	125.38
447.792	134.38
448.013	125.38
448.234	103.38
448.455	133.38
448.675	120.38
448.896	124.38
449.117	124.38
449.338	108.38
449.559	107.38
449.779	113.38
450	125.38
450.221	122.38
450.442	119.38
450.662	124.38
450.883	111.38
451.104	129.38
451.324	110.38
451.545	106.38
451.766	114.38
451.986	124.38
452.207	117.38
452.428	109.38
452.648	118.38
452.869	103.38
453.089	108.38
453.31	105.38
453.53	116.38
453.751	108.38
453.971	121.38
454.192	119.38
454.412	110.38
454.633	113.38
454.853	106.38
455.073	95.38
455.294	104.38
455.514	107.38
455.734	100.38
455.955	119.38
456.175	115.38
456.395	94.38
456.616	111.38
456.836	107.38
457.056	102.38
457.276	108.38
457.497	109.38
457.717	107.38
457.937	123.38
458.157	104.38
458.377	111.38
458.598	102.38
458.818	95.38
459.038	92.38
459.258	93.38
459.478	96.38
459.698	125.38
459.918	123.38
460.138	124.38
460.358	134.38
460.578	124.38
460.798	123.38
461.018	126.38
461.238	126.38
461.458	118.38
461.678	116.38
461.898	117.38
462.118	129.38
462.338	127.38
462.558	121.38
462.777	117.38
462.997	136.38
463.217	124.38
463.437	136.38
463.657	120.38
463.876	125.38
464.096	129.38
464.316	124.38
464.536	138.38
464.755	137.38
464.975	127.38
465.195	114.38
465.414	127.38
465.634	137.38
465.854	127.38
466.073	106.38
466.293	139.38
466.512	118.38
466.732	118.38
466.951	114.38
467.171	123.38
467.391	124.38
467.61	117.38
467.829	129.38
468.049	129.38
468.268	116.38
468.488	121.38
468.707	125.38
468.927	127.38
469.146	119.38
469.365	110.38
469.585	128.38
469.804	135.38
470.023	131.38
470.243	122.38
470.462	123.38
470.681	127.38
470.901	140.38
471.12	126.38
471.339	125.38
471.558	107.38
471.777	109.38
471.997	104.38
472.216	120.38
472.435	111.38
472.654	112.38
472.873	103.38
473.092	112.38
473.311	121.38
473.53	112.38
473.749	121.38
473.968	125.38
474.187	117.38
474.406	117.38
474.625	111.38
474.844	125.38
475.063	127.38
475.282	122.38
475.501	123.38
475.72	125.38
475.939	122.38
476.158	106.38
476.377	133.38
476.596	118.38
476.814	109.38
477.033	107.38
477.252	118.38
477.471	113.38
477.69	134.38
477.908	129.38
478.127	117.38
478.346	135.38
478.564	118.38
478.783	137.38
479.002	131.38
479.22	132.38
479.439	147.38
479.658	109.38
479.876	121.38
480.095	125.38
480.313	129.38
480.532	123.38
480.751	127.38
480.969	113.38
481.188	117.38
481.406	136.38
481.624	118.38
481.843	115.38
482.061	118.38
482.28	129.38
482.498	129.38
482.717	126.38
482.935	131.38
483.153	135.38
483.372	140.38
483.59	124.38
483.808	133.38
484.027	132.38
484.245	119.38
484.463	111.38
484.681	135.38
484.9	127.38
485.118	125.38
485.336	111.38
485.554	131.38
485.772	113.38
485.99	111.38
486.209	123.38
486.427	124.38
486.645	138.38
486.863	127.38
487.081	138.38
487.299	130.38
487.517	134.38
487.735	129.38
487.953	142.38
488.171	149.38
488.389	145.38
488.607	150.38
488.825	138.38
489.043	146.38
489.261	136.38
489.479	144.38
489.696	131.38
489.914	133.38
490.132	122.38
490.35	149.38
490.568	134.38
490.786	149.38
491.003	150.38
491.221	155.38
491.439	160.38
491.657	147.38
491.874	167.38
492.092	164.38
492.31	163.38
492.527	151.38
492.745	167.38
492.963	154.38
493.18	150.38
493.398	164.38
493.615	164.38
493.833	154.38
494.05	149.38
494.268	154.38
494.485	164.38
494.703	151.38
494.92	166.38
495.138	158.38
495.355	159.38
495.573	154.38
495.79	147.38
496.008	155.38
496.225	150.38
496.442	155.38
496.66	153.38
496.877	147.38
497.094	152.38
497.312	155.38
497.529	155.38
497.746	156.38
497.963	154.38
498.181	161.38
498.398	152.38
498.615	137.38
498.832	143.38
499.049	162.38
499.267	158.38
499.484	163.38
499.701	189.38
499.918	201.38
500.135	216.38
500.352	220.38
500.569	233.38
500.786	242.38
501.003	229.38
501.22	188.38
501.437	188.38
501.654	203.38
501.871	179.38
502.088	147.38
502.305	169.38
502.522	161.38
502.739	145.38
502.956	143.38
503.172	131.38
503.389	134.38
503.606	148.38
503.823	139.38
504.04	133.38
504.256	139.38
504.473	147.38
504.69	145.38
504.907	149.38
505.123	142.38
505.34	142.38
505.557	124.38
505.773	143.38
505.99	120.38
506.207	139.38
506.423	127.38
506.64	127.38
506.856	141.38
507.073	141.38
507.289	127.38
507.506	125.38
507.722	125.38
507.939	122.38
508.155	129.38
508.372	133.38
508.588	119.38
508.805	122.38
509.021	126.38
509.238	137.38
509.454	119.38
509.67	129.38
509.887	118.38
510.103	124.38
510.319	125.38
510.536	120.38
510.752	116.38
510.968	115.38
511.184	117.38
