Data from StandardFe(NO3)3.TAE.3%Agarose.FlatLispGreen.Lamp.Energy10.07252019_HRD10591_11-56-05-442.txt Node
Date: Thu Jul 25 11:56:05 EDT 2019
User: cochatt
Spectrometer: HR+D1059
Trigger mode: 1
Integration Time (sec): 1.000000E-1
Scans to average: 1
Electric dark correction enabled: true
Nonlinearity correction enabled: false
Boxcar width: 0
XAxis mode: Wavelengths
Number of Pixels in Spectrum: 2048
>>>>>Begin Spectral Data<<<<<
223.165	-18.31
223.4	-18.31
223.635	-18.31
223.869	-26.31
224.104	-10.31
224.338	2.69
224.573	-18.31
224.808	-17.31
225.042	-1.31
225.277	-4.31
225.511	-15.31
225.746	-19.31
225.98	9.69
226.215	0.69
226.449	26.69
226.683	26.69
226.918	38.69
227.152	25.69
227.387	36.69
227.621	40.69
227.856	32.69
228.09	47.69
228.324	32.69
228.559	58.69
228.793	71.69
229.027	65.69
229.262	66.69
229.496	72.69
229.73	73.69
229.964	69.69
230.199	80.69
230.433	72.69
230.667	77.69
230.901	84.69
231.136	76.69
231.37	74.69
231.604	85.69
231.838	83.69
232.072	74.69
232.306	83.69
232.541	78.69
232.775	84.69
233.009	89.69
233.243	91.69
233.477	97.69
233.711	76.69
233.945	83.69
234.179	84.69
234.413	89.69
234.647	82.69
234.881	73.69
235.115	78.69
235.349	85.69
235.583	82.69
235.817	88.69
236.051	77.69
236.285	86.69
236.519	85.69
236.753	71.69
236.987	78.69
237.221	99.69
237.455	85.69
237.689	82.69
237.922	81.69
238.156	73.69
238.39	88.69
238.624	83.69
238.858	82.69
239.091	91.69
239.325	85.69
239.559	73.69
239.793	73.69
240.027	66.69
240.26	77.69
240.494	87.69
240.728	77.69
240.961	77.69
241.195	84.69
241.429	82.69
241.662	84.69
241.896	79.69
242.13	75.69
242.363	83.69
242.597	82.69
242.83	85.69
243.064	82.69
243.298	77.69
243.531	76.69
243.765	77.69
243.998	81.69
244.232	80.69
244.465	79.69
244.699	85.69
244.932	92.69
245.166	78.69
245.399	90.69
245.633	86.69
245.866	88.69
246.099	72.69
246.333	71.69
246.566	94.69
246.8	78.69
247.033	64.69
247.266	85.69
247.5	70.69
247.733	80.69
247.966	67.69
248.2	82.69
248.433	78.69
248.666	78.69
248.899	89.69
249.133	86.69
249.366	87.69
249.599	76.69
249.832	85.69
250.066	79.69
250.299	70.69
250.532	74.69
250.765	71.69
250.998	93.69
251.231	88.69
251.465	88.69
251.698	60.69
251.931	81.69
252.164	76.69
252.397	73.69
252.63	77.69
252.863	75.69
253.096	85.69
253.329	81.69
253.562	81.69
253.795	68.69
254.028	88.69
254.261	73.69
254.494	76.69
254.727	82.69
254.96	80.69
255.193	85.69
255.426	93.69
255.659	85.69
255.892	78.69
256.124	76.69
256.357	84.69
256.59	85.69
256.823	90.69
257.056	93.69
257.289	86.69
257.521	90.69
257.754	86.69
257.987	92.69
258.22	79.69
258.452	81.69
258.685	91.69
258.918	82.69
259.151	74.69
259.383	86.69
259.616	80.69
259.849	81.69
260.081	86.69
260.314	87.69
260.547	97.69
260.779	80.69
261.012	84.69
261.244	86.69
261.477	94.69
261.71	95.69
261.942	83.69
262.175	78.69
262.407	76.69
262.64	80.69
262.872	76.69
263.105	82.69
263.337	83.69
263.57	84.69
263.802	77.69
264.035	89.69
264.267	83.69
264.499	89.69
264.732	93.69
264.964	77.69
265.197	84.69
265.429	77.69
265.661	93.69
265.894	68.69
266.126	89.69
266.358	78.69
266.591	78.69
266.823	91.69
267.055	74.69
267.287	72.69
267.52	89.69
267.752	79.69
267.984	91.69
268.216	80.69
268.448	94.69
268.681	93.69
268.913	89.69
269.145	84.69
269.377	98.69
269.609	96.69
269.841	86.69
270.073	79.69
270.306	93.69
270.538	80.69
270.77	78.69
271.002	81.69
271.234	81.69
271.466	81.69
271.698	93.69
271.93	94.69
272.162	82.69
272.394	87.69
272.626	81.69
272.858	67.69
273.09	75.69
273.322	88.69
273.553	83.69
273.785	90.69
274.017	84.69
274.249	80.69
274.481	81.69
274.713	91.69
274.945	82.69
275.176	75.69
275.408	86.69
275.64	87.69
275.872	87.69
276.104	100.69
276.335	89.69
276.567	86.69
276.799	70.69
277.031	92.69
277.262	76.69
277.494	83.69
277.726	89.69
277.957	97.69
278.189	81.69
278.421	77.69
278.652	88.69
278.884	86.69
279.115	73.69
279.347	88.69
279.579	88.69
279.81	90.69
280.042	71.69
280.273	74.69
280.505	78.69
280.736	91.69
280.968	95.69
281.199	78.69
281.431	94.69
281.662	67.69
281.894	93.69
282.125	85.69
282.356	89.69
282.588	87.69
282.819	73.69
283.051	89.69
283.282	74.69
283.513	89.69
283.745	101.69
283.976	93.69
284.207	97.69
284.439	80.69
284.67	86.69
284.901	81.69
285.132	78.69
285.364	88.69
285.595	95.69
285.826	90.69
286.057	88.69
286.288	72.69
286.52	81.69
286.751	83.69
286.982	89.69
287.213	87.69
287.444	83.69
287.675	87.69
287.906	96.69
288.138	86.69
288.369	91.69
288.6	78.69
288.831	90.69
289.062	82.69
289.293	92.69
289.524	87.69
289.755	84.69
289.986	88.69
290.217	83.69
290.448	99.69
290.679	90.69
290.91	86.69
291.141	82.69
291.371	78.69
291.602	76.69
291.833	95.69
292.064	81.69
292.295	90.69
292.526	92.69
292.757	99.69
292.987	86.69
293.218	68.69
293.449	89.69
293.68	82.69
293.91	81.69
294.141	89.69
294.372	77.69
294.603	84.69
294.833	90.69
295.064	73.69
295.295	89.69
295.525	82.69
295.756	93.69
295.987	88.69
296.217	84.69
296.448	97.69
296.679	83.69
296.909	82.69
297.14	84.69
297.37	95.69
297.601	104.69
297.831	84.69
298.062	97.69
298.292	86.69
298.523	88.69
298.753	86.69
298.984	89.69
299.214	82.69
299.445	86.69
299.675	89.69
299.905	93.69
300.136	90.69
300.366	98.69
300.597	87.69
300.827	93.69
301.057	103.69
301.288	100.69
301.518	84.69
301.748	76.69
301.979	66.69
302.209	97.69
302.439	100.69
302.669	79.69
302.9	89.69
303.13	93.69
303.36	89.69
303.59	89.69
303.82	88.69
304.051	88.69
304.281	81.69
304.511	97.69
304.741	75.69
304.971	90.69
305.201	85.69
305.431	89.69
305.661	87.69
305.891	84.69
306.121	81.69
306.352	81.69
306.582	74.69
306.812	82.69
307.042	84.69
307.272	89.69
307.502	94.69
307.731	84.69
307.961	81.69
308.191	81.69
308.421	72.69
308.651	93.69
308.881	96.69
309.111	104.69
309.341	77.69
309.571	86.69
309.8	88.69
310.03	96.69
310.26	88.69
310.49	96.69
310.72	95.69
310.949	86.69
311.179	94.69
311.409	91.69
311.639	78.69
311.868	92.69
312.098	82.69
312.328	88.69
312.557	77.69
312.787	74.69
313.017	81.69
313.246	83.69
313.476	91.69
313.706	78.69
313.935	82.69
314.165	93.69
314.394	97.69
314.624	78.69
314.853	90.69
315.083	86.69
315.312	89.69
315.542	91.69
315.771	74.69
316.001	80.69
316.23	77.69
316.46	85.69
316.689	96.69
316.919	97.69
317.148	90.69
317.377	88.69
317.607	92.69
317.836	84.69
318.065	86.69
318.295	89.69
318.524	83.69
318.753	76.69
318.983	76.69
319.212	91.69
319.441	89.69
319.67	99.69
319.9	96.69
320.129	95.69
320.358	85.69
320.587	82.69
320.816	89.69
321.046	80.69
321.275	101.69
321.504	82.69
321.733	93.69
321.962	94.69
322.191	86.69
322.42	89.69
322.649	90.69
322.878	89.69
323.108	86.69
323.337	88.69
323.566	81.69
323.795	90.69
324.024	100.69
324.253	85.69
324.482	97.69
324.71	92.69
324.939	107.69
325.168	107.69
325.397	77.69
325.626	83.69
325.855	90.69
326.084	98.69
326.313	81.69
326.542	86.69
326.77	91.69
326.999	73.69
327.228	86.69
327.457	85.69
327.686	92.69
327.914	97.69
328.143	87.69
328.372	96.69
328.6	92.69
328.829	84.69
329.058	91.69
329.287	94.69
329.515	76.69
329.744	87.69
329.972	88.69
330.201	98.69
330.43	87.69
330.658	89.69
330.887	81.69
331.115	88.69
331.344	86.69
331.572	92.69
331.801	85.69
332.03	89.69
332.258	91.69
332.486	60.69
332.715	77.69
332.943	71.69
333.172	67.69
333.4	88.69
333.629	89.69
333.857	90.69
334.085	100.69
334.314	104.69
334.542	84.69
334.771	92.69
334.999	88.69
335.227	80.69
335.455	90.69
335.684	100.69
335.912	89.69
336.14	85.69
336.369	88.69
336.597	72.69
336.825	79.69
337.053	83.69
337.281	84.69
337.51	92.69
337.738	95.69
337.966	77.69
338.194	91.69
338.422	84.69
338.65	81.69
338.878	84.69
339.106	88.69
339.334	89.69
339.562	85.69
339.79	78.69
340.018	76.69
340.246	78.69
340.474	70.69
340.702	84.69
340.93	93.69
341.158	75.69
341.386	66.69
341.614	101.69
341.842	92.69
342.07	92.69
342.298	83.69
342.526	85.69
342.754	92.69
342.981	84.69
343.209	94.69
343.437	87.69
343.665	90.69
343.893	77.69
344.12	91.69
344.348	89.69
344.576	88.69
344.804	85.69
345.031	77.69
345.259	88.69
345.487	81.69
345.714	85.69
345.942	82.69
346.17	92.69
346.397	88.69
346.625	96.69
346.853	82.69
347.08	92.69
347.308	86.69
347.535	77.69
347.763	96.69
347.99	93.69
348.218	88.69
348.445	83.69
348.673	96.69
348.9	93.69
349.128	97.69
349.355	86.69
349.583	82.69
349.81	86.69
350.037	89.69
350.265	82.69
350.492	89.69
350.72	84.69
350.947	90.69
351.174	91.69
351.402	79.69
351.629	88.69
351.856	91.69
352.083	83.69
352.311	85.69
352.538	100.69
352.765	81.69
352.992	90.69
353.22	78.69
353.447	79.69
353.674	90.69
353.901	82.69
354.128	79.69
354.355	94.69
354.583	82.69
354.81	91.69
355.037	84.69
355.264	74.69
355.491	86.69
355.718	87.69
355.945	106.69
356.172	100.69
356.399	82.69
356.626	84.69
356.853	79.69
357.08	94.69
357.307	86.69
357.534	71.69
357.761	88.69
357.988	89.69
358.215	97.69
358.441	91.69
358.668	88.69
358.895	79.69
359.122	80.69
359.349	81.69
359.576	90.69
359.802	78.69
360.029	77.69
360.256	84.69
360.483	83.69
360.709	79.69
360.936	83.69
361.163	78.69
361.39	89.69
361.616	93.69
361.843	88.69
362.07	93.69
362.296	89.69
362.523	88.69
362.749	82.69
362.976	84.69
363.203	88.69
363.429	92.69
363.656	90.69
363.882	86.69
364.109	80.69
364.335	86.69
364.562	94.69
364.788	82.69
365.015	84.69
365.241	91.69
365.468	98.69
365.694	108.69
365.92	92.69
366.147	75.69
366.373	90.69
366.599	100.69
366.826	79.69
367.052	77.69
367.278	83.69
367.505	91.69
367.731	84.69
367.957	94.69
368.184	83.69
368.41	103.69
368.636	94.69
368.862	91.69
369.089	87.69
369.315	96.69
369.541	78.69
369.767	98.69
369.993	88.69
370.219	79.69
370.445	107.69
370.672	93.69
370.898	85.69
371.124	90.69
371.35	98.69
371.576	94.69
371.802	96.69
372.028	94.69
372.254	81.69
372.48	86.69
372.706	88.69
372.932	78.69
373.158	93.69
373.384	85.69
373.61	94.69
373.835	86.69
374.061	89.69
374.287	96.69
374.513	93.69
374.739	92.69
374.965	81.69
375.191	90.69
375.416	77.69
375.642	74.69
375.868	87.69
376.094	81.69
376.319	98.69
376.545	99.69
376.771	90.69
376.997	80.69
377.222	89.69
377.448	88.69
377.674	90.69
377.899	92.69
378.125	86.69
378.35	81.69
378.576	101.69
378.802	108.69
379.027	78.69
379.253	97.69
379.478	89.69
379.704	96.69
379.929	92.69
380.155	98.69
380.38	82.69
380.606	82.69
380.831	89.69
381.057	102.69
381.282	105.69
381.507	83.69
381.733	98.69
381.958	88.69
382.184	96.69
382.409	90.69
382.634	97.69
382.86	105.69
383.085	95.69
383.31	102.69
383.535	94.69
383.761	81.69
383.986	90.69
384.211	105.69
384.436	106.69
384.662	112.69
384.887	99.69
385.112	85.69
385.337	92.69
385.562	90.69
385.787	92.69
386.013	103.69
386.238	107.69
386.463	103.69
386.688	83.69
386.913	101.69
387.138	97.69
387.363	88.69
387.588	86.69
387.813	86.69
388.038	96.69
388.263	86.69
388.488	85.69
388.713	99.69
388.938	92.69
389.163	93.69
389.387	109.69
389.612	83.69
389.837	97.69
390.062	92.69
390.287	110.69
390.512	98.69
390.736	99.69
390.961	84.69
391.186	90.69
391.411	94.69
391.636	91.69
391.86	82.69
392.085	120.69
392.31	101.69
392.534	94.69
392.759	116.69
392.984	103.69
393.208	100.69
393.433	97.69
393.658	86.69
393.882	112.69
394.107	102.69
394.331	110.69
394.556	99.69
394.78	96.69
395.005	105.69
395.229	96.69
395.454	98.69
395.678	109.69
395.903	93.69
396.127	103.69
396.352	100.69
396.576	90.69
396.801	101.69
397.025	98.69
397.249	101.69
397.474	102.69
397.698	102.69
397.922	102.69
398.147	93.69
398.371	97.69
398.595	92.69
398.82	110.69
399.044	112.69
399.268	104.69
399.492	128.69
399.717	116.69
399.941	114.69
400.165	115.69
400.389	102.69
400.613	101.69
400.837	108.69
401.062	99.69
401.286	92.69
401.51	100.69
401.734	97.69
401.958	102.69
402.182	109.69
402.406	109.69
402.63	110.69
402.854	107.69
403.078	101.69
403.302	107.69
403.526	95.69
403.75	113.69
403.974	107.69
404.198	112.69
404.422	109.69
404.645	108.69
404.869	105.69
405.093	99.69
405.317	98.69
405.541	114.69
405.765	100.69
405.988	104.69
406.212	108.69
406.436	103.69
406.66	101.69
406.883	107.69
407.107	120.69
407.331	117.69
407.555	109.69
407.778	107.69
408.002	109.69
408.226	118.69
408.449	96.69
408.673	110.69
408.896	93.69
409.12	108.69
409.344	103.69
409.567	106.69
409.791	119.69
410.014	116.69
410.238	113.69
410.461	107.69
410.685	107.69
410.908	114.69
411.132	114.69
411.355	118.69
411.578	101.69
411.802	103.69
412.025	123.69
412.249	106.69
412.472	93.69
412.695	89.69
412.919	111.69
413.142	112.69
413.365	90.69
413.589	108.69
413.812	108.69
414.035	116.69
414.258	108.69
414.482	102.69
414.705	112.69
414.928	96.69
415.151	106.69
415.374	114.69
415.597	116.69
415.821	112.69
416.044	100.69
416.267	116.69
416.49	115.69
416.713	124.69
416.936	103.69
417.159	113.69
417.382	93.69
417.605	101.69
417.828	99.69
418.051	113.69
418.274	110.69
418.497	114.69
418.72	97.69
418.943	99.69
419.166	106.69
419.389	126.69
419.611	109.69
419.834	128.69
420.057	116.69
420.28	120.69
420.503	101.69
420.726	82.69
420.948	110.69
421.171	106.69
421.394	108.69
421.617	117.69
421.839	106.69
422.062	120.69
422.285	116.69
422.507	109.69
422.73	112.69
422.953	98.69
423.175	118.69
423.398	116.69
423.621	130.69
423.843	135.69
424.066	129.69
424.288	125.69
424.511	125.69
424.733	115.69
424.956	105.69
425.178	101.69
425.401	107.69
425.623	130.69
425.846	103.69
426.068	97.69
426.291	114.69
426.513	114.69
426.735	124.69
426.958	116.69
427.18	99.69
427.402	105.69
427.625	108.69
427.847	100.69
428.069	111.69
428.292	106.69
428.514	100.69
428.736	105.69
428.958	98.69
429.181	99.69
429.403	123.69
429.625	98.69
429.847	114.69
430.069	99.69
430.292	113.69
430.514	107.69
430.736	110.69
430.958	108.69
431.18	126.69
431.402	117.69
431.624	106.69
431.846	104.69
432.068	104.69
432.29	102.69
432.512	109.69
432.734	110.69
432.956	109.69
433.178	113.69
433.4	136.69
433.622	112.69
433.844	113.69
434.066	113.69
434.287	103.69
434.509	86.69
434.731	127.69
434.953	109.69
435.175	117.69
435.397	114.69
435.618	106.69
435.84	112.69
436.062	109.69
436.284	105.69
436.505	102.69
436.727	130.69
436.949	96.69
437.17	94.69
437.392	111.69
437.614	121.69
437.835	98.69
438.057	118.69
438.278	110.69
438.5	91.69
438.721	107.69
438.943	113.69
439.165	102.69
439.386	116.69
439.608	121.69
439.829	103.69
440.05	131.69
440.272	96.69
440.493	116.69
440.715	108.69
440.936	116.69
441.158	113.69
441.379	122.69
441.6	125.69
441.822	128.69
442.043	122.69
442.264	124.69
442.486	120.69
442.707	116.69
442.928	127.69
443.149	102.69
443.371	116.69
443.592	108.69
443.813	108.69
444.034	123.69
444.255	111.69
444.476	114.69
444.698	128.69
444.919	117.69
445.14	229.69
445.361	184.69
445.582	117.69
445.803	123.69
446.024	128.69
446.245	124.69
446.466	134.69
446.687	108.69
446.908	118.69
447.129	123.69
447.35	113.69
447.571	115.69
447.792	95.69
448.013	121.69
448.234	101.69
448.455	117.69
448.675	105.69
448.896	116.69
449.117	108.69
449.338	89.69
449.559	122.69
449.779	118.69
450	100.69
450.221	112.69
450.442	108.69
450.662	118.69
450.883	122.69
451.104	113.69
451.324	106.69
451.545	117.69
451.766	100.69
451.986	109.69
452.207	100.69
452.428	112.69
452.648	131.69
452.869	118.69
453.089	103.69
453.31	101.69
453.53	104.69
453.751	107.69
453.971	110.69
454.192	115.69
454.412	108.69
454.633	106.69
454.853	102.69
455.073	109.69
455.294	105.69
455.514	103.69
455.734	105.69
455.955	103.69
456.175	100.69
456.395	96.69
456.616	93.69
456.836	103.69
457.056	102.69
457.276	99.69
457.497	108.69
457.717	92.69
457.937	101.69
458.157	99.69
458.377	103.69
458.598	105.69
458.818	104.69
459.038	115.69
459.258	107.69
459.478	98.69
459.698	99.69
459.918	117.69
460.138	98.69
460.358	117.69
460.578	107.69
460.798	112.69
461.018	113.69
461.238	121.69
461.458	122.69
461.678	118.69
461.898	120.69
462.118	121.69
462.338	116.69
462.558	125.69
462.777	117.69
462.997	124.69
463.217	132.69
463.437	126.69
463.657	112.69
463.876	105.69
464.096	108.69
464.316	121.69
464.536	118.69
464.755	106.69
464.975	114.69
465.195	132.69
465.414	123.69
465.634	110.69
465.854	117.69
466.073	114.69
466.293	114.69
466.512	111.69
466.732	118.69
466.951	114.69
467.171	112.69
467.391	117.69
467.61	113.69
467.829	113.69
468.049	115.69
468.268	114.69
468.488	106.69
468.707	103.69
468.927	116.69
469.146	92.69
469.365	126.69
469.585	122.69
469.804	113.69
470.023	113.69
470.243	109.69
470.462	120.69
470.681	101.69
470.901	119.69
471.12	121.69
471.339	123.69
471.558	134.69
471.777	118.69
471.997	112.69
472.216	124.69
472.435	108.69
472.654	120.69
472.873	118.69
473.092	105.69
473.311	114.69
473.53	132.69
473.749	124.69
473.968	106.69
474.187	114.69
474.406	109.69
474.625	103.69
474.844	118.69
475.063	116.69
475.282	114.69
475.501	116.69
475.72	121.69
475.939	116.69
476.158	107.69
476.377	115.69
476.596	98.69
476.814	105.69
477.033	119.69
477.252	110.69
477.471	116.69
477.69	130.69
477.908	124.69
478.127	128.69
478.346	143.69
478.564	130.69
478.783	120.69
479.002	120.69
479.22	122.69
479.439	108.69
479.658	112.69
479.876	113.69
480.095	130.69
480.313	140.69
480.532	128.69
480.751	138.69
480.969	107.69
481.188	113.69
481.406	114.69
481.624	102.69
481.843	117.69
482.061	97.69
482.28	108.69
482.498	114.69
482.717	110.69
482.935	112.69
483.153	119.69
483.372	123.69
483.59	131.69
483.808	130.69
484.027	134.69
484.245	135.69
484.463	121.69
484.681	126.69
484.9	128.69
485.118	119.69
485.336	114.69
485.554	115.69
485.772	104.69
485.99	112.69
486.209	116.69
486.427	134.69
486.645	130.69
486.863	133.69
487.081	126.69
487.299	134.69
487.517	137.69
487.735	139.69
487.953	138.69
488.171	144.69
488.389	134.69
488.607	127.69
488.825	115.69
489.043	139.69
489.261	125.69
489.479	121.69
489.696	138.69
489.914	127.69
490.132	135.69
490.35	125.69
490.568	137.69
490.786	164.69
491.003	140.69
491.221	141.69
491.439	154.69
491.657	150.69
491.874	173.69
492.092	152.69
492.31	163.69
492.527	168.69
492.745	149.69
492.963	155.69
493.18	153.69
493.398	151.69
493.615	154.69
493.833	140.69
494.05	142.69
494.268	144.69
494.485	147.69
494.703	147.69
494.92	132.69
495.138	133.69
495.355	156.69
495.573	140.69
495.79	149.69
496.008	146.69
496.225	139.69
496.442	125.69
496.66	156.69
496.877	134.69
497.094	153.69
497.312	146.69
497.529	154.69
497.746	139.69
497.963	132.69
498.181	130.69
498.398	138.69
498.615	143.69
498.832	143.69
499.049	148.69
499.267	155.69
499.484	156.69
499.701	164.69
499.918	173.69
500.135	188.69
500.352	197.69
500.569	218.69
500.786	206.69
501.003	202.69
501.22	192.69
501.437	181.69
501.654	158.69
501.871	164.69
502.088	146.69
502.305	143.69
502.522	150.69
502.739	137.69
502.956	132.69
503.172	132.69
503.389	136.69
503.606	138.69
503.823	135.69
504.04	130.69
504.256	136.69
504.473	134.69
504.69	120.69
504.907	141.69
505.123	129.69
505.34	137.69
505.557	140.69
505.773	126.69
505.99	132.69
506.207	128.69
506.423	117.69
506.64	115.69
506.856	127.69
507.073	129.69
507.289	121.69
507.506	120.69
507.722	131.69
507.939	123.69
508.155	116.69
508.372	114.69
508.588	103.69
508.805	120.69
509.021	121.69
509.238	134.69
509.454	117.69
509.67	125.69
509.887	126.69
510.103	112.69
510.319	117.69
510.536	105.69
510.752	111.69
510.968	116.69
511.184	105.69
511.401	112.69
511.617	112.69
