Data from StandardFe(NO3)3.TAE.3%Agarose.FlatLispGreen.Lamp.Energy10.07252019_HRD10591_11-53-35-440.txt Node
Date: Thu Jul 25 11:53:35 EDT 2019
User: cochatt
Spectrometer: HR+D1059
Trigger mode: 1
Integration Time (sec): 1.000000E-1
Scans to average: 1
Electric dark correction enabled: true
Nonlinearity correction enabled: false
Boxcar width: 0
XAxis mode: Wavelengths
Number of Pixels in Spectrum: 2048
>>>>>Begin Spectral Data<<<<<
223.165	-21.44
223.4	-21.44
223.635	-21.44
223.869	-17.44
224.104	-21.44
224.338	-3.44
224.573	-28.44
224.808	-19.44
225.042	-5.44
225.277	-4.44
225.511	-4.44
225.746	22.56
225.98	6.56
226.215	17.56
226.449	6.56
226.683	24.56
226.918	27.56
227.152	20.56
227.387	33.56
227.621	30.56
227.856	30.56
228.09	48.56
228.324	57.56
228.559	67.56
228.793	61.56
229.027	47.56
229.262	57.56
229.496	65.56
229.73	69.56
229.964	72.56
230.199	60.56
230.433	74.56
230.667	79.56
230.901	70.56
231.136	68.56
231.37	76.56
231.604	78.56
231.838	73.56
232.072	73.56
232.306	75.56
232.541	82.56
232.775	82.56
233.009	89.56
233.243	80.56
233.477	88.56
233.711	83.56
233.945	74.56
234.179	71.56
234.413	71.56
234.647	82.56
234.881	82.56
235.115	63.56
235.349	65.56
235.583	80.56
235.817	90.56
236.051	91.56
236.285	86.56
236.519	75.56
236.753	74.56
236.987	78.56
237.221	72.56
237.455	71.56
237.689	77.56
237.922	72.56
238.156	68.56
238.39	73.56
238.624	84.56
238.858	67.56
239.091	75.56
239.325	70.56
239.559	67.56
239.793	76.56
240.027	74.56
240.26	74.56
240.494	75.56
240.728	70.56
240.961	60.56
241.195	80.56
241.429	87.56
241.662	81.56
241.896	83.56
242.13	65.56
242.363	82.56
242.597	79.56
242.83	73.56
243.064	68.56
243.298	80.56
243.531	82.56
243.765	79.56
243.998	79.56
244.232	62.56
244.465	78.56
244.699	83.56
244.932	80.56
245.166	84.56
245.399	86.56
245.633	87.56
245.866	79.56
246.099	88.56
246.333	89.56
246.566	67.56
246.8	79.56
247.033	79.56
247.266	56.56
247.5	72.56
247.733	78.56
247.966	74.56
248.2	78.56
248.433	74.56
248.666	79.56
248.899	80.56
249.133	79.56
249.366	79.56
249.599	76.56
249.832	88.56
250.066	76.56
250.299	76.56
250.532	85.56
250.765	89.56
250.998	79.56
251.231	56.56
251.465	62.56
251.698	80.56
251.931	79.56
252.164	87.56
252.397	69.56
252.63	77.56
252.863	75.56
253.096	80.56
253.329	87.56
253.562	81.56
253.795	78.56
254.028	78.56
254.261	84.56
254.494	98.56
254.727	83.56
254.96	83.56
255.193	90.56
255.426	81.56
255.659	95.56
255.892	88.56
256.124	78.56
256.357	85.56
256.59	84.56
256.823	81.56
257.056	87.56
257.289	83.56
257.521	71.56
257.754	83.56
257.987	83.56
258.22	70.56
258.452	69.56
258.685	77.56
258.918	82.56
259.151	80.56
259.383	85.56
259.616	77.56
259.849	81.56
260.081	75.56
260.314	80.56
260.547	89.56
260.779	89.56
261.012	83.56
261.244	83.56
261.477	85.56
261.71	90.56
261.942	69.56
262.175	92.56
262.407	80.56
262.64	80.56
262.872	74.56
263.105	78.56
263.337	80.56
263.57	81.56
263.802	89.56
264.035	90.56
264.267	89.56
264.499	77.56
264.732	73.56
264.964	70.56
265.197	91.56
265.429	72.56
265.661	92.56
265.894	98.56
266.126	82.56
266.358	67.56
266.591	95.56
266.823	64.56
267.055	83.56
267.287	84.56
267.52	70.56
267.752	79.56
267.984	79.56
268.216	93.56
268.448	81.56
268.681	74.56
268.913	83.56
269.145	98.56
269.377	81.56
269.609	91.56
269.841	83.56
270.073	81.56
270.306	83.56
270.538	74.56
270.77	84.56
271.002	88.56
271.234	66.56
271.466	96.56
271.698	77.56
271.93	73.56
272.162	85.56
272.394	87.56
272.626	76.56
272.858	85.56
273.09	85.56
273.322	79.56
273.553	83.56
273.785	76.56
274.017	81.56
274.249	82.56
274.481	96.56
274.713	74.56
274.945	93.56
275.176	88.56
275.408	80.56
275.64	84.56
275.872	80.56
276.104	80.56
276.335	83.56
276.567	77.56
276.799	82.56
277.031	73.56
277.262	91.56
277.494	97.56
277.726	77.56
277.957	93.56
278.189	65.56
278.421	90.56
278.652	81.56
278.884	87.56
279.115	78.56
279.347	74.56
279.579	76.56
279.81	86.56
280.042	84.56
280.273	74.56
280.505	81.56
280.736	80.56
280.968	108.56
281.199	84.56
281.431	97.56
281.662	89.56
281.894	76.56
282.125	84.56
282.356	82.56
282.588	70.56
282.819	82.56
283.051	84.56
283.282	81.56
283.513	93.56
283.745	88.56
283.976	98.56
284.207	99.56
284.439	82.56
284.67	88.56
284.901	93.56
285.132	91.56
285.364	83.56
285.595	93.56
285.826	87.56
286.057	81.56
286.288	92.56
286.52	74.56
286.751	90.56
286.982	73.56
287.213	86.56
287.444	103.56
287.675	90.56
287.906	78.56
288.138	72.56
288.369	87.56
288.6	73.56
288.831	76.56
289.062	89.56
289.293	88.56
289.524	84.56
289.755	96.56
289.986	82.56
290.217	79.56
290.448	71.56
290.679	78.56
290.91	83.56
291.141	85.56
291.371	81.56
291.602	85.56
291.833	82.56
292.064	94.56
292.295	75.56
292.526	77.56
292.757	74.56
292.987	84.56
293.218	95.56
293.449	83.56
293.68	83.56
293.91	76.56
294.141	82.56
294.372	96.56
294.603	86.56
294.833	94.56
295.064	84.56
295.295	87.56
295.525	79.56
295.756	76.56
295.987	86.56
296.217	88.56
296.448	85.56
296.679	83.56
296.909	82.56
297.14	80.56
297.37	86.56
297.601	86.56
297.831	76.56
298.062	88.56
298.292	79.56
298.523	86.56
298.753	86.56
298.984	91.56
299.214	79.56
299.445	85.56
299.675	77.56
299.905	91.56
300.136	86.56
300.366	80.56
300.597	78.56
300.827	94.56
301.057	88.56
301.288	92.56
301.518	87.56
301.748	91.56
301.979	91.56
302.209	91.56
302.439	80.56
302.669	87.56
302.9	78.56
303.13	83.56
303.36	93.56
303.59	82.56
303.82	82.56
304.051	91.56
304.281	86.56
304.511	74.56
304.741	77.56
304.971	84.56
305.201	85.56
305.431	84.56
305.661	96.56
305.891	92.56
306.121	80.56
306.352	76.56
306.582	97.56
306.812	87.56
307.042	91.56
307.272	87.56
307.502	90.56
307.731	84.56
307.961	73.56
308.191	85.56
308.421	83.56
308.651	80.56
308.881	72.56
309.111	86.56
309.341	73.56
309.571	78.56
309.8	86.56
310.03	76.56
310.26	78.56
310.49	80.56
310.72	95.56
310.949	95.56
311.179	87.56
311.409	93.56
311.639	76.56
311.868	93.56
312.098	102.56
312.328	88.56
312.557	90.56
312.787	81.56
313.017	80.56
313.246	82.56
313.476	81.56
313.706	87.56
313.935	97.56
314.165	80.56
314.394	88.56
314.624	91.56
314.853	86.56
315.083	99.56
315.312	91.56
315.542	77.56
315.771	83.56
316.001	77.56
316.23	90.56
316.46	90.56
316.689	82.56
316.919	93.56
317.148	75.56
317.377	93.56
317.607	80.56
317.836	92.56
318.065	93.56
318.295	79.56
318.524	74.56
318.753	78.56
318.983	67.56
319.212	67.56
319.441	87.56
319.67	75.56
319.9	73.56
320.129	85.56
320.358	89.56
320.587	86.56
320.816	87.56
321.046	94.56
321.275	90.56
321.504	91.56
321.733	92.56
321.962	84.56
322.191	83.56
322.42	82.56
322.649	93.56
322.878	88.56
323.108	93.56
323.337	76.56
323.566	80.56
323.795	94.56
324.024	77.56
324.253	95.56
324.482	84.56
324.71	86.56
324.939	87.56
325.168	90.56
325.397	97.56
325.626	77.56
325.855	85.56
326.084	80.56
326.313	79.56
326.542	60.56
326.77	95.56
326.999	96.56
327.228	88.56
327.457	80.56
327.686	80.56
327.914	78.56
328.143	90.56
328.372	83.56
328.6	86.56
328.829	77.56
329.058	88.56
329.287	89.56
329.515	76.56
329.744	81.56
329.972	73.56
330.201	89.56
330.43	86.56
330.658	91.56
330.887	79.56
331.115	79.56
331.344	74.56
331.572	86.56
331.801	82.56
332.03	76.56
332.258	80.56
332.486	83.56
332.715	88.56
332.943	97.56
333.172	95.56
333.4	82.56
333.629	78.56
333.857	87.56
334.085	69.56
334.314	95.56
334.542	83.56
334.771	80.56
334.999	81.56
335.227	84.56
335.455	82.56
335.684	92.56
335.912	89.56
336.14	82.56
336.369	94.56
336.597	92.56
336.825	86.56
337.053	97.56
337.281	95.56
337.51	79.56
337.738	87.56
337.966	89.56
338.194	95.56
338.422	92.56
338.65	91.56
338.878	83.56
339.106	75.56
339.334	69.56
339.562	84.56
339.79	80.56
340.018	86.56
340.246	78.56
340.474	80.56
340.702	83.56
340.93	96.56
341.158	82.56
341.386	94.56
341.614	93.56
341.842	95.56
342.07	74.56
342.298	82.56
342.526	89.56
342.754	90.56
342.981	91.56
343.209	77.56
343.437	105.56
343.665	73.56
343.893	80.56
344.12	75.56
344.348	86.56
344.576	91.56
344.804	73.56
345.031	92.56
345.259	96.56
345.487	77.56
345.714	77.56
345.942	83.56
346.17	87.56
346.397	80.56
346.625	96.56
346.853	82.56
347.08	81.56
347.308	95.56
347.535	78.56
347.763	85.56
347.99	86.56
348.218	97.56
348.445	88.56
348.673	95.56
348.9	88.56
349.128	76.56
349.355	73.56
349.583	89.56
349.81	83.56
350.037	88.56
350.265	79.56
350.492	84.56
350.72	91.56
350.947	83.56
351.174	90.56
351.402	96.56
351.629	80.56
351.856	84.56
352.083	78.56
352.311	93.56
352.538	90.56
352.765	85.56
352.992	87.56
353.22	76.56
353.447	89.56
353.674	77.56
353.901	86.56
354.128	94.56
354.355	73.56
354.583	99.56
354.81	85.56
355.037	99.56
355.264	98.56
355.491	91.56
355.718	86.56
355.945	85.56
356.172	86.56
356.399	80.56
356.626	78.56
356.853	85.56
357.08	82.56
357.307	73.56
357.534	98.56
357.761	80.56
357.988	73.56
358.215	83.56
358.441	78.56
358.668	87.56
358.895	98.56
359.122	82.56
359.349	70.56
359.576	87.56
359.802	92.56
360.029	96.56
360.256	87.56
360.483	79.56
360.709	86.56
360.936	97.56
361.163	74.56
361.39	86.56
361.616	72.56
361.843	105.56
362.07	84.56
362.296	85.56
362.523	88.56
362.749	82.56
362.976	74.56
363.203	81.56
363.429	86.56
363.656	67.56
363.882	80.56
364.109	85.56
364.335	98.56
364.562	76.56
364.788	76.56
365.015	95.56
365.241	98.56
365.468	91.56
365.694	76.56
365.92	95.56
366.147	93.56
366.373	84.56
366.599	87.56
366.826	70.56
367.052	94.56
367.278	89.56
367.505	87.56
367.731	84.56
367.957	78.56
368.184	85.56
368.41	89.56
368.636	73.56
368.862	87.56
369.089	90.56
369.315	80.56
369.541	89.56
369.767	94.56
369.993	85.56
370.219	81.56
370.445	68.56
370.672	88.56
370.898	87.56
371.124	84.56
371.35	85.56
371.576	72.56
371.802	82.56
372.028	88.56
372.254	83.56
372.48	99.56
372.706	93.56
372.932	96.56
373.158	101.56
373.384	82.56
373.61	90.56
373.835	100.56
374.061	92.56
374.287	84.56
374.513	79.56
374.739	67.56
374.965	86.56
375.191	88.56
375.416	90.56
375.642	99.56
375.868	98.56
376.094	96.56
376.319	96.56
376.545	101.56
376.771	79.56
376.997	102.56
377.222	88.56
377.448	77.56
377.674	85.56
377.899	75.56
378.125	90.56
378.35	92.56
378.576	85.56
378.802	80.56
379.027	94.56
379.253	107.56
379.478	104.56
379.704	78.56
379.929	86.56
380.155	106.56
380.38	84.56
380.606	83.56
380.831	94.56
381.057	82.56
381.282	98.56
381.507	75.56
381.733	91.56
381.958	89.56
382.184	107.56
382.409	88.56
382.634	86.56
382.86	82.56
383.085	89.56
383.31	114.56
383.535	94.56
383.761	94.56
383.986	102.56
384.211	87.56
384.436	98.56
384.662	74.56
384.887	88.56
385.112	93.56
385.337	96.56
385.562	92.56
385.787	92.56
386.013	101.56
386.238	99.56
386.463	90.56
386.688	95.56
386.913	84.56
387.138	77.56
387.363	83.56
387.588	91.56
387.813	102.56
388.038	90.56
388.263	100.56
388.488	86.56
388.713	90.56
388.938	105.56
389.163	91.56
389.387	89.56
389.612	92.56
389.837	89.56
390.062	90.56
390.287	107.56
390.512	97.56
390.736	87.56
390.961	98.56
391.186	97.56
391.411	106.56
391.636	105.56
391.86	92.56
392.085	91.56
392.31	100.56
392.534	95.56
392.759	101.56
392.984	109.56
393.208	110.56
393.433	105.56
393.658	112.56
393.882	97.56
394.107	88.56
394.331	105.56
394.556	96.56
394.78	102.56
395.005	95.56
395.229	99.56
395.454	106.56
395.678	110.56
395.903	94.56
396.127	95.56
396.352	107.56
396.576	83.56
396.801	99.56
397.025	100.56
397.249	100.56
397.474	88.56
397.698	97.56
397.922	112.56
398.147	111.56
398.371	99.56
398.595	102.56
398.82	104.56
399.044	114.56
399.268	109.56
399.492	112.56
399.717	124.56
399.941	113.56
400.165	116.56
400.389	107.56
400.613	120.56
400.837	105.56
401.062	110.56
401.286	99.56
401.51	88.56
401.734	104.56
401.958	88.56
402.182	102.56
402.406	106.56
402.63	103.56
402.854	106.56
403.078	95.56
403.302	117.56
403.526	94.56
403.75	126.56
403.974	100.56
404.198	105.56
404.422	113.56
404.645	124.56
404.869	110.56
405.093	96.56
405.317	119.56
405.541	110.56
405.765	117.56
405.988	98.56
406.212	110.56
406.436	114.56
406.66	114.56
406.883	119.56
407.107	110.56
407.331	120.56
407.555	96.56
407.778	119.56
408.002	108.56
408.226	109.56
408.449	128.56
408.673	106.56
408.896	107.56
409.12	119.56
409.344	118.56
409.567	115.56
409.791	111.56
410.014	113.56
410.238	109.56
410.461	115.56
410.685	119.56
410.908	118.56
411.132	107.56
411.355	113.56
411.578	106.56
411.802	106.56
412.025	100.56
412.249	120.56
412.472	104.56
412.695	116.56
412.919	114.56
413.142	115.56
413.365	106.56
413.589	105.56
413.812	114.56
414.035	131.56
414.258	107.56
414.482	106.56
414.705	124.56
414.928	117.56
415.151	102.56
415.374	95.56
415.597	116.56
415.821	114.56
416.044	120.56
416.267	101.56
416.49	128.56
416.713	105.56
416.936	92.56
417.159	105.56
417.382	117.56
417.605	100.56
417.828	118.56
418.051	115.56
418.274	107.56
418.497	114.56
418.72	123.56
418.943	111.56
419.166	122.56
419.389	129.56
419.611	123.56
419.834	118.56
420.057	113.56
420.28	122.56
420.503	114.56
420.726	122.56
420.948	111.56
421.171	108.56
421.394	116.56
421.617	107.56
421.839	118.56
422.062	102.56
422.285	110.56
422.507	121.56
422.73	112.56
422.953	97.56
423.175	113.56
423.398	113.56
423.621	103.56
423.843	111.56
424.066	123.56
424.288	115.56
424.511	117.56
424.733	114.56
424.956	126.56
425.178	109.56
425.401	104.56
425.623	118.56
425.846	116.56
426.068	115.56
426.291	121.56
426.513	120.56
426.735	105.56
426.958	120.56
427.18	104.56
427.402	122.56
427.625	91.56
427.847	105.56
428.069	120.56
428.292	121.56
428.514	106.56
428.736	130.56
428.958	113.56
429.181	115.56
429.403	105.56
429.625	116.56
429.847	118.56
430.069	119.56
430.292	95.56
430.514	115.56
430.736	111.56
430.958	122.56
431.18	113.56
431.402	116.56
431.624	121.56
431.846	112.56
432.068	114.56
432.29	116.56
432.512	107.56
432.734	116.56
432.956	114.56
433.178	111.56
433.4	113.56
433.622	118.56
433.844	111.56
434.066	105.56
434.287	94.56
434.509	99.56
434.731	115.56
434.953	115.56
435.175	121.56
435.397	122.56
435.618	100.56
435.84	104.56
436.062	116.56
436.284	116.56
436.505	113.56
436.727	111.56
436.949	120.56
437.17	117.56
437.392	110.56
437.614	105.56
437.835	119.56
438.057	109.56
438.278	112.56
438.5	111.56
438.721	126.56
438.943	119.56
439.165	111.56
439.386	105.56
439.608	128.56
439.829	116.56
440.05	124.56
440.272	111.56
440.493	128.56
440.715	130.56
440.936	104.56
441.158	117.56
441.379	129.56
441.6	120.56
441.822	116.56
442.043	114.56
442.264	121.56
442.486	97.56
442.707	119.56
442.928	126.56
443.149	130.56
443.371	124.56
443.592	124.56
443.813	104.56
444.034	115.56
444.255	115.56
444.476	130.56
444.698	114.56
444.919	126.56
445.14	264.56
445.361	196.56
445.582	117.56
445.803	123.56
446.024	137.56
446.245	132.56
446.466	117.56
446.687	115.56
446.908	123.56
447.129	128.56
447.35	120.56
447.571	120.56
447.792	114.56
448.013	110.56
448.234	117.56
448.455	119.56
448.675	126.56
448.896	121.56
449.117	124.56
449.338	115.56
449.559	127.56
449.779	101.56
450	116.56
450.221	120.56
450.442	127.56
450.662	123.56
450.883	129.56
451.104	110.56
451.324	124.56
451.545	126.56
451.766	102.56
451.986	105.56
452.207	122.56
452.428	105.56
452.648	112.56
452.869	105.56
453.089	115.56
453.31	95.56
453.53	104.56
453.751	90.56
453.971	113.56
454.192	119.56
454.412	95.56
454.633	107.56
454.853	114.56
455.073	97.56
455.294	118.56
455.514	97.56
455.734	112.56
455.955	106.56
456.175	116.56
456.395	124.56
456.616	102.56
456.836	108.56
457.056	82.56
457.276	106.56
457.497	114.56
457.717	113.56
457.937	107.56
458.157	80.56
458.377	101.56
458.598	96.56
458.818	98.56
459.038	110.56
459.258	99.56
459.478	95.56
459.698	107.56
459.918	111.56
460.138	105.56
460.358	116.56
460.578	114.56
460.798	113.56
461.018	126.56
461.238	102.56
461.458	122.56
461.678	116.56
461.898	122.56
462.118	118.56
462.338	116.56
462.558	128.56
462.777	124.56
462.997	132.56
463.217	124.56
463.437	126.56
463.657	116.56
463.876	137.56
464.096	123.56
464.316	127.56
464.536	118.56
464.755	137.56
464.975	127.56
465.195	112.56
465.414	127.56
465.634	100.56
465.854	104.56
466.073	118.56
466.293	116.56
466.512	121.56
466.732	126.56
466.951	114.56
467.171	119.56
467.391	119.56
467.61	127.56
467.829	133.56
468.049	116.56
468.268	114.56
468.488	110.56
468.707	116.56
468.927	124.56
469.146	131.56
469.365	104.56
469.585	107.56
469.804	123.56
470.023	123.56
470.243	125.56
470.462	114.56
470.681	120.56
470.901	114.56
471.12	122.56
471.339	139.56
471.558	123.56
471.777	120.56
471.997	104.56
472.216	123.56
472.435	109.56
472.654	118.56
472.873	119.56
473.092	119.56
473.311	99.56
473.53	124.56
473.749	114.56
473.968	104.56
474.187	113.56
474.406	121.56
474.625	112.56
474.844	114.56
475.063	113.56
475.282	122.56
475.501	114.56
475.72	118.56
475.939	118.56
476.158	125.56
476.377	114.56
476.596	124.56
476.814	126.56
477.033	107.56
477.252	122.56
477.471	113.56
477.69	129.56
477.908	122.56
478.127	136.56
478.346	117.56
478.564	122.56
478.783	133.56
479.002	136.56
479.22	127.56
479.439	129.56
479.658	128.56
479.876	129.56
480.095	126.56
480.313	125.56
480.532	123.56
480.751	126.56
480.969	122.56
481.188	121.56
481.406	116.56
481.624	104.56
481.843	110.56
482.061	112.56
482.28	114.56
482.498	130.56
482.717	118.56
482.935	115.56
483.153	130.56
483.372	133.56
483.59	135.56
483.808	124.56
484.027	119.56
484.245	118.56
484.463	122.56
484.681	139.56
484.9	131.56
485.118	132.56
485.336	131.56
485.554	123.56
485.772	118.56
485.99	110.56
486.209	121.56
486.427	115.56
486.645	131.56
486.863	131.56
487.081	138.56
487.299	130.56
487.517	133.56
487.735	117.56
487.953	141.56
488.171	157.56
488.389	147.56
488.607	130.56
488.825	141.56
489.043	118.56
489.261	121.56
489.479	128.56
489.696	130.56
489.914	128.56
490.132	139.56
490.35	135.56
490.568	138.56
490.786	135.56
491.003	137.56
491.221	142.56
491.439	146.56
491.657	150.56
491.874	159.56
492.092	161.56
492.31	162.56
492.527	169.56
492.745	154.56
492.963	163.56
493.18	148.56
493.398	149.56
493.615	138.56
493.833	164.56
494.05	153.56
494.268	132.56
494.485	145.56
494.703	142.56
494.92	165.56
495.138	157.56
495.355	159.56
495.573	135.56
495.79	140.56
496.008	150.56
496.225	144.56
496.442	158.56
496.66	157.56
496.877	142.56
497.094	141.56
497.312	148.56
497.529	151.56
497.746	140.56
497.963	140.56
498.181	144.56
498.398	134.56
498.615	158.56
498.832	146.56
499.049	148.56
499.267	143.56
499.484	155.56
499.701	162.56
499.918	190.56
500.135	193.56
500.352	224.56
500.569	222.56
500.786	217.56
501.003	208.56
501.22	201.56
501.437	174.56
501.654	166.56
501.871	161.56
502.088	143.56
502.305	162.56
502.522	152.56
502.739	165.56
502.956	134.56
503.172	139.56
503.389	137.56
503.606	144.56
503.823	144.56
504.04	140.56
504.256	141.56
504.473	131.56
504.69	138.56
504.907	133.56
505.123	132.56
505.34	135.56
505.557	145.56
505.773	130.56
505.99	124.56
506.207	126.56
506.423	141.56
506.64	135.56
506.856	128.56
507.073	140.56
507.289	122.56
507.506	123.56
507.722	120.56
507.939	124.56
508.155	122.56
508.372	116.56
508.588	133.56
508.805	123.56
509.021	132.56
509.238	133.56
509.454	116.56
509.67	110.56
509.887	108.56
510.103	110.56
510.319	114.56
510.536	121.56
510.752	111.56
510.968	120.56
511.184	114.56
511.401	103.56
511.617	114.56
511.833	98.56
