Data from StandardFe(NO3)3.TAE.3%Agarose.FlatLispGreen.Lamp.Energy10.07252019_HRD10591_11-54-31-440.txt Node
Date: Thu Jul 25 11:54:31 EDT 2019
User: cochatt
Spectrometer: HR+D1059
Trigger mode: 1
Integration Time (sec): 1.000000E-1
Scans to average: 1
Electric dark correction enabled: true
Nonlinearity correction enabled: false
Boxcar width: 0
XAxis mode: Wavelengths
Number of Pixels in Spectrum: 2048
>>>>>Begin Spectral Data<<<<<
223.165	-16.75
223.4	-16.75
223.635	-16.75
223.869	-16.75
224.104	-21.75
224.338	-13.75
224.573	-21.75
224.808	-23.75
225.042	-8.75
225.277	-9.75
225.511	3.25
225.746	20.25
225.98	15.25
226.215	10.25
226.449	6.25
226.683	22.25
226.918	17.25
227.152	38.25
227.387	30.25
227.621	41.25
227.856	41.25
228.09	40.25
228.324	56.25
228.559	56.25
228.793	54.25
229.027	73.25
229.262	61.25
229.496	50.25
229.73	62.25
229.964	79.25
230.199	72.25
230.433	66.25
230.667	78.25
230.901	73.25
231.136	73.25
231.37	83.25
231.604	62.25
231.838	69.25
232.072	68.25
232.306	70.25
232.541	96.25
232.775	83.25
233.009	75.25
233.243	75.25
233.477	67.25
233.711	90.25
233.945	62.25
234.179	81.25
234.413	95.25
234.647	80.25
234.881	79.25
235.115	79.25
235.349	69.25
235.583	70.25
235.817	68.25
236.051	75.25
236.285	77.25
236.519	76.25
236.753	71.25
236.987	80.25
237.221	73.25
237.455	72.25
237.689	72.25
237.922	82.25
238.156	87.25
238.39	64.25
238.624	76.25
238.858	71.25
239.091	80.25
239.325	78.25
239.559	72.25
239.793	72.25
240.027	82.25
240.26	75.25
240.494	66.25
240.728	66.25
240.961	65.25
241.195	70.25
241.429	81.25
241.662	81.25
241.896	76.25
242.13	73.25
242.363	88.25
242.597	76.25
242.83	75.25
243.064	72.25
243.298	77.25
243.531	64.25
243.765	80.25
243.998	71.25
244.232	78.25
244.465	70.25
244.699	70.25
244.932	68.25
245.166	84.25
245.399	64.25
245.633	90.25
245.866	72.25
246.099	77.25
246.333	75.25
246.566	81.25
246.8	79.25
247.033	69.25
247.266	72.25
247.5	76.25
247.733	69.25
247.966	71.25
248.2	72.25
248.433	74.25
248.666	75.25
248.899	62.25
249.133	64.25
249.366	84.25
249.599	73.25
249.832	54.25
250.066	70.25
250.299	77.25
250.532	77.25
250.765	76.25
250.998	62.25
251.231	58.25
251.465	66.25
251.698	71.25
251.931	82.25
252.164	74.25
252.397	70.25
252.63	77.25
252.863	80.25
253.096	71.25
253.329	90.25
253.562	64.25
253.795	75.25
254.028	69.25
254.261	72.25
254.494	82.25
254.727	81.25
254.96	72.25
255.193	69.25
255.426	70.25
255.659	105.25
255.892	73.25
256.124	76.25
256.357	69.25
256.59	67.25
256.823	71.25
257.056	78.25
257.289	81.25
257.521	75.25
257.754	84.25
257.987	64.25
258.22	83.25
258.452	76.25
258.685	86.25
258.918	75.25
259.151	85.25
259.383	64.25
259.616	84.25
259.849	75.25
260.081	86.25
260.314	71.25
260.547	70.25
260.779	67.25
261.012	79.25
261.244	80.25
261.477	76.25
261.71	86.25
261.942	79.25
262.175	80.25
262.407	75.25
262.64	78.25
262.872	75.25
263.105	77.25
263.337	71.25
263.57	78.25
263.802	82.25
264.035	80.25
264.267	84.25
264.499	87.25
264.732	74.25
264.964	82.25
265.197	73.25
265.429	86.25
265.661	84.25
265.894	74.25
266.126	66.25
266.358	84.25
266.591	67.25
266.823	86.25
267.055	101.25
267.287	86.25
267.52	80.25
267.752	90.25
267.984	94.25
268.216	99.25
268.448	79.25
268.681	87.25
268.913	79.25
269.145	90.25
269.377	75.25
269.609	73.25
269.841	81.25
270.073	73.25
270.306	93.25
270.538	69.25
270.77	90.25
271.002	79.25
271.234	69.25
271.466	84.25
271.698	73.25
271.93	89.25
272.162	75.25
272.394	82.25
272.626	83.25
272.858	84.25
273.09	74.25
273.322	82.25
273.553	88.25
273.785	78.25
274.017	72.25
274.249	72.25
274.481	84.25
274.713	75.25
274.945	89.25
275.176	81.25
275.408	89.25
275.64	74.25
275.872	86.25
276.104	82.25
276.335	73.25
276.567	83.25
276.799	76.25
277.031	67.25
277.262	85.25
277.494	69.25
277.726	95.25
277.957	103.25
278.189	81.25
278.421	76.25
278.652	77.25
278.884	79.25
279.115	78.25
279.347	82.25
279.579	74.25
279.81	91.25
280.042	70.25
280.273	77.25
280.505	68.25
280.736	76.25
280.968	91.25
281.199	88.25
281.431	95.25
281.662	78.25
281.894	59.25
282.125	78.25
282.356	82.25
282.588	89.25
282.819	74.25
283.051	74.25
283.282	81.25
283.513	75.25
283.745	75.25
283.976	93.25
284.207	75.25
284.439	76.25
284.67	89.25
284.901	79.25
285.132	82.25
285.364	74.25
285.595	79.25
285.826	85.25
286.057	75.25
286.288	79.25
286.52	91.25
286.751	81.25
286.982	72.25
287.213	81.25
287.444	83.25
287.675	84.25
287.906	70.25
288.138	86.25
288.369	81.25
288.6	92.25
288.831	93.25
289.062	84.25
289.293	81.25
289.524	76.25
289.755	81.25
289.986	85.25
290.217	78.25
290.448	74.25
290.679	88.25
290.91	83.25
291.141	75.25
291.371	90.25
291.602	84.25
291.833	87.25
292.064	68.25
292.295	60.25
292.526	72.25
292.757	82.25
292.987	78.25
293.218	87.25
293.449	83.25
293.68	88.25
293.91	86.25
294.141	85.25
294.372	76.25
294.603	85.25
294.833	83.25
295.064	85.25
295.295	79.25
295.525	93.25
295.756	89.25
295.987	80.25
296.217	72.25
296.448	91.25
296.679	79.25
296.909	84.25
297.14	92.25
297.37	83.25
297.601	78.25
297.831	81.25
298.062	72.25
298.292	83.25
298.523	82.25
298.753	82.25
298.984	83.25
299.214	79.25
299.445	83.25
299.675	89.25
299.905	86.25
300.136	79.25
300.366	82.25
300.597	91.25
300.827	85.25
301.057	75.25
301.288	90.25
301.518	60.25
301.748	83.25
301.979	75.25
302.209	84.25
302.439	82.25
302.669	76.25
302.9	82.25
303.13	88.25
303.36	90.25
303.59	85.25
303.82	70.25
304.051	65.25
304.281	94.25
304.511	82.25
304.741	88.25
304.971	89.25
305.201	70.25
305.431	77.25
305.661	96.25
305.891	86.25
306.121	89.25
306.352	82.25
306.582	79.25
306.812	79.25
307.042	87.25
307.272	58.25
307.502	85.25
307.731	88.25
307.961	75.25
308.191	89.25
308.421	75.25
308.651	83.25
308.881	75.25
309.111	85.25
309.341	89.25
309.571	80.25
309.8	94.25
310.03	87.25
310.26	73.25
310.49	71.25
310.72	90.25
310.949	78.25
311.179	81.25
311.409	81.25
311.639	84.25
311.868	76.25
312.098	88.25
312.328	88.25
312.557	82.25
312.787	86.25
313.017	69.25
313.246	89.25
313.476	79.25
313.706	89.25
313.935	84.25
314.165	99.25
314.394	79.25
314.624	82.25
314.853	77.25
315.083	75.25
315.312	84.25
315.542	85.25
315.771	91.25
316.001	86.25
316.23	97.25
316.46	98.25
316.689	75.25
316.919	78.25
317.148	71.25
317.377	85.25
317.607	94.25
317.836	106.25
318.065	87.25
318.295	80.25
318.524	85.25
318.753	79.25
318.983	68.25
319.212	79.25
319.441	80.25
319.67	95.25
319.9	79.25
320.129	83.25
320.358	87.25
320.587	90.25
320.816	71.25
321.046	84.25
321.275	86.25
321.504	64.25
321.733	75.25
321.962	72.25
322.191	80.25
322.42	81.25
322.649	92.25
322.878	81.25
323.108	73.25
323.337	79.25
323.566	90.25
323.795	69.25
324.024	82.25
324.253	86.25
324.482	84.25
324.71	75.25
324.939	78.25
325.168	83.25
325.397	94.25
325.626	85.25
325.855	96.25
326.084	104.25
326.313	91.25
326.542	84.25
326.77	83.25
326.999	74.25
327.228	86.25
327.457	79.25
327.686	83.25
327.914	76.25
328.143	89.25
328.372	90.25
328.6	79.25
328.829	83.25
329.058	84.25
329.287	73.25
329.515	70.25
329.744	80.25
329.972	79.25
330.201	82.25
330.43	99.25
330.658	90.25
330.887	78.25
331.115	85.25
331.344	82.25
331.572	88.25
331.801	79.25
332.03	89.25
332.258	80.25
332.486	80.25
332.715	88.25
332.943	83.25
333.172	67.25
333.4	83.25
333.629	85.25
333.857	86.25
334.085	84.25
334.314	90.25
334.542	82.25
334.771	76.25
334.999	69.25
335.227	76.25
335.455	86.25
335.684	91.25
335.912	104.25
336.14	82.25
336.369	73.25
336.597	75.25
336.825	58.25
337.053	75.25
337.281	84.25
337.51	78.25
337.738	87.25
337.966	81.25
338.194	68.25
338.422	73.25
338.65	82.25
338.878	76.25
339.106	87.25
339.334	80.25
339.562	87.25
339.79	79.25
340.018	87.25
340.246	86.25
340.474	84.25
340.702	89.25
340.93	82.25
341.158	73.25
341.386	84.25
341.614	76.25
341.842	67.25
342.07	82.25
342.298	71.25
342.526	88.25
342.754	82.25
342.981	83.25
343.209	83.25
343.437	102.25
343.665	98.25
343.893	91.25
344.12	90.25
344.348	94.25
344.576	79.25
344.804	79.25
345.031	87.25
345.259	79.25
345.487	84.25
345.714	101.25
345.942	86.25
346.17	71.25
346.397	79.25
346.625	82.25
346.853	88.25
347.08	85.25
347.308	81.25
347.535	93.25
347.763	83.25
347.99	81.25
348.218	78.25
348.445	91.25
348.673	82.25
348.9	90.25
349.128	90.25
349.355	81.25
349.583	90.25
349.81	97.25
350.037	88.25
350.265	82.25
350.492	76.25
350.72	78.25
350.947	95.25
351.174	83.25
351.402	93.25
351.629	85.25
351.856	85.25
352.083	76.25
352.311	89.25
352.538	84.25
352.765	71.25
352.992	75.25
353.22	85.25
353.447	86.25
353.674	94.25
353.901	90.25
354.128	94.25
354.355	73.25
354.583	73.25
354.81	83.25
355.037	79.25
355.264	95.25
355.491	95.25
355.718	83.25
355.945	100.25
356.172	82.25
356.399	87.25
356.626	88.25
356.853	70.25
357.08	87.25
357.307	76.25
357.534	84.25
357.761	75.25
357.988	85.25
358.215	75.25
358.441	88.25
358.668	87.25
358.895	80.25
359.122	82.25
359.349	101.25
359.576	86.25
359.802	81.25
360.029	75.25
360.256	90.25
360.483	92.25
360.709	87.25
360.936	88.25
361.163	72.25
361.39	88.25
361.616	93.25
361.843	79.25
362.07	73.25
362.296	85.25
362.523	85.25
362.749	73.25
362.976	78.25
363.203	95.25
363.429	96.25
363.656	92.25
363.882	87.25
364.109	87.25
364.335	81.25
364.562	74.25
364.788	89.25
365.015	79.25
365.241	98.25
365.468	87.25
365.694	75.25
365.92	74.25
366.147	73.25
366.373	85.25
366.599	80.25
366.826	96.25
367.052	89.25
367.278	92.25
367.505	76.25
367.731	99.25
367.957	84.25
368.184	84.25
368.41	81.25
368.636	94.25
368.862	88.25
369.089	75.25
369.315	95.25
369.541	91.25
369.767	89.25
369.993	93.25
370.219	87.25
370.445	88.25
370.672	89.25
370.898	82.25
371.124	81.25
371.35	92.25
371.576	84.25
371.802	90.25
372.028	76.25
372.254	90.25
372.48	84.25
372.706	92.25
372.932	84.25
373.158	77.25
373.384	87.25
373.61	97.25
373.835	94.25
374.061	75.25
374.287	80.25
374.513	76.25
374.739	81.25
374.965	96.25
375.191	85.25
375.416	95.25
375.642	92.25
375.868	77.25
376.094	83.25
376.319	82.25
376.545	83.25
376.771	80.25
376.997	76.25
377.222	99.25
377.448	102.25
377.674	107.25
377.899	97.25
378.125	77.25
378.35	80.25
378.576	94.25
378.802	89.25
379.027	80.25
379.253	96.25
379.478	82.25
379.704	97.25
379.929	75.25
380.155	93.25
380.38	87.25
380.606	80.25
380.831	94.25
381.057	113.25
381.282	91.25
381.507	91.25
381.733	99.25
381.958	95.25
382.184	90.25
382.409	78.25
382.634	93.25
382.86	93.25
383.085	95.25
383.31	91.25
383.535	82.25
383.761	87.25
383.986	88.25
384.211	96.25
384.436	102.25
384.662	84.25
384.887	88.25
385.112	89.25
385.337	89.25
385.562	75.25
385.787	77.25
386.013	90.25
386.238	100.25
386.463	76.25
386.688	91.25
386.913	90.25
387.138	87.25
387.363	91.25
387.588	101.25
387.813	95.25
388.038	106.25
388.263	116.25
388.488	105.25
388.713	90.25
388.938	95.25
389.163	97.25
389.387	98.25
389.612	97.25
389.837	96.25
390.062	119.25
390.287	84.25
390.512	85.25
390.736	82.25
390.961	87.25
391.186	85.25
391.411	83.25
391.636	91.25
391.86	91.25
392.085	104.25
392.31	97.25
392.534	83.25
392.759	102.25
392.984	82.25
393.208	90.25
393.433	94.25
393.658	106.25
393.882	105.25
394.107	82.25
394.331	90.25
394.556	96.25
394.78	104.25
395.005	111.25
395.229	101.25
395.454	104.25
395.678	97.25
395.903	90.25
396.127	104.25
396.352	89.25
396.576	104.25
396.801	98.25
397.025	110.25
397.249	108.25
397.474	92.25
397.698	94.25
397.922	101.25
398.147	111.25
398.371	110.25
398.595	94.25
398.82	97.25
399.044	103.25
399.268	110.25
399.492	117.25
399.717	107.25
399.941	112.25
400.165	114.25
400.389	115.25
400.613	97.25
400.837	99.25
401.062	100.25
401.286	100.25
401.51	118.25
401.734	110.25
401.958	110.25
402.182	100.25
402.406	106.25
402.63	94.25
402.854	109.25
403.078	100.25
403.302	103.25
403.526	114.25
403.75	101.25
403.974	114.25
404.198	106.25
404.422	107.25
404.645	107.25
404.869	95.25
405.093	110.25
405.317	99.25
405.541	110.25
405.765	120.25
405.988	101.25
406.212	111.25
406.436	110.25
406.66	101.25
406.883	120.25
407.107	86.25
407.331	102.25
407.555	120.25
407.778	107.25
408.002	120.25
408.226	111.25
408.449	114.25
408.673	104.25
408.896	108.25
409.12	117.25
409.344	104.25
409.567	114.25
409.791	102.25
410.014	114.25
410.238	123.25
410.461	120.25
410.685	111.25
410.908	106.25
411.132	99.25
411.355	104.25
411.578	114.25
411.802	94.25
412.025	103.25
412.249	106.25
412.472	98.25
412.695	106.25
412.919	113.25
413.142	112.25
413.365	107.25
413.589	120.25
413.812	106.25
414.035	110.25
414.258	110.25
414.482	115.25
414.705	102.25
414.928	105.25
415.151	113.25
415.374	114.25
415.597	98.25
415.821	107.25
416.044	113.25
416.267	102.25
416.49	103.25
416.713	106.25
416.936	101.25
417.159	105.25
417.382	102.25
417.605	106.25
417.828	103.25
418.051	106.25
418.274	120.25
418.497	121.25
418.72	105.25
418.943	105.25
419.166	122.25
419.389	116.25
419.611	112.25
419.834	113.25
420.057	97.25
420.28	110.25
420.503	110.25
420.726	102.25
420.948	114.25
421.171	117.25
421.394	110.25
421.617	121.25
421.839	114.25
422.062	103.25
422.285	120.25
422.507	110.25
422.73	107.25
422.953	113.25
423.175	105.25
423.398	110.25
423.621	120.25
423.843	99.25
424.066	104.25
424.288	115.25
424.511	112.25
424.733	130.25
424.956	118.25
425.178	106.25
425.401	112.25
425.623	118.25
425.846	119.25
426.068	123.25
426.291	119.25
426.513	104.25
426.735	100.25
426.958	114.25
427.18	126.25
427.402	108.25
427.625	85.25
427.847	98.25
428.069	108.25
428.292	131.25
428.514	115.25
428.736	126.25
428.958	110.25
429.181	121.25
429.403	113.25
429.625	105.25
429.847	104.25
430.069	109.25
430.292	103.25
430.514	117.25
430.736	112.25
430.958	116.25
431.18	119.25
431.402	105.25
431.624	114.25
431.846	105.25
432.068	89.25
432.29	95.25
432.512	118.25
432.734	103.25
432.956	108.25
433.178	115.25
433.4	107.25
433.622	121.25
433.844	112.25
434.066	96.25
434.287	96.25
434.509	95.25
434.731	102.25
434.953	118.25
435.175	104.25
435.397	122.25
435.618	113.25
435.84	102.25
436.062	118.25
436.284	114.25
436.505	110.25
436.727	114.25
436.949	113.25
437.17	115.25
437.392	113.25
437.614	81.25
437.835	105.25
438.057	93.25
438.278	100.25
438.5	110.25
438.721	107.25
438.943	114.25
439.165	110.25
439.386	115.25
439.608	118.25
439.829	119.25
440.05	95.25
440.272	108.25
440.493	114.25
440.715	102.25
440.936	118.25
441.158	118.25
441.379	114.25
441.6	120.25
441.822	110.25
442.043	115.25
442.264	123.25
442.486	110.25
442.707	109.25
442.928	117.25
443.149	123.25
443.371	116.25
443.592	99.25
443.813	114.25
444.034	104.25
444.255	121.25
444.476	134.25
444.698	131.25
444.919	130.25
445.14	249.25
445.361	182.25
445.582	120.25
445.803	116.25
446.024	123.25
446.245	126.25
446.466	122.25
446.687	105.25
446.908	98.25
447.129	117.25
447.35	111.25
447.571	112.25
447.792	120.25
448.013	120.25
448.234	123.25
448.455	106.25
448.675	92.25
448.896	110.25
449.117	106.25
449.338	114.25
449.559	128.25
449.779	114.25
450	103.25
450.221	107.25
450.442	103.25
450.662	98.25
450.883	105.25
451.104	108.25
451.324	105.25
451.545	104.25
451.766	113.25
451.986	123.25
452.207	102.25
452.428	91.25
452.648	95.25
452.869	105.25
453.089	84.25
453.31	100.25
453.53	107.25
453.751	110.25
453.971	103.25
454.192	100.25
454.412	118.25
454.633	110.25
454.853	116.25
455.073	97.25
455.294	108.25
455.514	95.25
455.734	95.25
455.955	106.25
456.175	107.25
456.395	111.25
456.616	75.25
456.836	94.25
457.056	115.25
457.276	115.25
457.497	98.25
457.717	89.25
457.937	101.25
458.157	93.25
458.377	95.25
458.598	101.25
458.818	97.25
459.038	100.25
459.258	99.25
459.478	113.25
459.698	114.25
459.918	91.25
460.138	95.25
460.358	124.25
460.578	111.25
460.798	110.25
461.018	108.25
461.238	100.25
461.458	114.25
461.678	124.25
461.898	110.25
462.118	106.25
462.338	116.25
462.558	111.25
462.777	114.25
462.997	117.25
463.217	118.25
463.437	121.25
463.657	123.25
463.876	117.25
464.096	119.25
464.316	123.25
464.536	133.25
464.755	124.25
464.975	122.25
465.195	124.25
465.414	105.25
465.634	110.25
465.854	97.25
466.073	101.25
466.293	119.25
466.512	110.25
466.732	110.25
466.951	115.25
467.171	115.25
467.391	107.25
467.61	121.25
467.829	116.25
468.049	120.25
468.268	113.25
468.488	129.25
468.707	117.25
468.927	102.25
469.146	119.25
469.365	123.25
469.585	112.25
469.804	107.25
470.023	118.25
470.243	126.25
470.462	122.25
470.681	120.25
470.901	127.25
471.12	110.25
471.339	123.25
471.558	114.25
471.777	117.25
471.997	119.25
472.216	105.25
472.435	113.25
472.654	110.25
472.873	95.25
473.092	103.25
473.311	106.25
473.53	112.25
473.749	104.25
473.968	102.25
474.187	103.25
474.406	115.25
474.625	111.25
474.844	122.25
475.063	134.25
475.282	111.25
475.501	95.25
475.72	116.25
475.939	116.25
476.158	106.25
476.377	104.25
476.596	115.25
476.814	109.25
477.033	98.25
477.252	101.25
477.471	118.25
477.69	116.25
477.908	115.25
478.127	107.25
478.346	110.25
478.564	106.25
478.783	120.25
479.002	136.25
479.22	121.25
479.439	117.25
479.658	125.25
479.876	115.25
480.095	119.25
480.313	126.25
480.532	121.25
480.751	114.25
480.969	121.25
481.188	115.25
481.406	106.25
481.624	113.25
481.843	91.25
482.061	107.25
482.28	111.25
482.498	114.25
482.717	93.25
482.935	102.25
483.153	128.25
483.372	113.25
483.59	126.25
483.808	111.25
484.027	120.25
484.245	118.25
484.463	122.25
484.681	130.25
484.9	127.25
485.118	129.25
485.336	130.25
485.554	123.25
485.772	108.25
485.99	113.25
486.209	114.25
486.427	122.25
486.645	105.25
486.863	123.25
487.081	119.25
487.299	129.25
487.517	118.25
487.735	137.25
487.953	138.25
488.171	140.25
488.389	138.25
488.607	138.25
488.825	113.25
489.043	119.25
489.261	130.25
489.479	127.25
489.696	125.25
489.914	138.25
490.132	118.25
490.35	143.25
490.568	134.25
490.786	134.25
491.003	141.25
491.221	146.25
491.439	144.25
491.657	154.25
491.874	165.25
492.092	162.25
492.31	168.25
492.527	158.25
492.745	143.25
492.963	154.25
493.18	129.25
493.398	146.25
493.615	154.25
493.833	157.25
494.05	142.25
494.268	160.25
494.485	160.25
494.703	149.25
494.92	150.25
495.138	148.25
495.355	158.25
495.573	142.25
495.79	135.25
496.008	131.25
496.225	156.25
496.442	142.25
496.66	155.25
496.877	158.25
497.094	143.25
497.312	142.25
497.529	129.25
497.746	135.25
497.963	126.25
498.181	128.25
498.398	139.25
498.615	146.25
498.832	136.25
499.049	137.25
499.267	150.25
499.484	158.25
499.701	154.25
499.918	178.25
500.135	181.25
500.352	211.25
500.569	210.25
500.786	196.25
501.003	190.25
501.22	174.25
501.437	184.25
501.654	156.25
501.871	179.25
502.088	145.25
502.305	155.25
502.522	134.25
502.739	126.25
502.956	136.25
503.172	138.25
503.389	110.25
503.606	132.25
503.823	125.25
504.04	139.25
504.256	138.25
504.473	140.25
504.69	140.25
504.907	136.25
505.123	138.25
505.34	136.25
505.557	126.25
505.773	126.25
505.99	140.25
506.207	128.25
506.423	129.25
506.64	111.25
506.856	139.25
507.073	121.25
507.289	135.25
507.506	99.25
507.722	115.25
507.939	120.25
508.155	117.25
508.372	116.25
508.588	116.25
508.805	118.25
509.021	112.25
509.238	114.25
509.454	106.25
509.67	114.25
509.887	111.25
510.103	110.25
510.319	111.25
510.536	110.25
510.752	104.25
510.968	107.25
511.184	102.25
511.401	108.25
511.617	110.25
511.833	110.25
512.049	118.25
