Data from StandardFe(NO3)3.TAE.3%Agarose.FlatLispGreen.Lamp.Energy10.07252019_HRD10591_11-55-49-441.txt Node
Date: Thu Jul 25 11:55:49 EDT 2019
User: cochatt
Spectrometer: HR+D1059
Trigger mode: 1
Integration Time (sec): 1.000000E-1
Scans to average: 1
Electric dark correction enabled: true
Nonlinearity correction enabled: false
Boxcar width: 0
XAxis mode: Wavelengths
Number of Pixels in Spectrum: 2048
>>>>>Begin Spectral Data<<<<<
223.165	10.94
223.4	10.94
223.635	10.94
223.869	-23.06
224.104	-26.06
224.338	-23.06
224.573	-9.06
224.808	-12.06
225.042	-15.06
225.277	-0.06
225.511	0.94
225.746	0.94
225.98	0.94
226.215	9.94
226.449	16.94
226.683	30.94
226.918	7.94
227.152	28.94
227.387	31.94
227.621	35.94
227.856	32.94
228.09	43.94
228.324	49.94
228.559	57.94
228.793	53.94
229.027	62.94
229.262	56.94
229.496	67.94
229.73	65.94
229.964	84.94
230.199	80.94
230.433	70.94
230.667	84.94
230.901	77.94
231.136	71.94
231.37	94.94
231.604	84.94
231.838	75.94
232.072	102.94
232.306	94.94
232.541	85.94
232.775	81.94
233.009	83.94
233.243	81.94
233.477	90.94
233.711	80.94
233.945	90.94
234.179	79.94
234.413	64.94
234.647	83.94
234.881	77.94
235.115	69.94
235.349	87.94
235.583	94.94
235.817	88.94
236.051	80.94
236.285	67.94
236.519	89.94
236.753	82.94
236.987	75.94
237.221	66.94
237.455	70.94
237.689	69.94
237.922	91.94
238.156	68.94
238.39	70.94
238.624	71.94
238.858	71.94
239.091	66.94
239.325	79.94
239.559	72.94
239.793	81.94
240.027	70.94
240.26	77.94
240.494	93.94
240.728	91.94
240.961	75.94
241.195	71.94
241.429	87.94
241.662	76.94
241.896	79.94
242.13	93.94
242.363	79.94
242.597	76.94
242.83	85.94
243.064	82.94
243.298	64.94
243.531	77.94
243.765	85.94
243.998	83.94
244.232	86.94
244.465	78.94
244.699	78.94
244.932	72.94
245.166	67.94
245.399	85.94
245.633	82.94
245.866	99.94
246.099	94.94
246.333	68.94
246.566	83.94
246.8	72.94
247.033	69.94
247.266	81.94
247.5	81.94
247.733	89.94
247.966	82.94
248.2	66.94
248.433	88.94
248.666	80.94
248.899	72.94
249.133	79.94
249.366	73.94
249.599	87.94
249.832	92.94
250.066	75.94
250.299	71.94
250.532	78.94
250.765	73.94
250.998	74.94
251.231	73.94
251.465	91.94
251.698	79.94
251.931	75.94
252.164	71.94
252.397	69.94
252.63	77.94
252.863	81.94
253.096	70.94
253.329	83.94
253.562	73.94
253.795	74.94
254.028	65.94
254.261	80.94
254.494	85.94
254.727	88.94
254.96	79.94
255.193	89.94
255.426	76.94
255.659	72.94
255.892	91.94
256.124	75.94
256.357	80.94
256.59	75.94
256.823	66.94
257.056	67.94
257.289	81.94
257.521	75.94
257.754	83.94
257.987	76.94
258.22	79.94
258.452	89.94
258.685	86.94
258.918	78.94
259.151	77.94
259.383	71.94
259.616	96.94
259.849	85.94
260.081	74.94
260.314	74.94
260.547	79.94
260.779	79.94
261.012	64.94
261.244	84.94
261.477	87.94
261.71	84.94
261.942	79.94
262.175	76.94
262.407	96.94
262.64	71.94
262.872	88.94
263.105	75.94
263.337	84.94
263.57	73.94
263.802	81.94
264.035	80.94
264.267	75.94
264.499	74.94
264.732	76.94
264.964	73.94
265.197	82.94
265.429	80.94
265.661	77.94
265.894	90.94
266.126	74.94
266.358	73.94
266.591	95.94
266.823	83.94
267.055	89.94
267.287	71.94
267.52	93.94
267.752	92.94
267.984	84.94
268.216	95.94
268.448	85.94
268.681	78.94
268.913	90.94
269.145	71.94
269.377	82.94
269.609	83.94
269.841	87.94
270.073	79.94
270.306	80.94
270.538	81.94
270.77	76.94
271.002	81.94
271.234	74.94
271.466	80.94
271.698	90.94
271.93	81.94
272.162	69.94
272.394	80.94
272.626	96.94
272.858	80.94
273.09	83.94
273.322	83.94
273.553	79.94
273.785	80.94
274.017	98.94
274.249	76.94
274.481	77.94
274.713	86.94
274.945	88.94
275.176	70.94
275.408	99.94
275.64	81.94
275.872	97.94
276.104	76.94
276.335	86.94
276.567	94.94
276.799	71.94
277.031	79.94
277.262	85.94
277.494	101.94
277.726	79.94
277.957	81.94
278.189	78.94
278.421	80.94
278.652	95.94
278.884	67.94
279.115	85.94
279.347	92.94
279.579	72.94
279.81	90.94
280.042	82.94
280.273	84.94
280.505	76.94
280.736	72.94
280.968	85.94
281.199	74.94
281.431	85.94
281.662	84.94
281.894	75.94
282.125	91.94
282.356	92.94
282.588	79.94
282.819	81.94
283.051	79.94
283.282	87.94
283.513	98.94
283.745	90.94
283.976	89.94
284.207	97.94
284.439	69.94
284.67	79.94
284.901	82.94
285.132	74.94
285.364	77.94
285.595	84.94
285.826	79.94
286.057	86.94
286.288	80.94
286.52	75.94
286.751	86.94
286.982	85.94
287.213	82.94
287.444	86.94
287.675	93.94
287.906	95.94
288.138	74.94
288.369	75.94
288.6	91.94
288.831	76.94
289.062	77.94
289.293	75.94
289.524	94.94
289.755	88.94
289.986	97.94
290.217	89.94
290.448	79.94
290.679	82.94
290.91	83.94
291.141	79.94
291.371	85.94
291.602	75.94
291.833	67.94
292.064	83.94
292.295	76.94
292.526	92.94
292.757	107.94
292.987	98.94
293.218	80.94
293.449	87.94
293.68	89.94
293.91	104.94
294.141	88.94
294.372	78.94
294.603	87.94
294.833	87.94
295.064	75.94
295.295	85.94
295.525	87.94
295.756	86.94
295.987	88.94
296.217	71.94
296.448	88.94
296.679	88.94
296.909	81.94
297.14	72.94
297.37	82.94
297.601	83.94
297.831	83.94
298.062	83.94
298.292	92.94
298.523	92.94
298.753	82.94
298.984	79.94
299.214	97.94
299.445	84.94
299.675	77.94
299.905	83.94
300.136	76.94
300.366	98.94
300.597	85.94
300.827	90.94
301.057	93.94
301.288	87.94
301.518	80.94
301.748	92.94
301.979	81.94
302.209	79.94
302.439	85.94
302.669	81.94
302.9	81.94
303.13	85.94
303.36	96.94
303.59	82.94
303.82	100.94
304.051	85.94
304.281	91.94
304.511	91.94
304.741	91.94
304.971	75.94
305.201	83.94
305.431	88.94
305.661	99.94
305.891	68.94
306.121	86.94
306.352	93.94
306.582	95.94
306.812	67.94
307.042	76.94
307.272	73.94
307.502	81.94
307.731	90.94
307.961	95.94
308.191	74.94
308.421	74.94
308.651	86.94
308.881	74.94
309.111	76.94
309.341	87.94
309.571	91.94
309.8	87.94
310.03	74.94
310.26	73.94
310.49	85.94
310.72	81.94
310.949	75.94
311.179	80.94
311.409	89.94
311.639	75.94
311.868	83.94
312.098	95.94
312.328	83.94
312.557	81.94
312.787	98.94
313.017	86.94
313.246	84.94
313.476	103.94
313.706	86.94
313.935	81.94
314.165	88.94
314.394	92.94
314.624	93.94
314.853	98.94
315.083	86.94
315.312	83.94
315.542	84.94
315.771	88.94
316.001	80.94
316.23	94.94
316.46	90.94
316.689	72.94
316.919	82.94
317.148	86.94
317.377	93.94
317.607	76.94
317.836	91.94
318.065	78.94
318.295	80.94
318.524	75.94
318.753	94.94
318.983	79.94
319.212	84.94
319.441	64.94
319.67	84.94
319.9	88.94
320.129	91.94
320.358	97.94
320.587	81.94
320.816	72.94
321.046	90.94
321.275	92.94
321.504	79.94
321.733	82.94
321.962	86.94
322.191	72.94
322.42	80.94
322.649	89.94
322.878	95.94
323.108	96.94
323.337	73.94
323.566	84.94
323.795	95.94
324.024	84.94
324.253	78.94
324.482	84.94
324.71	87.94
324.939	87.94
325.168	76.94
325.397	77.94
325.626	91.94
325.855	97.94
326.084	76.94
326.313	104.94
326.542	88.94
326.77	84.94
326.999	86.94
327.228	81.94
327.457	86.94
327.686	84.94
327.914	81.94
328.143	91.94
328.372	82.94
328.6	75.94
328.829	71.94
329.058	80.94
329.287	84.94
329.515	82.94
329.744	81.94
329.972	84.94
330.201	82.94
330.43	83.94
330.658	85.94
330.887	93.94
331.115	80.94
331.344	80.94
331.572	74.94
331.801	70.94
332.03	97.94
332.258	76.94
332.486	80.94
332.715	78.94
332.943	95.94
333.172	75.94
333.4	78.94
333.629	87.94
333.857	86.94
334.085	97.94
334.314	73.94
334.542	85.94
334.771	87.94
334.999	72.94
335.227	97.94
335.455	99.94
335.684	81.94
335.912	70.94
336.14	87.94
336.369	94.94
336.597	88.94
336.825	78.94
337.053	84.94
337.281	75.94
337.51	76.94
337.738	77.94
337.966	61.94
338.194	72.94
338.422	90.94
338.65	85.94
338.878	79.94
339.106	88.94
339.334	82.94
339.562	84.94
339.79	69.94
340.018	79.94
340.246	99.94
340.474	81.94
340.702	91.94
340.93	93.94
341.158	82.94
341.386	79.94
341.614	95.94
341.842	86.94
342.07	83.94
342.298	81.94
342.526	86.94
342.754	80.94
342.981	81.94
343.209	89.94
343.437	94.94
343.665	75.94
343.893	70.94
344.12	90.94
344.348	73.94
344.576	88.94
344.804	75.94
345.031	72.94
345.259	76.94
345.487	75.94
345.714	96.94
345.942	72.94
346.17	80.94
346.397	78.94
346.625	87.94
346.853	77.94
347.08	80.94
347.308	86.94
347.535	78.94
347.763	82.94
347.99	94.94
348.218	90.94
348.445	75.94
348.673	83.94
348.9	80.94
349.128	82.94
349.355	63.94
349.583	70.94
349.81	63.94
350.037	86.94
350.265	56.94
350.492	91.94
350.72	97.94
350.947	82.94
351.174	75.94
351.402	84.94
351.629	82.94
351.856	95.94
352.083	83.94
352.311	89.94
352.538	92.94
352.765	90.94
352.992	102.94
353.22	89.94
353.447	80.94
353.674	88.94
353.901	70.94
354.128	63.94
354.355	88.94
354.583	88.94
354.81	89.94
355.037	94.94
355.264	77.94
355.491	83.94
355.718	87.94
355.945	80.94
356.172	95.94
356.399	76.94
356.626	79.94
356.853	76.94
357.08	88.94
357.307	100.94
357.534	89.94
357.761	99.94
357.988	106.94
358.215	89.94
358.441	85.94
358.668	95.94
358.895	93.94
359.122	85.94
359.349	84.94
359.576	75.94
359.802	80.94
360.029	88.94
360.256	79.94
360.483	80.94
360.709	82.94
360.936	91.94
361.163	82.94
361.39	76.94
361.616	72.94
361.843	91.94
362.07	89.94
362.296	82.94
362.523	81.94
362.749	95.94
362.976	92.94
363.203	97.94
363.429	80.94
363.656	94.94
363.882	82.94
364.109	82.94
364.335	77.94
364.562	79.94
364.788	84.94
365.015	80.94
365.241	84.94
365.468	89.94
365.694	90.94
365.92	74.94
366.147	76.94
366.373	71.94
366.599	86.94
366.826	83.94
367.052	92.94
367.278	97.94
367.505	87.94
367.731	72.94
367.957	89.94
368.184	90.94
368.41	83.94
368.636	86.94
368.862	80.94
369.089	83.94
369.315	85.94
369.541	94.94
369.767	87.94
369.993	83.94
370.219	86.94
370.445	84.94
370.672	69.94
370.898	94.94
371.124	86.94
371.35	87.94
371.576	79.94
371.802	72.94
372.028	86.94
372.254	92.94
372.48	87.94
372.706	89.94
372.932	107.94
373.158	91.94
373.384	87.94
373.61	83.94
373.835	93.94
374.061	80.94
374.287	76.94
374.513	98.94
374.739	80.94
374.965	86.94
375.191	99.94
375.416	77.94
375.642	75.94
375.868	91.94
376.094	91.94
376.319	87.94
376.545	84.94
376.771	89.94
376.997	84.94
377.222	92.94
377.448	107.94
377.674	87.94
377.899	94.94
378.125	89.94
378.35	92.94
378.576	104.94
378.802	89.94
379.027	91.94
379.253	97.94
379.478	92.94
379.704	99.94
379.929	68.94
380.155	75.94
380.38	76.94
380.606	84.94
380.831	100.94
381.057	103.94
381.282	90.94
381.507	84.94
381.733	101.94
381.958	76.94
382.184	80.94
382.409	87.94
382.634	84.94
382.86	90.94
383.085	87.94
383.31	92.94
383.535	100.94
383.761	95.94
383.986	78.94
384.211	88.94
384.436	88.94
384.662	86.94
384.887	99.94
385.112	87.94
385.337	74.94
385.562	95.94
385.787	91.94
386.013	104.94
386.238	94.94
386.463	99.94
386.688	86.94
386.913	93.94
387.138	98.94
387.363	83.94
387.588	104.94
387.813	84.94
388.038	86.94
388.263	86.94
388.488	104.94
388.713	88.94
388.938	90.94
389.163	86.94
389.387	94.94
389.612	94.94
389.837	91.94
390.062	96.94
390.287	99.94
390.512	93.94
390.736	100.94
390.961	95.94
391.186	105.94
391.411	90.94
391.636	88.94
391.86	94.94
392.085	90.94
392.31	90.94
392.534	98.94
392.759	90.94
392.984	98.94
393.208	89.94
393.433	99.94
393.658	95.94
393.882	100.94
394.107	81.94
394.331	94.94
394.556	90.94
394.78	89.94
395.005	97.94
395.229	97.94
395.454	101.94
395.678	90.94
395.903	106.94
396.127	108.94
396.352	106.94
396.576	99.94
396.801	91.94
397.025	86.94
397.249	112.94
397.474	92.94
397.698	94.94
397.922	96.94
398.147	92.94
398.371	93.94
398.595	85.94
398.82	92.94
399.044	104.94
399.268	102.94
399.492	114.94
399.717	112.94
399.941	101.94
400.165	92.94
400.389	94.94
400.613	84.94
400.837	103.94
401.062	116.94
401.286	110.94
401.51	96.94
401.734	102.94
401.958	96.94
402.182	104.94
402.406	90.94
402.63	105.94
402.854	111.94
403.078	106.94
403.302	99.94
403.526	102.94
403.75	108.94
403.974	106.94
404.198	106.94
404.422	104.94
404.645	99.94
404.869	109.94
405.093	105.94
405.317	107.94
405.541	97.94
405.765	89.94
405.988	98.94
406.212	99.94
406.436	98.94
406.66	97.94
406.883	104.94
407.107	112.94
407.331	106.94
407.555	94.94
407.778	101.94
408.002	105.94
408.226	112.94
408.449	98.94
408.673	103.94
408.896	122.94
409.12	104.94
409.344	110.94
409.567	102.94
409.791	113.94
410.014	106.94
410.238	114.94
410.461	102.94
410.685	119.94
410.908	98.94
411.132	114.94
411.355	113.94
411.578	120.94
411.802	102.94
412.025	99.94
412.249	109.94
412.472	100.94
412.695	103.94
412.919	111.94
413.142	106.94
413.365	104.94
413.589	92.94
413.812	96.94
414.035	111.94
414.258	107.94
414.482	112.94
414.705	111.94
414.928	111.94
415.151	106.94
415.374	118.94
415.597	111.94
415.821	102.94
416.044	107.94
416.267	109.94
416.49	112.94
416.713	104.94
416.936	120.94
417.159	112.94
417.382	100.94
417.605	106.94
417.828	119.94
418.051	107.94
418.274	106.94
418.497	104.94
418.72	125.94
418.943	110.94
419.166	127.94
419.389	122.94
419.611	101.94
419.834	116.94
420.057	108.94
420.28	120.94
420.503	119.94
420.726	112.94
420.948	118.94
421.171	99.94
421.394	115.94
421.617	108.94
421.839	107.94
422.062	103.94
422.285	110.94
422.507	102.94
422.73	96.94
422.953	105.94
423.175	111.94
423.398	115.94
423.621	106.94
423.843	117.94
424.066	114.94
424.288	120.94
424.511	111.94
424.733	112.94
424.956	111.94
425.178	115.94
425.401	103.94
425.623	108.94
425.846	116.94
426.068	124.94
426.291	109.94
426.513	116.94
426.735	112.94
426.958	100.94
427.18	106.94
427.402	114.94
427.625	98.94
427.847	98.94
428.069	109.94
428.292	106.94
428.514	115.94
428.736	104.94
428.958	116.94
429.181	114.94
429.403	102.94
429.625	99.94
429.847	107.94
430.069	107.94
430.292	104.94
430.514	113.94
430.736	102.94
430.958	111.94
431.18	103.94
431.402	96.94
431.624	116.94
431.846	97.94
432.068	98.94
432.29	104.94
432.512	111.94
432.734	84.94
432.956	123.94
433.178	105.94
433.4	129.94
433.622	117.94
433.844	121.94
434.066	123.94
434.287	105.94
434.509	101.94
434.731	117.94
434.953	110.94
435.175	101.94
435.397	112.94
435.618	96.94
435.84	100.94
436.062	110.94
436.284	126.94
436.505	111.94
436.727	100.94
436.949	104.94
437.17	105.94
437.392	106.94
437.614	113.94
437.835	112.94
438.057	121.94
438.278	97.94
438.5	105.94
438.721	101.94
438.943	110.94
439.165	112.94
439.386	102.94
439.608	112.94
439.829	108.94
440.05	111.94
440.272	103.94
440.493	133.94
440.715	116.94
440.936	107.94
441.158	115.94
441.379	124.94
441.6	114.94
441.822	130.94
442.043	118.94
442.264	121.94
442.486	118.94
442.707	107.94
442.928	107.94
443.149	113.94
443.371	118.94
443.592	120.94
443.813	124.94
444.034	96.94
444.255	107.94
444.476	118.94
444.698	124.94
444.919	127.94
445.14	219.94
445.361	166.94
445.582	120.94
445.803	110.94
446.024	121.94
446.245	117.94
446.466	115.94
446.687	114.94
446.908	115.94
447.129	136.94
447.35	107.94
447.571	124.94
447.792	126.94
448.013	114.94
448.234	112.94
448.455	119.94
448.675	92.94
448.896	102.94
449.117	115.94
449.338	105.94
449.559	112.94
449.779	118.94
450	116.94
450.221	106.94
450.442	118.94
450.662	119.94
450.883	104.94
451.104	111.94
451.324	108.94
451.545	107.94
451.766	90.94
451.986	106.94
452.207	106.94
452.428	122.94
452.648	118.94
452.869	103.94
453.089	100.94
453.31	99.94
453.53	107.94
453.751	121.94
453.971	107.94
454.192	95.94
454.412	98.94
454.633	115.94
454.853	113.94
455.073	94.94
455.294	91.94
455.514	96.94
455.734	98.94
455.955	102.94
456.175	91.94
456.395	106.94
456.616	107.94
456.836	100.94
457.056	100.94
457.276	103.94
457.497	90.94
457.717	97.94
457.937	102.94
458.157	98.94
458.377	103.94
458.598	102.94
458.818	99.94
459.038	100.94
459.258	96.94
459.478	93.94
459.698	102.94
459.918	113.94
460.138	100.94
460.358	112.94
460.578	104.94
460.798	107.94
461.018	115.94
461.238	103.94
461.458	124.94
461.678	126.94
461.898	109.94
462.118	118.94
462.338	108.94
462.558	106.94
462.777	110.94
462.997	136.94
463.217	124.94
463.437	125.94
463.657	116.94
463.876	114.94
464.096	124.94
464.316	132.94
464.536	107.94
464.755	128.94
464.975	118.94
465.195	118.94
465.414	113.94
465.634	100.94
465.854	97.94
466.073	110.94
466.293	96.94
466.512	122.94
466.732	123.94
466.951	105.94
467.171	110.94
467.391	113.94
467.61	115.94
467.829	110.94
468.049	103.94
468.268	128.94
468.488	111.94
468.707	90.94
468.927	103.94
469.146	114.94
469.365	118.94
469.585	125.94
469.804	110.94
470.023	98.94
470.243	115.94
470.462	124.94
470.681	120.94
470.901	118.94
471.12	117.94
471.339	123.94
471.558	110.94
471.777	103.94
471.997	114.94
472.216	119.94
472.435	115.94
472.654	103.94
472.873	115.94
473.092	96.94
473.311	121.94
473.53	116.94
473.749	106.94
473.968	112.94
474.187	121.94
474.406	122.94
474.625	108.94
474.844	111.94
475.063	114.94
475.282	94.94
475.501	127.94
475.72	115.94
475.939	112.94
476.158	110.94
476.377	117.94
476.596	102.94
476.814	103.94
477.033	102.94
477.252	103.94
477.471	105.94
477.69	107.94
477.908	111.94
478.127	133.94
478.346	129.94
478.564	120.94
478.783	133.94
479.002	138.94
479.22	134.94
479.439	112.94
479.658	114.94
479.876	106.94
480.095	114.94
480.313	116.94
480.532	104.94
480.751	134.94
480.969	112.94
481.188	108.94
481.406	116.94
481.624	118.94
481.843	115.94
482.061	105.94
482.28	118.94
482.498	126.94
482.717	112.94
482.935	125.94
483.153	122.94
483.372	128.94
483.59	122.94
483.808	112.94
484.027	123.94
484.245	115.94
484.463	126.94
484.681	124.94
484.9	111.94
485.118	120.94
485.336	108.94
485.554	110.94
485.772	110.94
485.99	122.94
486.209	123.94
486.427	122.94
486.645	128.94
486.863	112.94
487.081	119.94
487.299	96.94
487.517	128.94
487.735	135.94
487.953	147.94
488.171	134.94
488.389	148.94
488.607	134.94
488.825	122.94
489.043	113.94
489.261	114.94
489.479	119.94
489.696	114.94
489.914	114.94
490.132	132.94
490.35	122.94
490.568	123.94
490.786	128.94
491.003	141.94
491.221	128.94
491.439	156.94
491.657	138.94
491.874	136.94
492.092	142.94
492.31	156.94
492.527	144.94
492.745	153.94
492.963	136.94
493.18	150.94
493.398	144.94
493.615	153.94
493.833	150.94
494.05	147.94
494.268	137.94
494.485	150.94
494.703	150.94
494.92	141.94
495.138	138.94
495.355	164.94
495.573	131.94
495.79	145.94
496.008	144.94
496.225	154.94
496.442	148.94
496.66	138.94
496.877	136.94
497.094	141.94
497.312	147.94
497.529	132.94
497.746	143.94
497.963	137.94
498.181	133.94
498.398	129.94
498.615	137.94
498.832	128.94
499.049	146.94
499.267	165.94
499.484	152.94
499.701	152.94
499.918	174.94
500.135	180.94
500.352	203.94
500.569	199.94
500.786	204.94
501.003	191.94
501.22	188.94
501.437	178.94
501.654	142.94
501.871	171.94
502.088	162.94
502.305	152.94
502.522	144.94
502.739	133.94
502.956	138.94
503.172	141.94
503.389	131.94
503.606	115.94
503.823	130.94
504.04	124.94
504.256	124.94
504.473	127.94
504.69	131.94
504.907	122.94
505.123	128.94
505.34	131.94
505.557	112.94
505.773	130.94
505.99	117.94
506.207	126.94
506.423	104.94
506.64	130.94
506.856	115.94
507.073	130.94
507.289	127.94
507.506	120.94
507.722	136.94
507.939	134.94
508.155	115.94
508.372	102.94
508.588	110.94
508.805	106.94
509.021	115.94
509.238	114.94
509.454	102.94
509.67	119.94
509.887	113.94
510.103	119.94
510.319	122.94
510.536	110.94
510.752	121.94
510.968	122.94
511.184	89.94
511.401	103.94
511.617	102.94
511.833	105.94
512.049	104.94
512.265	114.94
