Data from StandardFe(NO3)3.TAE.3%Agarose.FlatLispGreen.Lamp.Energy10.07252019_HRD10591_11-53-14-462.txt Node
Date: Thu Jul 25 11:53:14 EDT 2019
User: cochatt
Spectrometer: HR+D1059
Trigger mode: 1
Integration Time (sec): 1.000000E-1
Scans to average: 1
Electric dark correction enabled: true
Nonlinearity correction enabled: false
Boxcar width: 0
XAxis mode: Wavelengths
Number of Pixels in Spectrum: 2048
>>>>>Begin Spectral Data<<<<<
223.165	-24.19
223.4	-24.19
223.635	-24.19
223.869	-10.19
224.104	-16.19
224.338	-37.19
224.573	-28.19
224.808	-17.19
225.042	4.81
225.277	-0.19
225.511	-7.19
225.746	5.81
225.98	-0.19
226.215	12.81
226.449	29.81
226.683	25.81
226.918	33.81
227.152	27.81
227.387	32.81
227.621	50.81
227.856	26.81
228.09	48.81
228.324	50.81
228.559	62.81
228.793	72.81
229.027	69.81
229.262	63.81
229.496	77.81
229.73	65.81
229.964	60.81
230.199	82.81
230.433	66.81
230.667	73.81
230.901	65.81
231.136	69.81
231.37	74.81
231.604	71.81
231.838	89.81
232.072	80.81
232.306	80.81
232.541	91.81
232.775	78.81
233.009	87.81
233.243	91.81
233.477	76.81
233.711	84.81
233.945	73.81
234.179	83.81
234.413	73.81
234.647	82.81
234.881	95.81
235.115	101.81
235.349	81.81
235.583	89.81
235.817	68.81
236.051	70.81
236.285	88.81
236.519	78.81
236.753	80.81
236.987	78.81
237.221	82.81
237.455	71.81
237.689	63.81
237.922	70.81
238.156	72.81
238.39	74.81
238.624	66.81
238.858	68.81
239.091	73.81
239.325	75.81
239.559	92.81
239.793	91.81
240.027	79.81
240.26	84.81
240.494	74.81
240.728	76.81
240.961	57.81
241.195	69.81
241.429	70.81
241.662	74.81
241.896	75.81
242.13	70.81
242.363	81.81
242.597	73.81
242.83	75.81
243.064	70.81
243.298	73.81
243.531	74.81
243.765	83.81
243.998	87.81
244.232	83.81
244.465	78.81
244.699	84.81
244.932	81.81
245.166	84.81
245.399	97.81
245.633	88.81
245.866	64.81
246.099	70.81
246.333	85.81
246.566	79.81
246.8	82.81
247.033	81.81
247.266	87.81
247.5	89.81
247.733	82.81
247.966	78.81
248.2	80.81
248.433	69.81
248.666	85.81
248.899	90.81
249.133	84.81
249.366	81.81
249.599	86.81
249.832	77.81
250.066	87.81
250.299	87.81
250.532	63.81
250.765	81.81
250.998	65.81
251.231	74.81
251.465	79.81
251.698	91.81
251.931	68.81
252.164	64.81
252.397	76.81
252.63	75.81
252.863	85.81
253.096	73.81
253.329	79.81
253.562	76.81
253.795	84.81
254.028	84.81
254.261	88.81
254.494	87.81
254.727	74.81
254.96	76.81
255.193	91.81
255.426	81.81
255.659	93.81
255.892	84.81
256.124	68.81
256.357	82.81
256.59	98.81
256.823	69.81
257.056	86.81
257.289	77.81
257.521	85.81
257.754	74.81
257.987	69.81
258.22	86.81
258.452	72.81
258.685	77.81
258.918	72.81
259.151	71.81
259.383	80.81
259.616	83.81
259.849	90.81
260.081	73.81
260.314	79.81
260.547	89.81
260.779	79.81
261.012	63.81
261.244	80.81
261.477	83.81
261.71	63.81
261.942	75.81
262.175	69.81
262.407	62.81
262.64	80.81
262.872	79.81
263.105	73.81
263.337	78.81
263.57	86.81
263.802	75.81
264.035	86.81
264.267	78.81
264.499	76.81
264.732	84.81
264.964	73.81
265.197	80.81
265.429	81.81
265.661	86.81
265.894	71.81
266.126	78.81
266.358	83.81
266.591	90.81
266.823	84.81
267.055	78.81
267.287	78.81
267.52	73.81
267.752	86.81
267.984	90.81
268.216	79.81
268.448	85.81
268.681	75.81
268.913	80.81
269.145	82.81
269.377	76.81
269.609	89.81
269.841	79.81
270.073	81.81
270.306	83.81
270.538	87.81
270.77	73.81
271.002	78.81
271.234	79.81
271.466	86.81
271.698	74.81
271.93	89.81
272.162	92.81
272.394	94.81
272.626	80.81
272.858	76.81
273.09	74.81
273.322	88.81
273.553	77.81
273.785	86.81
274.017	81.81
274.249	69.81
274.481	90.81
274.713	91.81
274.945	82.81
275.176	72.81
275.408	86.81
275.64	76.81
275.872	87.81
276.104	94.81
276.335	86.81
276.567	75.81
276.799	76.81
277.031	80.81
277.262	70.81
277.494	84.81
277.726	89.81
277.957	85.81
278.189	75.81
278.421	82.81
278.652	92.81
278.884	70.81
279.115	81.81
279.347	71.81
279.579	75.81
279.81	83.81
280.042	92.81
280.273	78.81
280.505	93.81
280.736	100.81
280.968	81.81
281.199	90.81
281.431	81.81
281.662	77.81
281.894	82.81
282.125	81.81
282.356	92.81
282.588	82.81
282.819	82.81
283.051	92.81
283.282	87.81
283.513	78.81
283.745	96.81
283.976	91.81
284.207	86.81
284.439	78.81
284.67	95.81
284.901	83.81
285.132	79.81
285.364	96.81
285.595	76.81
285.826	99.81
286.057	83.81
286.288	77.81
286.52	86.81
286.751	79.81
286.982	86.81
287.213	74.81
287.444	92.81
287.675	90.81
287.906	96.81
288.138	90.81
288.369	66.81
288.6	82.81
288.831	106.81
289.062	100.81
289.293	82.81
289.524	93.81
289.755	83.81
289.986	80.81
290.217	82.81
290.448	84.81
290.679	85.81
290.91	63.81
291.141	92.81
291.371	94.81
291.602	83.81
291.833	90.81
292.064	69.81
292.295	86.81
292.526	78.81
292.757	81.81
292.987	81.81
293.218	77.81
293.449	82.81
293.68	92.81
293.91	83.81
294.141	78.81
294.372	80.81
294.603	96.81
294.833	91.81
295.064	66.81
295.295	85.81
295.525	80.81
295.756	78.81
295.987	83.81
296.217	92.81
296.448	84.81
296.679	74.81
296.909	84.81
297.14	77.81
297.37	81.81
297.601	79.81
297.831	89.81
298.062	99.81
298.292	76.81
298.523	84.81
298.753	65.81
298.984	94.81
299.214	93.81
299.445	87.81
299.675	74.81
299.905	76.81
300.136	91.81
300.366	86.81
300.597	92.81
300.827	87.81
301.057	77.81
301.288	86.81
301.518	92.81
301.748	95.81
301.979	91.81
302.209	87.81
302.439	85.81
302.669	76.81
302.9	91.81
303.13	92.81
303.36	84.81
303.59	85.81
303.82	81.81
304.051	85.81
304.281	88.81
304.511	81.81
304.741	75.81
304.971	77.81
305.201	78.81
305.431	89.81
305.661	81.81
305.891	89.81
306.121	89.81
306.352	71.81
306.582	86.81
306.812	82.81
307.042	76.81
307.272	92.81
307.502	77.81
307.731	87.81
307.961	71.81
308.191	88.81
308.421	88.81
308.651	81.81
308.881	83.81
309.111	90.81
309.341	87.81
309.571	83.81
309.8	85.81
310.03	78.81
310.26	92.81
310.49	94.81
310.72	66.81
310.949	64.81
311.179	93.81
311.409	94.81
311.639	75.81
311.868	70.81
312.098	89.81
312.328	79.81
312.557	95.81
312.787	83.81
313.017	84.81
313.246	79.81
313.476	84.81
313.706	87.81
313.935	79.81
314.165	91.81
314.394	85.81
314.624	78.81
314.853	87.81
315.083	67.81
315.312	84.81
315.542	89.81
315.771	96.81
316.001	82.81
316.23	73.81
316.46	85.81
316.689	84.81
316.919	77.81
317.148	89.81
317.377	85.81
317.607	78.81
317.836	84.81
318.065	82.81
318.295	68.81
318.524	84.81
318.753	82.81
318.983	77.81
319.212	75.81
319.441	83.81
319.67	89.81
319.9	84.81
320.129	74.81
320.358	86.81
320.587	79.81
320.816	90.81
321.046	86.81
321.275	97.81
321.504	92.81
321.733	88.81
321.962	106.81
322.191	83.81
322.42	88.81
322.649	86.81
322.878	85.81
323.108	104.81
323.337	85.81
323.566	81.81
323.795	77.81
324.024	75.81
324.253	87.81
324.482	85.81
324.71	86.81
324.939	90.81
325.168	83.81
325.397	93.81
325.626	84.81
325.855	94.81
326.084	70.81
326.313	87.81
326.542	93.81
326.77	82.81
326.999	67.81
327.228	82.81
327.457	90.81
327.686	79.81
327.914	72.81
328.143	89.81
328.372	72.81
328.6	71.81
328.829	80.81
329.058	86.81
329.287	92.81
329.515	88.81
329.744	88.81
329.972	83.81
330.201	89.81
330.43	94.81
330.658	89.81
330.887	92.81
331.115	78.81
331.344	92.81
331.572	78.81
331.801	79.81
332.03	84.81
332.258	82.81
332.486	84.81
332.715	75.81
332.943	84.81
333.172	85.81
333.4	87.81
333.629	70.81
333.857	87.81
334.085	82.81
334.314	75.81
334.542	75.81
334.771	87.81
334.999	86.81
335.227	91.81
335.455	88.81
335.684	77.81
335.912	79.81
336.14	67.81
336.369	76.81
336.597	75.81
336.825	87.81
337.053	90.81
337.281	81.81
337.51	78.81
337.738	87.81
337.966	82.81
338.194	72.81
338.422	82.81
338.65	80.81
338.878	100.81
339.106	94.81
339.334	84.81
339.562	102.81
339.79	77.81
340.018	76.81
340.246	85.81
340.474	81.81
340.702	87.81
340.93	80.81
341.158	83.81
341.386	82.81
341.614	90.81
341.842	77.81
342.07	75.81
342.298	85.81
342.526	78.81
342.754	78.81
342.981	71.81
343.209	84.81
343.437	79.81
343.665	82.81
343.893	92.81
344.12	80.81
344.348	86.81
344.576	86.81
344.804	86.81
345.031	74.81
345.259	87.81
345.487	76.81
345.714	87.81
345.942	94.81
346.17	66.81
346.397	83.81
346.625	89.81
346.853	73.81
347.08	87.81
347.308	88.81
347.535	76.81
347.763	85.81
347.99	79.81
348.218	85.81
348.445	77.81
348.673	74.81
348.9	89.81
349.128	91.81
349.355	87.81
349.583	77.81
349.81	82.81
350.037	89.81
350.265	85.81
350.492	83.81
350.72	92.81
350.947	83.81
351.174	94.81
351.402	95.81
351.629	88.81
351.856	94.81
352.083	87.81
352.311	74.81
352.538	95.81
352.765	83.81
352.992	86.81
353.22	99.81
353.447	88.81
353.674	96.81
353.901	83.81
354.128	83.81
354.355	93.81
354.583	92.81
354.81	94.81
355.037	79.81
355.264	87.81
355.491	85.81
355.718	73.81
355.945	90.81
356.172	88.81
356.399	80.81
356.626	74.81
356.853	82.81
357.08	84.81
357.307	92.81
357.534	85.81
357.761	89.81
357.988	108.81
358.215	80.81
358.441	82.81
358.668	90.81
358.895	98.81
359.122	76.81
359.349	81.81
359.576	93.81
359.802	86.81
360.029	96.81
360.256	78.81
360.483	97.81
360.709	82.81
360.936	89.81
361.163	76.81
361.39	84.81
361.616	87.81
361.843	78.81
362.07	84.81
362.296	76.81
362.523	70.81
362.749	77.81
362.976	82.81
363.203	76.81
363.429	72.81
363.656	96.81
363.882	83.81
364.109	80.81
364.335	78.81
364.562	81.81
364.788	79.81
365.015	75.81
365.241	81.81
365.468	89.81
365.694	90.81
365.92	101.81
366.147	82.81
366.373	84.81
366.599	80.81
366.826	88.81
367.052	82.81
367.278	93.81
367.505	87.81
367.731	80.81
367.957	76.81
368.184	94.81
368.41	96.81
368.636	83.81
368.862	86.81
369.089	88.81
369.315	89.81
369.541	103.81
369.767	99.81
369.993	91.81
370.219	91.81
370.445	87.81
370.672	94.81
370.898	92.81
371.124	94.81
371.35	79.81
371.576	87.81
371.802	89.81
372.028	87.81
372.254	75.81
372.48	94.81
372.706	99.81
372.932	96.81
373.158	96.81
373.384	88.81
373.61	87.81
373.835	89.81
374.061	82.81
374.287	80.81
374.513	102.81
374.739	87.81
374.965	93.81
375.191	102.81
375.416	92.81
375.642	95.81
375.868	92.81
376.094	82.81
376.319	80.81
376.545	94.81
376.771	91.81
376.997	92.81
377.222	89.81
377.448	101.81
377.674	76.81
377.899	88.81
378.125	81.81
378.35	90.81
378.576	87.81
378.802	93.81
379.027	75.81
379.253	89.81
379.478	94.81
379.704	102.81
379.929	75.81
380.155	93.81
380.38	84.81
380.606	104.81
380.831	94.81
381.057	74.81
381.282	94.81
381.507	93.81
381.733	88.81
381.958	96.81
382.184	90.81
382.409	87.81
382.634	75.81
382.86	84.81
383.085	97.81
383.31	100.81
383.535	98.81
383.761	91.81
383.986	82.81
384.211	86.81
384.436	87.81
384.662	91.81
384.887	80.81
385.112	87.81
385.337	88.81
385.562	91.81
385.787	92.81
386.013	101.81
386.238	88.81
386.463	87.81
386.688	82.81
386.913	93.81
387.138	77.81
387.363	100.81
387.588	101.81
387.813	94.81
388.038	97.81
388.263	90.81
388.488	93.81
388.713	90.81
388.938	80.81
389.163	100.81
389.387	84.81
389.612	93.81
389.837	103.81
390.062	112.81
390.287	98.81
390.512	95.81
390.736	91.81
390.961	88.81
391.186	103.81
391.411	89.81
391.636	96.81
391.86	85.81
392.085	95.81
392.31	97.81
392.534	110.81
392.759	96.81
392.984	110.81
393.208	102.81
393.433	99.81
393.658	103.81
393.882	99.81
394.107	89.81
394.331	98.81
394.556	99.81
394.78	103.81
395.005	106.81
395.229	98.81
395.454	110.81
395.678	102.81
395.903	94.81
396.127	104.81
396.352	87.81
396.576	107.81
396.801	91.81
397.025	93.81
397.249	102.81
397.474	110.81
397.698	100.81
397.922	90.81
398.147	85.81
398.371	100.81
398.595	105.81
398.82	90.81
399.044	108.81
399.268	107.81
399.492	114.81
399.717	112.81
399.941	121.81
400.165	106.81
400.389	105.81
400.613	100.81
400.837	104.81
401.062	104.81
401.286	122.81
401.51	98.81
401.734	114.81
401.958	90.81
402.182	99.81
402.406	99.81
402.63	107.81
402.854	95.81
403.078	96.81
403.302	96.81
403.526	104.81
403.75	111.81
403.974	86.81
404.198	105.81
404.422	112.81
404.645	101.81
404.869	105.81
405.093	115.81
405.317	120.81
405.541	113.81
405.765	103.81
405.988	111.81
406.212	102.81
406.436	99.81
406.66	111.81
406.883	108.81
407.107	105.81
407.331	118.81
407.555	122.81
407.778	110.81
408.002	118.81
408.226	110.81
408.449	115.81
408.673	112.81
408.896	104.81
409.12	114.81
409.344	107.81
409.567	108.81
409.791	113.81
410.014	126.81
410.238	109.81
410.461	114.81
410.685	99.81
410.908	108.81
411.132	117.81
411.355	107.81
411.578	104.81
411.802	117.81
412.025	120.81
412.249	108.81
412.472	123.81
412.695	110.81
412.919	113.81
413.142	106.81
413.365	99.81
413.589	113.81
413.812	108.81
414.035	111.81
414.258	117.81
414.482	107.81
414.705	112.81
414.928	124.81
415.151	125.81
415.374	114.81
415.597	105.81
415.821	107.81
416.044	114.81
416.267	106.81
416.49	105.81
416.713	100.81
416.936	115.81
417.159	112.81
417.382	118.81
417.605	118.81
417.828	103.81
418.051	110.81
418.274	112.81
418.497	123.81
418.72	118.81
418.943	112.81
419.166	112.81
419.389	113.81
419.611	122.81
419.834	110.81
420.057	117.81
420.28	98.81
420.503	111.81
420.726	105.81
420.948	112.81
421.171	111.81
421.394	105.81
421.617	122.81
421.839	102.81
422.062	117.81
422.285	122.81
422.507	108.81
422.73	127.81
422.953	120.81
423.175	108.81
423.398	123.81
423.621	112.81
423.843	115.81
424.066	127.81
424.288	122.81
424.511	114.81
424.733	122.81
424.956	109.81
425.178	119.81
425.401	115.81
425.623	110.81
425.846	101.81
426.068	126.81
426.291	117.81
426.513	102.81
426.735	112.81
426.958	119.81
427.18	118.81
427.402	125.81
427.625	118.81
427.847	122.81
428.069	111.81
428.292	103.81
428.514	120.81
428.736	112.81
428.958	103.81
429.181	125.81
429.403	105.81
429.625	115.81
429.847	106.81
430.069	93.81
430.292	126.81
430.514	104.81
430.736	112.81
430.958	110.81
431.18	100.81
431.402	108.81
431.624	110.81
431.846	104.81
432.068	105.81
432.29	114.81
432.512	102.81
432.734	105.81
432.956	103.81
433.178	116.81
433.4	122.81
433.622	107.81
433.844	101.81
434.066	104.81
434.287	113.81
434.509	100.81
434.731	115.81
434.953	113.81
435.175	115.81
435.397	108.81
435.618	97.81
435.84	102.81
436.062	106.81
436.284	114.81
436.505	97.81
436.727	104.81
436.949	114.81
437.17	102.81
437.392	112.81
437.614	102.81
437.835	83.81
438.057	95.81
438.278	110.81
438.5	103.81
438.721	106.81
438.943	119.81
439.165	132.81
439.386	103.81
439.608	130.81
439.829	110.81
440.05	114.81
440.272	118.81
440.493	106.81
440.715	114.81
440.936	128.81
441.158	111.81
441.379	116.81
441.6	118.81
441.822	131.81
442.043	132.81
442.264	133.81
442.486	107.81
442.707	100.81
442.928	124.81
443.149	123.81
443.371	116.81
443.592	119.81
443.813	120.81
444.034	125.81
444.255	123.81
444.476	128.81
444.698	118.81
444.919	134.81
445.14	254.81
445.361	170.81
445.582	127.81
445.803	126.81
446.024	128.81
446.245	115.81
446.466	137.81
446.687	121.81
446.908	126.81
447.129	130.81
447.35	124.81
447.571	117.81
447.792	127.81
448.013	118.81
448.234	111.81
448.455	124.81
448.675	120.81
448.896	118.81
449.117	121.81
449.338	114.81
449.559	115.81
449.779	114.81
450	102.81
450.221	114.81
450.442	117.81
450.662	113.81
450.883	113.81
451.104	115.81
451.324	96.81
451.545	114.81
451.766	98.81
451.986	112.81
452.207	116.81
452.428	115.81
452.648	107.81
452.869	108.81
453.089	106.81
453.31	103.81
453.53	113.81
453.751	114.81
453.971	113.81
454.192	94.81
454.412	103.81
454.633	105.81
454.853	115.81
455.073	106.81
455.294	100.81
455.514	111.81
455.734	87.81
455.955	102.81
456.175	106.81
456.395	111.81
456.616	110.81
456.836	95.81
457.056	98.81
457.276	89.81
457.497	91.81
457.717	93.81
457.937	100.81
458.157	108.81
458.377	97.81
458.598	93.81
458.818	94.81
459.038	96.81
459.258	94.81
459.478	102.81
459.698	106.81
459.918	101.81
460.138	118.81
460.358	106.81
460.578	120.81
460.798	118.81
461.018	114.81
461.238	120.81
461.458	113.81
461.678	122.81
461.898	108.81
462.118	108.81
462.338	115.81
462.558	128.81
462.777	128.81
462.997	127.81
463.217	120.81
463.437	115.81
463.657	103.81
463.876	115.81
464.096	130.81
464.316	128.81
464.536	117.81
464.755	113.81
464.975	118.81
465.195	128.81
465.414	109.81
465.634	110.81
465.854	107.81
466.073	112.81
466.293	116.81
466.512	111.81
466.732	121.81
466.951	105.81
467.171	131.81
467.391	114.81
467.61	98.81
467.829	120.81
468.049	132.81
468.268	103.81
468.488	110.81
468.707	103.81
468.927	124.81
469.146	110.81
469.365	104.81
469.585	120.81
469.804	126.81
470.023	110.81
470.243	133.81
470.462	131.81
470.681	121.81
470.901	126.81
471.12	121.81
471.339	112.81
471.558	114.81
471.777	128.81
471.997	120.81
472.216	111.81
472.435	117.81
472.654	103.81
472.873	112.81
473.092	122.81
473.311	120.81
473.53	114.81
473.749	116.81
473.968	121.81
474.187	92.81
474.406	103.81
474.625	121.81
474.844	120.81
475.063	130.81
475.282	122.81
475.501	114.81
475.72	124.81
475.939	115.81
476.158	122.81
476.377	114.81
476.596	115.81
476.814	119.81
477.033	115.81
477.252	116.81
477.471	129.81
477.69	134.81
477.908	128.81
478.127	138.81
478.346	127.81
478.564	119.81
478.783	125.81
479.002	140.81
479.22	118.81
479.439	124.81
479.658	117.81
479.876	130.81
480.095	119.81
480.313	126.81
480.532	132.81
480.751	129.81
480.969	110.81
481.188	107.81
481.406	124.81
481.624	120.81
481.843	92.81
482.061	116.81
482.28	121.81
482.498	118.81
482.717	105.81
482.935	124.81
483.153	122.81
483.372	135.81
483.59	127.81
483.808	124.81
484.027	134.81
484.245	131.81
484.463	132.81
484.681	130.81
484.9	123.81
485.118	128.81
485.336	128.81
485.554	130.81
485.772	116.81
485.99	108.81
486.209	122.81
486.427	110.81
486.645	122.81
486.863	128.81
487.081	121.81
487.299	122.81
487.517	134.81
487.735	148.81
487.953	151.81
488.171	136.81
488.389	144.81
488.607	133.81
488.825	138.81
489.043	114.81
489.261	126.81
489.479	138.81
489.696	142.81
489.914	130.81
490.132	137.81
490.35	129.81
490.568	123.81
490.786	152.81
491.003	150.81
491.221	143.81
491.439	138.81
491.657	150.81
491.874	151.81
492.092	147.81
492.31	172.81
492.527	166.81
492.745	166.81
492.963	157.81
493.18	147.81
493.398	154.81
493.615	138.81
493.833	161.81
494.05	159.81
494.268	152.81
494.485	145.81
494.703	168.81
494.92	153.81
495.138	137.81
495.355	146.81
495.573	146.81
495.79	150.81
496.008	155.81
496.225	155.81
496.442	143.81
496.66	133.81
496.877	138.81
497.094	151.81
497.312	137.81
497.529	152.81
497.746	143.81
497.963	159.81
498.181	158.81
498.398	153.81
498.615	149.81
498.832	160.81
499.049	148.81
499.267	161.81
499.484	158.81
499.701	175.81
499.918	186.81
500.135	196.81
500.352	218.81
500.569	213.81
500.786	206.81
501.003	206.81
501.22	185.81
501.437	183.81
501.654	166.81
501.871	170.81
502.088	150.81
502.305	163.81
502.522	144.81
502.739	154.81
502.956	145.81
503.172	135.81
503.389	131.81
503.606	129.81
503.823	150.81
504.04	148.81
504.256	126.81
504.473	139.81
504.69	144.81
504.907	139.81
505.123	119.81
505.34	123.81
505.557	116.81
505.773	123.81
505.99	112.81
506.207	124.81
506.423	118.81
506.64	142.81
506.856	141.81
507.073	122.81
507.289	121.81
507.506	134.81
507.722	132.81
507.939	128.81
508.155	132.81
508.372	118.81
508.588	116.81
508.805	106.81
509.021	114.81
509.238	118.81
509.454	119.81
509.67	116.81
509.887	117.81
510.103	112.81
510.319	115.81
510.536	105.81
510.752	110.81
510.968	100.81
511.184	91.81
511.401	107.81
511.617	109.81
511.833	115.81
