Data from StandardFe(NO3)3.TAE.3%Agarose.FlatLispGreen.Lamp.Energy10.07252019_HRD10591_11-55-41-441.txt Node
Date: Thu Jul 25 11:55:41 EDT 2019
User: cochatt
Spectrometer: HR+D1059
Trigger mode: 1
Integration Time (sec): 1.000000E-1
Scans to average: 1
Electric dark correction enabled: true
Nonlinearity correction enabled: false
Boxcar width: 0
XAxis mode: Wavelengths
Number of Pixels in Spectrum: 2048
>>>>>Begin Spectral Data<<<<<
223.165	-22.25
223.4	-22.25
223.635	-22.25
223.869	-17.25
224.104	-13.25
224.338	-18.25
224.573	-23.25
224.808	-10.25
225.042	-4.25
225.277	-14.25
225.511	1.75
225.746	-1.25
225.98	6.75
226.215	7.75
226.449	28.75
226.683	36.75
226.918	8.75
227.152	33.75
227.387	54.75
227.621	23.75
227.856	33.75
228.09	52.75
228.324	45.75
228.559	45.75
228.793	56.75
229.027	62.75
229.262	73.75
229.496	58.75
229.73	65.75
229.964	73.75
230.199	71.75
230.433	59.75
230.667	72.75
230.901	69.75
231.136	75.75
231.37	74.75
231.604	74.75
231.838	56.75
232.072	75.75
232.306	79.75
232.541	76.75
232.775	70.75
233.009	78.75
233.243	66.75
233.477	72.75
233.711	85.75
233.945	83.75
234.179	78.75
234.413	77.75
234.647	73.75
234.881	69.75
235.115	77.75
235.349	73.75
235.583	87.75
235.817	78.75
236.051	63.75
236.285	76.75
236.519	83.75
236.753	78.75
236.987	73.75
237.221	75.75
237.455	82.75
237.689	95.75
237.922	81.75
238.156	73.75
238.39	79.75
238.624	68.75
238.858	87.75
239.091	87.75
239.325	69.75
239.559	67.75
239.793	73.75
240.027	71.75
240.26	68.75
240.494	82.75
240.728	70.75
240.961	79.75
241.195	92.75
241.429	93.75
241.662	79.75
241.896	78.75
242.13	78.75
242.363	65.75
242.597	78.75
242.83	71.75
243.064	73.75
243.298	82.75
243.531	79.75
243.765	73.75
243.998	75.75
244.232	85.75
244.465	73.75
244.699	80.75
244.932	74.75
245.166	72.75
245.399	96.75
245.633	98.75
245.866	84.75
246.099	93.75
246.333	77.75
246.566	75.75
246.8	91.75
247.033	79.75
247.266	71.75
247.5	75.75
247.733	76.75
247.966	74.75
248.2	74.75
248.433	70.75
248.666	69.75
248.899	74.75
249.133	84.75
249.366	83.75
249.599	83.75
249.832	81.75
250.066	81.75
250.299	67.75
250.532	65.75
250.765	67.75
250.998	78.75
251.231	72.75
251.465	83.75
251.698	70.75
251.931	93.75
252.164	78.75
252.397	80.75
252.63	67.75
252.863	77.75
253.096	87.75
253.329	82.75
253.562	81.75
253.795	83.75
254.028	85.75
254.261	90.75
254.494	76.75
254.727	82.75
254.96	74.75
255.193	74.75
255.426	69.75
255.659	72.75
255.892	74.75
256.124	84.75
256.357	66.75
256.59	83.75
256.823	77.75
257.056	77.75
257.289	85.75
257.521	63.75
257.754	82.75
257.987	78.75
258.22	70.75
258.452	80.75
258.685	83.75
258.918	74.75
259.151	65.75
259.383	79.75
259.616	81.75
259.849	79.75
260.081	83.75
260.314	99.75
260.547	90.75
260.779	66.75
261.012	70.75
261.244	70.75
261.477	82.75
261.71	96.75
261.942	75.75
262.175	84.75
262.407	68.75
262.64	92.75
262.872	90.75
263.105	81.75
263.337	78.75
263.57	90.75
263.802	97.75
264.035	87.75
264.267	73.75
264.499	85.75
264.732	86.75
264.964	82.75
265.197	86.75
265.429	78.75
265.661	82.75
265.894	84.75
266.126	82.75
266.358	74.75
266.591	92.75
266.823	96.75
267.055	88.75
267.287	87.75
267.52	66.75
267.752	86.75
267.984	80.75
268.216	78.75
268.448	81.75
268.681	74.75
268.913	74.75
269.145	87.75
269.377	90.75
269.609	75.75
269.841	84.75
270.073	96.75
270.306	93.75
270.538	81.75
270.77	75.75
271.002	76.75
271.234	75.75
271.466	78.75
271.698	88.75
271.93	75.75
272.162	79.75
272.394	85.75
272.626	84.75
272.858	72.75
273.09	91.75
273.322	79.75
273.553	82.75
273.785	75.75
274.017	70.75
274.249	76.75
274.481	94.75
274.713	82.75
274.945	81.75
275.176	75.75
275.408	66.75
275.64	91.75
275.872	78.75
276.104	81.75
276.335	81.75
276.567	82.75
276.799	80.75
277.031	86.75
277.262	80.75
277.494	87.75
277.726	88.75
277.957	80.75
278.189	70.75
278.421	84.75
278.652	74.75
278.884	89.75
279.115	78.75
279.347	84.75
279.579	74.75
279.81	69.75
280.042	74.75
280.273	78.75
280.505	77.75
280.736	88.75
280.968	75.75
281.199	81.75
281.431	86.75
281.662	77.75
281.894	93.75
282.125	82.75
282.356	90.75
282.588	78.75
282.819	88.75
283.051	79.75
283.282	84.75
283.513	78.75
283.745	78.75
283.976	88.75
284.207	95.75
284.439	95.75
284.67	87.75
284.901	71.75
285.132	84.75
285.364	76.75
285.595	83.75
285.826	78.75
286.057	82.75
286.288	88.75
286.52	82.75
286.751	73.75
286.982	89.75
287.213	76.75
287.444	74.75
287.675	93.75
287.906	89.75
288.138	86.75
288.369	83.75
288.6	99.75
288.831	78.75
289.062	91.75
289.293	85.75
289.524	84.75
289.755	77.75
289.986	87.75
290.217	100.75
290.448	98.75
290.679	82.75
290.91	82.75
291.141	76.75
291.371	86.75
291.602	78.75
291.833	73.75
292.064	83.75
292.295	91.75
292.526	69.75
292.757	83.75
292.987	81.75
293.218	88.75
293.449	91.75
293.68	86.75
293.91	79.75
294.141	80.75
294.372	87.75
294.603	86.75
294.833	83.75
295.064	69.75
295.295	97.75
295.525	81.75
295.756	89.75
295.987	87.75
296.217	73.75
296.448	78.75
296.679	83.75
296.909	91.75
297.14	85.75
297.37	89.75
297.601	90.75
297.831	83.75
298.062	86.75
298.292	96.75
298.523	86.75
298.753	82.75
298.984	71.75
299.214	86.75
299.445	77.75
299.675	86.75
299.905	79.75
300.136	79.75
300.366	78.75
300.597	91.75
300.827	90.75
301.057	81.75
301.288	91.75
301.518	79.75
301.748	76.75
301.979	87.75
302.209	91.75
302.439	75.75
302.669	82.75
302.9	82.75
303.13	82.75
303.36	82.75
303.59	92.75
303.82	87.75
304.051	79.75
304.281	70.75
304.511	86.75
304.741	79.75
304.971	94.75
305.201	82.75
305.431	74.75
305.661	84.75
305.891	86.75
306.121	76.75
306.352	90.75
306.582	80.75
306.812	90.75
307.042	89.75
307.272	95.75
307.502	79.75
307.731	85.75
307.961	68.75
308.191	86.75
308.421	95.75
308.651	97.75
308.881	85.75
309.111	93.75
309.341	84.75
309.571	90.75
309.8	78.75
310.03	80.75
310.26	73.75
310.49	69.75
310.72	90.75
310.949	85.75
311.179	86.75
311.409	85.75
311.639	82.75
311.868	88.75
312.098	82.75
312.328	87.75
312.557	97.75
312.787	96.75
313.017	93.75
313.246	73.75
313.476	91.75
313.706	83.75
313.935	83.75
314.165	82.75
314.394	87.75
314.624	75.75
314.853	87.75
315.083	78.75
315.312	77.75
315.542	73.75
315.771	82.75
316.001	92.75
316.23	87.75
316.46	91.75
316.689	73.75
316.919	85.75
317.148	85.75
317.377	79.75
317.607	82.75
317.836	88.75
318.065	85.75
318.295	82.75
318.524	81.75
318.753	84.75
318.983	97.75
319.212	90.75
319.441	74.75
319.67	98.75
319.9	72.75
320.129	80.75
320.358	92.75
320.587	82.75
320.816	75.75
321.046	70.75
321.275	91.75
321.504	79.75
321.733	89.75
321.962	73.75
322.191	78.75
322.42	83.75
322.649	94.75
322.878	89.75
323.108	83.75
323.337	86.75
323.566	83.75
323.795	70.75
324.024	72.75
324.253	85.75
324.482	90.75
324.71	89.75
324.939	73.75
325.168	83.75
325.397	84.75
325.626	82.75
325.855	95.75
326.084	78.75
326.313	81.75
326.542	85.75
326.77	88.75
326.999	83.75
327.228	83.75
327.457	88.75
327.686	81.75
327.914	92.75
328.143	100.75
328.372	84.75
328.6	93.75
328.829	93.75
329.058	93.75
329.287	82.75
329.515	75.75
329.744	86.75
329.972	92.75
330.201	85.75
330.43	65.75
330.658	63.75
330.887	96.75
331.115	89.75
331.344	84.75
331.572	90.75
331.801	74.75
332.03	90.75
332.258	82.75
332.486	82.75
332.715	84.75
332.943	75.75
333.172	95.75
333.4	94.75
333.629	90.75
333.857	84.75
334.085	95.75
334.314	74.75
334.542	86.75
334.771	82.75
334.999	87.75
335.227	70.75
335.455	85.75
335.684	101.75
335.912	66.75
336.14	81.75
336.369	74.75
336.597	77.75
336.825	83.75
337.053	85.75
337.281	86.75
337.51	86.75
337.738	89.75
337.966	84.75
338.194	91.75
338.422	77.75
338.65	84.75
338.878	84.75
339.106	82.75
339.334	74.75
339.562	87.75
339.79	88.75
340.018	89.75
340.246	94.75
340.474	95.75
340.702	79.75
340.93	91.75
341.158	79.75
341.386	80.75
341.614	92.75
341.842	93.75
342.07	77.75
342.298	76.75
342.526	80.75
342.754	83.75
342.981	78.75
343.209	100.75
343.437	95.75
343.665	82.75
343.893	88.75
344.12	94.75
344.348	93.75
344.576	83.75
344.804	91.75
345.031	84.75
345.259	93.75
345.487	94.75
345.714	75.75
345.942	72.75
346.17	71.75
346.397	98.75
346.625	88.75
346.853	93.75
347.08	81.75
347.308	85.75
347.535	82.75
347.763	83.75
347.99	86.75
348.218	87.75
348.445	86.75
348.673	89.75
348.9	85.75
349.128	90.75
349.355	84.75
349.583	89.75
349.81	93.75
350.037	80.75
350.265	81.75
350.492	92.75
350.72	87.75
350.947	88.75
351.174	80.75
351.402	87.75
351.629	88.75
351.856	82.75
352.083	90.75
352.311	81.75
352.538	78.75
352.765	91.75
352.992	79.75
353.22	84.75
353.447	67.75
353.674	80.75
353.901	83.75
354.128	88.75
354.355	99.75
354.583	91.75
354.81	68.75
355.037	77.75
355.264	85.75
355.491	81.75
355.718	82.75
355.945	84.75
356.172	74.75
356.399	88.75
356.626	96.75
356.853	81.75
357.08	82.75
357.307	81.75
357.534	82.75
357.761	84.75
357.988	83.75
358.215	78.75
358.441	72.75
358.668	75.75
358.895	89.75
359.122	91.75
359.349	90.75
359.576	70.75
359.802	75.75
360.029	85.75
360.256	99.75
360.483	87.75
360.709	84.75
360.936	81.75
361.163	81.75
361.39	60.75
361.616	93.75
361.843	95.75
362.07	92.75
362.296	77.75
362.523	82.75
362.749	79.75
362.976	95.75
363.203	91.75
363.429	90.75
363.656	74.75
363.882	89.75
364.109	84.75
364.335	87.75
364.562	80.75
364.788	85.75
365.015	92.75
365.241	75.75
365.468	85.75
365.694	90.75
365.92	85.75
366.147	98.75
366.373	105.75
366.599	89.75
366.826	86.75
367.052	75.75
367.278	81.75
367.505	88.75
367.731	100.75
367.957	84.75
368.184	78.75
368.41	84.75
368.636	94.75
368.862	86.75
369.089	93.75
369.315	81.75
369.541	94.75
369.767	83.75
369.993	73.75
370.219	88.75
370.445	98.75
370.672	94.75
370.898	87.75
371.124	69.75
371.35	90.75
371.576	81.75
371.802	83.75
372.028	84.75
372.254	81.75
372.48	88.75
372.706	90.75
372.932	86.75
373.158	88.75
373.384	105.75
373.61	88.75
373.835	90.75
374.061	88.75
374.287	93.75
374.513	94.75
374.739	87.75
374.965	99.75
375.191	91.75
375.416	101.75
375.642	87.75
375.868	93.75
376.094	85.75
376.319	93.75
376.545	97.75
376.771	73.75
376.997	95.75
377.222	102.75
377.448	92.75
377.674	67.75
377.899	79.75
378.125	97.75
378.35	95.75
378.576	87.75
378.802	80.75
379.027	90.75
379.253	90.75
379.478	93.75
379.704	85.75
379.929	81.75
380.155	85.75
380.38	98.75
380.606	79.75
380.831	75.75
381.057	104.75
381.282	77.75
381.507	81.75
381.733	91.75
381.958	84.75
382.184	101.75
382.409	96.75
382.634	93.75
382.86	98.75
383.085	90.75
383.31	89.75
383.535	80.75
383.761	98.75
383.986	94.75
384.211	100.75
384.436	79.75
384.662	95.75
384.887	94.75
385.112	86.75
385.337	82.75
385.562	93.75
385.787	88.75
386.013	90.75
386.238	99.75
386.463	89.75
386.688	106.75
386.913	93.75
387.138	95.75
387.363	103.75
387.588	100.75
387.813	100.75
388.038	94.75
388.263	96.75
388.488	98.75
388.713	80.75
388.938	81.75
389.163	90.75
389.387	101.75
389.612	109.75
389.837	95.75
390.062	90.75
390.287	96.75
390.512	103.75
390.736	76.75
390.961	97.75
391.186	92.75
391.411	96.75
391.636	98.75
391.86	97.75
392.085	94.75
392.31	106.75
392.534	91.75
392.759	96.75
392.984	105.75
393.208	90.75
393.433	107.75
393.658	94.75
393.882	98.75
394.107	93.75
394.331	92.75
394.556	104.75
394.78	102.75
395.005	99.75
395.229	101.75
395.454	117.75
395.678	96.75
395.903	116.75
396.127	97.75
396.352	93.75
396.576	76.75
396.801	104.75
397.025	100.75
397.249	81.75
397.474	98.75
397.698	96.75
397.922	105.75
398.147	106.75
398.371	100.75
398.595	99.75
398.82	102.75
399.044	100.75
399.268	96.75
399.492	111.75
399.717	114.75
399.941	110.75
400.165	103.75
400.389	106.75
400.613	112.75
400.837	111.75
401.062	105.75
401.286	96.75
401.51	99.75
401.734	102.75
401.958	91.75
402.182	88.75
402.406	97.75
402.63	96.75
402.854	95.75
403.078	106.75
403.302	119.75
403.526	91.75
403.75	96.75
403.974	122.75
404.198	95.75
404.422	102.75
404.645	112.75
404.869	109.75
405.093	105.75
405.317	114.75
405.541	98.75
405.765	106.75
405.988	98.75
406.212	106.75
406.436	83.75
406.66	116.75
406.883	119.75
407.107	107.75
407.331	115.75
407.555	122.75
407.778	112.75
408.002	118.75
408.226	115.75
408.449	107.75
408.673	97.75
408.896	96.75
409.12	112.75
409.344	111.75
409.567	106.75
409.791	109.75
410.014	112.75
410.238	99.75
410.461	101.75
410.685	121.75
410.908	101.75
411.132	114.75
411.355	110.75
411.578	103.75
411.802	92.75
412.025	102.75
412.249	110.75
412.472	109.75
412.695	103.75
412.919	111.75
413.142	125.75
413.365	101.75
413.589	113.75
413.812	98.75
414.035	123.75
414.258	120.75
414.482	109.75
414.705	107.75
414.928	119.75
415.151	99.75
415.374	111.75
415.597	111.75
415.821	122.75
416.044	95.75
416.267	102.75
416.49	96.75
416.713	110.75
416.936	119.75
417.159	111.75
417.382	115.75
417.605	116.75
417.828	127.75
418.051	104.75
418.274	109.75
418.497	98.75
418.72	89.75
418.943	102.75
419.166	104.75
419.389	109.75
419.611	119.75
419.834	110.75
420.057	95.75
420.28	110.75
420.503	111.75
420.726	105.75
420.948	106.75
421.171	111.75
421.394	131.75
421.617	111.75
421.839	105.75
422.062	123.75
422.285	130.75
422.507	109.75
422.73	128.75
422.953	112.75
423.175	119.75
423.398	106.75
423.621	104.75
423.843	98.75
424.066	116.75
424.288	109.75
424.511	117.75
424.733	105.75
424.956	116.75
425.178	104.75
425.401	96.75
425.623	113.75
425.846	106.75
426.068	111.75
426.291	108.75
426.513	112.75
426.735	109.75
426.958	112.75
427.18	107.75
427.402	107.75
427.625	96.75
427.847	102.75
428.069	118.75
428.292	119.75
428.514	110.75
428.736	104.75
428.958	106.75
429.181	114.75
429.403	109.75
429.625	88.75
429.847	99.75
430.069	93.75
430.292	99.75
430.514	101.75
430.736	105.75
430.958	111.75
431.18	105.75
431.402	121.75
431.624	102.75
431.846	117.75
432.068	113.75
432.29	93.75
432.512	89.75
432.734	103.75
432.956	115.75
433.178	111.75
433.4	119.75
433.622	113.75
433.844	111.75
434.066	114.75
434.287	112.75
434.509	85.75
434.731	90.75
434.953	104.75
435.175	110.75
435.397	104.75
435.618	105.75
435.84	93.75
436.062	94.75
436.284	107.75
436.505	114.75
436.727	114.75
436.949	117.75
437.17	105.75
437.392	114.75
437.614	108.75
437.835	109.75
438.057	113.75
438.278	89.75
438.5	89.75
438.721	97.75
438.943	97.75
439.165	109.75
439.386	107.75
439.608	111.75
439.829	120.75
440.05	126.75
440.272	120.75
440.493	104.75
440.715	118.75
440.936	116.75
441.158	114.75
441.379	125.75
441.6	114.75
441.822	122.75
442.043	107.75
442.264	111.75
442.486	112.75
442.707	110.75
442.928	122.75
443.149	110.75
443.371	111.75
443.592	93.75
443.813	115.75
444.034	110.75
444.255	122.75
444.476	121.75
444.698	105.75
444.919	116.75
445.14	210.75
445.361	163.75
445.582	113.75
445.803	121.75
446.024	111.75
446.245	126.75
446.466	111.75
446.687	131.75
446.908	127.75
447.129	113.75
447.35	122.75
447.571	112.75
447.792	104.75
448.013	115.75
448.234	115.75
448.455	107.75
448.675	120.75
448.896	117.75
449.117	106.75
449.338	114.75
449.559	119.75
449.779	114.75
450	91.75
450.221	105.75
450.442	105.75
450.662	100.75
450.883	103.75
451.104	113.75
451.324	111.75
451.545	99.75
451.766	107.75
451.986	109.75
452.207	113.75
452.428	104.75
452.648	114.75
452.869	105.75
453.089	93.75
453.31	96.75
453.53	103.75
453.751	97.75
453.971	103.75
454.192	86.75
454.412	102.75
454.633	100.75
454.853	99.75
455.073	115.75
455.294	109.75
455.514	99.75
455.734	101.75
455.955	102.75
456.175	107.75
456.395	104.75
456.616	101.75
456.836	113.75
457.056	98.75
457.276	104.75
457.497	115.75
457.717	97.75
457.937	98.75
458.157	99.75
458.377	91.75
458.598	111.75
458.818	107.75
459.038	79.75
459.258	89.75
459.478	102.75
459.698	109.75
459.918	94.75
460.138	113.75
460.358	113.75
460.578	114.75
460.798	116.75
461.018	106.75
461.238	115.75
461.458	109.75
461.678	105.75
461.898	101.75
462.118	110.75
462.338	111.75
462.558	120.75
462.777	127.75
462.997	139.75
463.217	122.75
463.437	120.75
463.657	106.75
463.876	108.75
464.096	117.75
464.316	117.75
464.536	129.75
464.755	128.75
464.975	98.75
465.195	100.75
465.414	119.75
465.634	116.75
465.854	119.75
466.073	115.75
466.293	114.75
466.512	121.75
466.732	116.75
466.951	117.75
467.171	123.75
467.391	122.75
467.61	100.75
467.829	115.75
468.049	114.75
468.268	116.75
468.488	124.75
468.707	118.75
468.927	121.75
469.146	116.75
469.365	100.75
469.585	116.75
469.804	109.75
470.023	113.75
470.243	115.75
470.462	119.75
470.681	137.75
470.901	108.75
471.12	117.75
471.339	100.75
471.558	113.75
471.777	115.75
471.997	110.75
472.216	111.75
472.435	113.75
472.654	115.75
472.873	106.75
473.092	117.75
473.311	118.75
473.53	111.75
473.749	108.75
473.968	106.75
474.187	121.75
474.406	112.75
474.625	108.75
474.844	116.75
475.063	109.75
475.282	104.75
475.501	111.75
475.72	129.75
475.939	110.75
476.158	125.75
476.377	117.75
476.596	102.75
476.814	105.75
477.033	121.75
477.252	93.75
477.471	123.75
477.69	116.75
477.908	122.75
478.127	134.75
478.346	131.75
478.564	123.75
478.783	138.75
479.002	118.75
479.22	127.75
479.439	113.75
479.658	117.75
479.876	116.75
480.095	110.75
480.313	114.75
480.532	116.75
480.751	121.75
480.969	97.75
481.188	110.75
481.406	113.75
481.624	105.75
481.843	111.75
482.061	118.75
482.28	109.75
482.498	105.75
482.717	113.75
482.935	107.75
483.153	111.75
483.372	125.75
483.59	129.75
483.808	136.75
484.027	109.75
484.245	117.75
484.463	115.75
484.681	133.75
484.9	126.75
485.118	109.75
485.336	109.75
485.554	116.75
485.772	127.75
485.99	109.75
486.209	116.75
486.427	113.75
486.645	124.75
486.863	120.75
487.081	119.75
487.299	117.75
487.517	118.75
487.735	122.75
487.953	139.75
488.171	131.75
488.389	138.75
488.607	132.75
488.825	109.75
489.043	114.75
489.261	115.75
489.479	122.75
489.696	132.75
489.914	134.75
490.132	127.75
490.35	139.75
490.568	125.75
490.786	132.75
491.003	143.75
491.221	137.75
491.439	141.75
491.657	136.75
491.874	153.75
492.092	154.75
492.31	163.75
492.527	156.75
492.745	157.75
492.963	143.75
493.18	138.75
493.398	139.75
493.615	149.75
493.833	163.75
494.05	140.75
494.268	153.75
494.485	148.75
494.703	158.75
494.92	156.75
495.138	140.75
495.355	133.75
495.573	153.75
495.79	143.75
496.008	146.75
496.225	133.75
496.442	143.75
496.66	147.75
496.877	150.75
497.094	149.75
497.312	147.75
497.529	145.75
497.746	134.75
497.963	139.75
498.181	141.75
498.398	145.75
498.615	149.75
498.832	150.75
499.049	139.75
499.267	147.75
499.484	175.75
499.701	177.75
499.918	176.75
500.135	201.75
500.352	220.75
500.569	217.75
500.786	210.75
501.003	201.75
501.22	180.75
501.437	159.75
501.654	161.75
501.871	149.75
502.088	149.75
502.305	169.75
502.522	137.75
502.739	132.75
502.956	141.75
503.172	149.75
503.389	129.75
503.606	133.75
503.823	128.75
504.04	137.75
504.256	133.75
504.473	144.75
504.69	121.75
504.907	123.75
505.123	147.75
505.34	126.75
505.557	119.75
505.773	125.75
505.99	139.75
506.207	122.75
506.423	118.75
506.64	131.75
506.856	133.75
507.073	120.75
507.289	112.75
507.506	119.75
507.722	119.75
507.939	125.75
508.155	115.75
508.372	132.75
508.588	117.75
508.805	111.75
509.021	111.75
509.238	112.75
509.454	127.75
509.67	115.75
509.887	109.75
510.103	105.75
510.319	117.75
510.536	102.75
510.752	113.75
510.968	117.75
511.184	119.75
511.401	94.75
511.617	120.75
511.833	120.75
512.049	122.75
512.265	113.75
