Data from StandardFe(NO3)3.TAE.3%Agarose.FlatLispGreen.Lamp.Energy10.07252019_HRD10591_11-54-16-439.txt Node
Date: Thu Jul 25 11:54:16 EDT 2019
User: cochatt
Spectrometer: HR+D1059
Trigger mode: 1
Integration Time (sec): 1.000000E-1
Scans to average: 1
Electric dark correction enabled: true
Nonlinearity correction enabled: false
Boxcar width: 0
XAxis mode: Wavelengths
Number of Pixels in Spectrum: 2048
>>>>>Begin Spectral Data<<<<<
223.165	-16.38
223.4	-16.38
223.635	-16.38
223.869	-32.38
224.104	-31.38
224.338	-8.38
224.573	-7.38
224.808	-9.38
225.042	-1.38
225.277	-3.38
225.511	0.62
225.746	7.62
225.98	2.62
226.215	2.62
226.449	19.62
226.683	23.62
226.918	11.62
227.152	41.62
227.387	20.62
227.621	36.62
227.856	43.62
228.09	54.62
228.324	50.62
228.559	54.62
228.793	38.62
229.027	62.62
229.262	58.62
229.496	75.62
229.73	56.62
229.964	70.62
230.199	66.62
230.433	82.62
230.667	74.62
230.901	75.62
231.136	71.62
231.37	78.62
231.604	71.62
231.838	79.62
232.072	83.62
232.306	90.62
232.541	83.62
232.775	87.62
233.009	89.62
233.243	82.62
233.477	85.62
233.711	82.62
233.945	83.62
234.179	79.62
234.413	76.62
234.647	77.62
234.881	95.62
235.115	86.62
235.349	78.62
235.583	96.62
235.817	80.62
236.051	82.62
236.285	65.62
236.519	75.62
236.753	90.62
236.987	83.62
237.221	78.62
237.455	73.62
237.689	68.62
237.922	54.62
238.156	68.62
238.39	78.62
238.624	76.62
238.858	88.62
239.091	68.62
239.325	66.62
239.559	73.62
239.793	83.62
240.027	79.62
240.26	76.62
240.494	77.62
240.728	80.62
240.961	70.62
241.195	74.62
241.429	75.62
241.662	73.62
241.896	74.62
242.13	74.62
242.363	74.62
242.597	87.62
242.83	82.62
243.064	80.62
243.298	66.62
243.531	74.62
243.765	85.62
243.998	67.62
244.232	69.62
244.465	76.62
244.699	86.62
244.932	75.62
245.166	75.62
245.399	79.62
245.633	65.62
245.866	76.62
246.099	76.62
246.333	80.62
246.566	64.62
246.8	70.62
247.033	75.62
247.266	78.62
247.5	70.62
247.733	60.62
247.966	71.62
248.2	85.62
248.433	75.62
248.666	76.62
248.899	87.62
249.133	78.62
249.366	75.62
249.599	78.62
249.832	88.62
250.066	72.62
250.299	66.62
250.532	81.62
250.765	81.62
250.998	79.62
251.231	83.62
251.465	66.62
251.698	79.62
251.931	61.62
252.164	69.62
252.397	79.62
252.63	71.62
252.863	79.62
253.096	86.62
253.329	90.62
253.562	78.62
253.795	92.62
254.028	76.62
254.261	79.62
254.494	72.62
254.727	81.62
254.96	79.62
255.193	97.62
255.426	79.62
255.659	86.62
255.892	72.62
256.124	71.62
256.357	60.62
256.59	78.62
256.823	81.62
257.056	73.62
257.289	88.62
257.521	79.62
257.754	79.62
257.987	84.62
258.22	88.62
258.452	83.62
258.685	86.62
258.918	76.62
259.151	80.62
259.383	80.62
259.616	81.62
259.849	92.62
260.081	84.62
260.314	76.62
260.547	77.62
260.779	88.62
261.012	75.62
261.244	84.62
261.477	80.62
261.71	71.62
261.942	67.62
262.175	82.62
262.407	79.62
262.64	72.62
262.872	76.62
263.105	83.62
263.337	88.62
263.57	78.62
263.802	74.62
264.035	94.62
264.267	86.62
264.499	83.62
264.732	97.62
264.964	85.62
265.197	60.62
265.429	84.62
265.661	79.62
265.894	90.62
266.126	80.62
266.358	87.62
266.591	87.62
266.823	69.62
267.055	79.62
267.287	74.62
267.52	70.62
267.752	86.62
267.984	84.62
268.216	67.62
268.448	75.62
268.681	82.62
268.913	85.62
269.145	75.62
269.377	67.62
269.609	85.62
269.841	69.62
270.073	72.62
270.306	76.62
270.538	80.62
270.77	81.62
271.002	78.62
271.234	73.62
271.466	75.62
271.698	78.62
271.93	73.62
272.162	89.62
272.394	96.62
272.626	68.62
272.858	91.62
273.09	70.62
273.322	90.62
273.553	70.62
273.785	81.62
274.017	82.62
274.249	78.62
274.481	79.62
274.713	81.62
274.945	86.62
275.176	81.62
275.408	73.62
275.64	83.62
275.872	88.62
276.104	92.62
276.335	81.62
276.567	66.62
276.799	88.62
277.031	83.62
277.262	77.62
277.494	90.62
277.726	89.62
277.957	97.62
278.189	87.62
278.421	89.62
278.652	96.62
278.884	84.62
279.115	74.62
279.347	82.62
279.579	84.62
279.81	64.62
280.042	70.62
280.273	84.62
280.505	67.62
280.736	92.62
280.968	86.62
281.199	84.62
281.431	87.62
281.662	81.62
281.894	88.62
282.125	84.62
282.356	75.62
282.588	80.62
282.819	88.62
283.051	76.62
283.282	71.62
283.513	71.62
283.745	83.62
283.976	77.62
284.207	79.62
284.439	69.62
284.67	95.62
284.901	92.62
285.132	96.62
285.364	91.62
285.595	82.62
285.826	84.62
286.057	80.62
286.288	81.62
286.52	91.62
286.751	83.62
286.982	82.62
287.213	90.62
287.444	82.62
287.675	79.62
287.906	91.62
288.138	85.62
288.369	86.62
288.6	83.62
288.831	95.62
289.062	93.62
289.293	84.62
289.524	81.62
289.755	80.62
289.986	97.62
290.217	87.62
290.448	82.62
290.679	83.62
290.91	80.62
291.141	83.62
291.371	87.62
291.602	82.62
291.833	97.62
292.064	87.62
292.295	88.62
292.526	99.62
292.757	88.62
292.987	86.62
293.218	93.62
293.449	90.62
293.68	80.62
293.91	70.62
294.141	78.62
294.372	95.62
294.603	82.62
294.833	94.62
295.064	91.62
295.295	95.62
295.525	81.62
295.756	87.62
295.987	84.62
296.217	79.62
296.448	90.62
296.679	82.62
296.909	90.62
297.14	81.62
297.37	94.62
297.601	100.62
297.831	92.62
298.062	80.62
298.292	77.62
298.523	74.62
298.753	76.62
298.984	84.62
299.214	80.62
299.445	91.62
299.675	87.62
299.905	72.62
300.136	82.62
300.366	92.62
300.597	84.62
300.827	70.62
301.057	87.62
301.288	86.62
301.518	81.62
301.748	88.62
301.979	85.62
302.209	70.62
302.439	66.62
302.669	89.62
302.9	84.62
303.13	77.62
303.36	72.62
303.59	77.62
303.82	86.62
304.051	78.62
304.281	88.62
304.511	85.62
304.741	102.62
304.971	99.62
305.201	91.62
305.431	76.62
305.661	89.62
305.891	83.62
306.121	75.62
306.352	104.62
306.582	79.62
306.812	84.62
307.042	74.62
307.272	101.62
307.502	86.62
307.731	80.62
307.961	86.62
308.191	85.62
308.421	95.62
308.651	78.62
308.881	96.62
309.111	86.62
309.341	67.62
309.571	89.62
309.8	64.62
310.03	92.62
310.26	94.62
310.49	93.62
310.72	79.62
310.949	90.62
311.179	93.62
311.409	82.62
311.639	81.62
311.868	86.62
312.098	83.62
312.328	99.62
312.557	81.62
312.787	85.62
313.017	92.62
313.246	91.62
313.476	74.62
313.706	83.62
313.935	74.62
314.165	73.62
314.394	90.62
314.624	80.62
314.853	72.62
315.083	74.62
315.312	73.62
315.542	85.62
315.771	81.62
316.001	101.62
316.23	91.62
316.46	83.62
316.689	80.62
316.919	88.62
317.148	99.62
317.377	91.62
317.607	85.62
317.836	87.62
318.065	80.62
318.295	86.62
318.524	81.62
318.753	88.62
318.983	76.62
319.212	88.62
319.441	87.62
319.67	76.62
319.9	75.62
320.129	81.62
320.358	67.62
320.587	98.62
320.816	79.62
321.046	94.62
321.275	92.62
321.504	94.62
321.733	74.62
321.962	79.62
322.191	80.62
322.42	74.62
322.649	75.62
322.878	93.62
323.108	92.62
323.337	88.62
323.566	73.62
323.795	80.62
324.024	84.62
324.253	83.62
324.482	80.62
324.71	76.62
324.939	89.62
325.168	99.62
325.397	86.62
325.626	84.62
325.855	74.62
326.084	87.62
326.313	91.62
326.542	77.62
326.77	86.62
326.999	86.62
327.228	104.62
327.457	91.62
327.686	95.62
327.914	89.62
328.143	89.62
328.372	82.62
328.6	88.62
328.829	87.62
329.058	61.62
329.287	82.62
329.515	78.62
329.744	89.62
329.972	86.62
330.201	82.62
330.43	82.62
330.658	98.62
330.887	76.62
331.115	77.62
331.344	83.62
331.572	90.62
331.801	85.62
332.03	92.62
332.258	83.62
332.486	87.62
332.715	79.62
332.943	78.62
333.172	88.62
333.4	90.62
333.629	76.62
333.857	81.62
334.085	82.62
334.314	73.62
334.542	80.62
334.771	79.62
334.999	80.62
335.227	91.62
335.455	90.62
335.684	86.62
335.912	82.62
336.14	93.62
336.369	78.62
336.597	84.62
336.825	89.62
337.053	87.62
337.281	92.62
337.51	91.62
337.738	77.62
337.966	87.62
338.194	85.62
338.422	72.62
338.65	84.62
338.878	78.62
339.106	76.62
339.334	89.62
339.562	87.62
339.79	83.62
340.018	67.62
340.246	89.62
340.474	88.62
340.702	75.62
340.93	76.62
341.158	85.62
341.386	73.62
341.614	89.62
341.842	76.62
342.07	70.62
342.298	67.62
342.526	83.62
342.754	83.62
342.981	88.62
343.209	96.62
343.437	80.62
343.665	85.62
343.893	80.62
344.12	93.62
344.348	90.62
344.576	71.62
344.804	88.62
345.031	73.62
345.259	85.62
345.487	84.62
345.714	76.62
345.942	70.62
346.17	88.62
346.397	83.62
346.625	74.62
346.853	87.62
347.08	88.62
347.308	79.62
347.535	74.62
347.763	92.62
347.99	88.62
348.218	74.62
348.445	95.62
348.673	78.62
348.9	74.62
349.128	90.62
349.355	71.62
349.583	90.62
349.81	70.62
350.037	75.62
350.265	94.62
350.492	87.62
350.72	93.62
350.947	81.62
351.174	100.62
351.402	80.62
351.629	83.62
351.856	86.62
352.083	86.62
352.311	81.62
352.538	86.62
352.765	88.62
352.992	78.62
353.22	88.62
353.447	80.62
353.674	78.62
353.901	85.62
354.128	73.62
354.355	83.62
354.583	74.62
354.81	87.62
355.037	82.62
355.264	97.62
355.491	91.62
355.718	81.62
355.945	79.62
356.172	72.62
356.399	88.62
356.626	81.62
356.853	80.62
357.08	94.62
357.307	82.62
357.534	79.62
357.761	78.62
357.988	85.62
358.215	69.62
358.441	68.62
358.668	81.62
358.895	78.62
359.122	86.62
359.349	80.62
359.576	74.62
359.802	79.62
360.029	83.62
360.256	94.62
360.483	95.62
360.709	81.62
360.936	85.62
361.163	91.62
361.39	87.62
361.616	81.62
361.843	79.62
362.07	73.62
362.296	78.62
362.523	81.62
362.749	85.62
362.976	91.62
363.203	95.62
363.429	82.62
363.656	90.62
363.882	90.62
364.109	72.62
364.335	92.62
364.562	105.62
364.788	83.62
365.015	96.62
365.241	82.62
365.468	89.62
365.694	95.62
365.92	82.62
366.147	76.62
366.373	81.62
366.599	81.62
366.826	97.62
367.052	88.62
367.278	89.62
367.505	95.62
367.731	83.62
367.957	76.62
368.184	94.62
368.41	85.62
368.636	80.62
368.862	77.62
369.089	88.62
369.315	88.62
369.541	90.62
369.767	89.62
369.993	94.62
370.219	87.62
370.445	87.62
370.672	87.62
370.898	81.62
371.124	92.62
371.35	84.62
371.576	79.62
371.802	87.62
372.028	80.62
372.254	79.62
372.48	78.62
372.706	82.62
372.932	84.62
373.158	91.62
373.384	88.62
373.61	91.62
373.835	88.62
374.061	78.62
374.287	96.62
374.513	95.62
374.739	90.62
374.965	97.62
375.191	87.62
375.416	94.62
375.642	98.62
375.868	82.62
376.094	83.62
376.319	77.62
376.545	94.62
376.771	71.62
376.997	91.62
377.222	95.62
377.448	100.62
377.674	87.62
377.899	85.62
378.125	94.62
378.35	88.62
378.576	77.62
378.802	65.62
379.027	82.62
379.253	93.62
379.478	79.62
379.704	87.62
379.929	80.62
380.155	95.62
380.38	87.62
380.606	82.62
380.831	89.62
381.057	85.62
381.282	78.62
381.507	74.62
381.733	97.62
381.958	77.62
382.184	96.62
382.409	92.62
382.634	79.62
382.86	82.62
383.085	98.62
383.31	93.62
383.535	79.62
383.761	86.62
383.986	90.62
384.211	96.62
384.436	78.62
384.662	94.62
384.887	114.62
385.112	84.62
385.337	99.62
385.562	92.62
385.787	91.62
386.013	96.62
386.238	89.62
386.463	103.62
386.688	95.62
386.913	87.62
387.138	91.62
387.363	96.62
387.588	87.62
387.813	75.62
388.038	101.62
388.263	89.62
388.488	105.62
388.713	108.62
388.938	82.62
389.163	94.62
389.387	83.62
389.612	105.62
389.837	96.62
390.062	89.62
390.287	94.62
390.512	89.62
390.736	105.62
390.961	99.62
391.186	79.62
391.411	87.62
391.636	101.62
391.86	103.62
392.085	100.62
392.31	98.62
392.534	98.62
392.759	108.62
392.984	104.62
393.208	79.62
393.433	110.62
393.658	96.62
393.882	106.62
394.107	119.62
394.331	114.62
394.556	89.62
394.78	91.62
395.005	96.62
395.229	80.62
395.454	101.62
395.678	95.62
395.903	108.62
396.127	88.62
396.352	98.62
396.576	99.62
396.801	99.62
397.025	103.62
397.249	104.62
397.474	103.62
397.698	94.62
397.922	104.62
398.147	98.62
398.371	95.62
398.595	104.62
398.82	96.62
399.044	98.62
399.268	101.62
399.492	111.62
399.717	123.62
399.941	120.62
400.165	114.62
400.389	103.62
400.613	103.62
400.837	107.62
401.062	105.62
401.286	96.62
401.51	103.62
401.734	113.62
401.958	110.62
402.182	106.62
402.406	96.62
402.63	103.62
402.854	112.62
403.078	113.62
403.302	95.62
403.526	100.62
403.75	83.62
403.974	102.62
404.198	108.62
404.422	108.62
404.645	111.62
404.869	116.62
405.093	87.62
405.317	111.62
405.541	105.62
405.765	98.62
405.988	116.62
406.212	106.62
406.436	96.62
406.66	101.62
406.883	117.62
407.107	114.62
407.331	101.62
407.555	115.62
407.778	104.62
408.002	112.62
408.226	118.62
408.449	94.62
408.673	109.62
408.896	120.62
409.12	107.62
409.344	100.62
409.567	110.62
409.791	125.62
410.014	110.62
410.238	114.62
410.461	108.62
410.685	119.62
410.908	102.62
411.132	117.62
411.355	105.62
411.578	116.62
411.802	102.62
412.025	121.62
412.249	106.62
412.472	110.62
412.695	99.62
412.919	105.62
413.142	104.62
413.365	105.62
413.589	102.62
413.812	111.62
414.035	102.62
414.258	108.62
414.482	102.62
414.705	101.62
414.928	109.62
415.151	106.62
415.374	116.62
415.597	110.62
415.821	115.62
416.044	102.62
416.267	116.62
416.49	118.62
416.713	119.62
416.936	116.62
417.159	128.62
417.382	111.62
417.605	94.62
417.828	132.62
418.051	97.62
418.274	113.62
418.497	117.62
418.72	111.62
418.943	118.62
419.166	118.62
419.389	125.62
419.611	116.62
419.834	110.62
420.057	119.62
420.28	130.62
420.503	111.62
420.726	118.62
420.948	96.62
421.171	125.62
421.394	106.62
421.617	110.62
421.839	106.62
422.062	108.62
422.285	114.62
422.507	121.62
422.73	114.62
422.953	108.62
423.175	120.62
423.398	113.62
423.621	117.62
423.843	115.62
424.066	123.62
424.288	123.62
424.511	105.62
424.733	120.62
424.956	130.62
425.178	110.62
425.401	126.62
425.623	114.62
425.846	121.62
426.068	125.62
426.291	103.62
426.513	97.62
426.735	105.62
426.958	108.62
427.18	97.62
427.402	118.62
427.625	107.62
427.847	107.62
428.069	110.62
428.292	102.62
428.514	112.62
428.736	112.62
428.958	113.62
429.181	100.62
429.403	110.62
429.625	113.62
429.847	112.62
430.069	123.62
430.292	118.62
430.514	105.62
430.736	110.62
430.958	118.62
431.18	112.62
431.402	116.62
431.624	123.62
431.846	122.62
432.068	106.62
432.29	107.62
432.512	111.62
432.734	108.62
432.956	110.62
433.178	118.62
433.4	117.62
433.622	114.62
433.844	121.62
434.066	107.62
434.287	113.62
434.509	114.62
434.731	115.62
434.953	112.62
435.175	110.62
435.397	118.62
435.618	122.62
435.84	120.62
436.062	123.62
436.284	105.62
436.505	111.62
436.727	103.62
436.949	98.62
437.17	113.62
437.392	102.62
437.614	94.62
437.835	100.62
438.057	105.62
438.278	111.62
438.5	96.62
438.721	123.62
438.943	113.62
439.165	115.62
439.386	105.62
439.608	114.62
439.829	107.62
440.05	117.62
440.272	124.62
440.493	116.62
440.715	122.62
440.936	115.62
441.158	120.62
441.379	104.62
441.6	121.62
441.822	113.62
442.043	124.62
442.264	114.62
442.486	114.62
442.707	113.62
442.928	102.62
443.149	130.62
443.371	133.62
443.592	118.62
443.813	108.62
444.034	130.62
444.255	117.62
444.476	120.62
444.698	111.62
444.919	129.62
445.14	248.62
445.361	164.62
445.582	112.62
445.803	112.62
446.024	126.62
446.245	125.62
446.466	117.62
446.687	120.62
446.908	112.62
447.129	119.62
447.35	117.62
447.571	117.62
447.792	123.62
448.013	134.62
448.234	121.62
448.455	112.62
448.675	121.62
448.896	117.62
449.117	110.62
449.338	110.62
449.559	114.62
449.779	108.62
450	120.62
450.221	120.62
450.442	111.62
450.662	126.62
450.883	119.62
451.104	103.62
451.324	116.62
451.545	104.62
451.766	117.62
451.986	97.62
452.207	116.62
452.428	94.62
452.648	106.62
452.869	113.62
453.089	103.62
453.31	113.62
453.53	101.62
453.751	93.62
453.971	96.62
454.192	88.62
454.412	106.62
454.633	108.62
454.853	103.62
455.073	117.62
455.294	108.62
455.514	127.62
455.734	101.62
455.955	104.62
456.175	98.62
456.395	99.62
456.616	105.62
456.836	115.62
457.056	107.62
457.276	114.62
457.497	98.62
457.717	98.62
457.937	111.62
458.157	112.62
458.377	100.62
458.598	103.62
458.818	115.62
459.038	94.62
459.258	101.62
459.478	98.62
459.698	99.62
459.918	103.62
460.138	110.62
460.358	116.62
460.578	112.62
460.798	124.62
461.018	107.62
461.238	117.62
461.458	111.62
461.678	121.62
461.898	110.62
462.118	124.62
462.338	126.62
462.558	112.62
462.777	127.62
462.997	126.62
463.217	126.62
463.437	125.62
463.657	132.62
463.876	123.62
464.096	110.62
464.316	127.62
464.536	120.62
464.755	129.62
464.975	112.62
465.195	115.62
465.414	112.62
465.634	115.62
465.854	113.62
466.073	113.62
466.293	111.62
466.512	117.62
466.732	110.62
466.951	112.62
467.171	116.62
467.391	95.62
467.61	121.62
467.829	136.62
468.049	105.62
468.268	123.62
468.488	116.62
468.707	111.62
468.927	130.62
469.146	115.62
469.365	124.62
469.585	120.62
469.804	97.62
470.023	111.62
470.243	131.62
470.462	110.62
470.681	102.62
470.901	117.62
471.12	118.62
471.339	130.62
471.558	122.62
471.777	119.62
471.997	124.62
472.216	112.62
472.435	103.62
472.654	103.62
472.873	111.62
473.092	108.62
473.311	116.62
473.53	109.62
473.749	115.62
473.968	131.62
474.187	123.62
474.406	106.62
474.625	126.62
474.844	123.62
475.063	111.62
475.282	111.62
475.501	128.62
475.72	121.62
475.939	118.62
476.158	132.62
476.377	118.62
476.596	108.62
476.814	114.62
477.033	103.62
477.252	109.62
477.471	126.62
477.69	122.62
477.908	117.62
478.127	120.62
478.346	115.62
478.564	135.62
478.783	122.62
479.002	135.62
479.22	122.62
479.439	130.62
479.658	119.62
479.876	118.62
480.095	118.62
480.313	112.62
480.532	127.62
480.751	128.62
480.969	128.62
481.188	108.62
481.406	106.62
481.624	107.62
481.843	114.62
482.061	110.62
482.28	108.62
482.498	128.62
482.717	136.62
482.935	113.62
483.153	124.62
483.372	132.62
483.59	131.62
483.808	118.62
484.027	111.62
484.245	119.62
484.463	126.62
484.681	135.62
484.9	144.62
485.118	132.62
485.336	132.62
485.554	124.62
485.772	104.62
485.99	118.62
486.209	118.62
486.427	122.62
486.645	110.62
486.863	133.62
487.081	137.62
487.299	126.62
487.517	135.62
487.735	126.62
487.953	153.62
488.171	152.62
488.389	123.62
488.607	124.62
488.825	122.62
489.043	114.62
489.261	127.62
489.479	114.62
489.696	128.62
489.914	127.62
490.132	131.62
490.35	137.62
490.568	155.62
490.786	163.62
491.003	155.62
491.221	143.62
491.439	144.62
491.657	150.62
491.874	146.62
492.092	155.62
492.31	152.62
492.527	159.62
492.745	174.62
492.963	154.62
493.18	147.62
493.398	153.62
493.615	142.62
493.833	152.62
494.05	139.62
494.268	135.62
494.485	127.62
494.703	141.62
494.92	146.62
495.138	133.62
495.355	159.62
495.573	144.62
495.79	142.62
496.008	151.62
496.225	148.62
496.442	143.62
496.66	140.62
496.877	146.62
497.094	130.62
497.312	141.62
497.529	153.62
497.746	136.62
497.963	132.62
498.181	139.62
498.398	130.62
498.615	133.62
498.832	151.62
499.049	152.62
499.267	169.62
499.484	163.62
499.701	159.62
499.918	178.62
500.135	185.62
500.352	223.62
500.569	211.62
500.786	219.62
501.003	208.62
501.22	186.62
501.437	176.62
501.654	165.62
501.871	150.62
502.088	163.62
502.305	150.62
502.522	136.62
502.739	143.62
502.956	153.62
503.172	122.62
503.389	136.62
503.606	134.62
503.823	138.62
504.04	134.62
504.256	131.62
504.473	133.62
504.69	131.62
504.907	145.62
505.123	140.62
505.34	127.62
505.557	134.62
505.773	132.62
505.99	119.62
506.207	125.62
506.423	126.62
506.64	123.62
506.856	113.62
507.073	114.62
507.289	131.62
507.506	119.62
507.722	114.62
507.939	112.62
508.155	122.62
508.372	118.62
508.588	114.62
508.805	107.62
509.021	122.62
509.238	126.62
509.454	119.62
509.67	119.62
509.887	125.62
510.103	108.62
510.319	106.62
510.536	105.62
510.752	105.62
510.968	112.62
511.184	106.62
511.401	118.62
511.617	92.62
511.833	112.62
