Data from StandardFe(NO3)3.TAE.3%Agarose.FlatLispGreen.Lamp.Energy10.07252019_HRD10591_11-55-10-441.txt Node
Date: Thu Jul 25 11:55:10 EDT 2019
User: cochatt
Spectrometer: HR+D1059
Trigger mode: 1
Integration Time (sec): 1.000000E-1
Scans to average: 1
Electric dark correction enabled: true
Nonlinearity correction enabled: false
Boxcar width: 0
XAxis mode: Wavelengths
Number of Pixels in Spectrum: 2048
>>>>>Begin Spectral Data<<<<<
223.165	-24.81
223.4	-24.81
223.635	-24.81
223.869	-22.81
224.104	-14.81
224.338	3.19
224.573	-14.81
224.808	-12.81
225.042	-0.81
225.277	12.19
225.511	-4.81
225.746	-0.81
225.98	4.19
226.215	1.19
226.449	2.19
226.683	13.19
226.918	25.19
227.152	35.19
227.387	31.19
227.621	34.19
227.856	43.19
228.09	54.19
228.324	61.19
228.559	52.19
228.793	53.19
229.027	49.19
229.262	58.19
229.496	74.19
229.73	74.19
229.964	72.19
230.199	75.19
230.433	80.19
230.667	77.19
230.901	82.19
231.136	77.19
231.37	69.19
231.604	77.19
231.838	88.19
232.072	76.19
232.306	79.19
232.541	73.19
232.775	88.19
233.009	101.19
233.243	85.19
233.477	77.19
233.711	80.19
233.945	76.19
234.179	83.19
234.413	83.19
234.647	77.19
234.881	94.19
235.115	77.19
235.349	74.19
235.583	75.19
235.817	65.19
236.051	87.19
236.285	70.19
236.519	82.19
236.753	81.19
236.987	84.19
237.221	88.19
237.455	81.19
237.689	77.19
237.922	80.19
238.156	79.19
238.39	84.19
238.624	75.19
238.858	80.19
239.091	95.19
239.325	76.19
239.559	72.19
239.793	72.19
240.027	79.19
240.26	79.19
240.494	79.19
240.728	92.19
240.961	92.19
241.195	81.19
241.429	77.19
241.662	76.19
241.896	70.19
242.13	81.19
242.363	80.19
242.597	79.19
242.83	70.19
243.064	86.19
243.298	63.19
243.531	71.19
243.765	68.19
243.998	80.19
244.232	70.19
244.465	73.19
244.699	65.19
244.932	77.19
245.166	69.19
245.399	74.19
245.633	72.19
245.866	81.19
246.099	67.19
246.333	79.19
246.566	83.19
246.8	65.19
247.033	70.19
247.266	85.19
247.5	76.19
247.733	92.19
247.966	78.19
248.2	71.19
248.433	71.19
248.666	64.19
248.899	81.19
249.133	90.19
249.366	76.19
249.599	75.19
249.832	73.19
250.066	97.19
250.299	86.19
250.532	77.19
250.765	72.19
250.998	71.19
251.231	73.19
251.465	77.19
251.698	87.19
251.931	86.19
252.164	71.19
252.397	63.19
252.63	88.19
252.863	65.19
253.096	72.19
253.329	79.19
253.562	92.19
253.795	85.19
254.028	81.19
254.261	85.19
254.494	95.19
254.727	75.19
254.96	78.19
255.193	84.19
255.426	80.19
255.659	82.19
255.892	74.19
256.124	88.19
256.357	84.19
256.59	82.19
256.823	75.19
257.056	78.19
257.289	71.19
257.521	71.19
257.754	81.19
257.987	79.19
258.22	79.19
258.452	78.19
258.685	87.19
258.918	80.19
259.151	78.19
259.383	81.19
259.616	86.19
259.849	82.19
260.081	87.19
260.314	72.19
260.547	71.19
260.779	87.19
261.012	88.19
261.244	73.19
261.477	87.19
261.71	79.19
261.942	75.19
262.175	81.19
262.407	79.19
262.64	77.19
262.872	80.19
263.105	82.19
263.337	95.19
263.57	72.19
263.802	84.19
264.035	73.19
264.267	68.19
264.499	77.19
264.732	85.19
264.964	83.19
265.197	89.19
265.429	92.19
265.661	72.19
265.894	78.19
266.126	83.19
266.358	85.19
266.591	63.19
266.823	76.19
267.055	72.19
267.287	81.19
267.52	89.19
267.752	90.19
267.984	81.19
268.216	78.19
268.448	77.19
268.681	86.19
268.913	89.19
269.145	82.19
269.377	88.19
269.609	79.19
269.841	92.19
270.073	76.19
270.306	91.19
270.538	89.19
270.77	88.19
271.002	88.19
271.234	86.19
271.466	90.19
271.698	73.19
271.93	86.19
272.162	84.19
272.394	65.19
272.626	69.19
272.858	79.19
273.09	89.19
273.322	76.19
273.553	86.19
273.785	96.19
274.017	89.19
274.249	84.19
274.481	90.19
274.713	87.19
274.945	83.19
275.176	72.19
275.408	74.19
275.64	83.19
275.872	72.19
276.104	87.19
276.335	88.19
276.567	84.19
276.799	82.19
277.031	88.19
277.262	87.19
277.494	83.19
277.726	76.19
277.957	81.19
278.189	73.19
278.421	90.19
278.652	94.19
278.884	95.19
279.115	92.19
279.347	83.19
279.579	90.19
279.81	73.19
280.042	80.19
280.273	87.19
280.505	71.19
280.736	85.19
280.968	86.19
281.199	81.19
281.431	82.19
281.662	92.19
281.894	80.19
282.125	60.19
282.356	95.19
282.588	88.19
282.819	90.19
283.051	79.19
283.282	77.19
283.513	84.19
283.745	86.19
283.976	93.19
284.207	73.19
284.439	75.19
284.67	81.19
284.901	95.19
285.132	90.19
285.364	77.19
285.595	79.19
285.826	74.19
286.057	83.19
286.288	75.19
286.52	96.19
286.751	88.19
286.982	93.19
287.213	87.19
287.444	86.19
287.675	77.19
287.906	86.19
288.138	87.19
288.369	95.19
288.6	88.19
288.831	86.19
289.062	82.19
289.293	83.19
289.524	101.19
289.755	82.19
289.986	87.19
290.217	87.19
290.448	76.19
290.679	95.19
290.91	88.19
291.141	91.19
291.371	99.19
291.602	97.19
291.833	85.19
292.064	73.19
292.295	91.19
292.526	87.19
292.757	81.19
292.987	83.19
293.218	85.19
293.449	82.19
293.68	79.19
293.91	87.19
294.141	74.19
294.372	95.19
294.603	76.19
294.833	82.19
295.064	67.19
295.295	84.19
295.525	67.19
295.756	94.19
295.987	90.19
296.217	75.19
296.448	81.19
296.679	83.19
296.909	84.19
297.14	80.19
297.37	87.19
297.601	78.19
297.831	72.19
298.062	97.19
298.292	84.19
298.523	95.19
298.753	78.19
298.984	84.19
299.214	87.19
299.445	97.19
299.675	101.19
299.905	87.19
300.136	84.19
300.366	83.19
300.597	89.19
300.827	75.19
301.057	77.19
301.288	88.19
301.518	89.19
301.748	84.19
301.979	96.19
302.209	87.19
302.439	81.19
302.669	75.19
302.9	83.19
303.13	78.19
303.36	86.19
303.59	84.19
303.82	102.19
304.051	88.19
304.281	78.19
304.511	89.19
304.741	79.19
304.971	84.19
305.201	93.19
305.431	90.19
305.661	88.19
305.891	87.19
306.121	77.19
306.352	73.19
306.582	89.19
306.812	91.19
307.042	80.19
307.272	80.19
307.502	92.19
307.731	89.19
307.961	81.19
308.191	95.19
308.421	77.19
308.651	88.19
308.881	80.19
309.111	83.19
309.341	79.19
309.571	78.19
309.8	85.19
310.03	80.19
310.26	84.19
310.49	89.19
310.72	91.19
310.949	91.19
311.179	88.19
311.409	91.19
311.639	77.19
311.868	87.19
312.098	95.19
312.328	94.19
312.557	84.19
312.787	95.19
313.017	82.19
313.246	83.19
313.476	84.19
313.706	88.19
313.935	93.19
314.165	98.19
314.394	75.19
314.624	85.19
314.853	95.19
315.083	86.19
315.312	86.19
315.542	74.19
315.771	94.19
316.001	98.19
316.23	89.19
316.46	93.19
316.689	87.19
316.919	73.19
317.148	80.19
317.377	93.19
317.607	97.19
317.836	81.19
318.065	75.19
318.295	86.19
318.524	89.19
318.753	77.19
318.983	82.19
319.212	76.19
319.441	86.19
319.67	84.19
319.9	71.19
320.129	84.19
320.358	96.19
320.587	85.19
320.816	97.19
321.046	98.19
321.275	56.19
321.504	88.19
321.733	99.19
321.962	89.19
322.191	77.19
322.42	103.19
322.649	79.19
322.878	69.19
323.108	83.19
323.337	76.19
323.566	91.19
323.795	87.19
324.024	78.19
324.253	88.19
324.482	85.19
324.71	82.19
324.939	90.19
325.168	88.19
325.397	83.19
325.626	81.19
325.855	76.19
326.084	83.19
326.313	80.19
326.542	89.19
326.77	83.19
326.999	87.19
327.228	83.19
327.457	77.19
327.686	84.19
327.914	96.19
328.143	101.19
328.372	84.19
328.6	70.19
328.829	103.19
329.058	77.19
329.287	89.19
329.515	71.19
329.744	77.19
329.972	83.19
330.201	94.19
330.43	78.19
330.658	87.19
330.887	84.19
331.115	84.19
331.344	80.19
331.572	84.19
331.801	97.19
332.03	76.19
332.258	84.19
332.486	81.19
332.715	92.19
332.943	89.19
333.172	65.19
333.4	100.19
333.629	86.19
333.857	99.19
334.085	77.19
334.314	88.19
334.542	87.19
334.771	79.19
334.999	79.19
335.227	79.19
335.455	83.19
335.684	76.19
335.912	81.19
336.14	75.19
336.369	94.19
336.597	88.19
336.825	89.19
337.053	77.19
337.281	78.19
337.51	95.19
337.738	80.19
337.966	84.19
338.194	67.19
338.422	80.19
338.65	76.19
338.878	94.19
339.106	85.19
339.334	76.19
339.562	87.19
339.79	85.19
340.018	82.19
340.246	83.19
340.474	89.19
340.702	81.19
340.93	82.19
341.158	98.19
341.386	73.19
341.614	92.19
341.842	95.19
342.07	95.19
342.298	91.19
342.526	87.19
342.754	91.19
342.981	77.19
343.209	76.19
343.437	77.19
343.665	97.19
343.893	83.19
344.12	82.19
344.348	78.19
344.576	99.19
344.804	82.19
345.031	77.19
345.259	70.19
345.487	74.19
345.714	87.19
345.942	89.19
346.17	86.19
346.397	85.19
346.625	85.19
346.853	102.19
347.08	81.19
347.308	86.19
347.535	82.19
347.763	81.19
347.99	74.19
348.218	86.19
348.445	79.19
348.673	69.19
348.9	77.19
349.128	80.19
349.355	79.19
349.583	89.19
349.81	81.19
350.037	114.19
350.265	85.19
350.492	81.19
350.72	89.19
350.947	86.19
351.174	88.19
351.402	80.19
351.629	80.19
351.856	82.19
352.083	98.19
352.311	100.19
352.538	90.19
352.765	99.19
352.992	85.19
353.22	87.19
353.447	92.19
353.674	88.19
353.901	83.19
354.128	82.19
354.355	94.19
354.583	82.19
354.81	95.19
355.037	92.19
355.264	81.19
355.491	89.19
355.718	90.19
355.945	88.19
356.172	91.19
356.399	81.19
356.626	87.19
356.853	80.19
357.08	97.19
357.307	77.19
357.534	84.19
357.761	79.19
357.988	89.19
358.215	93.19
358.441	90.19
358.668	77.19
358.895	85.19
359.122	94.19
359.349	73.19
359.576	83.19
359.802	85.19
360.029	84.19
360.256	77.19
360.483	88.19
360.709	89.19
360.936	99.19
361.163	88.19
361.39	88.19
361.616	84.19
361.843	93.19
362.07	82.19
362.296	77.19
362.523	83.19
362.749	78.19
362.976	68.19
363.203	97.19
363.429	70.19
363.656	82.19
363.882	76.19
364.109	92.19
364.335	82.19
364.562	100.19
364.788	83.19
365.015	92.19
365.241	94.19
365.468	79.19
365.694	83.19
365.92	98.19
366.147	87.19
366.373	93.19
366.599	90.19
366.826	81.19
367.052	84.19
367.278	96.19
367.505	83.19
367.731	83.19
367.957	77.19
368.184	81.19
368.41	85.19
368.636	104.19
368.862	81.19
369.089	80.19
369.315	75.19
369.541	82.19
369.767	84.19
369.993	87.19
370.219	87.19
370.445	98.19
370.672	87.19
370.898	83.19
371.124	95.19
371.35	83.19
371.576	75.19
371.802	86.19
372.028	69.19
372.254	90.19
372.48	78.19
372.706	89.19
372.932	90.19
373.158	91.19
373.384	100.19
373.61	87.19
373.835	81.19
374.061	100.19
374.287	91.19
374.513	96.19
374.739	93.19
374.965	112.19
375.191	81.19
375.416	93.19
375.642	92.19
375.868	92.19
376.094	84.19
376.319	94.19
376.545	98.19
376.771	90.19
376.997	86.19
377.222	82.19
377.448	84.19
377.674	89.19
377.899	93.19
378.125	87.19
378.35	98.19
378.576	97.19
378.802	94.19
379.027	90.19
379.253	83.19
379.478	100.19
379.704	84.19
379.929	87.19
380.155	105.19
380.38	100.19
380.606	90.19
380.831	79.19
381.057	97.19
381.282	77.19
381.507	88.19
381.733	93.19
381.958	96.19
382.184	96.19
382.409	100.19
382.634	104.19
382.86	99.19
383.085	88.19
383.31	72.19
383.535	93.19
383.761	86.19
383.986	81.19
384.211	99.19
384.436	88.19
384.662	92.19
384.887	80.19
385.112	89.19
385.337	95.19
385.562	92.19
385.787	105.19
386.013	92.19
386.238	108.19
386.463	84.19
386.688	84.19
386.913	103.19
387.138	88.19
387.363	86.19
387.588	90.19
387.813	82.19
388.038	85.19
388.263	102.19
388.488	95.19
388.713	96.19
388.938	86.19
389.163	88.19
389.387	90.19
389.612	95.19
389.837	92.19
390.062	100.19
390.287	86.19
390.512	93.19
390.736	95.19
390.961	105.19
391.186	91.19
391.411	103.19
391.636	102.19
391.86	95.19
392.085	113.19
392.31	106.19
392.534	85.19
392.759	87.19
392.984	97.19
393.208	85.19
393.433	88.19
393.658	112.19
393.882	92.19
394.107	106.19
394.331	93.19
394.556	83.19
394.78	93.19
395.005	107.19
395.229	100.19
395.454	97.19
395.678	92.19
395.903	95.19
396.127	104.19
396.352	104.19
396.576	104.19
396.801	102.19
397.025	91.19
397.249	116.19
397.474	104.19
397.698	90.19
397.922	97.19
398.147	101.19
398.371	101.19
398.595	96.19
398.82	102.19
399.044	102.19
399.268	105.19
399.492	120.19
399.717	119.19
399.941	106.19
400.165	117.19
400.389	105.19
400.613	96.19
400.837	107.19
401.062	104.19
401.286	118.19
401.51	94.19
401.734	104.19
401.958	101.19
402.182	107.19
402.406	111.19
402.63	98.19
402.854	92.19
403.078	105.19
403.302	92.19
403.526	122.19
403.75	108.19
403.974	113.19
404.198	108.19
404.422	103.19
404.645	101.19
404.869	98.19
405.093	111.19
405.317	95.19
405.541	107.19
405.765	111.19
405.988	100.19
406.212	101.19
406.436	96.19
406.66	104.19
406.883	99.19
407.107	106.19
407.331	118.19
407.555	122.19
407.778	90.19
408.002	107.19
408.226	108.19
408.449	107.19
408.673	114.19
408.896	113.19
409.12	107.19
409.344	106.19
409.567	115.19
409.791	111.19
410.014	108.19
410.238	107.19
410.461	94.19
410.685	99.19
410.908	100.19
411.132	108.19
411.355	111.19
411.578	111.19
411.802	117.19
412.025	113.19
412.249	103.19
412.472	109.19
412.695	103.19
412.919	106.19
413.142	117.19
413.365	101.19
413.589	100.19
413.812	111.19
414.035	111.19
414.258	108.19
414.482	115.19
414.705	104.19
414.928	119.19
415.151	104.19
415.374	111.19
415.597	106.19
415.821	113.19
416.044	108.19
416.267	123.19
416.49	120.19
416.713	96.19
416.936	104.19
417.159	120.19
417.382	122.19
417.605	106.19
417.828	114.19
418.051	100.19
418.274	119.19
418.497	106.19
418.72	104.19
418.943	108.19
419.166	104.19
419.389	117.19
419.611	119.19
419.834	118.19
420.057	98.19
420.28	119.19
420.503	97.19
420.726	111.19
420.948	121.19
421.171	107.19
421.394	104.19
421.617	109.19
421.839	111.19
422.062	115.19
422.285	89.19
422.507	106.19
422.73	123.19
422.953	115.19
423.175	131.19
423.398	120.19
423.621	117.19
423.843	106.19
424.066	107.19
424.288	113.19
424.511	108.19
424.733	117.19
424.956	116.19
425.178	108.19
425.401	109.19
425.623	130.19
425.846	121.19
426.068	121.19
426.291	113.19
426.513	125.19
426.735	98.19
426.958	108.19
427.18	108.19
427.402	107.19
427.625	111.19
427.847	115.19
428.069	111.19
428.292	108.19
428.514	108.19
428.736	113.19
428.958	104.19
429.181	111.19
429.403	108.19
429.625	105.19
429.847	106.19
430.069	104.19
430.292	106.19
430.514	105.19
430.736	108.19
430.958	95.19
431.18	94.19
431.402	105.19
431.624	108.19
431.846	97.19
432.068	108.19
432.29	102.19
432.512	122.19
432.734	98.19
432.956	119.19
433.178	108.19
433.4	113.19
433.622	100.19
433.844	104.19
434.066	123.19
434.287	113.19
434.509	107.19
434.731	100.19
434.953	102.19
435.175	113.19
435.397	87.19
435.618	119.19
435.84	105.19
436.062	99.19
436.284	111.19
436.505	113.19
436.727	108.19
436.949	109.19
437.17	113.19
437.392	119.19
437.614	101.19
437.835	112.19
438.057	121.19
438.278	104.19
438.5	115.19
438.721	113.19
438.943	118.19
439.165	92.19
439.386	113.19
439.608	109.19
439.829	112.19
440.05	119.19
440.272	105.19
440.493	127.19
440.715	119.19
440.936	125.19
441.158	108.19
441.379	113.19
441.6	119.19
441.822	104.19
442.043	109.19
442.264	119.19
442.486	115.19
442.707	119.19
442.928	123.19
443.149	114.19
443.371	119.19
443.592	119.19
443.813	117.19
444.034	129.19
444.255	117.19
444.476	130.19
444.698	117.19
444.919	132.19
445.14	218.19
445.361	159.19
445.582	131.19
445.803	126.19
446.024	113.19
446.245	115.19
446.466	133.19
446.687	142.19
446.908	117.19
447.129	121.19
447.35	121.19
447.571	121.19
447.792	108.19
448.013	115.19
448.234	115.19
448.455	123.19
448.675	108.19
448.896	134.19
449.117	120.19
449.338	106.19
449.559	118.19
449.779	120.19
450	114.19
450.221	115.19
450.442	110.19
450.662	113.19
450.883	111.19
451.104	112.19
451.324	97.19
451.545	107.19
451.766	117.19
451.986	117.19
452.207	112.19
452.428	117.19
452.648	105.19
452.869	116.19
453.089	113.19
453.31	109.19
453.53	100.19
453.751	111.19
453.971	100.19
454.192	93.19
454.412	98.19
454.633	101.19
454.853	116.19
455.073	106.19
455.294	104.19
455.514	113.19
455.734	93.19
455.955	102.19
456.175	105.19
456.395	114.19
456.616	97.19
456.836	102.19
457.056	99.19
457.276	87.19
457.497	115.19
457.717	110.19
457.937	112.19
458.157	109.19
458.377	93.19
458.598	103.19
458.818	107.19
459.038	98.19
459.258	102.19
459.478	95.19
459.698	105.19
459.918	112.19
460.138	126.19
460.358	106.19
460.578	121.19
460.798	95.19
461.018	104.19
461.238	105.19
461.458	112.19
461.678	103.19
461.898	112.19
462.118	125.19
462.338	115.19
462.558	118.19
462.777	120.19
462.997	117.19
463.217	115.19
463.437	121.19
463.657	126.19
463.876	118.19
464.096	123.19
464.316	123.19
464.536	128.19
464.755	116.19
464.975	116.19
465.195	102.19
465.414	115.19
465.634	122.19
465.854	117.19
466.073	100.19
466.293	107.19
466.512	105.19
466.732	116.19
466.951	108.19
467.171	111.19
467.391	119.19
467.61	120.19
467.829	119.19
468.049	95.19
468.268	106.19
468.488	105.19
468.707	121.19
468.927	99.19
469.146	102.19
469.365	113.19
469.585	108.19
469.804	117.19
470.023	116.19
470.243	135.19
470.462	115.19
470.681	112.19
470.901	131.19
471.12	119.19
471.339	115.19
471.558	101.19
471.777	121.19
471.997	125.19
472.216	117.19
472.435	102.19
472.654	93.19
472.873	98.19
473.092	106.19
473.311	113.19
473.53	127.19
473.749	133.19
473.968	110.19
474.187	124.19
474.406	111.19
474.625	116.19
474.844	116.19
475.063	109.19
475.282	114.19
475.501	111.19
475.72	134.19
475.939	121.19
476.158	129.19
476.377	116.19
476.596	90.19
476.814	115.19
477.033	113.19
477.252	129.19
477.471	123.19
477.69	115.19
477.908	116.19
478.127	123.19
478.346	115.19
478.564	124.19
478.783	104.19
479.002	119.19
479.22	124.19
479.439	128.19
479.658	131.19
479.876	115.19
480.095	124.19
480.313	113.19
480.532	129.19
480.751	119.19
480.969	109.19
481.188	101.19
481.406	102.19
481.624	111.19
481.843	110.19
482.061	113.19
482.28	115.19
482.498	109.19
482.717	111.19
482.935	110.19
483.153	116.19
483.372	124.19
483.59	130.19
483.808	131.19
484.027	115.19
484.245	122.19
484.463	115.19
484.681	131.19
484.9	133.19
485.118	121.19
485.336	124.19
485.554	115.19
485.772	105.19
485.99	125.19
486.209	115.19
486.427	129.19
486.645	135.19
486.863	131.19
487.081	117.19
487.299	116.19
487.517	138.19
487.735	143.19
487.953	140.19
488.171	139.19
488.389	141.19
488.607	127.19
488.825	128.19
489.043	122.19
489.261	133.19
489.479	122.19
489.696	127.19
489.914	117.19
490.132	145.19
490.35	127.19
490.568	128.19
490.786	144.19
491.003	144.19
491.221	139.19
491.439	158.19
491.657	141.19
491.874	145.19
492.092	159.19
492.31	163.19
492.527	149.19
492.745	152.19
492.963	159.19
493.18	143.19
493.398	143.19
493.615	152.19
493.833	144.19
494.05	141.19
494.268	143.19
494.485	139.19
494.703	147.19
494.92	153.19
495.138	133.19
495.355	147.19
495.573	142.19
495.79	140.19
496.008	147.19
496.225	141.19
496.442	151.19
496.66	147.19
496.877	140.19
497.094	140.19
497.312	133.19
497.529	136.19
497.746	137.19
497.963	137.19
498.181	140.19
498.398	137.19
498.615	123.19
498.832	128.19
499.049	147.19
499.267	154.19
499.484	160.19
499.701	167.19
499.918	171.19
500.135	206.19
500.352	200.19
500.569	204.19
500.786	212.19
501.003	214.19
501.22	197.19
501.437	171.19
501.654	159.19
501.871	165.19
502.088	163.19
502.305	158.19
502.522	142.19
502.739	153.19
502.956	133.19
503.172	127.19
503.389	132.19
503.606	130.19
503.823	143.19
504.04	128.19
504.256	135.19
504.473	147.19
504.69	146.19
504.907	145.19
505.123	135.19
505.34	135.19
505.557	143.19
505.773	124.19
505.99	129.19
506.207	123.19
506.423	121.19
506.64	116.19
506.856	112.19
507.073	111.19
507.289	107.19
507.506	125.19
507.722	110.19
507.939	117.19
508.155	133.19
508.372	107.19
508.588	118.19
508.805	123.19
509.021	115.19
509.238	115.19
509.454	108.19
509.67	104.19
509.887	114.19
510.103	125.19
510.319	116.19
510.536	101.19
510.752	107.19
510.968	101.19
511.184	103.19
511.401	102.19
511.617	106.19
511.833	112.19
