Data from StandardFe(NO3)3.TAE.3%Agarose.FlatLispGreen.Lamp.Energy10.07252019_HRD10591_11-54-39-440.txt Node
Date: Thu Jul 25 11:54:39 EDT 2019
User: cochatt
Spectrometer: HR+D1059
Trigger mode: 1
Integration Time (sec): 1.000000E-1
Scans to average: 1
Electric dark correction enabled: true
Nonlinearity correction enabled: false
Boxcar width: 0
XAxis mode: Wavelengths
Number of Pixels in Spectrum: 2048
>>>>>Begin Spectral Data<<<<<
223.165	-6.69
223.4	-6.69
223.635	-6.69
223.869	-23.69
224.104	-16.69
224.338	-26.69
224.573	-16.69
224.808	-19.69
225.042	-0.69
225.277	-10.69
225.511	-1.69
225.746	7.31
225.98	13.31
226.215	4.31
226.449	17.31
226.683	15.31
226.918	28.31
227.152	37.31
227.387	30.31
227.621	49.31
227.856	53.31
228.09	46.31
228.324	53.31
228.559	67.31
228.793	61.31
229.027	62.31
229.262	68.31
229.496	82.31
229.73	78.31
229.964	69.31
230.199	78.31
230.433	74.31
230.667	91.31
230.901	76.31
231.136	82.31
231.37	83.31
231.604	90.31
231.838	73.31
232.072	82.31
232.306	83.31
232.541	85.31
232.775	71.31
233.009	87.31
233.243	78.31
233.477	75.31
233.711	94.31
233.945	98.31
234.179	85.31
234.413	91.31
234.647	93.31
234.881	90.31
235.115	87.31
235.349	71.31
235.583	93.31
235.817	75.31
236.051	91.31
236.285	76.31
236.519	79.31
236.753	97.31
236.987	75.31
237.221	92.31
237.455	81.31
237.689	91.31
237.922	76.31
238.156	87.31
238.39	70.31
238.624	82.31
238.858	80.31
239.091	75.31
239.325	75.31
239.559	82.31
239.793	84.31
240.027	86.31
240.26	96.31
240.494	88.31
240.728	67.31
240.961	81.31
241.195	87.31
241.429	91.31
241.662	99.31
241.896	92.31
242.13	77.31
242.363	77.31
242.597	77.31
242.83	71.31
243.064	80.31
243.298	94.31
243.531	83.31
243.765	90.31
243.998	76.31
244.232	68.31
244.465	78.31
244.699	81.31
244.932	87.31
245.166	97.31
245.399	89.31
245.633	94.31
245.866	88.31
246.099	99.31
246.333	90.31
246.566	76.31
246.8	79.31
247.033	58.31
247.266	70.31
247.5	80.31
247.733	82.31
247.966	81.31
248.2	79.31
248.433	83.31
248.666	74.31
248.899	82.31
249.133	74.31
249.366	90.31
249.599	91.31
249.832	83.31
250.066	94.31
250.299	87.31
250.532	97.31
250.765	79.31
250.998	82.31
251.231	83.31
251.465	86.31
251.698	80.31
251.931	77.31
252.164	94.31
252.397	86.31
252.63	86.31
252.863	92.31
253.096	84.31
253.329	78.31
253.562	89.31
253.795	83.31
254.028	89.31
254.261	88.31
254.494	79.31
254.727	86.31
254.96	83.31
255.193	83.31
255.426	88.31
255.659	90.31
255.892	101.31
256.124	76.31
256.357	76.31
256.59	95.31
256.823	94.31
257.056	91.31
257.289	82.31
257.521	83.31
257.754	84.31
257.987	98.31
258.22	94.31
258.452	98.31
258.685	84.31
258.918	75.31
259.151	83.31
259.383	90.31
259.616	91.31
259.849	89.31
260.081	77.31
260.314	78.31
260.547	86.31
260.779	88.31
261.012	86.31
261.244	86.31
261.477	80.31
261.71	92.31
261.942	91.31
262.175	98.31
262.407	81.31
262.64	73.31
262.872	74.31
263.105	99.31
263.337	103.31
263.57	91.31
263.802	86.31
264.035	80.31
264.267	83.31
264.499	90.31
264.732	89.31
264.964	82.31
265.197	84.31
265.429	93.31
265.661	88.31
265.894	79.31
266.126	97.31
266.358	94.31
266.591	92.31
266.823	87.31
267.055	86.31
267.287	89.31
267.52	88.31
267.752	80.31
267.984	90.31
268.216	99.31
268.448	77.31
268.681	84.31
268.913	83.31
269.145	93.31
269.377	92.31
269.609	88.31
269.841	97.31
270.073	100.31
270.306	91.31
270.538	87.31
270.77	75.31
271.002	82.31
271.234	89.31
271.466	85.31
271.698	95.31
271.93	101.31
272.162	92.31
272.394	88.31
272.626	85.31
272.858	79.31
273.09	101.31
273.322	105.31
273.553	86.31
273.785	88.31
274.017	76.31
274.249	96.31
274.481	91.31
274.713	84.31
274.945	73.31
275.176	83.31
275.408	87.31
275.64	91.31
275.872	80.31
276.104	83.31
276.335	90.31
276.567	92.31
276.799	88.31
277.031	86.31
277.262	80.31
277.494	86.31
277.726	89.31
277.957	84.31
278.189	80.31
278.421	81.31
278.652	98.31
278.884	102.31
279.115	82.31
279.347	82.31
279.579	86.31
279.81	87.31
280.042	84.31
280.273	91.31
280.505	95.31
280.736	81.31
280.968	87.31
281.199	101.31
281.431	85.31
281.662	81.31
281.894	99.31
282.125	91.31
282.356	87.31
282.588	87.31
282.819	92.31
283.051	98.31
283.282	87.31
283.513	79.31
283.745	93.31
283.976	89.31
284.207	83.31
284.439	83.31
284.67	87.31
284.901	98.31
285.132	93.31
285.364	89.31
285.595	82.31
285.826	90.31
286.057	87.31
286.288	99.31
286.52	73.31
286.751	98.31
286.982	97.31
287.213	77.31
287.444	94.31
287.675	98.31
287.906	66.31
288.138	95.31
288.369	96.31
288.6	88.31
288.831	92.31
289.062	80.31
289.293	91.31
289.524	95.31
289.755	92.31
289.986	90.31
290.217	77.31
290.448	87.31
290.679	97.31
290.91	87.31
291.141	97.31
291.371	90.31
291.602	86.31
291.833	80.31
292.064	85.31
292.295	96.31
292.526	81.31
292.757	82.31
292.987	75.31
293.218	94.31
293.449	86.31
293.68	95.31
293.91	80.31
294.141	82.31
294.372	84.31
294.603	92.31
294.833	88.31
295.064	81.31
295.295	85.31
295.525	97.31
295.756	92.31
295.987	82.31
296.217	96.31
296.448	81.31
296.679	94.31
296.909	99.31
297.14	99.31
297.37	91.31
297.601	89.31
297.831	76.31
298.062	83.31
298.292	83.31
298.523	87.31
298.753	96.31
298.984	83.31
299.214	96.31
299.445	90.31
299.675	87.31
299.905	80.31
300.136	82.31
300.366	96.31
300.597	89.31
300.827	92.31
301.057	95.31
301.288	115.31
301.518	87.31
301.748	92.31
301.979	86.31
302.209	91.31
302.439	92.31
302.669	86.31
302.9	97.31
303.13	77.31
303.36	85.31
303.59	94.31
303.82	83.31
304.051	93.31
304.281	83.31
304.511	86.31
304.741	78.31
304.971	93.31
305.201	95.31
305.431	80.31
305.661	83.31
305.891	90.31
306.121	81.31
306.352	79.31
306.582	91.31
306.812	81.31
307.042	84.31
307.272	77.31
307.502	93.31
307.731	105.31
307.961	97.31
308.191	94.31
308.421	100.31
308.651	99.31
308.881	89.31
309.111	80.31
309.341	95.31
309.571	86.31
309.8	86.31
310.03	87.31
310.26	83.31
310.49	98.31
310.72	82.31
310.949	90.31
311.179	80.31
311.409	83.31
311.639	80.31
311.868	88.31
312.098	97.31
312.328	98.31
312.557	91.31
312.787	100.31
313.017	98.31
313.246	91.31
313.476	94.31
313.706	76.31
313.935	70.31
314.165	79.31
314.394	82.31
314.624	82.31
314.853	88.31
315.083	82.31
315.312	102.31
315.542	96.31
315.771	97.31
316.001	91.31
316.23	80.31
316.46	92.31
316.689	89.31
316.919	88.31
317.148	99.31
317.377	86.31
317.607	91.31
317.836	95.31
318.065	89.31
318.295	99.31
318.524	101.31
318.753	86.31
318.983	96.31
319.212	98.31
319.441	112.31
319.67	106.31
319.9	83.31
320.129	90.31
320.358	80.31
320.587	80.31
320.816	90.31
321.046	95.31
321.275	101.31
321.504	79.31
321.733	87.31
321.962	91.31
322.191	106.31
322.42	96.31
322.649	81.31
322.878	102.31
323.108	89.31
323.337	73.31
323.566	85.31
323.795	91.31
324.024	96.31
324.253	88.31
324.482	82.31
324.71	80.31
324.939	92.31
325.168	75.31
325.397	90.31
325.626	72.31
325.855	73.31
326.084	95.31
326.313	91.31
326.542	89.31
326.77	97.31
326.999	84.31
327.228	94.31
327.457	89.31
327.686	98.31
327.914	95.31
328.143	101.31
328.372	73.31
328.6	85.31
328.829	95.31
329.058	73.31
329.287	85.31
329.515	93.31
329.744	94.31
329.972	92.31
330.201	90.31
330.43	82.31
330.658	84.31
330.887	95.31
331.115	90.31
331.344	82.31
331.572	80.31
331.801	106.31
332.03	85.31
332.258	81.31
332.486	81.31
332.715	83.31
332.943	78.31
333.172	86.31
333.4	84.31
333.629	90.31
333.857	70.31
334.085	86.31
334.314	87.31
334.542	103.31
334.771	87.31
334.999	82.31
335.227	95.31
335.455	94.31
335.684	99.31
335.912	89.31
336.14	85.31
336.369	83.31
336.597	90.31
336.825	87.31
337.053	92.31
337.281	103.31
337.51	92.31
337.738	90.31
337.966	92.31
338.194	83.31
338.422	89.31
338.65	69.31
338.878	94.31
339.106	106.31
339.334	93.31
339.562	90.31
339.79	92.31
340.018	84.31
340.246	79.31
340.474	89.31
340.702	93.31
340.93	81.31
341.158	89.31
341.386	97.31
341.614	91.31
341.842	99.31
342.07	82.31
342.298	93.31
342.526	86.31
342.754	97.31
342.981	87.31
343.209	90.31
343.437	95.31
343.665	81.31
343.893	82.31
344.12	78.31
344.348	90.31
344.576	98.31
344.804	89.31
345.031	86.31
345.259	105.31
345.487	101.31
345.714	106.31
345.942	82.31
346.17	101.31
346.397	88.31
346.625	88.31
346.853	93.31
347.08	83.31
347.308	98.31
347.535	89.31
347.763	100.31
347.99	82.31
348.218	91.31
348.445	87.31
348.673	95.31
348.9	96.31
349.128	92.31
349.355	87.31
349.583	94.31
349.81	79.31
350.037	88.31
350.265	95.31
350.492	87.31
350.72	93.31
350.947	85.31
351.174	83.31
351.402	88.31
351.629	101.31
351.856	82.31
352.083	89.31
352.311	88.31
352.538	76.31
352.765	87.31
352.992	95.31
353.22	74.31
353.447	81.31
353.674	93.31
353.901	79.31
354.128	104.31
354.355	101.31
354.583	80.31
354.81	90.31
355.037	109.31
355.264	104.31
355.491	97.31
355.718	81.31
355.945	90.31
356.172	101.31
356.399	86.31
356.626	79.31
356.853	83.31
357.08	102.31
357.307	89.31
357.534	73.31
357.761	93.31
357.988	93.31
358.215	79.31
358.441	82.31
358.668	94.31
358.895	91.31
359.122	87.31
359.349	92.31
359.576	95.31
359.802	93.31
360.029	95.31
360.256	93.31
360.483	102.31
360.709	86.31
360.936	89.31
361.163	88.31
361.39	88.31
361.616	96.31
361.843	85.31
362.07	88.31
362.296	91.31
362.523	104.31
362.749	88.31
362.976	90.31
363.203	99.31
363.429	88.31
363.656	91.31
363.882	82.31
364.109	93.31
364.335	84.31
364.562	103.31
364.788	104.31
365.015	78.31
365.241	87.31
365.468	101.31
365.694	97.31
365.92	98.31
366.147	91.31
366.373	97.31
366.599	100.31
366.826	90.31
367.052	95.31
367.278	92.31
367.505	89.31
367.731	86.31
367.957	95.31
368.184	90.31
368.41	94.31
368.636	95.31
368.862	85.31
369.089	86.31
369.315	91.31
369.541	103.31
369.767	93.31
369.993	80.31
370.219	92.31
370.445	84.31
370.672	91.31
370.898	83.31
371.124	93.31
371.35	79.31
371.576	111.31
371.802	76.31
372.028	94.31
372.254	97.31
372.48	95.31
372.706	86.31
372.932	103.31
373.158	89.31
373.384	100.31
373.61	102.31
373.835	101.31
374.061	103.31
374.287	102.31
374.513	92.31
374.739	89.31
374.965	109.31
375.191	93.31
375.416	92.31
375.642	95.31
375.868	94.31
376.094	83.31
376.319	93.31
376.545	86.31
376.771	85.31
376.997	99.31
377.222	95.31
377.448	100.31
377.674	88.31
377.899	80.31
378.125	103.31
378.35	105.31
378.576	98.31
378.802	100.31
379.027	93.31
379.253	85.31
379.478	100.31
379.704	92.31
379.929	80.31
380.155	90.31
380.38	96.31
380.606	98.31
380.831	86.31
381.057	97.31
381.282	82.31
381.507	103.31
381.733	108.31
381.958	101.31
382.184	77.31
382.409	99.31
382.634	95.31
382.86	93.31
383.085	102.31
383.31	104.31
383.535	95.31
383.761	99.31
383.986	102.31
384.211	94.31
384.436	97.31
384.662	101.31
384.887	91.31
385.112	107.31
385.337	107.31
385.562	98.31
385.787	92.31
386.013	114.31
386.238	91.31
386.463	109.31
386.688	112.31
386.913	79.31
387.138	101.31
387.363	101.31
387.588	95.31
387.813	92.31
388.038	84.31
388.263	90.31
388.488	109.31
388.713	97.31
388.938	100.31
389.163	102.31
389.387	105.31
389.612	100.31
389.837	84.31
390.062	106.31
390.287	82.31
390.512	95.31
390.736	105.31
390.961	103.31
391.186	94.31
391.411	103.31
391.636	91.31
391.86	96.31
392.085	102.31
392.31	95.31
392.534	95.31
392.759	108.31
392.984	99.31
393.208	101.31
393.433	91.31
393.658	95.31
393.882	103.31
394.107	106.31
394.331	98.31
394.556	104.31
394.78	115.31
395.005	82.31
395.229	90.31
395.454	104.31
395.678	105.31
395.903	113.31
396.127	107.31
396.352	103.31
396.576	97.31
396.801	108.31
397.025	95.31
397.249	110.31
397.474	121.31
397.698	110.31
397.922	95.31
398.147	109.31
398.371	118.31
398.595	110.31
398.82	101.31
399.044	113.31
399.268	102.31
399.492	121.31
399.717	117.31
399.941	114.31
400.165	107.31
400.389	105.31
400.613	133.31
400.837	106.31
401.062	102.31
401.286	107.31
401.51	119.31
401.734	111.31
401.958	117.31
402.182	119.31
402.406	117.31
402.63	104.31
402.854	130.31
403.078	107.31
403.302	118.31
403.526	124.31
403.75	119.31
403.974	110.31
404.198	127.31
404.422	109.31
404.645	118.31
404.869	115.31
405.093	117.31
405.317	101.31
405.541	117.31
405.765	122.31
405.988	128.31
406.212	127.31
406.436	122.31
406.66	128.31
406.883	114.31
407.107	114.31
407.331	114.31
407.555	118.31
407.778	117.31
408.002	115.31
408.226	108.31
408.449	116.31
408.673	117.31
408.896	110.31
409.12	121.31
409.344	110.31
409.567	107.31
409.791	120.31
410.014	110.31
410.238	119.31
410.461	109.31
410.685	114.31
410.908	104.31
411.132	128.31
411.355	99.31
411.578	104.31
411.802	102.31
412.025	109.31
412.249	122.31
412.472	111.31
412.695	103.31
412.919	105.31
413.142	114.31
413.365	136.31
413.589	123.31
413.812	113.31
414.035	125.31
414.258	112.31
414.482	107.31
414.705	120.31
414.928	131.31
415.151	120.31
415.374	127.31
415.597	122.31
415.821	124.31
416.044	122.31
416.267	115.31
416.49	118.31
416.713	117.31
416.936	120.31
417.159	129.31
417.382	116.31
417.605	121.31
417.828	131.31
418.051	113.31
418.274	124.31
418.497	124.31
418.72	121.31
418.943	109.31
419.166	114.31
419.389	109.31
419.611	116.31
419.834	113.31
420.057	126.31
420.28	129.31
420.503	117.31
420.726	114.31
420.948	131.31
421.171	128.31
421.394	120.31
421.617	127.31
421.839	134.31
422.062	124.31
422.285	131.31
422.507	125.31
422.73	120.31
422.953	106.31
423.175	126.31
423.398	110.31
423.621	120.31
423.843	127.31
424.066	122.31
424.288	104.31
424.511	137.31
424.733	126.31
424.956	130.31
425.178	119.31
425.401	135.31
425.623	124.31
425.846	120.31
426.068	108.31
426.291	106.31
426.513	110.31
426.735	124.31
426.958	110.31
427.18	101.31
427.402	122.31
427.625	117.31
427.847	115.31
428.069	110.31
428.292	117.31
428.514	118.31
428.736	119.31
428.958	113.31
429.181	103.31
429.403	122.31
429.625	111.31
429.847	110.31
430.069	121.31
430.292	117.31
430.514	117.31
430.736	109.31
430.958	117.31
431.18	112.31
431.402	117.31
431.624	112.31
431.846	119.31
432.068	117.31
432.29	97.31
432.512	109.31
432.734	99.31
432.956	106.31
433.178	122.31
433.4	121.31
433.622	130.31
433.844	111.31
434.066	116.31
434.287	116.31
434.509	103.31
434.731	119.31
434.953	112.31
435.175	118.31
435.397	125.31
435.618	115.31
435.84	108.31
436.062	111.31
436.284	115.31
436.505	111.31
436.727	112.31
436.949	108.31
437.17	115.31
437.392	108.31
437.614	110.31
437.835	101.31
438.057	108.31
438.278	107.31
438.5	119.31
438.721	118.31
438.943	114.31
439.165	121.31
439.386	106.31
439.608	114.31
439.829	111.31
440.05	127.31
440.272	119.31
440.493	131.31
440.715	127.31
440.936	112.31
441.158	133.31
441.379	130.31
441.6	125.31
441.822	134.31
442.043	139.31
442.264	120.31
442.486	122.31
442.707	129.31
442.928	102.31
443.149	123.31
443.371	128.31
443.592	123.31
443.813	127.31
444.034	127.31
444.255	118.31
444.476	117.31
444.698	123.31
444.919	138.31
445.14	258.31
445.361	192.31
445.582	128.31
445.803	122.31
446.024	131.31
446.245	142.31
446.466	115.31
446.687	118.31
446.908	126.31
447.129	113.31
447.35	128.31
447.571	129.31
447.792	121.31
448.013	123.31
448.234	132.31
448.455	123.31
448.675	122.31
448.896	117.31
449.117	114.31
449.338	121.31
449.559	108.31
449.779	111.31
450	112.31
450.221	121.31
450.442	117.31
450.662	123.31
450.883	126.31
451.104	112.31
451.324	115.31
451.545	114.31
451.766	118.31
451.986	123.31
452.207	128.31
452.428	114.31
452.648	125.31
452.869	121.31
453.089	110.31
453.31	123.31
453.53	113.31
453.751	102.31
453.971	109.31
454.192	102.31
454.412	114.31
454.633	116.31
454.853	112.31
455.073	112.31
455.294	114.31
455.514	109.31
455.734	118.31
455.955	115.31
456.175	109.31
456.395	111.31
456.616	104.31
456.836	98.31
457.056	99.31
457.276	102.31
457.497	105.31
457.717	105.31
457.937	117.31
458.157	120.31
458.377	103.31
458.598	107.31
458.818	114.31
459.038	106.31
459.258	102.31
459.478	110.31
459.698	107.31
459.918	116.31
460.138	107.31
460.358	111.31
460.578	125.31
460.798	117.31
461.018	118.31
461.238	111.31
461.458	125.31
461.678	102.31
461.898	117.31
462.118	124.31
462.338	120.31
462.558	125.31
462.777	120.31
462.997	121.31
463.217	130.31
463.437	147.31
463.657	128.31
463.876	124.31
464.096	130.31
464.316	137.31
464.536	116.31
464.755	130.31
464.975	119.31
465.195	128.31
465.414	127.31
465.634	121.31
465.854	120.31
466.073	117.31
466.293	108.31
466.512	109.31
466.732	122.31
466.951	106.31
467.171	110.31
467.391	133.31
467.61	123.31
467.829	112.31
468.049	112.31
468.268	130.31
468.488	118.31
468.707	122.31
468.927	127.31
469.146	122.31
469.365	131.31
469.585	131.31
469.804	130.31
470.023	128.31
470.243	123.31
470.462	121.31
470.681	131.31
470.901	127.31
471.12	117.31
471.339	119.31
471.558	131.31
471.777	117.31
471.997	133.31
472.216	105.31
472.435	128.31
472.654	108.31
472.873	113.31
473.092	114.31
473.311	114.31
473.53	125.31
473.749	111.31
473.968	121.31
474.187	117.31
474.406	107.31
474.625	114.31
474.844	115.31
475.063	120.31
475.282	123.31
475.501	112.31
475.72	121.31
475.939	124.31
476.158	126.31
476.377	127.31
476.596	123.31
476.814	110.31
477.033	121.31
477.252	117.31
477.471	135.31
477.69	119.31
477.908	138.31
478.127	128.31
478.346	126.31
478.564	127.31
478.783	130.31
479.002	133.31
479.22	143.31
479.439	144.31
479.658	128.31
479.876	126.31
480.095	129.31
480.313	131.31
480.532	131.31
480.751	140.31
480.969	124.31
481.188	118.31
481.406	104.31
481.624	101.31
481.843	116.31
482.061	99.31
482.28	113.31
482.498	126.31
482.717	117.31
482.935	117.31
483.153	122.31
483.372	115.31
483.59	133.31
483.808	119.31
484.027	130.31
484.245	119.31
484.463	134.31
484.681	138.31
484.9	137.31
485.118	133.31
485.336	129.31
485.554	135.31
485.772	113.31
485.99	113.31
486.209	129.31
486.427	127.31
486.645	126.31
486.863	126.31
487.081	137.31
487.299	146.31
487.517	132.31
487.735	132.31
487.953	152.31
488.171	137.31
488.389	144.31
488.607	139.31
488.825	144.31
489.043	138.31
489.261	138.31
489.479	142.31
489.696	137.31
489.914	131.31
490.132	133.31
490.35	134.31
490.568	140.31
490.786	160.31
491.003	138.31
491.221	147.31
491.439	151.31
491.657	147.31
491.874	167.31
492.092	163.31
492.31	142.31
492.527	152.31
492.745	162.31
492.963	161.31
493.18	147.31
493.398	158.31
493.615	160.31
493.833	173.31
494.05	156.31
494.268	165.31
494.485	157.31
494.703	161.31
494.92	149.31
495.138	155.31
495.355	173.31
495.573	160.31
495.79	144.31
496.008	138.31
496.225	150.31
496.442	145.31
496.66	157.31
496.877	169.31
497.094	152.31
497.312	147.31
497.529	149.31
497.746	141.31
497.963	159.31
498.181	135.31
498.398	141.31
498.615	140.31
498.832	162.31
499.049	141.31
499.267	154.31
499.484	152.31
499.701	184.31
499.918	179.31
500.135	211.31
500.352	224.31
500.569	235.31
500.786	209.31
501.003	206.31
501.22	200.31
501.437	189.31
501.654	185.31
501.871	157.31
502.088	149.31
502.305	153.31
502.522	152.31
502.739	142.31
502.956	137.31
503.172	153.31
503.389	142.31
503.606	135.31
503.823	125.31
504.04	129.31
504.256	138.31
504.473	143.31
504.69	138.31
504.907	162.31
505.123	131.31
505.34	137.31
505.557	139.31
505.773	137.31
505.99	124.31
506.207	135.31
506.423	121.31
506.64	143.31
506.856	130.31
507.073	123.31
507.289	141.31
507.506	110.31
507.722	141.31
507.939	127.31
508.155	127.31
508.372	127.31
508.588	120.31
508.805	135.31
509.021	127.31
509.238	125.31
509.454	120.31
509.67	115.31
509.887	128.31
510.103	111.31
510.319	113.31
510.536	123.31
