Data from StandardFe(NO3)3.TAE.3%Agarose.FlatLispGreen.Lamp.Energy10.07252019_HRD10591_11-56-06-441.txt Node
Date: Thu Jul 25 11:56:06 EDT 2019
User: cochatt
Spectrometer: HR+D1059
Trigger mode: 1
Integration Time (sec): 1.000000E-1
Scans to average: 1
Electric dark correction enabled: true
Nonlinearity correction enabled: false
Boxcar width: 0
XAxis mode: Wavelengths
Number of Pixels in Spectrum: 2048
>>>>>Begin Spectral Data<<<<<
223.165	-23.81
223.4	-23.81
223.635	-23.81
223.869	-22.81
224.104	-15.81
224.338	-14.81
224.573	-24.81
224.808	-17.81
225.042	-14.81
225.277	7.19
225.511	-2.81
225.746	3.19
225.98	10.19
226.215	12.19
226.449	14.19
226.683	28.19
226.918	31.19
227.152	31.19
227.387	29.19
227.621	30.19
227.856	44.19
228.09	42.19
228.324	46.19
228.559	53.19
228.793	68.19
229.027	55.19
229.262	47.19
229.496	63.19
229.73	62.19
229.964	71.19
230.199	80.19
230.433	54.19
230.667	72.19
230.901	75.19
231.136	81.19
231.37	78.19
231.604	82.19
231.838	69.19
232.072	97.19
232.306	86.19
232.541	79.19
232.775	77.19
233.009	79.19
233.243	92.19
233.477	84.19
233.711	90.19
233.945	82.19
234.179	86.19
234.413	79.19
234.647	86.19
234.881	92.19
235.115	80.19
235.349	74.19
235.583	84.19
235.817	88.19
236.051	72.19
236.285	70.19
236.519	82.19
236.753	89.19
236.987	63.19
237.221	56.19
237.455	79.19
237.689	71.19
237.922	84.19
238.156	82.19
238.39	55.19
238.624	71.19
238.858	70.19
239.091	67.19
239.325	60.19
239.559	82.19
239.793	77.19
240.027	85.19
240.26	75.19
240.494	80.19
240.728	67.19
240.961	56.19
241.195	76.19
241.429	73.19
241.662	68.19
241.896	64.19
242.13	68.19
242.363	76.19
242.597	82.19
242.83	71.19
243.064	92.19
243.298	80.19
243.531	64.19
243.765	71.19
243.998	83.19
244.232	78.19
244.465	76.19
244.699	74.19
244.932	80.19
245.166	68.19
245.399	61.19
245.633	65.19
245.866	74.19
246.099	77.19
246.333	79.19
246.566	72.19
246.8	64.19
247.033	71.19
247.266	69.19
247.5	77.19
247.733	68.19
247.966	83.19
248.2	66.19
248.433	76.19
248.666	77.19
248.899	61.19
249.133	76.19
249.366	84.19
249.599	70.19
249.832	81.19
250.066	87.19
250.299	94.19
250.532	65.19
250.765	72.19
250.998	69.19
251.231	67.19
251.465	73.19
251.698	84.19
251.931	77.19
252.164	73.19
252.397	66.19
252.63	67.19
252.863	80.19
253.096	79.19
253.329	65.19
253.562	77.19
253.795	71.19
254.028	80.19
254.261	93.19
254.494	85.19
254.727	87.19
254.96	78.19
255.193	73.19
255.426	61.19
255.659	78.19
255.892	81.19
256.124	73.19
256.357	68.19
256.59	86.19
256.823	79.19
257.056	94.19
257.289	83.19
257.521	65.19
257.754	92.19
257.987	74.19
258.22	82.19
258.452	86.19
258.685	96.19
258.918	88.19
259.151	87.19
259.383	82.19
259.616	70.19
259.849	90.19
260.081	69.19
260.314	68.19
260.547	62.19
260.779	77.19
261.012	80.19
261.244	81.19
261.477	94.19
261.71	70.19
261.942	72.19
262.175	74.19
262.407	68.19
262.64	84.19
262.872	75.19
263.105	72.19
263.337	79.19
263.57	63.19
263.802	64.19
264.035	69.19
264.267	74.19
264.499	75.19
264.732	85.19
264.964	66.19
265.197	75.19
265.429	82.19
265.661	87.19
265.894	76.19
266.126	81.19
266.358	80.19
266.591	81.19
266.823	79.19
267.055	66.19
267.287	77.19
267.52	77.19
267.752	88.19
267.984	87.19
268.216	84.19
268.448	94.19
268.681	78.19
268.913	82.19
269.145	76.19
269.377	90.19
269.609	80.19
269.841	70.19
270.073	88.19
270.306	79.19
270.538	87.19
270.77	71.19
271.002	73.19
271.234	86.19
271.466	88.19
271.698	78.19
271.93	80.19
272.162	83.19
272.394	83.19
272.626	72.19
272.858	75.19
273.09	82.19
273.322	76.19
273.553	88.19
273.785	78.19
274.017	73.19
274.249	79.19
274.481	86.19
274.713	84.19
274.945	82.19
275.176	66.19
275.408	80.19
275.64	80.19
275.872	74.19
276.104	76.19
276.335	79.19
276.567	85.19
276.799	78.19
277.031	89.19
277.262	91.19
277.494	86.19
277.726	85.19
277.957	76.19
278.189	78.19
278.421	79.19
278.652	79.19
278.884	77.19
279.115	73.19
279.347	67.19
279.579	88.19
279.81	79.19
280.042	88.19
280.273	89.19
280.505	81.19
280.736	77.19
280.968	100.19
281.199	86.19
281.431	96.19
281.662	76.19
281.894	88.19
282.125	82.19
282.356	84.19
282.588	79.19
282.819	76.19
283.051	78.19
283.282	97.19
283.513	81.19
283.745	93.19
283.976	92.19
284.207	71.19
284.439	86.19
284.67	79.19
284.901	87.19
285.132	79.19
285.364	84.19
285.595	81.19
285.826	92.19
286.057	84.19
286.288	88.19
286.52	81.19
286.751	71.19
286.982	65.19
287.213	67.19
287.444	81.19
287.675	84.19
287.906	92.19
288.138	86.19
288.369	84.19
288.6	87.19
288.831	81.19
289.062	79.19
289.293	85.19
289.524	79.19
289.755	83.19
289.986	70.19
290.217	71.19
290.448	76.19
290.679	91.19
290.91	75.19
291.141	70.19
291.371	87.19
291.602	76.19
291.833	91.19
292.064	73.19
292.295	72.19
292.526	71.19
292.757	83.19
292.987	75.19
293.218	81.19
293.449	82.19
293.68	80.19
293.91	79.19
294.141	84.19
294.372	79.19
294.603	84.19
294.833	84.19
295.064	92.19
295.295	74.19
295.525	87.19
295.756	81.19
295.987	85.19
296.217	73.19
296.448	86.19
296.679	80.19
296.909	74.19
297.14	86.19
297.37	69.19
297.601	62.19
297.831	86.19
298.062	73.19
298.292	73.19
298.523	93.19
298.753	73.19
298.984	88.19
299.214	82.19
299.445	83.19
299.675	71.19
299.905	77.19
300.136	84.19
300.366	83.19
300.597	80.19
300.827	86.19
301.057	92.19
301.288	72.19
301.518	85.19
301.748	71.19
301.979	84.19
302.209	90.19
302.439	73.19
302.669	80.19
302.9	76.19
303.13	92.19
303.36	78.19
303.59	92.19
303.82	87.19
304.051	88.19
304.281	87.19
304.511	84.19
304.741	79.19
304.971	75.19
305.201	78.19
305.431	80.19
305.661	85.19
305.891	86.19
306.121	82.19
306.352	82.19
306.582	85.19
306.812	70.19
307.042	97.19
307.272	79.19
307.502	84.19
307.731	85.19
307.961	81.19
308.191	91.19
308.421	71.19
308.651	72.19
308.881	83.19
309.111	83.19
309.341	84.19
309.571	84.19
309.8	66.19
310.03	80.19
310.26	85.19
310.49	81.19
310.72	88.19
310.949	85.19
311.179	79.19
311.409	78.19
311.639	95.19
311.868	79.19
312.098	77.19
312.328	93.19
312.557	88.19
312.787	96.19
313.017	74.19
313.246	71.19
313.476	95.19
313.706	83.19
313.935	83.19
314.165	81.19
314.394	77.19
314.624	89.19
314.853	80.19
315.083	79.19
315.312	88.19
315.542	87.19
315.771	72.19
316.001	80.19
316.23	74.19
316.46	89.19
316.689	92.19
316.919	94.19
317.148	86.19
317.377	85.19
317.607	83.19
317.836	86.19
318.065	72.19
318.295	71.19
318.524	73.19
318.753	77.19
318.983	67.19
319.212	91.19
319.441	93.19
319.67	89.19
319.9	84.19
320.129	67.19
320.358	71.19
320.587	74.19
320.816	81.19
321.046	76.19
321.275	87.19
321.504	84.19
321.733	79.19
321.962	88.19
322.191	82.19
322.42	77.19
322.649	84.19
322.878	82.19
323.108	88.19
323.337	80.19
323.566	92.19
323.795	84.19
324.024	71.19
324.253	96.19
324.482	84.19
324.71	92.19
324.939	77.19
325.168	72.19
325.397	83.19
325.626	80.19
325.855	80.19
326.084	89.19
326.313	70.19
326.542	64.19
326.77	74.19
326.999	71.19
327.228	84.19
327.457	95.19
327.686	81.19
327.914	78.19
328.143	76.19
328.372	85.19
328.6	88.19
328.829	83.19
329.058	88.19
329.287	84.19
329.515	85.19
329.744	92.19
329.972	84.19
330.201	83.19
330.43	99.19
330.658	74.19
330.887	83.19
331.115	80.19
331.344	87.19
331.572	95.19
331.801	86.19
332.03	81.19
332.258	80.19
332.486	67.19
332.715	75.19
332.943	86.19
333.172	84.19
333.4	78.19
333.629	73.19
333.857	88.19
334.085	81.19
334.314	82.19
334.542	83.19
334.771	71.19
334.999	75.19
335.227	79.19
335.455	77.19
335.684	78.19
335.912	88.19
336.14	72.19
336.369	88.19
336.597	79.19
336.825	82.19
337.053	80.19
337.281	75.19
337.51	72.19
337.738	72.19
337.966	99.19
338.194	88.19
338.422	83.19
338.65	89.19
338.878	78.19
339.106	82.19
339.334	84.19
339.562	70.19
339.79	75.19
340.018	78.19
340.246	79.19
340.474	84.19
340.702	73.19
340.93	80.19
341.158	62.19
341.386	80.19
341.614	76.19
341.842	89.19
342.07	70.19
342.298	77.19
342.526	81.19
342.754	89.19
342.981	81.19
343.209	82.19
343.437	93.19
343.665	83.19
343.893	85.19
344.12	86.19
344.348	90.19
344.576	80.19
344.804	83.19
345.031	82.19
345.259	67.19
345.487	75.19
345.714	83.19
345.942	75.19
346.17	66.19
346.397	84.19
346.625	87.19
346.853	86.19
347.08	76.19
347.308	85.19
347.535	82.19
347.763	95.19
347.99	83.19
348.218	70.19
348.445	87.19
348.673	74.19
348.9	82.19
349.128	85.19
349.355	85.19
349.583	82.19
349.81	81.19
350.037	83.19
350.265	78.19
350.492	78.19
350.72	86.19
350.947	82.19
351.174	78.19
351.402	81.19
351.629	81.19
351.856	88.19
352.083	70.19
352.311	80.19
352.538	83.19
352.765	86.19
352.992	93.19
353.22	74.19
353.447	72.19
353.674	81.19
353.901	87.19
354.128	79.19
354.355	82.19
354.583	99.19
354.81	85.19
355.037	73.19
355.264	73.19
355.491	79.19
355.718	80.19
355.945	91.19
356.172	97.19
356.399	85.19
356.626	81.19
356.853	83.19
357.08	72.19
357.307	74.19
357.534	79.19
357.761	75.19
357.988	88.19
358.215	76.19
358.441	80.19
358.668	86.19
358.895	61.19
359.122	84.19
359.349	85.19
359.576	86.19
359.802	80.19
360.029	76.19
360.256	84.19
360.483	90.19
360.709	85.19
360.936	83.19
361.163	92.19
361.39	89.19
361.616	74.19
361.843	81.19
362.07	80.19
362.296	75.19
362.523	67.19
362.749	90.19
362.976	81.19
363.203	77.19
363.429	86.19
363.656	80.19
363.882	87.19
364.109	86.19
364.335	97.19
364.562	107.19
364.788	79.19
365.015	84.19
365.241	73.19
365.468	86.19
365.694	87.19
365.92	76.19
366.147	91.19
366.373	69.19
366.599	72.19
366.826	76.19
367.052	89.19
367.278	78.19
367.505	76.19
367.731	83.19
367.957	85.19
368.184	79.19
368.41	76.19
368.636	75.19
368.862	83.19
369.089	85.19
369.315	85.19
369.541	84.19
369.767	89.19
369.993	86.19
370.219	87.19
370.445	83.19
370.672	84.19
370.898	94.19
371.124	83.19
371.35	71.19
371.576	85.19
371.802	61.19
372.028	77.19
372.254	73.19
372.48	85.19
372.706	86.19
372.932	88.19
373.158	76.19
373.384	91.19
373.61	87.19
373.835	85.19
374.061	77.19
374.287	77.19
374.513	78.19
374.739	77.19
374.965	89.19
375.191	73.19
375.416	82.19
375.642	77.19
375.868	70.19
376.094	89.19
376.319	83.19
376.545	86.19
376.771	92.19
376.997	89.19
377.222	93.19
377.448	81.19
377.674	95.19
377.899	73.19
378.125	85.19
378.35	88.19
378.576	73.19
378.802	73.19
379.027	96.19
379.253	95.19
379.478	83.19
379.704	77.19
379.929	97.19
380.155	76.19
380.38	85.19
380.606	77.19
380.831	102.19
381.057	98.19
381.282	82.19
381.507	80.19
381.733	97.19
381.958	94.19
382.184	95.19
382.409	84.19
382.634	96.19
382.86	87.19
383.085	83.19
383.31	86.19
383.535	93.19
383.761	81.19
383.986	95.19
384.211	92.19
384.436	117.19
384.662	72.19
384.887	87.19
385.112	84.19
385.337	90.19
385.562	67.19
385.787	100.19
386.013	87.19
386.238	95.19
386.463	109.19
386.688	107.19
386.913	92.19
387.138	89.19
387.363	88.19
387.588	100.19
387.813	98.19
388.038	88.19
388.263	88.19
388.488	86.19
388.713	85.19
388.938	95.19
389.163	90.19
389.387	91.19
389.612	78.19
389.837	80.19
390.062	97.19
390.287	87.19
390.512	91.19
390.736	91.19
390.961	98.19
391.186	83.19
391.411	92.19
391.636	100.19
391.86	94.19
392.085	100.19
392.31	75.19
392.534	93.19
392.759	99.19
392.984	86.19
393.208	85.19
393.433	94.19
393.658	104.19
393.882	100.19
394.107	100.19
394.331	99.19
394.556	96.19
394.78	101.19
395.005	92.19
395.229	104.19
395.454	91.19
395.678	102.19
395.903	99.19
396.127	88.19
396.352	117.19
396.576	82.19
396.801	107.19
397.025	98.19
397.249	101.19
397.474	84.19
397.698	98.19
397.922	97.19
398.147	99.19
398.371	91.19
398.595	100.19
398.82	101.19
399.044	115.19
399.268	109.19
399.492	102.19
399.717	111.19
399.941	109.19
400.165	102.19
400.389	94.19
400.613	100.19
400.837	104.19
401.062	93.19
401.286	90.19
401.51	91.19
401.734	93.19
401.958	92.19
402.182	101.19
402.406	110.19
402.63	94.19
402.854	111.19
403.078	96.19
403.302	98.19
403.526	97.19
403.75	111.19
403.974	115.19
404.198	107.19
404.422	93.19
404.645	98.19
404.869	115.19
405.093	96.19
405.317	109.19
405.541	95.19
405.765	104.19
405.988	102.19
406.212	115.19
406.436	107.19
406.66	110.19
406.883	117.19
407.107	100.19
407.331	103.19
407.555	107.19
407.778	97.19
408.002	100.19
408.226	103.19
408.449	107.19
408.673	89.19
408.896	95.19
409.12	95.19
409.344	104.19
409.567	109.19
409.791	112.19
410.014	115.19
410.238	115.19
410.461	111.19
410.685	111.19
410.908	107.19
411.132	107.19
411.355	120.19
411.578	111.19
411.802	121.19
412.025	105.19
412.249	100.19
412.472	91.19
412.695	93.19
412.919	99.19
413.142	109.19
413.365	99.19
413.589	101.19
413.812	96.19
414.035	107.19
414.258	102.19
414.482	98.19
414.705	107.19
414.928	113.19
415.151	103.19
415.374	95.19
415.597	102.19
415.821	95.19
416.044	102.19
416.267	95.19
416.49	108.19
416.713	101.19
416.936	103.19
417.159	104.19
417.382	111.19
417.605	93.19
417.828	93.19
418.051	103.19
418.274	119.19
418.497	93.19
418.72	109.19
418.943	119.19
419.166	118.19
419.389	106.19
419.611	116.19
419.834	103.19
420.057	111.19
420.28	111.19
420.503	124.19
420.726	100.19
420.948	96.19
421.171	109.19
421.394	101.19
421.617	107.19
421.839	103.19
422.062	104.19
422.285	94.19
422.507	116.19
422.73	117.19
422.953	112.19
423.175	128.19
423.398	105.19
423.621	93.19
423.843	103.19
424.066	117.19
424.288	123.19
424.511	119.19
424.733	113.19
424.956	116.19
425.178	107.19
425.401	101.19
425.623	112.19
425.846	113.19
426.068	101.19
426.291	109.19
426.513	111.19
426.735	114.19
426.958	104.19
427.18	106.19
427.402	126.19
427.625	110.19
427.847	115.19
428.069	115.19
428.292	98.19
428.514	111.19
428.736	113.19
428.958	99.19
429.181	101.19
429.403	110.19
429.625	107.19
429.847	103.19
430.069	90.19
430.292	115.19
430.514	118.19
430.736	103.19
430.958	113.19
431.18	107.19
431.402	104.19
431.624	115.19
431.846	104.19
432.068	100.19
432.29	87.19
432.512	84.19
432.734	117.19
432.956	102.19
433.178	100.19
433.4	109.19
433.622	111.19
433.844	107.19
434.066	125.19
434.287	99.19
434.509	100.19
434.731	112.19
434.953	125.19
435.175	120.19
435.397	112.19
435.618	110.19
435.84	120.19
436.062	104.19
436.284	101.19
436.505	116.19
436.727	117.19
436.949	98.19
437.17	97.19
437.392	112.19
437.614	109.19
437.835	104.19
438.057	101.19
438.278	108.19
438.5	104.19
438.721	109.19
438.943	121.19
439.165	121.19
439.386	98.19
439.608	111.19
439.829	98.19
440.05	114.19
440.272	119.19
440.493	115.19
440.715	121.19
440.936	92.19
441.158	102.19
441.379	119.19
441.6	109.19
441.822	107.19
442.043	117.19
442.264	123.19
442.486	119.19
442.707	119.19
442.928	120.19
443.149	92.19
443.371	109.19
443.592	115.19
443.813	125.19
444.034	126.19
444.255	112.19
444.476	104.19
444.698	104.19
444.919	103.19
445.14	222.19
445.361	167.19
445.582	124.19
445.803	113.19
446.024	115.19
446.245	111.19
446.466	102.19
446.687	110.19
446.908	122.19
447.129	119.19
447.35	108.19
447.571	111.19
447.792	101.19
448.013	123.19
448.234	119.19
448.455	107.19
448.675	120.19
448.896	111.19
449.117	117.19
449.338	109.19
449.559	116.19
449.779	98.19
450	119.19
450.221	100.19
450.442	104.19
450.662	114.19
450.883	109.19
451.104	116.19
451.324	113.19
451.545	105.19
451.766	109.19
451.986	110.19
452.207	115.19
452.428	108.19
452.648	111.19
452.869	101.19
453.089	109.19
453.31	107.19
453.53	114.19
453.751	103.19
453.971	94.19
454.192	88.19
454.412	114.19
454.633	99.19
454.853	102.19
455.073	94.19
455.294	88.19
455.514	116.19
455.734	101.19
455.955	109.19
456.175	110.19
456.395	101.19
456.616	98.19
456.836	94.19
457.056	102.19
457.276	112.19
457.497	101.19
457.717	94.19
457.937	107.19
458.157	91.19
458.377	98.19
458.598	93.19
458.818	96.19
459.038	100.19
459.258	106.19
459.478	102.19
459.698	108.19
459.918	99.19
460.138	115.19
460.358	111.19
460.578	103.19
460.798	114.19
461.018	111.19
461.238	104.19
461.458	111.19
461.678	122.19
461.898	112.19
462.118	103.19
462.338	117.19
462.558	121.19
462.777	124.19
462.997	112.19
463.217	123.19
463.437	115.19
463.657	98.19
463.876	122.19
464.096	107.19
464.316	112.19
464.536	126.19
464.755	121.19
464.975	115.19
465.195	134.19
465.414	126.19
465.634	115.19
465.854	111.19
466.073	117.19
466.293	114.19
466.512	109.19
466.732	120.19
466.951	125.19
467.171	103.19
467.391	97.19
467.61	121.19
467.829	113.19
468.049	118.19
468.268	117.19
468.488	116.19
468.707	113.19
468.927	113.19
469.146	112.19
469.365	100.19
469.585	120.19
469.804	121.19
470.023	116.19
470.243	116.19
470.462	120.19
470.681	134.19
470.901	109.19
471.12	125.19
471.339	115.19
471.558	118.19
471.777	117.19
471.997	115.19
472.216	99.19
472.435	97.19
472.654	118.19
472.873	107.19
473.092	109.19
473.311	121.19
473.53	109.19
473.749	107.19
473.968	113.19
474.187	108.19
474.406	99.19
474.625	96.19
474.844	121.19
475.063	91.19
475.282	115.19
475.501	101.19
475.72	109.19
475.939	116.19
476.158	117.19
476.377	113.19
476.596	113.19
476.814	108.19
477.033	114.19
477.252	114.19
477.471	109.19
477.69	114.19
477.908	119.19
478.127	116.19
478.346	119.19
478.564	123.19
478.783	123.19
479.002	127.19
479.22	130.19
479.439	119.19
479.658	124.19
479.876	109.19
480.095	124.19
480.313	122.19
480.532	134.19
480.751	117.19
480.969	99.19
481.188	114.19
481.406	109.19
481.624	102.19
481.843	110.19
482.061	116.19
482.28	114.19
482.498	109.19
482.717	113.19
482.935	124.19
483.153	126.19
483.372	125.19
483.59	129.19
483.808	115.19
484.027	121.19
484.245	135.19
484.463	126.19
484.681	115.19
484.9	121.19
485.118	111.19
485.336	123.19
485.554	124.19
485.772	119.19
485.99	113.19
486.209	123.19
486.427	102.19
486.645	123.19
486.863	133.19
487.081	137.19
487.299	133.19
487.517	133.19
487.735	135.19
487.953	131.19
488.171	145.19
488.389	136.19
488.607	127.19
488.825	124.19
489.043	126.19
489.261	137.19
489.479	110.19
489.696	128.19
489.914	114.19
490.132	131.19
490.35	131.19
490.568	134.19
490.786	129.19
491.003	136.19
491.221	149.19
491.439	143.19
491.657	158.19
491.874	119.19
492.092	147.19
492.31	168.19
492.527	164.19
492.745	137.19
492.963	139.19
493.18	153.19
493.398	165.19
493.615	162.19
493.833	135.19
494.05	139.19
494.268	143.19
494.485	144.19
494.703	138.19
494.92	145.19
495.138	141.19
495.355	134.19
495.573	133.19
495.79	145.19
496.008	136.19
496.225	136.19
496.442	146.19
496.66	130.19
496.877	158.19
497.094	142.19
497.312	138.19
497.529	147.19
497.746	129.19
497.963	134.19
498.181	134.19
498.398	137.19
498.615	138.19
498.832	145.19
499.049	148.19
499.267	141.19
499.484	157.19
499.701	175.19
499.918	164.19
500.135	181.19
500.352	204.19
500.569	219.19
500.786	215.19
501.003	185.19
501.22	180.19
501.437	174.19
501.654	158.19
501.871	163.19
502.088	159.19
502.305	152.19
502.522	140.19
502.739	125.19
502.956	131.19
503.172	124.19
503.389	127.19
503.606	146.19
503.823	146.19
504.04	144.19
504.256	144.19
504.473	121.19
504.69	133.19
504.907	138.19
505.123	124.19
505.34	132.19
505.557	122.19
505.773	125.19
505.99	124.19
506.207	134.19
506.423	112.19
506.64	125.19
506.856	127.19
507.073	133.19
507.289	129.19
507.506	135.19
507.722	128.19
507.939	119.19
508.155	136.19
508.372	126.19
508.588	127.19
508.805	114.19
509.021	121.19
509.238	124.19
509.454	104.19
509.67	121.19
509.887	110.19
510.103	124.19
510.319	125.19
510.536	117.19
510.752	100.19
510.968	110.19
511.184	106.19
511.401	107.19
511.617	113.19
511.833	104.19
512.049	99.19
512.265	102.19
512.481	111.19
