Data from StandardFe(NO3)3.TAE.3%Agarose.FlatLispGreen.Lamp.Energy10.07252019_HRD10591_11-56-10-442.txt Node
Date: Thu Jul 25 11:56:10 EDT 2019
User: cochatt
Spectrometer: HR+D1059
Trigger mode: 1
Integration Time (sec): 1.000000E-1
Scans to average: 1
Electric dark correction enabled: true
Nonlinearity correction enabled: false
Boxcar width: 0
XAxis mode: Wavelengths
Number of Pixels in Spectrum: 2048
>>>>>Begin Spectral Data<<<<<
223.165	-15.38
223.4	-15.38
223.635	-15.38
223.869	-16.38
224.104	-18.38
224.338	-15.38
224.573	-17.38
224.808	-12.38
225.042	-3.38
225.277	-4.38
225.511	3.62
225.746	5.62
225.98	7.62
226.215	-3.38
226.449	10.62
226.683	26.62
226.918	34.62
227.152	17.62
227.387	35.62
227.621	41.62
227.856	34.62
228.09	44.62
228.324	62.62
228.559	46.62
228.793	56.62
229.027	63.62
229.262	53.62
229.496	58.62
229.73	48.62
229.964	64.62
230.199	66.62
230.433	77.62
230.667	88.62
230.901	75.62
231.136	68.62
231.37	74.62
231.604	77.62
231.838	68.62
232.072	67.62
232.306	74.62
232.541	82.62
232.775	78.62
233.009	80.62
233.243	82.62
233.477	73.62
233.711	82.62
233.945	80.62
234.179	80.62
234.413	75.62
234.647	86.62
234.881	76.62
235.115	65.62
235.349	79.62
235.583	72.62
235.817	76.62
236.051	69.62
236.285	64.62
236.519	76.62
236.753	75.62
236.987	66.62
237.221	85.62
237.455	61.62
237.689	64.62
237.922	66.62
238.156	73.62
238.39	77.62
238.624	65.62
238.858	69.62
239.091	78.62
239.325	66.62
239.559	70.62
239.793	72.62
240.027	77.62
240.26	72.62
240.494	64.62
240.728	84.62
240.961	70.62
241.195	73.62
241.429	69.62
241.662	79.62
241.896	68.62
242.13	71.62
242.363	72.62
242.597	79.62
242.83	76.62
243.064	64.62
243.298	81.62
243.531	76.62
243.765	72.62
243.998	78.62
244.232	68.62
244.465	68.62
244.699	76.62
244.932	79.62
245.166	71.62
245.399	62.62
245.633	81.62
245.866	78.62
246.099	65.62
246.333	70.62
246.566	71.62
246.8	73.62
247.033	84.62
247.266	78.62
247.5	74.62
247.733	72.62
247.966	73.62
248.2	71.62
248.433	67.62
248.666	69.62
248.899	88.62
249.133	75.62
249.366	82.62
249.599	68.62
249.832	64.62
250.066	71.62
250.299	84.62
250.532	82.62
250.765	82.62
250.998	74.62
251.231	81.62
251.465	67.62
251.698	73.62
251.931	87.62
252.164	77.62
252.397	69.62
252.63	80.62
252.863	71.62
253.096	83.62
253.329	72.62
253.562	69.62
253.795	65.62
254.028	72.62
254.261	75.62
254.494	78.62
254.727	70.62
254.96	65.62
255.193	77.62
255.426	87.62
255.659	87.62
255.892	81.62
256.124	78.62
256.357	72.62
256.59	81.62
256.823	66.62
257.056	77.62
257.289	78.62
257.521	87.62
257.754	89.62
257.987	72.62
258.22	86.62
258.452	81.62
258.685	84.62
258.918	72.62
259.151	81.62
259.383	76.62
259.616	81.62
259.849	80.62
260.081	67.62
260.314	71.62
260.547	69.62
260.779	66.62
261.012	71.62
261.244	85.62
261.477	84.62
261.71	77.62
261.942	74.62
262.175	80.62
262.407	82.62
262.64	73.62
262.872	74.62
263.105	68.62
263.337	89.62
263.57	85.62
263.802	74.62
264.035	78.62
264.267	82.62
264.499	75.62
264.732	78.62
264.964	77.62
265.197	83.62
265.429	84.62
265.661	78.62
265.894	83.62
266.126	79.62
266.358	72.62
266.591	78.62
266.823	74.62
267.055	88.62
267.287	81.62
267.52	74.62
267.752	73.62
267.984	72.62
268.216	87.62
268.448	75.62
268.681	64.62
268.913	95.62
269.145	81.62
269.377	66.62
269.609	75.62
269.841	60.62
270.073	95.62
270.306	75.62
270.538	79.62
270.77	82.62
271.002	72.62
271.234	64.62
271.466	85.62
271.698	80.62
271.93	84.62
272.162	68.62
272.394	68.62
272.626	86.62
272.858	76.62
273.09	86.62
273.322	78.62
273.553	66.62
273.785	69.62
274.017	80.62
274.249	91.62
274.481	80.62
274.713	74.62
274.945	65.62
275.176	82.62
275.408	91.62
275.64	70.62
275.872	80.62
276.104	78.62
276.335	81.62
276.567	83.62
276.799	80.62
277.031	76.62
277.262	78.62
277.494	81.62
277.726	99.62
277.957	88.62
278.189	86.62
278.421	85.62
278.652	96.62
278.884	81.62
279.115	75.62
279.347	71.62
279.579	73.62
279.81	76.62
280.042	85.62
280.273	90.62
280.505	82.62
280.736	75.62
280.968	101.62
281.199	81.62
281.431	81.62
281.662	84.62
281.894	71.62
282.125	77.62
282.356	85.62
282.588	80.62
282.819	84.62
283.051	76.62
283.282	57.62
283.513	88.62
283.745	81.62
283.976	79.62
284.207	78.62
284.439	71.62
284.67	82.62
284.901	86.62
285.132	75.62
285.364	76.62
285.595	78.62
285.826	88.62
286.057	76.62
286.288	81.62
286.52	73.62
286.751	81.62
286.982	74.62
287.213	75.62
287.444	80.62
287.675	81.62
287.906	74.62
288.138	73.62
288.369	79.62
288.6	74.62
288.831	83.62
289.062	76.62
289.293	86.62
289.524	82.62
289.755	78.62
289.986	80.62
290.217	85.62
290.448	77.62
290.679	78.62
290.91	90.62
291.141	68.62
291.371	77.62
291.602	84.62
291.833	86.62
292.064	70.62
292.295	84.62
292.526	89.62
292.757	82.62
292.987	89.62
293.218	77.62
293.449	72.62
293.68	72.62
293.91	84.62
294.141	97.62
294.372	76.62
294.603	85.62
294.833	90.62
295.064	89.62
295.295	78.62
295.525	81.62
295.756	85.62
295.987	82.62
296.217	84.62
296.448	87.62
296.679	86.62
296.909	84.62
297.14	70.62
297.37	80.62
297.601	88.62
297.831	85.62
298.062	89.62
298.292	82.62
298.523	74.62
298.753	86.62
298.984	81.62
299.214	84.62
299.445	82.62
299.675	88.62
299.905	79.62
300.136	83.62
300.366	79.62
300.597	83.62
300.827	84.62
301.057	72.62
301.288	81.62
301.518	76.62
301.748	78.62
301.979	72.62
302.209	85.62
302.439	64.62
302.669	84.62
302.9	66.62
303.13	69.62
303.36	90.62
303.59	78.62
303.82	72.62
304.051	86.62
304.281	82.62
304.511	90.62
304.741	83.62
304.971	91.62
305.201	92.62
305.431	82.62
305.661	74.62
305.891	69.62
306.121	94.62
306.352	80.62
306.582	71.62
306.812	85.62
307.042	88.62
307.272	74.62
307.502	73.62
307.731	67.62
307.961	67.62
308.191	75.62
308.421	77.62
308.651	85.62
308.881	69.62
309.111	86.62
309.341	94.62
309.571	72.62
309.8	74.62
310.03	78.62
310.26	96.62
310.49	88.62
310.72	87.62
310.949	87.62
311.179	74.62
311.409	77.62
311.639	76.62
311.868	80.62
312.098	82.62
312.328	86.62
312.557	81.62
312.787	76.62
313.017	93.62
313.246	89.62
313.476	88.62
313.706	81.62
313.935	87.62
314.165	65.62
314.394	88.62
314.624	81.62
314.853	77.62
315.083	90.62
315.312	89.62
315.542	58.62
315.771	100.62
316.001	81.62
316.23	85.62
316.46	76.62
316.689	81.62
316.919	76.62
317.148	82.62
317.377	90.62
317.607	73.62
317.836	87.62
318.065	85.62
318.295	72.62
318.524	80.62
318.753	85.62
318.983	76.62
319.212	90.62
319.441	95.62
319.67	83.62
319.9	81.62
320.129	85.62
320.358	79.62
320.587	82.62
320.816	88.62
321.046	94.62
321.275	89.62
321.504	66.62
321.733	78.62
321.962	84.62
322.191	88.62
322.42	73.62
322.649	96.62
322.878	89.62
323.108	97.62
323.337	76.62
323.566	78.62
323.795	75.62
324.024	93.62
324.253	68.62
324.482	69.62
324.71	66.62
324.939	78.62
325.168	72.62
325.397	80.62
325.626	78.62
325.855	79.62
326.084	97.62
326.313	84.62
326.542	88.62
326.77	84.62
326.999	87.62
327.228	85.62
327.457	67.62
327.686	79.62
327.914	96.62
328.143	84.62
328.372	84.62
328.6	89.62
328.829	86.62
329.058	82.62
329.287	77.62
329.515	92.62
329.744	80.62
329.972	54.62
330.201	80.62
330.43	89.62
330.658	63.62
330.887	70.62
331.115	88.62
331.344	76.62
331.572	72.62
331.801	76.62
332.03	68.62
332.258	89.62
332.486	93.62
332.715	92.62
332.943	84.62
333.172	78.62
333.4	91.62
333.629	81.62
333.857	88.62
334.085	76.62
334.314	88.62
334.542	84.62
334.771	86.62
334.999	88.62
335.227	80.62
335.455	80.62
335.684	80.62
335.912	87.62
336.14	79.62
336.369	83.62
336.597	78.62
336.825	94.62
337.053	85.62
337.281	93.62
337.51	74.62
337.738	86.62
337.966	71.62
338.194	76.62
338.422	74.62
338.65	81.62
338.878	84.62
339.106	91.62
339.334	90.62
339.562	84.62
339.79	72.62
340.018	87.62
340.246	81.62
340.474	92.62
340.702	75.62
340.93	83.62
341.158	63.62
341.386	73.62
341.614	78.62
341.842	72.62
342.07	66.62
342.298	69.62
342.526	81.62
342.754	86.62
342.981	67.62
343.209	73.62
343.437	85.62
343.665	77.62
343.893	95.62
344.12	89.62
344.348	86.62
344.576	88.62
344.804	92.62
345.031	89.62
345.259	99.62
345.487	92.62
345.714	87.62
345.942	93.62
346.17	79.62
346.397	82.62
346.625	79.62
346.853	75.62
347.08	73.62
347.308	78.62
347.535	76.62
347.763	68.62
347.99	88.62
348.218	99.62
348.445	92.62
348.673	84.62
348.9	84.62
349.128	82.62
349.355	84.62
349.583	83.62
349.81	74.62
350.037	78.62
350.265	80.62
350.492	73.62
350.72	75.62
350.947	86.62
351.174	76.62
351.402	80.62
351.629	96.62
351.856	89.62
352.083	90.62
352.311	87.62
352.538	84.62
352.765	75.62
352.992	85.62
353.22	93.62
353.447	88.62
353.674	82.62
353.901	95.62
354.128	80.62
354.355	69.62
354.583	71.62
354.81	79.62
355.037	65.62
355.264	88.62
355.491	86.62
355.718	93.62
355.945	87.62
356.172	73.62
356.399	71.62
356.626	83.62
356.853	80.62
357.08	92.62
357.307	82.62
357.534	71.62
357.761	80.62
357.988	80.62
358.215	96.62
358.441	88.62
358.668	84.62
358.895	95.62
359.122	85.62
359.349	84.62
359.576	80.62
359.802	82.62
360.029	77.62
360.256	85.62
360.483	83.62
360.709	85.62
360.936	82.62
361.163	81.62
361.39	89.62
361.616	75.62
361.843	91.62
362.07	83.62
362.296	82.62
362.523	80.62
362.749	85.62
362.976	83.62
363.203	91.62
363.429	86.62
363.656	101.62
363.882	65.62
364.109	78.62
364.335	71.62
364.562	81.62
364.788	86.62
365.015	80.62
365.241	74.62
365.468	81.62
365.694	77.62
365.92	85.62
366.147	81.62
366.373	83.62
366.599	73.62
366.826	76.62
367.052	72.62
367.278	84.62
367.505	78.62
367.731	69.62
367.957	82.62
368.184	90.62
368.41	83.62
368.636	91.62
368.862	80.62
369.089	84.62
369.315	84.62
369.541	75.62
369.767	98.62
369.993	72.62
370.219	81.62
370.445	74.62
370.672	93.62
370.898	78.62
371.124	71.62
371.35	85.62
371.576	90.62
371.802	92.62
372.028	86.62
372.254	88.62
372.48	100.62
372.706	87.62
372.932	91.62
373.158	85.62
373.384	88.62
373.61	93.62
373.835	78.62
374.061	89.62
374.287	81.62
374.513	66.62
374.739	76.62
374.965	88.62
375.191	77.62
375.416	88.62
375.642	97.62
375.868	88.62
376.094	88.62
376.319	93.62
376.545	76.62
376.771	89.62
376.997	92.62
377.222	93.62
377.448	86.62
377.674	76.62
377.899	72.62
378.125	88.62
378.35	101.62
378.576	90.62
378.802	75.62
379.027	82.62
379.253	98.62
379.478	80.62
379.704	83.62
379.929	90.62
380.155	76.62
380.38	70.62
380.606	86.62
380.831	80.62
381.057	102.62
381.282	98.62
381.507	82.62
381.733	78.62
381.958	92.62
382.184	100.62
382.409	91.62
382.634	91.62
382.86	97.62
383.085	74.62
383.31	102.62
383.535	98.62
383.761	73.62
383.986	106.62
384.211	73.62
384.436	82.62
384.662	85.62
384.887	91.62
385.112	97.62
385.337	95.62
385.562	85.62
385.787	82.62
386.013	99.62
386.238	88.62
386.463	106.62
386.688	90.62
386.913	81.62
387.138	89.62
387.363	96.62
387.588	97.62
387.813	95.62
388.038	93.62
388.263	87.62
388.488	85.62
388.713	98.62
388.938	85.62
389.163	83.62
389.387	101.62
389.612	88.62
389.837	84.62
390.062	92.62
390.287	95.62
390.512	104.62
390.736	85.62
390.961	89.62
391.186	93.62
391.411	79.62
391.636	103.62
391.86	96.62
392.085	83.62
392.31	91.62
392.534	94.62
392.759	91.62
392.984	94.62
393.208	91.62
393.433	99.62
393.658	88.62
393.882	90.62
394.107	88.62
394.331	86.62
394.556	83.62
394.78	95.62
395.005	87.62
395.229	89.62
395.454	97.62
395.678	94.62
395.903	98.62
396.127	98.62
396.352	97.62
396.576	87.62
396.801	86.62
397.025	100.62
397.249	83.62
397.474	97.62
397.698	93.62
397.922	107.62
398.147	88.62
398.371	95.62
398.595	99.62
398.82	104.62
399.044	128.62
399.268	93.62
399.492	102.62
399.717	113.62
399.941	109.62
400.165	103.62
400.389	90.62
400.613	78.62
400.837	95.62
401.062	99.62
401.286	108.62
401.51	120.62
401.734	118.62
401.958	96.62
402.182	106.62
402.406	100.62
402.63	101.62
402.854	118.62
403.078	101.62
403.302	105.62
403.526	102.62
403.75	99.62
403.974	99.62
404.198	116.62
404.422	104.62
404.645	120.62
404.869	116.62
405.093	108.62
405.317	113.62
405.541	108.62
405.765	113.62
405.988	109.62
406.212	105.62
406.436	93.62
406.66	109.62
406.883	98.62
407.107	115.62
407.331	120.62
407.555	116.62
407.778	106.62
408.002	115.62
408.226	104.62
408.449	94.62
408.673	97.62
408.896	107.62
409.12	111.62
409.344	114.62
409.567	114.62
409.791	119.62
410.014	101.62
410.238	105.62
410.461	105.62
410.685	125.62
410.908	98.62
411.132	126.62
411.355	100.62
411.578	99.62
411.802	91.62
412.025	103.62
412.249	105.62
412.472	115.62
412.695	102.62
412.919	108.62
413.142	110.62
413.365	109.62
413.589	107.62
413.812	117.62
414.035	102.62
414.258	97.62
414.482	100.62
414.705	103.62
414.928	104.62
415.151	121.62
415.374	112.62
415.597	103.62
415.821	100.62
416.044	111.62
416.267	95.62
416.49	126.62
416.713	115.62
416.936	111.62
417.159	103.62
417.382	105.62
417.605	98.62
417.828	112.62
418.051	110.62
418.274	120.62
418.497	122.62
418.72	115.62
418.943	95.62
419.166	118.62
419.389	95.62
419.611	110.62
419.834	108.62
420.057	94.62
420.28	108.62
420.503	120.62
420.726	110.62
420.948	118.62
421.171	116.62
421.394	108.62
421.617	110.62
421.839	113.62
422.062	109.62
422.285	96.62
422.507	99.62
422.73	109.62
422.953	101.62
423.175	112.62
423.398	116.62
423.621	112.62
423.843	109.62
424.066	113.62
424.288	118.62
424.511	116.62
424.733	121.62
424.956	114.62
425.178	122.62
425.401	124.62
425.623	104.62
425.846	92.62
426.068	106.62
426.291	102.62
426.513	98.62
426.735	98.62
426.958	119.62
427.18	112.62
427.402	105.62
427.625	104.62
427.847	96.62
428.069	115.62
428.292	112.62
428.514	102.62
428.736	110.62
428.958	105.62
429.181	99.62
429.403	105.62
429.625	99.62
429.847	115.62
430.069	99.62
430.292	110.62
430.514	117.62
430.736	116.62
430.958	117.62
431.18	105.62
431.402	98.62
431.624	97.62
431.846	98.62
432.068	103.62
432.29	98.62
432.512	110.62
432.734	93.62
432.956	109.62
433.178	129.62
433.4	113.62
433.622	121.62
433.844	103.62
434.066	99.62
434.287	98.62
434.509	116.62
434.731	100.62
434.953	100.62
435.175	109.62
435.397	102.62
435.618	92.62
435.84	103.62
436.062	98.62
436.284	102.62
436.505	103.62
436.727	98.62
436.949	108.62
437.17	103.62
437.392	113.62
437.614	110.62
437.835	114.62
438.057	111.62
438.278	92.62
438.5	108.62
438.721	99.62
438.943	125.62
439.165	101.62
439.386	110.62
439.608	83.62
439.829	108.62
440.05	94.62
440.272	110.62
440.493	123.62
440.715	117.62
440.936	106.62
441.158	120.62
441.379	120.62
441.6	121.62
441.822	120.62
442.043	117.62
442.264	111.62
442.486	112.62
442.707	119.62
442.928	115.62
443.149	113.62
443.371	122.62
443.592	101.62
443.813	110.62
444.034	115.62
444.255	131.62
444.476	115.62
444.698	134.62
444.919	121.62
445.14	250.62
445.361	167.62
445.582	119.62
445.803	114.62
446.024	124.62
446.245	124.62
446.466	121.62
446.687	107.62
446.908	110.62
447.129	117.62
447.35	103.62
447.571	110.62
447.792	100.62
448.013	113.62
448.234	118.62
448.455	104.62
448.675	127.62
448.896	122.62
449.117	102.62
449.338	100.62
449.559	103.62
449.779	96.62
450	110.62
450.221	119.62
450.442	107.62
450.662	96.62
450.883	105.62
451.104	99.62
451.324	109.62
451.545	90.62
451.766	105.62
451.986	115.62
452.207	110.62
452.428	96.62
452.648	102.62
452.869	115.62
453.089	108.62
453.31	104.62
453.53	103.62
453.751	90.62
453.971	99.62
454.192	96.62
454.412	94.62
454.633	101.62
454.853	108.62
455.073	114.62
455.294	102.62
455.514	89.62
455.734	104.62
455.955	108.62
456.175	97.62
456.395	100.62
456.616	96.62
456.836	88.62
457.056	81.62
457.276	102.62
457.497	104.62
457.717	94.62
457.937	104.62
458.157	92.62
458.377	99.62
458.598	110.62
458.818	90.62
459.038	104.62
459.258	101.62
459.478	96.62
459.698	107.62
459.918	97.62
460.138	108.62
460.358	126.62
460.578	100.62
460.798	124.62
461.018	115.62
461.238	105.62
461.458	117.62
461.678	112.62
461.898	104.62
462.118	118.62
462.338	102.62
462.558	111.62
462.777	116.62
462.997	108.62
463.217	114.62
463.437	116.62
463.657	108.62
463.876	105.62
464.096	118.62
464.316	117.62
464.536	111.62
464.755	112.62
464.975	121.62
465.195	104.62
465.414	124.62
465.634	101.62
465.854	115.62
466.073	122.62
466.293	110.62
466.512	122.62
466.732	110.62
466.951	120.62
467.171	118.62
467.391	105.62
467.61	108.62
467.829	110.62
468.049	110.62
468.268	104.62
468.488	96.62
468.707	124.62
468.927	112.62
469.146	110.62
469.365	110.62
469.585	125.62
469.804	101.62
470.023	99.62
470.243	111.62
470.462	101.62
470.681	114.62
470.901	114.62
471.12	126.62
471.339	120.62
471.558	111.62
471.777	118.62
471.997	120.62
472.216	100.62
472.435	110.62
472.654	100.62
472.873	118.62
473.092	95.62
473.311	104.62
473.53	118.62
473.749	111.62
473.968	108.62
474.187	105.62
474.406	96.62
474.625	116.62
474.844	110.62
475.063	103.62
475.282	110.62
475.501	106.62
475.72	107.62
475.939	112.62
476.158	109.62
476.377	111.62
476.596	110.62
476.814	109.62
477.033	103.62
477.252	114.62
477.471	114.62
477.69	109.62
477.908	117.62
478.127	134.62
478.346	118.62
478.564	130.62
478.783	112.62
479.002	113.62
479.22	105.62
479.439	114.62
479.658	105.62
479.876	124.62
480.095	105.62
480.313	114.62
480.532	108.62
480.751	128.62
480.969	120.62
481.188	116.62
481.406	109.62
481.624	102.62
481.843	110.62
482.061	102.62
482.28	114.62
482.498	115.62
482.717	115.62
482.935	108.62
483.153	134.62
483.372	129.62
483.59	110.62
483.808	112.62
484.027	116.62
484.245	132.62
484.463	126.62
484.681	139.62
484.9	121.62
485.118	126.62
485.336	113.62
485.554	128.62
485.772	111.62
485.99	119.62
486.209	121.62
486.427	125.62
486.645	124.62
486.863	124.62
487.081	130.62
487.299	120.62
487.517	118.62
487.735	128.62
487.953	124.62
488.171	143.62
488.389	147.62
488.607	109.62
488.825	109.62
489.043	133.62
489.261	125.62
489.479	136.62
489.696	133.62
489.914	128.62
490.132	128.62
490.35	129.62
490.568	136.62
490.786	140.62
491.003	147.62
491.221	145.62
491.439	143.62
491.657	124.62
491.874	150.62
492.092	156.62
492.31	164.62
492.527	157.62
492.745	147.62
492.963	132.62
493.18	144.62
493.398	150.62
493.615	149.62
493.833	142.62
494.05	134.62
494.268	129.62
494.485	159.62
494.703	147.62
494.92	154.62
495.138	145.62
495.355	141.62
495.573	146.62
495.79	137.62
496.008	126.62
496.225	143.62
496.442	149.62
496.66	160.62
496.877	144.62
497.094	141.62
497.312	135.62
497.529	130.62
497.746	136.62
497.963	136.62
498.181	128.62
498.398	140.62
498.615	149.62
498.832	145.62
499.049	154.62
499.267	148.62
499.484	157.62
499.701	167.62
499.918	176.62
500.135	190.62
500.352	202.62
500.569	188.62
500.786	224.62
501.003	193.62
501.22	200.62
501.437	177.62
501.654	150.62
501.871	157.62
502.088	154.62
502.305	145.62
502.522	144.62
502.739	143.62
502.956	132.62
503.172	130.62
503.389	125.62
503.606	138.62
503.823	135.62
504.04	131.62
504.256	125.62
504.473	136.62
504.69	125.62
504.907	124.62
505.123	140.62
505.34	131.62
505.557	116.62
505.773	116.62
505.99	123.62
506.207	124.62
506.423	121.62
506.64	138.62
506.856	115.62
507.073	112.62
507.289	103.62
507.506	110.62
507.722	120.62
507.939	117.62
508.155	111.62
508.372	128.62
508.588	116.62
508.805	106.62
509.021	105.62
509.238	108.62
509.454	114.62
509.67	110.62
509.887	101.62
510.103	112.62
510.319	104.62
510.536	123.62
510.752	103.62
510.968	116.62
511.184	94.62
511.401	94.62
511.617	116.62
511.833	111.62
512.049	117.62
512.265	127.62
512.481	97.62
512.698	95.62
