Data from StandardFe(NO3)3.TAE.3%Agarose.FlatLispGreen.Lamp.Energy10.07252019_HRD10591_11-56-32-442.txt Node
Date: Thu Jul 25 11:56:32 EDT 2019
User: cochatt
Spectrometer: HR+D1059
Trigger mode: 1
Integration Time (sec): 1.000000E-1
Scans to average: 1
Electric dark correction enabled: true
Nonlinearity correction enabled: false
Boxcar width: 0
XAxis mode: Wavelengths
Number of Pixels in Spectrum: 2048
>>>>>Begin Spectral Data<<<<<
223.165	-14.75
223.4	-14.75
223.635	-14.75
223.869	-14.75
224.104	-17.75
224.338	-21.75
224.573	-15.75
224.808	-8.75
225.042	-5.75
225.277	-14.75
225.511	8.25
225.746	5.25
225.98	13.25
226.215	17.25
226.449	5.25
226.683	31.25
226.918	17.25
227.152	16.25
227.387	25.25
227.621	38.25
227.856	50.25
228.09	47.25
228.324	42.25
228.559	50.25
228.793	48.25
229.027	59.25
229.262	59.25
229.496	68.25
229.73	81.25
229.964	80.25
230.199	67.25
230.433	71.25
230.667	75.25
230.901	74.25
231.136	91.25
231.37	75.25
231.604	77.25
231.838	79.25
232.072	88.25
232.306	81.25
232.541	80.25
232.775	74.25
233.009	74.25
233.243	76.25
233.477	83.25
233.711	72.25
233.945	97.25
234.179	86.25
234.413	85.25
234.647	89.25
234.881	77.25
235.115	74.25
235.349	66.25
235.583	68.25
235.817	78.25
236.051	63.25
236.285	71.25
236.519	75.25
236.753	88.25
236.987	82.25
237.221	74.25
237.455	78.25
237.689	76.25
237.922	69.25
238.156	69.25
238.39	68.25
238.624	73.25
238.858	85.25
239.091	91.25
239.325	70.25
239.559	69.25
239.793	73.25
240.027	73.25
240.26	69.25
240.494	80.25
240.728	66.25
240.961	73.25
241.195	70.25
241.429	74.25
241.662	86.25
241.896	67.25
242.13	73.25
242.363	77.25
242.597	73.25
242.83	88.25
243.064	75.25
243.298	76.25
243.531	75.25
243.765	79.25
243.998	82.25
244.232	70.25
244.465	67.25
244.699	74.25
244.932	78.25
245.166	76.25
245.399	80.25
245.633	71.25
245.866	77.25
246.099	82.25
246.333	83.25
246.566	86.25
246.8	74.25
247.033	62.25
247.266	71.25
247.5	89.25
247.733	73.25
247.966	80.25
248.2	77.25
248.433	84.25
248.666	82.25
248.899	73.25
249.133	63.25
249.366	82.25
249.599	78.25
249.832	73.25
250.066	86.25
250.299	81.25
250.532	75.25
250.765	78.25
250.998	80.25
251.231	86.25
251.465	81.25
251.698	85.25
251.931	81.25
252.164	87.25
252.397	77.25
252.63	88.25
252.863	81.25
253.096	70.25
253.329	81.25
253.562	75.25
253.795	82.25
254.028	87.25
254.261	74.25
254.494	76.25
254.727	77.25
254.96	74.25
255.193	77.25
255.426	66.25
255.659	91.25
255.892	74.25
256.124	79.25
256.357	59.25
256.59	78.25
256.823	82.25
257.056	73.25
257.289	93.25
257.521	73.25
257.754	74.25
257.987	71.25
258.22	72.25
258.452	69.25
258.685	77.25
258.918	91.25
259.151	77.25
259.383	85.25
259.616	70.25
259.849	66.25
260.081	80.25
260.314	90.25
260.547	94.25
260.779	89.25
261.012	86.25
261.244	85.25
261.477	100.25
261.71	93.25
261.942	73.25
262.175	82.25
262.407	70.25
262.64	80.25
262.872	80.25
263.105	79.25
263.337	87.25
263.57	52.25
263.802	92.25
264.035	83.25
264.267	79.25
264.499	93.25
264.732	87.25
264.964	94.25
265.197	84.25
265.429	103.25
265.661	81.25
265.894	79.25
266.126	70.25
266.358	75.25
266.591	68.25
266.823	82.25
267.055	83.25
267.287	81.25
267.52	89.25
267.752	78.25
267.984	78.25
268.216	78.25
268.448	83.25
268.681	79.25
268.913	66.25
269.145	77.25
269.377	72.25
269.609	97.25
269.841	99.25
270.073	94.25
270.306	77.25
270.538	86.25
270.77	76.25
271.002	81.25
271.234	88.25
271.466	81.25
271.698	70.25
271.93	83.25
272.162	79.25
272.394	81.25
272.626	94.25
272.858	95.25
273.09	92.25
273.322	71.25
273.553	74.25
273.785	81.25
274.017	82.25
274.249	83.25
274.481	80.25
274.713	79.25
274.945	80.25
275.176	79.25
275.408	81.25
275.64	89.25
275.872	66.25
276.104	78.25
276.335	66.25
276.567	80.25
276.799	82.25
277.031	81.25
277.262	81.25
277.494	82.25
277.726	98.25
277.957	59.25
278.189	77.25
278.421	95.25
278.652	88.25
278.884	85.25
279.115	77.25
279.347	83.25
279.579	93.25
279.81	93.25
280.042	79.25
280.273	78.25
280.505	85.25
280.736	84.25
280.968	77.25
281.199	75.25
281.431	76.25
281.662	78.25
281.894	80.25
282.125	87.25
282.356	72.25
282.588	87.25
282.819	64.25
283.051	73.25
283.282	79.25
283.513	80.25
283.745	96.25
283.976	94.25
284.207	85.25
284.439	79.25
284.67	79.25
284.901	70.25
285.132	81.25
285.364	94.25
285.595	75.25
285.826	100.25
286.057	84.25
286.288	90.25
286.52	96.25
286.751	95.25
286.982	73.25
287.213	69.25
287.444	79.25
287.675	70.25
287.906	84.25
288.138	82.25
288.369	69.25
288.6	85.25
288.831	86.25
289.062	105.25
289.293	80.25
289.524	85.25
289.755	84.25
289.986	70.25
290.217	80.25
290.448	81.25
290.679	81.25
290.91	85.25
291.141	79.25
291.371	74.25
291.602	72.25
291.833	82.25
292.064	94.25
292.295	85.25
292.526	81.25
292.757	77.25
292.987	79.25
293.218	90.25
293.449	86.25
293.68	79.25
293.91	88.25
294.141	88.25
294.372	69.25
294.603	91.25
294.833	78.25
295.064	83.25
295.295	68.25
295.525	80.25
295.756	87.25
295.987	87.25
296.217	87.25
296.448	85.25
296.679	89.25
296.909	84.25
297.14	80.25
297.37	89.25
297.601	80.25
297.831	82.25
298.062	89.25
298.292	89.25
298.523	82.25
298.753	71.25
298.984	75.25
299.214	64.25
299.445	83.25
299.675	81.25
299.905	87.25
300.136	79.25
300.366	81.25
300.597	68.25
300.827	82.25
301.057	74.25
301.288	70.25
301.518	81.25
301.748	68.25
301.979	83.25
302.209	79.25
302.439	74.25
302.669	78.25
302.9	77.25
303.13	77.25
303.36	95.25
303.59	89.25
303.82	82.25
304.051	98.25
304.281	96.25
304.511	93.25
304.741	92.25
304.971	69.25
305.201	66.25
305.431	85.25
305.661	75.25
305.891	75.25
306.121	94.25
306.352	72.25
306.582	81.25
306.812	75.25
307.042	67.25
307.272	78.25
307.502	82.25
307.731	82.25
307.961	97.25
308.191	79.25
308.421	75.25
308.651	106.25
308.881	82.25
309.111	88.25
309.341	71.25
309.571	87.25
309.8	82.25
310.03	78.25
310.26	78.25
310.49	79.25
310.72	82.25
310.949	72.25
311.179	83.25
311.409	73.25
311.639	77.25
311.868	77.25
312.098	88.25
312.328	78.25
312.557	88.25
312.787	89.25
313.017	82.25
313.246	89.25
313.476	72.25
313.706	80.25
313.935	81.25
314.165	89.25
314.394	81.25
314.624	85.25
314.853	75.25
315.083	68.25
315.312	87.25
315.542	76.25
315.771	82.25
316.001	85.25
316.23	83.25
316.46	80.25
316.689	80.25
316.919	78.25
317.148	94.25
317.377	84.25
317.607	70.25
317.836	79.25
318.065	81.25
318.295	82.25
318.524	91.25
318.753	89.25
318.983	79.25
319.212	79.25
319.441	86.25
319.67	80.25
319.9	73.25
320.129	86.25
320.358	88.25
320.587	92.25
320.816	90.25
321.046	93.25
321.275	98.25
321.504	81.25
321.733	83.25
321.962	78.25
322.191	87.25
322.42	92.25
322.649	87.25
322.878	88.25
323.108	84.25
323.337	89.25
323.566	83.25
323.795	78.25
324.024	81.25
324.253	89.25
324.482	74.25
324.71	84.25
324.939	86.25
325.168	79.25
325.397	84.25
325.626	98.25
325.855	89.25
326.084	83.25
326.313	84.25
326.542	67.25
326.77	95.25
326.999	98.25
327.228	70.25
327.457	84.25
327.686	85.25
327.914	73.25
328.143	83.25
328.372	83.25
328.6	85.25
328.829	75.25
329.058	86.25
329.287	74.25
329.515	89.25
329.744	79.25
329.972	74.25
330.201	86.25
330.43	76.25
330.658	90.25
330.887	87.25
331.115	77.25
331.344	65.25
331.572	81.25
331.801	89.25
332.03	79.25
332.258	88.25
332.486	78.25
332.715	79.25
332.943	87.25
333.172	90.25
333.4	85.25
333.629	78.25
333.857	87.25
334.085	73.25
334.314	83.25
334.542	75.25
334.771	85.25
334.999	93.25
335.227	83.25
335.455	74.25
335.684	81.25
335.912	88.25
336.14	84.25
336.369	71.25
336.597	89.25
336.825	79.25
337.053	82.25
337.281	82.25
337.51	62.25
337.738	83.25
337.966	80.25
338.194	83.25
338.422	94.25
338.65	82.25
338.878	83.25
339.106	89.25
339.334	76.25
339.562	83.25
339.79	70.25
340.018	80.25
340.246	73.25
340.474	74.25
340.702	86.25
340.93	83.25
341.158	97.25
341.386	93.25
341.614	80.25
341.842	75.25
342.07	82.25
342.298	69.25
342.526	68.25
342.754	83.25
342.981	98.25
343.209	86.25
343.437	100.25
343.665	72.25
343.893	85.25
344.12	86.25
344.348	81.25
344.576	88.25
344.804	80.25
345.031	86.25
345.259	95.25
345.487	83.25
345.714	77.25
345.942	94.25
346.17	80.25
346.397	90.25
346.625	78.25
346.853	75.25
347.08	81.25
347.308	73.25
347.535	75.25
347.763	90.25
347.99	77.25
348.218	90.25
348.445	79.25
348.673	88.25
348.9	70.25
349.128	89.25
349.355	102.25
349.583	77.25
349.81	83.25
350.037	83.25
350.265	89.25
350.492	87.25
350.72	90.25
350.947	86.25
351.174	93.25
351.402	82.25
351.629	74.25
351.856	86.25
352.083	72.25
352.311	75.25
352.538	92.25
352.765	80.25
352.992	86.25
353.22	99.25
353.447	96.25
353.674	90.25
353.901	90.25
354.128	90.25
354.355	80.25
354.583	78.25
354.81	81.25
355.037	83.25
355.264	95.25
355.491	84.25
355.718	83.25
355.945	84.25
356.172	90.25
356.399	86.25
356.626	90.25
356.853	77.25
357.08	84.25
357.307	68.25
357.534	88.25
357.761	86.25
357.988	70.25
358.215	82.25
358.441	87.25
358.668	86.25
358.895	85.25
359.122	87.25
359.349	79.25
359.576	74.25
359.802	81.25
360.029	94.25
360.256	90.25
360.483	67.25
360.709	68.25
360.936	89.25
361.163	93.25
361.39	78.25
361.616	83.25
361.843	88.25
362.07	94.25
362.296	82.25
362.523	79.25
362.749	99.25
362.976	84.25
363.203	90.25
363.429	95.25
363.656	105.25
363.882	86.25
364.109	87.25
364.335	87.25
364.562	91.25
364.788	78.25
365.015	102.25
365.241	101.25
365.468	88.25
365.694	78.25
365.92	81.25
366.147	73.25
366.373	90.25
366.599	81.25
366.826	76.25
367.052	78.25
367.278	82.25
367.505	86.25
367.731	101.25
367.957	94.25
368.184	93.25
368.41	75.25
368.636	83.25
368.862	82.25
369.089	96.25
369.315	96.25
369.541	99.25
369.767	65.25
369.993	78.25
370.219	80.25
370.445	86.25
370.672	72.25
370.898	85.25
371.124	85.25
371.35	87.25
371.576	93.25
371.802	82.25
372.028	86.25
372.254	93.25
372.48	81.25
372.706	82.25
372.932	83.25
373.158	89.25
373.384	83.25
373.61	83.25
373.835	81.25
374.061	73.25
374.287	88.25
374.513	78.25
374.739	90.25
374.965	97.25
375.191	84.25
375.416	74.25
375.642	111.25
375.868	83.25
376.094	87.25
376.319	88.25
376.545	102.25
376.771	85.25
376.997	96.25
377.222	75.25
377.448	81.25
377.674	91.25
377.899	86.25
378.125	97.25
378.35	97.25
378.576	91.25
378.802	78.25
379.027	82.25
379.253	101.25
379.478	77.25
379.704	89.25
379.929	93.25
380.155	93.25
380.38	100.25
380.606	83.25
380.831	95.25
381.057	83.25
381.282	84.25
381.507	87.25
381.733	88.25
381.958	94.25
382.184	80.25
382.409	99.25
382.634	87.25
382.86	87.25
383.085	78.25
383.31	89.25
383.535	86.25
383.761	83.25
383.986	92.25
384.211	88.25
384.436	98.25
384.662	82.25
384.887	88.25
385.112	84.25
385.337	93.25
385.562	96.25
385.787	102.25
386.013	96.25
386.238	85.25
386.463	82.25
386.688	79.25
386.913	95.25
387.138	84.25
387.363	91.25
387.588	98.25
387.813	86.25
388.038	89.25
388.263	104.25
388.488	89.25
388.713	96.25
388.938	76.25
389.163	85.25
389.387	89.25
389.612	86.25
389.837	87.25
390.062	85.25
390.287	102.25
390.512	85.25
390.736	89.25
390.961	94.25
391.186	87.25
391.411	92.25
391.636	90.25
391.86	94.25
392.085	103.25
392.31	89.25
392.534	91.25
392.759	98.25
392.984	102.25
393.208	103.25
393.433	87.25
393.658	88.25
393.882	87.25
394.107	99.25
394.331	97.25
394.556	110.25
394.78	107.25
395.005	97.25
395.229	101.25
395.454	95.25
395.678	95.25
395.903	107.25
396.127	87.25
396.352	94.25
396.576	93.25
396.801	96.25
397.025	104.25
397.249	103.25
397.474	106.25
397.698	89.25
397.922	102.25
398.147	103.25
398.371	88.25
398.595	93.25
398.82	99.25
399.044	98.25
399.268	103.25
399.492	112.25
399.717	103.25
399.941	119.25
400.165	118.25
400.389	103.25
400.613	101.25
400.837	120.25
401.062	88.25
401.286	106.25
401.51	99.25
401.734	103.25
401.958	86.25
402.182	100.25
402.406	103.25
402.63	96.25
402.854	105.25
403.078	99.25
403.302	95.25
403.526	112.25
403.75	111.25
403.974	103.25
404.198	102.25
404.422	102.25
404.645	105.25
404.869	101.25
405.093	100.25
405.317	89.25
405.541	100.25
405.765	121.25
405.988	100.25
406.212	124.25
406.436	109.25
406.66	111.25
406.883	114.25
407.107	114.25
407.331	109.25
407.555	118.25
407.778	98.25
408.002	98.25
408.226	107.25
408.449	107.25
408.673	98.25
408.896	122.25
409.12	113.25
409.344	123.25
409.567	112.25
409.791	124.25
410.014	100.25
410.238	117.25
410.461	119.25
410.685	104.25
410.908	107.25
411.132	128.25
411.355	119.25
411.578	110.25
411.802	116.25
412.025	116.25
412.249	102.25
412.472	117.25
412.695	105.25
412.919	103.25
413.142	105.25
413.365	117.25
413.589	100.25
413.812	109.25
414.035	102.25
414.258	111.25
414.482	114.25
414.705	110.25
414.928	109.25
415.151	115.25
415.374	122.25
415.597	94.25
415.821	97.25
416.044	100.25
416.267	103.25
416.49	110.25
416.713	118.25
416.936	101.25
417.159	123.25
417.382	100.25
417.605	104.25
417.828	109.25
418.051	105.25
418.274	119.25
418.497	115.25
418.72	115.25
418.943	101.25
419.166	121.25
419.389	129.25
419.611	103.25
419.834	115.25
420.057	122.25
420.28	120.25
420.503	125.25
420.726	119.25
420.948	109.25
421.171	120.25
421.394	99.25
421.617	110.25
421.839	115.25
422.062	107.25
422.285	128.25
422.507	125.25
422.73	116.25
422.953	107.25
423.175	117.25
423.398	122.25
423.621	112.25
423.843	125.25
424.066	120.25
424.288	113.25
424.511	118.25
424.733	117.25
424.956	103.25
425.178	116.25
425.401	102.25
425.623	111.25
425.846	113.25
426.068	104.25
426.291	103.25
426.513	115.25
426.735	94.25
426.958	101.25
427.18	108.25
427.402	109.25
427.625	103.25
427.847	104.25
428.069	105.25
428.292	104.25
428.514	114.25
428.736	115.25
428.958	103.25
429.181	114.25
429.403	105.25
429.625	102.25
429.847	107.25
430.069	112.25
430.292	116.25
430.514	113.25
430.736	96.25
430.958	105.25
431.18	106.25
431.402	112.25
431.624	107.25
431.846	113.25
432.068	88.25
432.29	84.25
432.512	102.25
432.734	97.25
432.956	91.25
433.178	109.25
433.4	113.25
433.622	122.25
433.844	98.25
434.066	116.25
434.287	106.25
434.509	104.25
434.731	105.25
434.953	113.25
435.175	113.25
435.397	111.25
435.618	106.25
435.84	102.25
436.062	103.25
436.284	108.25
436.505	109.25
436.727	112.25
436.949	114.25
437.17	99.25
437.392	98.25
437.614	105.25
437.835	110.25
438.057	95.25
438.278	105.25
438.5	103.25
438.721	117.25
438.943	113.25
439.165	113.25
439.386	101.25
439.608	117.25
439.829	99.25
440.05	129.25
440.272	110.25
440.493	124.25
440.715	98.25
440.936	116.25
441.158	129.25
441.379	121.25
441.6	110.25
441.822	116.25
442.043	132.25
442.264	122.25
442.486	101.25
442.707	118.25
442.928	123.25
443.149	122.25
443.371	110.25
443.592	94.25
443.813	114.25
444.034	108.25
444.255	122.25
444.476	127.25
444.698	127.25
444.919	124.25
445.14	242.25
445.361	197.25
445.582	109.25
445.803	118.25
446.024	124.25
446.245	107.25
446.466	95.25
446.687	115.25
446.908	125.25
447.129	115.25
447.35	118.25
447.571	113.25
447.792	110.25
448.013	105.25
448.234	113.25
448.455	114.25
448.675	125.25
448.896	100.25
449.117	120.25
449.338	93.25
449.559	96.25
449.779	113.25
450	98.25
450.221	109.25
450.442	113.25
450.662	106.25
450.883	106.25
451.104	100.25
451.324	103.25
451.545	118.25
451.766	106.25
451.986	109.25
452.207	100.25
452.428	96.25
452.648	113.25
452.869	98.25
453.089	101.25
453.31	112.25
453.53	100.25
453.751	96.25
453.971	122.25
454.192	95.25
454.412	102.25
454.633	96.25
454.853	99.25
455.073	95.25
455.294	112.25
455.514	109.25
455.734	112.25
455.955	117.25
456.175	98.25
456.395	92.25
456.616	131.25
456.836	107.25
457.056	107.25
457.276	101.25
457.497	92.25
457.717	94.25
457.937	111.25
458.157	94.25
458.377	90.25
458.598	96.25
458.818	111.25
459.038	95.25
459.258	111.25
459.478	104.25
459.698	96.25
459.918	117.25
460.138	114.25
460.358	113.25
460.578	107.25
460.798	127.25
461.018	112.25
461.238	127.25
461.458	119.25
461.678	121.25
461.898	121.25
462.118	119.25
462.338	110.25
462.558	122.25
462.777	114.25
462.997	115.25
463.217	132.25
463.437	129.25
463.657	112.25
463.876	125.25
464.096	121.25
464.316	115.25
464.536	116.25
464.755	119.25
464.975	123.25
465.195	126.25
465.414	111.25
465.634	115.25
465.854	98.25
466.073	101.25
466.293	110.25
466.512	109.25
466.732	110.25
466.951	123.25
467.171	113.25
467.391	99.25
467.61	104.25
467.829	116.25
468.049	113.25
468.268	115.25
468.488	119.25
468.707	95.25
468.927	107.25
469.146	110.25
469.365	109.25
469.585	119.25
469.804	123.25
470.023	113.25
470.243	123.25
470.462	116.25
470.681	121.25
470.901	125.25
471.12	123.25
471.339	123.25
471.558	137.25
471.777	107.25
471.997	119.25
472.216	115.25
472.435	112.25
472.654	115.25
472.873	96.25
473.092	101.25
473.311	105.25
473.53	109.25
473.749	119.25
473.968	117.25
474.187	106.25
474.406	111.25
474.625	105.25
474.844	117.25
475.063	104.25
475.282	116.25
475.501	103.25
475.72	132.25
475.939	117.25
476.158	120.25
476.377	117.25
476.596	114.25
476.814	117.25
477.033	113.25
477.252	116.25
477.471	118.25
477.69	119.25
477.908	119.25
478.127	145.25
478.346	129.25
478.564	114.25
478.783	117.25
479.002	125.25
479.22	125.25
479.439	122.25
479.658	124.25
479.876	119.25
480.095	125.25
480.313	119.25
480.532	109.25
480.751	134.25
480.969	120.25
481.188	106.25
481.406	121.25
481.624	123.25
481.843	114.25
482.061	115.25
482.28	115.25
482.498	119.25
482.717	117.25
482.935	129.25
483.153	131.25
483.372	129.25
483.59	133.25
483.808	133.25
484.027	124.25
484.245	126.25
484.463	131.25
484.681	136.25
484.9	139.25
485.118	142.25
485.336	111.25
485.554	121.25
485.772	117.25
485.99	103.25
486.209	117.25
486.427	133.25
486.645	122.25
486.863	125.25
487.081	127.25
487.299	137.25
487.517	137.25
487.735	138.25
487.953	141.25
488.171	137.25
488.389	147.25
488.607	111.25
488.825	123.25
489.043	138.25
489.261	116.25
489.479	131.25
489.696	149.25
489.914	131.25
490.132	122.25
490.35	124.25
490.568	145.25
490.786	142.25
491.003	123.25
491.221	147.25
491.439	153.25
491.657	149.25
491.874	159.25
492.092	177.25
492.31	151.25
492.527	166.25
492.745	157.25
492.963	152.25
493.18	154.25
493.398	154.25
493.615	156.25
493.833	155.25
494.05	147.25
494.268	135.25
494.485	161.25
494.703	147.25
494.92	152.25
495.138	139.25
495.355	155.25
495.573	146.25
495.79	142.25
496.008	145.25
496.225	157.25
496.442	153.25
496.66	158.25
496.877	144.25
497.094	155.25
497.312	132.25
497.529	157.25
497.746	138.25
497.963	149.25
498.181	140.25
498.398	134.25
498.615	139.25
498.832	149.25
499.049	151.25
499.267	154.25
499.484	169.25
499.701	184.25
499.918	180.25
500.135	204.25
500.352	214.25
500.569	221.25
500.786	223.25
501.003	203.25
501.22	212.25
501.437	181.25
501.654	171.25
501.871	152.25
502.088	151.25
502.305	161.25
502.522	147.25
502.739	144.25
502.956	151.25
503.172	145.25
503.389	141.25
503.606	129.25
503.823	123.25
504.04	146.25
504.256	137.25
504.473	143.25
504.69	141.25
504.907	142.25
505.123	139.25
505.34	137.25
505.557	138.25
505.773	125.25
505.99	125.25
506.207	123.25
506.423	116.25
506.64	126.25
506.856	133.25
507.073	135.25
507.289	117.25
507.506	117.25
507.722	114.25
507.939	132.25
508.155	129.25
508.372	107.25
508.588	106.25
508.805	123.25
509.021	121.25
509.238	130.25
509.454	122.25
509.67	122.25
509.887	115.25
510.103	126.25
510.319	112.25
510.536	121.25
510.752	125.25
510.968	107.25
511.184	111.25
511.401	122.25
511.617	110.25
511.833	103.25
512.049	127.25
