Data from StandardFe(NO3)3.TAE.3%Agarose.FlatLispGreen.Lamp.Energy10.07252019_HRD10591_11-54-40-440.txt Node
Date: Thu Jul 25 11:54:40 EDT 2019
User: cochatt
Spectrometer: HR+D1059
Trigger mode: 1
Integration Time (sec): 1.000000E-1
Scans to average: 1
Electric dark correction enabled: true
Nonlinearity correction enabled: false
Boxcar width: 0
XAxis mode: Wavelengths
Number of Pixels in Spectrum: 2048
>>>>>Begin Spectral Data<<<<<
223.165	-27.12
223.4	-27.12
223.635	-27.12
223.869	-14.12
224.104	-21.12
224.338	-8.12
224.573	-26.12
224.808	-28.12
225.042	-8.12
225.277	13.88
225.511	9.88
225.746	7.88
225.98	-1.12
226.215	11.88
226.449	29.88
226.683	18.88
226.918	14.88
227.152	26.88
227.387	33.88
227.621	52.88
227.856	54.88
228.09	48.88
228.324	43.88
228.559	45.88
228.793	56.88
229.027	65.88
229.262	68.88
229.496	59.88
229.73	66.88
229.964	80.88
230.199	77.88
230.433	76.88
230.667	79.88
230.901	79.88
231.136	74.88
231.37	79.88
231.604	89.88
231.838	84.88
232.072	96.88
232.306	85.88
232.541	80.88
232.775	83.88
233.009	80.88
233.243	80.88
233.477	85.88
233.711	86.88
233.945	87.88
234.179	92.88
234.413	65.88
234.647	82.88
234.881	84.88
235.115	93.88
235.349	87.88
235.583	98.88
235.817	87.88
236.051	78.88
236.285	76.88
236.519	86.88
236.753	87.88
236.987	80.88
237.221	72.88
237.455	84.88
237.689	74.88
237.922	87.88
238.156	90.88
238.39	91.88
238.624	83.88
238.858	83.88
239.091	80.88
239.325	79.88
239.559	85.88
239.793	88.88
240.027	89.88
240.26	74.88
240.494	66.88
240.728	71.88
240.961	70.88
241.195	94.88
241.429	80.88
241.662	71.88
241.896	86.88
242.13	76.88
242.363	71.88
242.597	72.88
242.83	81.88
243.064	71.88
243.298	81.88
243.531	84.88
243.765	70.88
243.998	74.88
244.232	84.88
244.465	89.88
244.699	85.88
244.932	68.88
245.166	69.88
245.399	73.88
245.633	84.88
245.866	76.88
246.099	79.88
246.333	85.88
246.566	93.88
246.8	72.88
247.033	76.88
247.266	79.88
247.5	78.88
247.733	71.88
247.966	78.88
248.2	85.88
248.433	83.88
248.666	79.88
248.899	79.88
249.133	84.88
249.366	98.88
249.599	85.88
249.832	85.88
250.066	70.88
250.299	95.88
250.532	72.88
250.765	78.88
250.998	75.88
251.231	79.88
251.465	90.88
251.698	85.88
251.931	85.88
252.164	86.88
252.397	85.88
252.63	86.88
252.863	91.88
253.096	90.88
253.329	73.88
253.562	88.88
253.795	82.88
254.028	84.88
254.261	82.88
254.494	83.88
254.727	91.88
254.96	86.88
255.193	71.88
255.426	79.88
255.659	68.88
255.892	83.88
256.124	72.88
256.357	89.88
256.59	82.88
256.823	78.88
257.056	79.88
257.289	76.88
257.521	86.88
257.754	78.88
257.987	82.88
258.22	90.88
258.452	93.88
258.685	88.88
258.918	84.88
259.151	83.88
259.383	91.88
259.616	78.88
259.849	75.88
260.081	78.88
260.314	94.88
260.547	76.88
260.779	67.88
261.012	85.88
261.244	73.88
261.477	94.88
261.71	71.88
261.942	91.88
262.175	87.88
262.407	82.88
262.64	87.88
262.872	85.88
263.105	89.88
263.337	103.88
263.57	82.88
263.802	93.88
264.035	94.88
264.267	74.88
264.499	89.88
264.732	74.88
264.964	89.88
265.197	85.88
265.429	75.88
265.661	62.88
265.894	84.88
266.126	85.88
266.358	82.88
266.591	83.88
266.823	85.88
267.055	86.88
267.287	93.88
267.52	69.88
267.752	86.88
267.984	72.88
268.216	91.88
268.448	78.88
268.681	77.88
268.913	74.88
269.145	77.88
269.377	82.88
269.609	87.88
269.841	77.88
270.073	71.88
270.306	77.88
270.538	100.88
270.77	81.88
271.002	84.88
271.234	85.88
271.466	80.88
271.698	89.88
271.93	79.88
272.162	80.88
272.394	92.88
272.626	87.88
272.858	62.88
273.09	93.88
273.322	90.88
273.553	83.88
273.785	86.88
274.017	88.88
274.249	86.88
274.481	79.88
274.713	92.88
274.945	98.88
275.176	93.88
275.408	89.88
275.64	84.88
275.872	78.88
276.104	81.88
276.335	80.88
276.567	83.88
276.799	79.88
277.031	84.88
277.262	83.88
277.494	79.88
277.726	85.88
277.957	79.88
278.189	83.88
278.421	94.88
278.652	84.88
278.884	84.88
279.115	88.88
279.347	86.88
279.579	83.88
279.81	90.88
280.042	98.88
280.273	96.88
280.505	95.88
280.736	84.88
280.968	77.88
281.199	74.88
281.431	77.88
281.662	85.88
281.894	85.88
282.125	98.88
282.356	84.88
282.588	71.88
282.819	94.88
283.051	88.88
283.282	92.88
283.513	87.88
283.745	88.88
283.976	90.88
284.207	88.88
284.439	88.88
284.67	91.88
284.901	83.88
285.132	78.88
285.364	80.88
285.595	80.88
285.826	87.88
286.057	92.88
286.288	87.88
286.52	91.88
286.751	95.88
286.982	91.88
287.213	90.88
287.444	81.88
287.675	77.88
287.906	91.88
288.138	68.88
288.369	97.88
288.6	91.88
288.831	87.88
289.062	76.88
289.293	75.88
289.524	71.88
289.755	78.88
289.986	85.88
290.217	89.88
290.448	95.88
290.679	89.88
290.91	81.88
291.141	94.88
291.371	89.88
291.602	85.88
291.833	75.88
292.064	78.88
292.295	94.88
292.526	90.88
292.757	89.88
292.987	101.88
293.218	78.88
293.449	91.88
293.68	88.88
293.91	96.88
294.141	103.88
294.372	86.88
294.603	76.88
294.833	98.88
295.064	82.88
295.295	80.88
295.525	81.88
295.756	87.88
295.987	79.88
296.217	82.88
296.448	74.88
296.679	94.88
296.909	101.88
297.14	89.88
297.37	100.88
297.601	102.88
297.831	83.88
298.062	78.88
298.292	98.88
298.523	92.88
298.753	88.88
298.984	85.88
299.214	96.88
299.445	98.88
299.675	93.88
299.905	93.88
300.136	90.88
300.366	82.88
300.597	79.88
300.827	80.88
301.057	80.88
301.288	91.88
301.518	90.88
301.748	89.88
301.979	92.88
302.209	84.88
302.439	95.88
302.669	83.88
302.9	76.88
303.13	102.88
303.36	93.88
303.59	81.88
303.82	88.88
304.051	94.88
304.281	85.88
304.511	98.88
304.741	95.88
304.971	86.88
305.201	92.88
305.431	90.88
305.661	87.88
305.891	96.88
306.121	84.88
306.352	90.88
306.582	93.88
306.812	83.88
307.042	91.88
307.272	76.88
307.502	81.88
307.731	76.88
307.961	65.88
308.191	91.88
308.421	80.88
308.651	93.88
308.881	90.88
309.111	83.88
309.341	92.88
309.571	99.88
309.8	85.88
310.03	80.88
310.26	92.88
310.49	93.88
310.72	95.88
310.949	91.88
311.179	90.88
311.409	90.88
311.639	77.88
311.868	83.88
312.098	78.88
312.328	85.88
312.557	87.88
312.787	82.88
313.017	92.88
313.246	86.88
313.476	85.88
313.706	97.88
313.935	70.88
314.165	86.88
314.394	84.88
314.624	83.88
314.853	89.88
315.083	86.88
315.312	96.88
315.542	96.88
315.771	85.88
316.001	91.88
316.23	75.88
316.46	88.88
316.689	86.88
316.919	77.88
317.148	89.88
317.377	86.88
317.607	83.88
317.836	77.88
318.065	98.88
318.295	92.88
318.524	92.88
318.753	89.88
318.983	87.88
319.212	86.88
319.441	87.88
319.67	95.88
319.9	90.88
320.129	93.88
320.358	85.88
320.587	88.88
320.816	86.88
321.046	91.88
321.275	90.88
321.504	96.88
321.733	87.88
321.962	85.88
322.191	75.88
322.42	97.88
322.649	88.88
322.878	89.88
323.108	83.88
323.337	120.88
323.566	88.88
323.795	95.88
324.024	83.88
324.253	88.88
324.482	92.88
324.71	84.88
324.939	86.88
325.168	87.88
325.397	92.88
325.626	98.88
325.855	88.88
326.084	76.88
326.313	87.88
326.542	83.88
326.77	103.88
326.999	94.88
327.228	85.88
327.457	87.88
327.686	99.88
327.914	84.88
328.143	81.88
328.372	93.88
328.6	87.88
328.829	89.88
329.058	97.88
329.287	79.88
329.515	85.88
329.744	94.88
329.972	102.88
330.201	83.88
330.43	95.88
330.658	86.88
330.887	90.88
331.115	94.88
331.344	94.88
331.572	97.88
331.801	79.88
332.03	74.88
332.258	93.88
332.486	72.88
332.715	79.88
332.943	94.88
333.172	93.88
333.4	94.88
333.629	86.88
333.857	78.88
334.085	81.88
334.314	79.88
334.542	86.88
334.771	93.88
334.999	92.88
335.227	89.88
335.455	77.88
335.684	90.88
335.912	95.88
336.14	66.88
336.369	80.88
336.597	86.88
336.825	87.88
337.053	76.88
337.281	94.88
337.51	90.88
337.738	102.88
337.966	99.88
338.194	96.88
338.422	91.88
338.65	79.88
338.878	86.88
339.106	87.88
339.334	93.88
339.562	88.88
339.79	71.88
340.018	82.88
340.246	99.88
340.474	81.88
340.702	89.88
340.93	98.88
341.158	81.88
341.386	83.88
341.614	104.88
341.842	83.88
342.07	79.88
342.298	84.88
342.526	87.88
342.754	88.88
342.981	87.88
343.209	81.88
343.437	93.88
343.665	83.88
343.893	84.88
344.12	90.88
344.348	79.88
344.576	84.88
344.804	77.88
345.031	76.88
345.259	96.88
345.487	95.88
345.714	87.88
345.942	101.88
346.17	81.88
346.397	94.88
346.625	87.88
346.853	84.88
347.08	85.88
347.308	102.88
347.535	94.88
347.763	76.88
347.99	82.88
348.218	90.88
348.445	86.88
348.673	84.88
348.9	97.88
349.128	86.88
349.355	89.88
349.583	90.88
349.81	81.88
350.037	85.88
350.265	93.88
350.492	78.88
350.72	89.88
350.947	86.88
351.174	85.88
351.402	87.88
351.629	94.88
351.856	97.88
352.083	95.88
352.311	87.88
352.538	78.88
352.765	78.88
352.992	78.88
353.22	88.88
353.447	88.88
353.674	84.88
353.901	78.88
354.128	85.88
354.355	75.88
354.583	76.88
354.81	72.88
355.037	81.88
355.264	83.88
355.491	98.88
355.718	80.88
355.945	75.88
356.172	99.88
356.399	85.88
356.626	99.88
356.853	82.88
357.08	73.88
357.307	80.88
357.534	84.88
357.761	94.88
357.988	97.88
358.215	80.88
358.441	80.88
358.668	79.88
358.895	75.88
359.122	91.88
359.349	87.88
359.576	80.88
359.802	86.88
360.029	87.88
360.256	91.88
360.483	89.88
360.709	101.88
360.936	90.88
361.163	80.88
361.39	86.88
361.616	75.88
361.843	91.88
362.07	90.88
362.296	95.88
362.523	76.88
362.749	86.88
362.976	98.88
363.203	91.88
363.429	92.88
363.656	95.88
363.882	82.88
364.109	90.88
364.335	90.88
364.562	84.88
364.788	74.88
365.015	90.88
365.241	103.88
365.468	93.88
365.694	74.88
365.92	85.88
366.147	77.88
366.373	81.88
366.599	84.88
366.826	86.88
367.052	95.88
367.278	85.88
367.505	87.88
367.731	93.88
367.957	86.88
368.184	73.88
368.41	87.88
368.636	89.88
368.862	92.88
369.089	85.88
369.315	90.88
369.541	96.88
369.767	86.88
369.993	81.88
370.219	90.88
370.445	88.88
370.672	102.88
370.898	89.88
371.124	89.88
371.35	95.88
371.576	99.88
371.802	91.88
372.028	97.88
372.254	93.88
372.48	84.88
372.706	76.88
372.932	95.88
373.158	91.88
373.384	111.88
373.61	93.88
373.835	80.88
374.061	88.88
374.287	100.88
374.513	89.88
374.739	91.88
374.965	108.88
375.191	88.88
375.416	85.88
375.642	89.88
375.868	92.88
376.094	78.88
376.319	83.88
376.545	79.88
376.771	85.88
376.997	88.88
377.222	68.88
377.448	80.88
377.674	76.88
377.899	102.88
378.125	83.88
378.35	92.88
378.576	90.88
378.802	100.88
379.027	81.88
379.253	88.88
379.478	98.88
379.704	92.88
379.929	91.88
380.155	88.88
380.38	105.88
380.606	99.88
380.831	97.88
381.057	101.88
381.282	97.88
381.507	85.88
381.733	88.88
381.958	88.88
382.184	92.88
382.409	88.88
382.634	101.88
382.86	89.88
383.085	88.88
383.31	83.88
383.535	104.88
383.761	93.88
383.986	100.88
384.211	95.88
384.436	95.88
384.662	79.88
384.887	92.88
385.112	90.88
385.337	98.88
385.562	98.88
385.787	95.88
386.013	93.88
386.238	90.88
386.463	81.88
386.688	88.88
386.913	79.88
387.138	90.88
387.363	100.88
387.588	83.88
387.813	101.88
388.038	91.88
388.263	98.88
388.488	93.88
388.713	98.88
388.938	93.88
389.163	92.88
389.387	82.88
389.612	92.88
389.837	98.88
390.062	101.88
390.287	91.88
390.512	102.88
390.736	100.88
390.961	100.88
391.186	97.88
391.411	91.88
391.636	107.88
391.86	89.88
392.085	108.88
392.31	88.88
392.534	96.88
392.759	99.88
392.984	99.88
393.208	95.88
393.433	94.88
393.658	99.88
393.882	103.88
394.107	98.88
394.331	98.88
394.556	93.88
394.78	94.88
395.005	102.88
395.229	93.88
395.454	118.88
395.678	109.88
395.903	98.88
396.127	95.88
396.352	85.88
396.576	84.88
396.801	100.88
397.025	111.88
397.249	80.88
397.474	95.88
397.698	101.88
397.922	100.88
398.147	101.88
398.371	90.88
398.595	98.88
398.82	118.88
399.044	108.88
399.268	105.88
399.492	120.88
399.717	105.88
399.941	119.88
400.165	119.88
400.389	106.88
400.613	118.88
400.837	109.88
401.062	105.88
401.286	102.88
401.51	96.88
401.734	101.88
401.958	109.88
402.182	100.88
402.406	99.88
402.63	118.88
402.854	115.88
403.078	111.88
403.302	114.88
403.526	112.88
403.75	113.88
403.974	110.88
404.198	108.88
404.422	124.88
404.645	113.88
404.869	104.88
405.093	110.88
405.317	114.88
405.541	96.88
405.765	105.88
405.988	109.88
406.212	108.88
406.436	111.88
406.66	109.88
406.883	116.88
407.107	111.88
407.331	121.88
407.555	118.88
407.778	119.88
408.002	119.88
408.226	92.88
408.449	96.88
408.673	103.88
408.896	116.88
409.12	104.88
409.344	108.88
409.567	99.88
409.791	100.88
410.014	123.88
410.238	102.88
410.461	97.88
410.685	86.88
410.908	94.88
411.132	99.88
411.355	110.88
411.578	116.88
411.802	107.88
412.025	117.88
412.249	102.88
412.472	102.88
412.695	101.88
412.919	111.88
413.142	116.88
413.365	106.88
413.589	110.88
413.812	118.88
414.035	121.88
414.258	113.88
414.482	103.88
414.705	114.88
414.928	112.88
415.151	105.88
415.374	105.88
415.597	111.88
415.821	121.88
416.044	110.88
416.267	131.88
416.49	120.88
416.713	111.88
416.936	114.88
417.159	105.88
417.382	108.88
417.605	100.88
417.828	125.88
418.051	111.88
418.274	124.88
418.497	118.88
418.72	122.88
418.943	116.88
419.166	118.88
419.389	108.88
419.611	117.88
419.834	114.88
420.057	113.88
420.28	134.88
420.503	119.88
420.726	126.88
420.948	104.88
421.171	114.88
421.394	129.88
421.617	115.88
421.839	108.88
422.062	115.88
422.285	118.88
422.507	117.88
422.73	102.88
422.953	106.88
423.175	127.88
423.398	108.88
423.621	114.88
423.843	112.88
424.066	132.88
424.288	111.88
424.511	112.88
424.733	117.88
424.956	117.88
425.178	109.88
425.401	106.88
425.623	111.88
425.846	98.88
426.068	111.88
426.291	128.88
426.513	120.88
426.735	100.88
426.958	106.88
427.18	99.88
427.402	122.88
427.625	111.88
427.847	105.88
428.069	104.88
428.292	99.88
428.514	106.88
428.736	134.88
428.958	121.88
429.181	114.88
429.403	108.88
429.625	99.88
429.847	125.88
430.069	103.88
430.292	116.88
430.514	121.88
430.736	106.88
430.958	126.88
431.18	100.88
431.402	102.88
431.624	94.88
431.846	98.88
432.068	101.88
432.29	98.88
432.512	99.88
432.734	106.88
432.956	126.88
433.178	130.88
433.4	120.88
433.622	122.88
433.844	117.88
434.066	122.88
434.287	110.88
434.509	111.88
434.731	108.88
434.953	122.88
435.175	116.88
435.397	113.88
435.618	110.88
435.84	118.88
436.062	110.88
436.284	122.88
436.505	112.88
436.727	121.88
436.949	107.88
437.17	97.88
437.392	108.88
437.614	103.88
437.835	98.88
438.057	116.88
438.278	121.88
438.5	117.88
438.721	99.88
438.943	101.88
439.165	114.88
439.386	132.88
439.608	131.88
439.829	110.88
440.05	128.88
440.272	125.88
440.493	111.88
440.715	94.88
440.936	105.88
441.158	119.88
441.379	112.88
441.6	126.88
441.822	125.88
442.043	131.88
442.264	118.88
442.486	107.88
442.707	128.88
442.928	128.88
443.149	108.88
443.371	118.88
443.592	120.88
443.813	128.88
444.034	115.88
444.255	121.88
444.476	120.88
444.698	130.88
444.919	128.88
445.14	250.88
445.361	184.88
445.582	132.88
445.803	123.88
446.024	119.88
446.245	124.88
446.466	138.88
446.687	131.88
446.908	124.88
447.129	123.88
447.35	111.88
447.571	116.88
447.792	110.88
448.013	120.88
448.234	123.88
448.455	100.88
448.675	116.88
448.896	92.88
449.117	117.88
449.338	114.88
449.559	111.88
449.779	119.88
450	111.88
450.221	118.88
450.442	122.88
450.662	118.88
450.883	126.88
451.104	123.88
451.324	88.88
451.545	114.88
451.766	102.88
451.986	118.88
452.207	118.88
452.428	122.88
452.648	93.88
452.869	112.88
453.089	96.88
453.31	101.88
453.53	101.88
453.751	107.88
453.971	98.88
454.192	110.88
454.412	92.88
454.633	94.88
454.853	102.88
455.073	113.88
455.294	116.88
455.514	110.88
455.734	114.88
455.955	106.88
456.175	112.88
456.395	92.88
456.616	112.88
456.836	110.88
457.056	108.88
457.276	96.88
457.497	102.88
457.717	114.88
457.937	104.88
458.157	96.88
458.377	114.88
458.598	117.88
458.818	93.88
459.038	97.88
459.258	98.88
459.478	102.88
459.698	107.88
459.918	111.88
460.138	125.88
460.358	106.88
460.578	114.88
460.798	100.88
461.018	107.88
461.238	107.88
461.458	123.88
461.678	112.88
461.898	130.88
462.118	105.88
462.338	106.88
462.558	119.88
462.777	124.88
462.997	116.88
463.217	132.88
463.437	123.88
463.657	119.88
463.876	128.88
464.096	129.88
464.316	114.88
464.536	120.88
464.755	128.88
464.975	118.88
465.195	118.88
465.414	125.88
465.634	114.88
465.854	106.88
466.073	117.88
466.293	116.88
466.512	109.88
466.732	120.88
466.951	114.88
467.171	136.88
467.391	138.88
467.61	114.88
467.829	109.88
468.049	116.88
468.268	120.88
468.488	135.88
468.707	125.88
468.927	103.88
469.146	118.88
469.365	133.88
469.585	106.88
469.804	114.88
470.023	120.88
470.243	124.88
470.462	126.88
470.681	114.88
470.901	125.88
471.12	123.88
471.339	115.88
471.558	102.88
471.777	128.88
471.997	106.88
472.216	115.88
472.435	109.88
472.654	122.88
472.873	107.88
473.092	117.88
473.311	118.88
473.53	124.88
473.749	122.88
473.968	115.88
474.187	124.88
474.406	120.88
474.625	104.88
474.844	108.88
475.063	120.88
475.282	112.88
475.501	115.88
475.72	108.88
475.939	115.88
476.158	102.88
476.377	108.88
476.596	111.88
476.814	110.88
477.033	115.88
477.252	114.88
477.471	109.88
477.69	116.88
477.908	142.88
478.127	117.88
478.346	131.88
478.564	139.88
478.783	120.88
479.002	123.88
479.22	134.88
479.439	127.88
479.658	132.88
479.876	118.88
480.095	111.88
480.313	126.88
480.532	114.88
480.751	119.88
480.969	124.88
481.188	103.88
481.406	106.88
481.624	98.88
481.843	115.88
482.061	99.88
482.28	118.88
482.498	126.88
482.717	117.88
482.935	124.88
483.153	130.88
483.372	141.88
483.59	127.88
483.808	126.88
484.027	117.88
484.245	122.88
484.463	124.88
484.681	134.88
484.9	124.88
485.118	124.88
485.336	108.88
485.554	102.88
485.772	116.88
485.99	122.88
486.209	119.88
486.427	135.88
486.645	128.88
486.863	130.88
487.081	133.88
487.299	123.88
487.517	136.88
487.735	139.88
487.953	145.88
488.171	138.88
488.389	151.88
488.607	137.88
488.825	141.88
489.043	131.88
489.261	123.88
489.479	140.88
489.696	140.88
489.914	120.88
490.132	132.88
490.35	133.88
490.568	138.88
490.786	150.88
491.003	144.88
491.221	139.88
491.439	146.88
491.657	135.88
491.874	163.88
492.092	169.88
492.31	175.88
492.527	164.88
492.745	153.88
492.963	150.88
493.18	158.88
493.398	133.88
493.615	166.88
493.833	139.88
494.05	140.88
494.268	134.88
494.485	156.88
494.703	139.88
494.92	161.88
495.138	150.88
495.355	150.88
495.573	156.88
495.79	140.88
496.008	151.88
496.225	150.88
496.442	134.88
496.66	143.88
496.877	151.88
497.094	144.88
497.312	145.88
497.529	152.88
497.746	153.88
497.963	144.88
498.181	134.88
498.398	139.88
498.615	129.88
498.832	129.88
499.049	142.88
499.267	164.88
499.484	166.88
499.701	164.88
499.918	184.88
500.135	204.88
500.352	215.88
500.569	208.88
500.786	212.88
501.003	201.88
501.22	184.88
501.437	177.88
501.654	162.88
501.871	148.88
502.088	161.88
502.305	179.88
502.522	156.88
502.739	140.88
502.956	154.88
503.172	125.88
503.389	118.88
503.606	125.88
503.823	143.88
504.04	135.88
504.256	136.88
504.473	122.88
504.69	142.88
504.907	147.88
505.123	144.88
505.34	139.88
505.557	129.88
505.773	125.88
505.99	124.88
506.207	125.88
506.423	139.88
506.64	114.88
506.856	122.88
507.073	126.88
507.289	128.88
507.506	130.88
507.722	127.88
507.939	116.88
508.155	126.88
508.372	104.88
508.588	123.88
508.805	124.88
509.021	111.88
509.238	127.88
509.454	110.88
509.67	103.88
509.887	129.88
510.103	111.88
510.319	120.88
510.536	107.88
510.752	102.88
510.968	107.88
511.184	98.88
511.401	114.88
511.617	114.88
511.833	123.88
