Data from StandardFe(NO3)3.TAE.3%Agarose.FlatLispGreen.Lamp.Energy10.07252019_HRD10591_11-55-22-441.txt Node
Date: Thu Jul 25 11:55:22 EDT 2019
User: cochatt
Spectrometer: HR+D1059
Trigger mode: 1
Integration Time (sec): 1.000000E-1
Scans to average: 1
Electric dark correction enabled: true
Nonlinearity correction enabled: false
Boxcar width: 0
XAxis mode: Wavelengths
Number of Pixels in Spectrum: 2048
>>>>>Begin Spectral Data<<<<<
223.165	-21.44
223.4	-21.44
223.635	-21.44
223.869	-14.44
224.104	-7.44
224.338	-24.44
224.573	-18.44
224.808	-23.44
225.042	-20.44
225.277	-2.44
225.511	-5.44
225.746	19.56
225.98	10.56
226.215	8.56
226.449	13.56
226.683	31.56
226.918	27.56
227.152	26.56
227.387	39.56
227.621	34.56
227.856	33.56
228.09	58.56
228.324	60.56
228.559	65.56
228.793	65.56
229.027	63.56
229.262	53.56
229.496	71.56
229.73	59.56
229.964	73.56
230.199	72.56
230.433	75.56
230.667	73.56
230.901	69.56
231.136	70.56
231.37	73.56
231.604	77.56
231.838	95.56
232.072	85.56
232.306	89.56
232.541	83.56
232.775	78.56
233.009	78.56
233.243	88.56
233.477	73.56
233.711	85.56
233.945	77.56
234.179	92.56
234.413	90.56
234.647	81.56
234.881	86.56
235.115	91.56
235.349	90.56
235.583	82.56
235.817	92.56
236.051	91.56
236.285	72.56
236.519	76.56
236.753	91.56
236.987	82.56
237.221	85.56
237.455	87.56
237.689	74.56
237.922	73.56
238.156	71.56
238.39	72.56
238.624	73.56
238.858	76.56
239.091	77.56
239.325	75.56
239.559	83.56
239.793	74.56
240.027	83.56
240.26	83.56
240.494	82.56
240.728	78.56
240.961	88.56
241.195	81.56
241.429	69.56
241.662	85.56
241.896	76.56
242.13	88.56
242.363	76.56
242.597	85.56
242.83	69.56
243.064	75.56
243.298	75.56
243.531	85.56
243.765	66.56
243.998	77.56
244.232	83.56
244.465	91.56
244.699	71.56
244.932	78.56
245.166	80.56
245.399	69.56
245.633	87.56
245.866	87.56
246.099	65.56
246.333	91.56
246.566	81.56
246.8	83.56
247.033	74.56
247.266	74.56
247.5	86.56
247.733	78.56
247.966	79.56
248.2	88.56
248.433	82.56
248.666	90.56
248.899	86.56
249.133	77.56
249.366	92.56
249.599	79.56
249.832	80.56
250.066	86.56
250.299	77.56
250.532	96.56
250.765	75.56
250.998	75.56
251.231	87.56
251.465	87.56
251.698	82.56
251.931	99.56
252.164	78.56
252.397	95.56
252.63	83.56
252.863	81.56
253.096	71.56
253.329	83.56
253.562	87.56
253.795	83.56
254.028	92.56
254.261	96.56
254.494	84.56
254.727	84.56
254.96	79.56
255.193	87.56
255.426	82.56
255.659	93.56
255.892	85.56
256.124	84.56
256.357	87.56
256.59	86.56
256.823	85.56
257.056	78.56
257.289	74.56
257.521	77.56
257.754	94.56
257.987	76.56
258.22	105.56
258.452	101.56
258.685	77.56
258.918	91.56
259.151	99.56
259.383	77.56
259.616	88.56
259.849	92.56
260.081	86.56
260.314	93.56
260.547	78.56
260.779	72.56
261.012	83.56
261.244	81.56
261.477	76.56
261.71	84.56
261.942	86.56
262.175	91.56
262.407	84.56
262.64	77.56
262.872	85.56
263.105	82.56
263.337	67.56
263.57	89.56
263.802	78.56
264.035	82.56
264.267	79.56
264.499	77.56
264.732	91.56
264.964	89.56
265.197	80.56
265.429	93.56
265.661	99.56
265.894	89.56
266.126	83.56
266.358	85.56
266.591	99.56
266.823	78.56
267.055	74.56
267.287	74.56
267.52	73.56
267.752	89.56
267.984	83.56
268.216	88.56
268.448	78.56
268.681	85.56
268.913	75.56
269.145	90.56
269.377	80.56
269.609	82.56
269.841	75.56
270.073	83.56
270.306	88.56
270.538	92.56
270.77	75.56
271.002	87.56
271.234	80.56
271.466	77.56
271.698	78.56
271.93	78.56
272.162	93.56
272.394	93.56
272.626	83.56
272.858	83.56
273.09	84.56
273.322	94.56
273.553	81.56
273.785	83.56
274.017	85.56
274.249	87.56
274.481	82.56
274.713	92.56
274.945	73.56
275.176	76.56
275.408	78.56
275.64	87.56
275.872	93.56
276.104	70.56
276.335	82.56
276.567	77.56
276.799	94.56
277.031	93.56
277.262	82.56
277.494	89.56
277.726	80.56
277.957	91.56
278.189	68.56
278.421	87.56
278.652	94.56
278.884	88.56
279.115	64.56
279.347	93.56
279.579	89.56
279.81	84.56
280.042	92.56
280.273	80.56
280.505	89.56
280.736	80.56
280.968	93.56
281.199	64.56
281.431	82.56
281.662	75.56
281.894	75.56
282.125	91.56
282.356	76.56
282.588	94.56
282.819	83.56
283.051	76.56
283.282	61.56
283.513	94.56
283.745	80.56
283.976	95.56
284.207	79.56
284.439	83.56
284.67	87.56
284.901	86.56
285.132	85.56
285.364	72.56
285.595	83.56
285.826	86.56
286.057	89.56
286.288	95.56
286.52	84.56
286.751	108.56
286.982	92.56
287.213	90.56
287.444	85.56
287.675	77.56
287.906	84.56
288.138	93.56
288.369	97.56
288.6	91.56
288.831	85.56
289.062	93.56
289.293	100.56
289.524	82.56
289.755	91.56
289.986	74.56
290.217	94.56
290.448	91.56
290.679	95.56
290.91	87.56
291.141	76.56
291.371	91.56
291.602	97.56
291.833	89.56
292.064	77.56
292.295	83.56
292.526	85.56
292.757	75.56
292.987	89.56
293.218	78.56
293.449	90.56
293.68	103.56
293.91	76.56
294.141	94.56
294.372	78.56
294.603	83.56
294.833	86.56
295.064	83.56
295.295	94.56
295.525	94.56
295.756	91.56
295.987	84.56
296.217	95.56
296.448	91.56
296.679	90.56
296.909	94.56
297.14	79.56
297.37	90.56
297.601	90.56
297.831	93.56
298.062	86.56
298.292	83.56
298.523	86.56
298.753	79.56
298.984	86.56
299.214	101.56
299.445	93.56
299.675	76.56
299.905	72.56
300.136	89.56
300.366	95.56
300.597	94.56
300.827	91.56
301.057	87.56
301.288	88.56
301.518	98.56
301.748	86.56
301.979	76.56
302.209	83.56
302.439	85.56
302.669	87.56
302.9	88.56
303.13	92.56
303.36	78.56
303.59	96.56
303.82	84.56
304.051	85.56
304.281	86.56
304.511	101.56
304.741	91.56
304.971	98.56
305.201	94.56
305.431	78.56
305.661	98.56
305.891	74.56
306.121	96.56
306.352	96.56
306.582	84.56
306.812	93.56
307.042	99.56
307.272	87.56
307.502	86.56
307.731	86.56
307.961	66.56
308.191	77.56
308.421	97.56
308.651	75.56
308.881	96.56
309.111	71.56
309.341	86.56
309.571	77.56
309.8	87.56
310.03	98.56
310.26	83.56
310.49	63.56
310.72	85.56
310.949	90.56
311.179	85.56
311.409	83.56
311.639	94.56
311.868	73.56
312.098	73.56
312.328	93.56
312.557	82.56
312.787	83.56
313.017	89.56
313.246	102.56
313.476	96.56
313.706	96.56
313.935	100.56
314.165	103.56
314.394	79.56
314.624	95.56
314.853	81.56
315.083	78.56
315.312	87.56
315.542	89.56
315.771	83.56
316.001	107.56
316.23	87.56
316.46	81.56
316.689	98.56
316.919	90.56
317.148	90.56
317.377	92.56
317.607	85.56
317.836	95.56
318.065	82.56
318.295	89.56
318.524	86.56
318.753	86.56
318.983	68.56
319.212	88.56
319.441	92.56
319.67	91.56
319.9	87.56
320.129	86.56
320.358	77.56
320.587	92.56
320.816	79.56
321.046	79.56
321.275	91.56
321.504	99.56
321.733	87.56
321.962	93.56
322.191	92.56
322.42	93.56
322.649	98.56
322.878	90.56
323.108	89.56
323.337	75.56
323.566	96.56
323.795	102.56
324.024	83.56
324.253	87.56
324.482	85.56
324.71	68.56
324.939	93.56
325.168	86.56
325.397	85.56
325.626	78.56
325.855	102.56
326.084	93.56
326.313	91.56
326.542	94.56
326.77	78.56
326.999	83.56
327.228	85.56
327.457	94.56
327.686	85.56
327.914	82.56
328.143	92.56
328.372	71.56
328.6	76.56
328.829	93.56
329.058	107.56
329.287	106.56
329.515	77.56
329.744	89.56
329.972	91.56
330.201	80.56
330.43	78.56
330.658	92.56
330.887	100.56
331.115	96.56
331.344	84.56
331.572	104.56
331.801	90.56
332.03	90.56
332.258	104.56
332.486	78.56
332.715	91.56
332.943	96.56
333.172	86.56
333.4	87.56
333.629	88.56
333.857	84.56
334.085	85.56
334.314	85.56
334.542	102.56
334.771	87.56
334.999	91.56
335.227	88.56
335.455	87.56
335.684	88.56
335.912	102.56
336.14	81.56
336.369	96.56
336.597	95.56
336.825	93.56
337.053	93.56
337.281	90.56
337.51	83.56
337.738	98.56
337.966	98.56
338.194	96.56
338.422	79.56
338.65	85.56
338.878	88.56
339.106	89.56
339.334	92.56
339.562	96.56
339.79	86.56
340.018	89.56
340.246	88.56
340.474	74.56
340.702	77.56
340.93	99.56
341.158	81.56
341.386	88.56
341.614	86.56
341.842	86.56
342.07	95.56
342.298	87.56
342.526	102.56
342.754	92.56
342.981	78.56
343.209	90.56
343.437	83.56
343.665	90.56
343.893	89.56
344.12	84.56
344.348	91.56
344.576	84.56
344.804	79.56
345.031	76.56
345.259	82.56
345.487	82.56
345.714	85.56
345.942	90.56
346.17	95.56
346.397	79.56
346.625	80.56
346.853	93.56
347.08	93.56
347.308	107.56
347.535	86.56
347.763	77.56
347.99	93.56
348.218	69.56
348.445	87.56
348.673	80.56
348.9	96.56
349.128	85.56
349.355	87.56
349.583	74.56
349.81	91.56
350.037	85.56
350.265	89.56
350.492	87.56
350.72	90.56
350.947	82.56
351.174	85.56
351.402	78.56
351.629	88.56
351.856	91.56
352.083	89.56
352.311	87.56
352.538	89.56
352.765	86.56
352.992	92.56
353.22	88.56
353.447	109.56
353.674	99.56
353.901	93.56
354.128	81.56
354.355	87.56
354.583	92.56
354.81	86.56
355.037	101.56
355.264	82.56
355.491	90.56
355.718	72.56
355.945	94.56
356.172	70.56
356.399	86.56
356.626	96.56
356.853	90.56
357.08	86.56
357.307	83.56
357.534	89.56
357.761	81.56
357.988	86.56
358.215	82.56
358.441	81.56
358.668	96.56
358.895	87.56
359.122	81.56
359.349	87.56
359.576	86.56
359.802	84.56
360.029	94.56
360.256	93.56
360.483	97.56
360.709	86.56
360.936	85.56
361.163	94.56
361.39	102.56
361.616	99.56
361.843	98.56
362.07	95.56
362.296	90.56
362.523	89.56
362.749	86.56
362.976	89.56
363.203	93.56
363.429	79.56
363.656	106.56
363.882	90.56
364.109	84.56
364.335	96.56
364.562	90.56
364.788	87.56
365.015	93.56
365.241	83.56
365.468	96.56
365.694	83.56
365.92	97.56
366.147	96.56
366.373	83.56
366.599	88.56
366.826	95.56
367.052	102.56
367.278	83.56
367.505	83.56
367.731	98.56
367.957	96.56
368.184	83.56
368.41	75.56
368.636	94.56
368.862	96.56
369.089	83.56
369.315	89.56
369.541	101.56
369.767	91.56
369.993	89.56
370.219	67.56
370.445	79.56
370.672	100.56
370.898	82.56
371.124	99.56
371.35	101.56
371.576	95.56
371.802	94.56
372.028	93.56
372.254	70.56
372.48	74.56
372.706	90.56
372.932	89.56
373.158	85.56
373.384	86.56
373.61	97.56
373.835	103.56
374.061	91.56
374.287	88.56
374.513	96.56
374.739	93.56
374.965	77.56
375.191	100.56
375.416	86.56
375.642	87.56
375.868	94.56
376.094	93.56
376.319	84.56
376.545	98.56
376.771	87.56
376.997	101.56
377.222	84.56
377.448	99.56
377.674	95.56
377.899	76.56
378.125	104.56
378.35	78.56
378.576	86.56
378.802	95.56
379.027	108.56
379.253	101.56
379.478	90.56
379.704	110.56
379.929	93.56
380.155	87.56
380.38	99.56
380.606	96.56
380.831	97.56
381.057	90.56
381.282	78.56
381.507	90.56
381.733	93.56
381.958	101.56
382.184	92.56
382.409	90.56
382.634	89.56
382.86	87.56
383.085	95.56
383.31	87.56
383.535	96.56
383.761	100.56
383.986	88.56
384.211	93.56
384.436	96.56
384.662	107.56
384.887	99.56
385.112	94.56
385.337	97.56
385.562	89.56
385.787	84.56
386.013	92.56
386.238	92.56
386.463	102.56
386.688	114.56
386.913	95.56
387.138	109.56
387.363	99.56
387.588	110.56
387.813	105.56
388.038	85.56
388.263	102.56
388.488	98.56
388.713	106.56
388.938	121.56
389.163	89.56
389.387	95.56
389.612	92.56
389.837	113.56
390.062	102.56
390.287	95.56
390.512	101.56
390.736	94.56
390.961	98.56
391.186	93.56
391.411	79.56
391.636	96.56
391.86	86.56
392.085	110.56
392.31	96.56
392.534	111.56
392.759	113.56
392.984	98.56
393.208	101.56
393.433	111.56
393.658	110.56
393.882	99.56
394.107	99.56
394.331	110.56
394.556	113.56
394.78	106.56
395.005	95.56
395.229	116.56
395.454	101.56
395.678	104.56
395.903	101.56
396.127	86.56
396.352	101.56
396.576	117.56
396.801	109.56
397.025	117.56
397.249	97.56
397.474	97.56
397.698	98.56
397.922	78.56
398.147	105.56
398.371	110.56
398.595	116.56
398.82	105.56
399.044	95.56
399.268	101.56
399.492	124.56
399.717	114.56
399.941	125.56
400.165	106.56
400.389	115.56
400.613	101.56
400.837	101.56
401.062	114.56
401.286	102.56
401.51	118.56
401.734	101.56
401.958	99.56
402.182	103.56
402.406	95.56
402.63	104.56
402.854	110.56
403.078	113.56
403.302	120.56
403.526	114.56
403.75	127.56
403.974	115.56
404.198	106.56
404.422	104.56
404.645	110.56
404.869	102.56
405.093	116.56
405.317	124.56
405.541	125.56
405.765	119.56
405.988	125.56
406.212	107.56
406.436	105.56
406.66	105.56
406.883	131.56
407.107	122.56
407.331	98.56
407.555	124.56
407.778	129.56
408.002	125.56
408.226	110.56
408.449	103.56
408.673	121.56
408.896	109.56
409.12	117.56
409.344	117.56
409.567	107.56
409.791	118.56
410.014	110.56
410.238	113.56
410.461	111.56
410.685	132.56
410.908	108.56
411.132	113.56
411.355	129.56
411.578	116.56
411.802	113.56
412.025	104.56
412.249	115.56
412.472	114.56
412.695	132.56
412.919	113.56
413.142	124.56
413.365	112.56
413.589	108.56
413.812	113.56
414.035	120.56
414.258	97.56
414.482	119.56
414.705	121.56
414.928	122.56
415.151	102.56
415.374	125.56
415.597	104.56
415.821	125.56
416.044	120.56
416.267	118.56
416.49	115.56
416.713	111.56
416.936	120.56
417.159	111.56
417.382	108.56
417.605	123.56
417.828	127.56
418.051	121.56
418.274	127.56
418.497	108.56
418.72	125.56
418.943	129.56
419.166	121.56
419.389	129.56
419.611	101.56
419.834	95.56
420.057	128.56
420.28	95.56
420.503	104.56
420.726	123.56
420.948	117.56
421.171	126.56
421.394	121.56
421.617	127.56
421.839	127.56
422.062	115.56
422.285	116.56
422.507	123.56
422.73	127.56
422.953	129.56
423.175	115.56
423.398	133.56
423.621	134.56
423.843	128.56
424.066	121.56
424.288	122.56
424.511	125.56
424.733	118.56
424.956	135.56
425.178	105.56
425.401	106.56
425.623	104.56
425.846	128.56
426.068	119.56
426.291	111.56
426.513	131.56
426.735	118.56
426.958	131.56
427.18	114.56
427.402	119.56
427.625	103.56
427.847	99.56
428.069	134.56
428.292	99.56
428.514	115.56
428.736	103.56
428.958	112.56
429.181	114.56
429.403	124.56
429.625	107.56
429.847	127.56
430.069	117.56
430.292	118.56
430.514	87.56
430.736	106.56
430.958	112.56
431.18	115.56
431.402	119.56
431.624	115.56
431.846	110.56
432.068	109.56
432.29	103.56
432.512	115.56
432.734	115.56
432.956	125.56
433.178	120.56
433.4	123.56
433.622	115.56
433.844	105.56
434.066	117.56
434.287	104.56
434.509	109.56
434.731	107.56
434.953	122.56
435.175	99.56
435.397	106.56
435.618	116.56
435.84	118.56
436.062	126.56
436.284	116.56
436.505	118.56
436.727	118.56
436.949	116.56
437.17	134.56
437.392	121.56
437.614	93.56
437.835	118.56
438.057	110.56
438.278	101.56
438.5	113.56
438.721	131.56
438.943	125.56
439.165	108.56
439.386	122.56
439.608	110.56
439.829	120.56
440.05	124.56
440.272	140.56
440.493	123.56
440.715	110.56
440.936	134.56
441.158	141.56
441.379	109.56
441.6	118.56
441.822	121.56
442.043	119.56
442.264	137.56
442.486	119.56
442.707	119.56
442.928	142.56
443.149	115.56
443.371	122.56
443.592	125.56
443.813	129.56
444.034	126.56
444.255	119.56
444.476	135.56
444.698	111.56
444.919	127.56
445.14	234.56
445.361	181.56
445.582	128.56
445.803	125.56
446.024	118.56
446.245	124.56
446.466	124.56
446.687	114.56
446.908	109.56
447.129	107.56
447.35	110.56
447.571	105.56
447.792	118.56
448.013	121.56
448.234	122.56
448.455	138.56
448.675	131.56
448.896	102.56
449.117	119.56
449.338	125.56
449.559	130.56
449.779	110.56
450	105.56
450.221	118.56
450.442	122.56
450.662	94.56
450.883	131.56
451.104	119.56
451.324	113.56
451.545	125.56
451.766	126.56
451.986	126.56
452.207	116.56
452.428	123.56
452.648	119.56
452.869	108.56
453.089	103.56
453.31	102.56
453.53	100.56
453.751	116.56
453.971	115.56
454.192	105.56
454.412	103.56
454.633	112.56
454.853	102.56
455.073	93.56
455.294	113.56
455.514	107.56
455.734	113.56
455.955	117.56
456.175	114.56
456.395	106.56
456.616	117.56
456.836	104.56
457.056	115.56
457.276	119.56
457.497	104.56
457.717	117.56
457.937	117.56
458.157	114.56
458.377	106.56
458.598	121.56
458.818	110.56
459.038	110.56
459.258	83.56
459.478	94.56
459.698	95.56
459.918	106.56
460.138	99.56
460.358	129.56
460.578	133.56
460.798	122.56
461.018	118.56
461.238	128.56
461.458	131.56
461.678	127.56
461.898	129.56
462.118	105.56
462.338	119.56
462.558	119.56
462.777	131.56
462.997	122.56
463.217	123.56
463.437	134.56
463.657	117.56
463.876	133.56
464.096	131.56
464.316	131.56
464.536	126.56
464.755	131.56
464.975	124.56
465.195	115.56
465.414	117.56
465.634	115.56
465.854	125.56
466.073	121.56
466.293	114.56
466.512	122.56
466.732	125.56
466.951	115.56
467.171	122.56
467.391	125.56
467.61	133.56
467.829	126.56
468.049	132.56
468.268	121.56
468.488	128.56
468.707	104.56
468.927	120.56
469.146	125.56
469.365	120.56
469.585	122.56
469.804	116.56
470.023	123.56
470.243	115.56
470.462	126.56
470.681	126.56
470.901	122.56
471.12	110.56
471.339	118.56
471.558	122.56
471.777	131.56
471.997	132.56
472.216	106.56
472.435	115.56
472.654	108.56
472.873	118.56
473.092	112.56
473.311	118.56
473.53	118.56
473.749	122.56
473.968	110.56
474.187	100.56
474.406	115.56
474.625	109.56
474.844	127.56
475.063	129.56
475.282	125.56
475.501	114.56
475.72	122.56
475.939	121.56
476.158	117.56
476.377	110.56
476.596	123.56
476.814	113.56
477.033	121.56
477.252	121.56
477.471	113.56
477.69	105.56
477.908	145.56
478.127	127.56
478.346	136.56
478.564	134.56
478.783	132.56
479.002	138.56
479.22	129.56
479.439	127.56
479.658	129.56
479.876	115.56
480.095	118.56
480.313	124.56
480.532	138.56
480.751	122.56
480.969	127.56
481.188	120.56
481.406	126.56
481.624	118.56
481.843	110.56
482.061	134.56
482.28	119.56
482.498	123.56
482.717	121.56
482.935	121.56
483.153	130.56
483.372	127.56
483.59	149.56
483.808	124.56
484.027	116.56
484.245	130.56
484.463	139.56
484.681	142.56
484.9	133.56
485.118	144.56
485.336	135.56
485.554	126.56
485.772	147.56
485.99	129.56
486.209	121.56
486.427	133.56
486.645	131.56
486.863	123.56
487.081	130.56
487.299	136.56
487.517	134.56
487.735	137.56
487.953	140.56
488.171	141.56
488.389	134.56
488.607	131.56
488.825	124.56
489.043	135.56
489.261	132.56
489.479	138.56
489.696	139.56
489.914	137.56
490.132	139.56
490.35	144.56
490.568	149.56
490.786	152.56
491.003	150.56
491.221	161.56
491.439	149.56
491.657	162.56
491.874	145.56
492.092	172.56
492.31	172.56
492.527	161.56
492.745	151.56
492.963	150.56
493.18	140.56
493.398	153.56
493.615	155.56
493.833	154.56
494.05	132.56
494.268	164.56
494.485	167.56
494.703	171.56
494.92	162.56
495.138	164.56
495.355	158.56
495.573	166.56
495.79	142.56
496.008	155.56
496.225	153.56
496.442	146.56
496.66	156.56
496.877	158.56
497.094	146.56
497.312	144.56
497.529	148.56
497.746	161.56
497.963	140.56
498.181	136.56
498.398	149.56
498.615	141.56
498.832	146.56
499.049	167.56
499.267	160.56
499.484	171.56
499.701	188.56
499.918	200.56
500.135	200.56
500.352	222.56
500.569	241.56
500.786	234.56
501.003	230.56
501.22	198.56
501.437	194.56
501.654	192.56
501.871	165.56
502.088	179.56
502.305	159.56
502.522	175.56
502.739	165.56
502.956	155.56
503.172	151.56
503.389	143.56
503.606	129.56
503.823	136.56
504.04	149.56
504.256	148.56
504.473	144.56
504.69	130.56
504.907	131.56
505.123	142.56
505.34	144.56
505.557	130.56
505.773	138.56
505.99	127.56
506.207	145.56
506.423	126.56
506.64	129.56
506.856	121.56
507.073	124.56
507.289	124.56
507.506	143.56
507.722	135.56
507.939	138.56
508.155	134.56
508.372	104.56
508.588	139.56
508.805	138.56
509.021	106.56
509.238	125.56
509.454	129.56
509.67	133.56
509.887	119.56
510.103	118.56
510.319	115.56
510.536	109.56
510.752	115.56
510.968	111.56
511.184	124.56
