Data from StandardFe(NO3)3.TAE.3%Agarose.FlatLispGreen.Lamp.Energy10.07252019_HRD10591_11-56-31-442.txt Node
Date: Thu Jul 25 11:56:31 EDT 2019
User: cochatt
Spectrometer: HR+D1059
Trigger mode: 1
Integration Time (sec): 1.000000E-1
Scans to average: 1
Electric dark correction enabled: true
Nonlinearity correction enabled: false
Boxcar width: 0
XAxis mode: Wavelengths
Number of Pixels in Spectrum: 2048
>>>>>Begin Spectral Data<<<<<
223.165	-8.81
223.4	-8.81
223.635	-8.81
223.869	-22.81
224.104	-14.81
224.338	-23.81
224.573	-10.81
224.808	-10.81
225.042	-11.81
225.277	-11.81
225.511	10.19
225.746	-1.81
225.98	3.19
226.215	9.19
226.449	19.19
226.683	38.19
226.918	16.19
227.152	21.19
227.387	24.19
227.621	43.19
227.856	37.19
228.09	35.19
228.324	28.19
228.559	69.19
228.793	59.19
229.027	63.19
229.262	63.19
229.496	61.19
229.73	72.19
229.964	68.19
230.199	76.19
230.433	73.19
230.667	70.19
230.901	85.19
231.136	84.19
231.37	95.19
231.604	84.19
231.838	84.19
232.072	76.19
232.306	85.19
232.541	77.19
232.775	84.19
233.009	89.19
233.243	68.19
233.477	90.19
233.711	77.19
233.945	91.19
234.179	81.19
234.413	76.19
234.647	70.19
234.881	78.19
235.115	71.19
235.349	75.19
235.583	80.19
235.817	92.19
236.051	76.19
236.285	69.19
236.519	78.19
236.753	70.19
236.987	79.19
237.221	65.19
237.455	67.19
237.689	64.19
237.922	69.19
238.156	75.19
238.39	77.19
238.624	75.19
238.858	89.19
239.091	74.19
239.325	84.19
239.559	75.19
239.793	82.19
240.027	88.19
240.26	80.19
240.494	77.19
240.728	84.19
240.961	72.19
241.195	79.19
241.429	80.19
241.662	78.19
241.896	76.19
242.13	73.19
242.363	71.19
242.597	88.19
242.83	85.19
243.064	72.19
243.298	68.19
243.531	79.19
243.765	78.19
243.998	68.19
244.232	81.19
244.465	75.19
244.699	83.19
244.932	75.19
245.166	89.19
245.399	71.19
245.633	80.19
245.866	85.19
246.099	71.19
246.333	59.19
246.566	72.19
246.8	85.19
247.033	75.19
247.266	86.19
247.5	87.19
247.733	72.19
247.966	80.19
248.2	83.19
248.433	75.19
248.666	70.19
248.899	85.19
249.133	80.19
249.366	77.19
249.599	66.19
249.832	56.19
250.066	77.19
250.299	84.19
250.532	96.19
250.765	97.19
250.998	82.19
251.231	77.19
251.465	82.19
251.698	98.19
251.931	90.19
252.164	81.19
252.397	78.19
252.63	84.19
252.863	90.19
253.096	69.19
253.329	89.19
253.562	74.19
253.795	88.19
254.028	68.19
254.261	76.19
254.494	88.19
254.727	64.19
254.96	77.19
255.193	81.19
255.426	76.19
255.659	78.19
255.892	72.19
256.124	71.19
256.357	72.19
256.59	94.19
256.823	71.19
257.056	86.19
257.289	77.19
257.521	76.19
257.754	84.19
257.987	79.19
258.22	84.19
258.452	78.19
258.685	87.19
258.918	79.19
259.151	84.19
259.383	75.19
259.616	81.19
259.849	69.19
260.081	80.19
260.314	76.19
260.547	99.19
260.779	71.19
261.012	70.19
261.244	87.19
261.477	82.19
261.71	86.19
261.942	74.19
262.175	78.19
262.407	71.19
262.64	93.19
262.872	85.19
263.105	77.19
263.337	78.19
263.57	84.19
263.802	76.19
264.035	83.19
264.267	76.19
264.499	78.19
264.732	74.19
264.964	90.19
265.197	74.19
265.429	95.19
265.661	83.19
265.894	88.19
266.126	74.19
266.358	73.19
266.591	84.19
266.823	91.19
267.055	74.19
267.287	80.19
267.52	82.19
267.752	89.19
267.984	81.19
268.216	91.19
268.448	96.19
268.681	80.19
268.913	83.19
269.145	92.19
269.377	87.19
269.609	80.19
269.841	95.19
270.073	63.19
270.306	65.19
270.538	89.19
270.77	87.19
271.002	77.19
271.234	79.19
271.466	76.19
271.698	75.19
271.93	77.19
272.162	68.19
272.394	80.19
272.626	83.19
272.858	84.19
273.09	83.19
273.322	80.19
273.553	82.19
273.785	78.19
274.017	103.19
274.249	89.19
274.481	88.19
274.713	79.19
274.945	83.19
275.176	89.19
275.408	85.19
275.64	76.19
275.872	86.19
276.104	81.19
276.335	89.19
276.567	76.19
276.799	83.19
277.031	87.19
277.262	75.19
277.494	87.19
277.726	71.19
277.957	84.19
278.189	95.19
278.421	86.19
278.652	86.19
278.884	75.19
279.115	85.19
279.347	76.19
279.579	85.19
279.81	75.19
280.042	86.19
280.273	74.19
280.505	82.19
280.736	88.19
280.968	89.19
281.199	81.19
281.431	90.19
281.662	70.19
281.894	89.19
282.125	85.19
282.356	64.19
282.588	66.19
282.819	92.19
283.051	90.19
283.282	76.19
283.513	93.19
283.745	83.19
283.976	83.19
284.207	89.19
284.439	97.19
284.67	83.19
284.901	89.19
285.132	69.19
285.364	83.19
285.595	79.19
285.826	76.19
286.057	87.19
286.288	84.19
286.52	102.19
286.751	89.19
286.982	99.19
287.213	84.19
287.444	87.19
287.675	72.19
287.906	89.19
288.138	78.19
288.369	75.19
288.6	79.19
288.831	87.19
289.062	87.19
289.293	82.19
289.524	78.19
289.755	78.19
289.986	87.19
290.217	93.19
290.448	89.19
290.679	97.19
290.91	91.19
291.141	88.19
291.371	95.19
291.602	98.19
291.833	77.19
292.064	89.19
292.295	78.19
292.526	85.19
292.757	93.19
292.987	84.19
293.218	97.19
293.449	89.19
293.68	81.19
293.91	83.19
294.141	85.19
294.372	84.19
294.603	84.19
294.833	89.19
295.064	77.19
295.295	85.19
295.525	88.19
295.756	85.19
295.987	60.19
296.217	93.19
296.448	88.19
296.679	81.19
296.909	74.19
297.14	95.19
297.37	92.19
297.601	77.19
297.831	83.19
298.062	85.19
298.292	85.19
298.523	86.19
298.753	75.19
298.984	89.19
299.214	89.19
299.445	97.19
299.675	74.19
299.905	80.19
300.136	91.19
300.366	85.19
300.597	83.19
300.827	79.19
301.057	81.19
301.288	79.19
301.518	95.19
301.748	88.19
301.979	78.19
302.209	86.19
302.439	76.19
302.669	78.19
302.9	87.19
303.13	86.19
303.36	83.19
303.59	81.19
303.82	92.19
304.051	89.19
304.281	88.19
304.511	89.19
304.741	93.19
304.971	83.19
305.201	83.19
305.431	80.19
305.661	71.19
305.891	90.19
306.121	97.19
306.352	89.19
306.582	87.19
306.812	87.19
307.042	93.19
307.272	94.19
307.502	100.19
307.731	76.19
307.961	91.19
308.191	88.19
308.421	88.19
308.651	81.19
308.881	97.19
309.111	84.19
309.341	81.19
309.571	94.19
309.8	73.19
310.03	75.19
310.26	82.19
310.49	81.19
310.72	83.19
310.949	89.19
311.179	90.19
311.409	73.19
311.639	91.19
311.868	89.19
312.098	83.19
312.328	87.19
312.557	92.19
312.787	92.19
313.017	84.19
313.246	90.19
313.476	83.19
313.706	90.19
313.935	74.19
314.165	88.19
314.394	86.19
314.624	78.19
314.853	78.19
315.083	84.19
315.312	77.19
315.542	80.19
315.771	88.19
316.001	84.19
316.23	71.19
316.46	78.19
316.689	65.19
316.919	79.19
317.148	80.19
317.377	92.19
317.607	81.19
317.836	91.19
318.065	92.19
318.295	85.19
318.524	77.19
318.753	76.19
318.983	92.19
319.212	94.19
319.441	93.19
319.67	88.19
319.9	85.19
320.129	89.19
320.358	90.19
320.587	88.19
320.816	99.19
321.046	115.19
321.275	93.19
321.504	88.19
321.733	91.19
321.962	90.19
322.191	96.19
322.42	75.19
322.649	86.19
322.878	74.19
323.108	77.19
323.337	84.19
323.566	83.19
323.795	86.19
324.024	90.19
324.253	70.19
324.482	80.19
324.71	87.19
324.939	76.19
325.168	88.19
325.397	83.19
325.626	73.19
325.855	74.19
326.084	88.19
326.313	85.19
326.542	74.19
326.77	87.19
326.999	85.19
327.228	88.19
327.457	97.19
327.686	99.19
327.914	80.19
328.143	86.19
328.372	87.19
328.6	94.19
328.829	75.19
329.058	89.19
329.287	92.19
329.515	90.19
329.744	87.19
329.972	87.19
330.201	67.19
330.43	78.19
330.658	87.19
330.887	82.19
331.115	66.19
331.344	76.19
331.572	81.19
331.801	87.19
332.03	76.19
332.258	84.19
332.486	84.19
332.715	83.19
332.943	83.19
333.172	91.19
333.4	88.19
333.629	100.19
333.857	85.19
334.085	92.19
334.314	91.19
334.542	86.19
334.771	90.19
334.999	87.19
335.227	76.19
335.455	91.19
335.684	98.19
335.912	88.19
336.14	81.19
336.369	88.19
336.597	95.19
336.825	88.19
337.053	77.19
337.281	89.19
337.51	88.19
337.738	73.19
337.966	88.19
338.194	93.19
338.422	87.19
338.65	101.19
338.878	85.19
339.106	82.19
339.334	83.19
339.562	82.19
339.79	89.19
340.018	85.19
340.246	83.19
340.474	91.19
340.702	88.19
340.93	88.19
341.158	90.19
341.386	88.19
341.614	93.19
341.842	92.19
342.07	72.19
342.298	85.19
342.526	82.19
342.754	77.19
342.981	87.19
343.209	81.19
343.437	82.19
343.665	84.19
343.893	85.19
344.12	89.19
344.348	91.19
344.576	82.19
344.804	91.19
345.031	96.19
345.259	100.19
345.487	76.19
345.714	87.19
345.942	71.19
346.17	91.19
346.397	95.19
346.625	74.19
346.853	89.19
347.08	92.19
347.308	98.19
347.535	76.19
347.763	86.19
347.99	91.19
348.218	86.19
348.445	81.19
348.673	76.19
348.9	99.19
349.128	94.19
349.355	95.19
349.583	72.19
349.81	88.19
350.037	73.19
350.265	81.19
350.492	91.19
350.72	82.19
350.947	100.19
351.174	87.19
351.402	83.19
351.629	80.19
351.856	86.19
352.083	87.19
352.311	86.19
352.538	91.19
352.765	93.19
352.992	91.19
353.22	81.19
353.447	76.19
353.674	76.19
353.901	76.19
354.128	97.19
354.355	88.19
354.583	93.19
354.81	93.19
355.037	96.19
355.264	97.19
355.491	88.19
355.718	75.19
355.945	81.19
356.172	80.19
356.399	69.19
356.626	75.19
356.853	77.19
357.08	79.19
357.307	89.19
357.534	86.19
357.761	91.19
357.988	90.19
358.215	83.19
358.441	94.19
358.668	91.19
358.895	80.19
359.122	94.19
359.349	95.19
359.576	89.19
359.802	85.19
360.029	82.19
360.256	75.19
360.483	75.19
360.709	91.19
360.936	71.19
361.163	82.19
361.39	88.19
361.616	85.19
361.843	83.19
362.07	96.19
362.296	92.19
362.523	96.19
362.749	72.19
362.976	79.19
363.203	81.19
363.429	75.19
363.656	85.19
363.882	90.19
364.109	85.19
364.335	95.19
364.562	97.19
364.788	82.19
365.015	67.19
365.241	77.19
365.468	85.19
365.694	87.19
365.92	92.19
366.147	88.19
366.373	77.19
366.599	63.19
366.826	85.19
367.052	83.19
367.278	77.19
367.505	89.19
367.731	82.19
367.957	88.19
368.184	88.19
368.41	93.19
368.636	111.19
368.862	90.19
369.089	88.19
369.315	105.19
369.541	81.19
369.767	89.19
369.993	93.19
370.219	89.19
370.445	95.19
370.672	90.19
370.898	83.19
371.124	78.19
371.35	82.19
371.576	97.19
371.802	82.19
372.028	89.19
372.254	96.19
372.48	97.19
372.706	88.19
372.932	97.19
373.158	87.19
373.384	92.19
373.61	84.19
373.835	99.19
374.061	96.19
374.287	101.19
374.513	90.19
374.739	89.19
374.965	78.19
375.191	86.19
375.416	90.19
375.642	90.19
375.868	75.19
376.094	83.19
376.319	81.19
376.545	91.19
376.771	98.19
376.997	87.19
377.222	101.19
377.448	88.19
377.674	95.19
377.899	80.19
378.125	85.19
378.35	109.19
378.576	85.19
378.802	84.19
379.027	84.19
379.253	79.19
379.478	99.19
379.704	91.19
379.929	84.19
380.155	70.19
380.38	92.19
380.606	73.19
380.831	86.19
381.057	103.19
381.282	93.19
381.507	89.19
381.733	75.19
381.958	100.19
382.184	98.19
382.409	99.19
382.634	86.19
382.86	88.19
383.085	85.19
383.31	94.19
383.535	89.19
383.761	81.19
383.986	96.19
384.211	77.19
384.436	91.19
384.662	84.19
384.887	85.19
385.112	92.19
385.337	95.19
385.562	92.19
385.787	102.19
386.013	104.19
386.238	87.19
386.463	89.19
386.688	92.19
386.913	98.19
387.138	89.19
387.363	97.19
387.588	105.19
387.813	101.19
388.038	100.19
388.263	87.19
388.488	87.19
388.713	104.19
388.938	84.19
389.163	81.19
389.387	91.19
389.612	98.19
389.837	91.19
390.062	90.19
390.287	97.19
390.512	107.19
390.736	83.19
390.961	96.19
391.186	98.19
391.411	85.19
391.636	88.19
391.86	84.19
392.085	99.19
392.31	104.19
392.534	95.19
392.759	92.19
392.984	89.19
393.208	96.19
393.433	95.19
393.658	89.19
393.882	93.19
394.107	101.19
394.331	107.19
394.556	104.19
394.78	89.19
395.005	80.19
395.229	94.19
395.454	104.19
395.678	92.19
395.903	91.19
396.127	104.19
396.352	100.19
396.576	98.19
396.801	84.19
397.025	103.19
397.249	97.19
397.474	99.19
397.698	98.19
397.922	95.19
398.147	111.19
398.371	102.19
398.595	101.19
398.82	100.19
399.044	101.19
399.268	108.19
399.492	118.19
399.717	109.19
399.941	108.19
400.165	99.19
400.389	92.19
400.613	105.19
400.837	100.19
401.062	88.19
401.286	100.19
401.51	90.19
401.734	110.19
401.958	94.19
402.182	121.19
402.406	101.19
402.63	102.19
402.854	106.19
403.078	95.19
403.302	101.19
403.526	103.19
403.75	108.19
403.974	99.19
404.198	103.19
404.422	115.19
404.645	98.19
404.869	117.19
405.093	107.19
405.317	108.19
405.541	100.19
405.765	115.19
405.988	105.19
406.212	120.19
406.436	106.19
406.66	117.19
406.883	99.19
407.107	107.19
407.331	84.19
407.555	116.19
407.778	120.19
408.002	103.19
408.226	112.19
408.449	103.19
408.673	105.19
408.896	119.19
409.12	107.19
409.344	104.19
409.567	115.19
409.791	108.19
410.014	99.19
410.238	123.19
410.461	104.19
410.685	119.19
410.908	114.19
411.132	112.19
411.355	105.19
411.578	113.19
411.802	107.19
412.025	111.19
412.249	106.19
412.472	107.19
412.695	106.19
412.919	107.19
413.142	108.19
413.365	122.19
413.589	108.19
413.812	91.19
414.035	106.19
414.258	111.19
414.482	106.19
414.705	93.19
414.928	100.19
415.151	109.19
415.374	115.19
415.597	105.19
415.821	117.19
416.044	93.19
416.267	116.19
416.49	111.19
416.713	106.19
416.936	118.19
417.159	96.19
417.382	108.19
417.605	122.19
417.828	101.19
418.051	102.19
418.274	93.19
418.497	106.19
418.72	110.19
418.943	122.19
419.166	112.19
419.389	122.19
419.611	115.19
419.834	105.19
420.057	113.19
420.28	108.19
420.503	111.19
420.726	111.19
420.948	114.19
421.171	117.19
421.394	108.19
421.617	108.19
421.839	117.19
422.062	109.19
422.285	95.19
422.507	104.19
422.73	109.19
422.953	113.19
423.175	112.19
423.398	114.19
423.621	130.19
423.843	123.19
424.066	125.19
424.288	101.19
424.511	113.19
424.733	102.19
424.956	115.19
425.178	115.19
425.401	104.19
425.623	113.19
425.846	121.19
426.068	106.19
426.291	110.19
426.513	102.19
426.735	113.19
426.958	108.19
427.18	106.19
427.402	107.19
427.625	113.19
427.847	101.19
428.069	100.19
428.292	114.19
428.514	108.19
428.736	119.19
428.958	109.19
429.181	107.19
429.403	100.19
429.625	113.19
429.847	113.19
430.069	116.19
430.292	121.19
430.514	108.19
430.736	96.19
430.958	105.19
431.18	116.19
431.402	99.19
431.624	109.19
431.846	103.19
432.068	100.19
432.29	107.19
432.512	112.19
432.734	117.19
432.956	113.19
433.178	120.19
433.4	118.19
433.622	127.19
433.844	119.19
434.066	96.19
434.287	91.19
434.509	93.19
434.731	105.19
434.953	114.19
435.175	114.19
435.397	100.19
435.618	94.19
435.84	114.19
436.062	111.19
436.284	106.19
436.505	114.19
436.727	103.19
436.949	115.19
437.17	113.19
437.392	113.19
437.614	115.19
437.835	98.19
438.057	106.19
438.278	98.19
438.5	113.19
438.721	118.19
438.943	115.19
439.165	102.19
439.386	127.19
439.608	115.19
439.829	109.19
440.05	124.19
440.272	113.19
440.493	121.19
440.715	113.19
440.936	108.19
441.158	113.19
441.379	119.19
441.6	112.19
441.822	103.19
442.043	123.19
442.264	113.19
442.486	119.19
442.707	115.19
442.928	121.19
443.149	124.19
443.371	105.19
443.592	127.19
443.813	127.19
444.034	108.19
444.255	136.19
444.476	126.19
444.698	128.19
444.919	131.19
445.14	261.19
445.361	179.19
445.582	122.19
445.803	109.19
446.024	118.19
446.245	107.19
446.466	116.19
446.687	95.19
446.908	111.19
447.129	114.19
447.35	107.19
447.571	119.19
447.792	99.19
448.013	120.19
448.234	110.19
448.455	113.19
448.675	116.19
448.896	109.19
449.117	112.19
449.338	108.19
449.559	104.19
449.779	100.19
450	109.19
450.221	103.19
450.442	112.19
450.662	116.19
450.883	122.19
451.104	115.19
451.324	113.19
451.545	108.19
451.766	122.19
451.986	106.19
452.207	120.19
452.428	106.19
452.648	109.19
452.869	94.19
453.089	107.19
453.31	116.19
453.53	108.19
453.751	102.19
453.971	96.19
454.192	96.19
454.412	114.19
454.633	91.19
454.853	102.19
455.073	113.19
455.294	103.19
455.514	99.19
455.734	111.19
455.955	113.19
456.175	99.19
456.395	103.19
456.616	119.19
456.836	102.19
457.056	108.19
457.276	100.19
457.497	98.19
457.717	104.19
457.937	103.19
458.157	92.19
458.377	96.19
458.598	105.19
458.818	100.19
459.038	106.19
459.258	101.19
459.478	114.19
459.698	107.19
459.918	107.19
460.138	116.19
460.358	109.19
460.578	112.19
460.798	115.19
461.018	111.19
461.238	94.19
461.458	104.19
461.678	113.19
461.898	127.19
462.118	114.19
462.338	107.19
462.558	112.19
462.777	121.19
462.997	116.19
463.217	123.19
463.437	119.19
463.657	122.19
463.876	112.19
464.096	127.19
464.316	105.19
464.536	133.19
464.755	108.19
464.975	126.19
465.195	125.19
465.414	109.19
465.634	100.19
465.854	102.19
466.073	116.19
466.293	115.19
466.512	103.19
466.732	118.19
466.951	120.19
467.171	114.19
467.391	102.19
467.61	99.19
467.829	116.19
468.049	119.19
468.268	114.19
468.488	105.19
468.707	127.19
468.927	116.19
469.146	129.19
469.365	125.19
469.585	113.19
469.804	109.19
470.023	110.19
470.243	119.19
470.462	123.19
470.681	119.19
470.901	121.19
471.12	115.19
471.339	120.19
471.558	113.19
471.777	112.19
471.997	117.19
472.216	104.19
472.435	117.19
472.654	100.19
472.873	100.19
473.092	105.19
473.311	114.19
473.53	119.19
473.749	119.19
473.968	113.19
474.187	125.19
474.406	103.19
474.625	113.19
474.844	124.19
475.063	120.19
475.282	117.19
475.501	105.19
475.72	113.19
475.939	114.19
476.158	121.19
476.377	114.19
476.596	107.19
476.814	107.19
477.033	124.19
477.252	123.19
477.471	119.19
477.69	105.19
477.908	120.19
478.127	132.19
478.346	128.19
478.564	119.19
478.783	112.19
479.002	112.19
479.22	125.19
479.439	137.19
479.658	128.19
479.876	119.19
480.095	117.19
480.313	114.19
480.532	132.19
480.751	107.19
480.969	116.19
481.188	118.19
481.406	112.19
481.624	113.19
481.843	119.19
482.061	112.19
482.28	117.19
482.498	106.19
482.717	116.19
482.935	114.19
483.153	121.19
483.372	135.19
483.59	130.19
483.808	120.19
484.027	131.19
484.245	123.19
484.463	126.19
484.681	125.19
484.9	118.19
485.118	129.19
485.336	127.19
485.554	111.19
485.772	98.19
485.99	108.19
486.209	125.19
486.427	115.19
486.645	123.19
486.863	119.19
487.081	139.19
487.299	111.19
487.517	119.19
487.735	132.19
487.953	153.19
488.171	149.19
488.389	119.19
488.607	115.19
488.825	118.19
489.043	125.19
489.261	121.19
489.479	120.19
489.696	123.19
489.914	123.19
490.132	115.19
490.35	113.19
490.568	136.19
490.786	131.19
491.003	135.19
491.221	116.19
491.439	145.19
491.657	147.19
491.874	160.19
492.092	153.19
492.31	163.19
492.527	163.19
492.745	150.19
492.963	151.19
493.18	161.19
493.398	141.19
493.615	137.19
493.833	129.19
494.05	149.19
494.268	133.19
494.485	136.19
494.703	145.19
494.92	142.19
495.138	151.19
495.355	156.19
495.573	146.19
495.79	136.19
496.008	151.19
496.225	147.19
496.442	149.19
496.66	149.19
496.877	146.19
497.094	128.19
497.312	138.19
497.529	140.19
497.746	140.19
497.963	138.19
498.181	133.19
498.398	127.19
498.615	131.19
498.832	135.19
499.049	131.19
499.267	157.19
499.484	183.19
499.701	169.19
499.918	171.19
500.135	181.19
500.352	213.19
500.569	199.19
500.786	212.19
501.003	198.19
501.22	190.19
501.437	184.19
501.654	167.19
501.871	155.19
502.088	143.19
502.305	140.19
502.522	141.19
502.739	134.19
502.956	127.19
503.172	140.19
503.389	135.19
503.606	145.19
503.823	133.19
504.04	143.19
504.256	128.19
504.473	137.19
504.69	121.19
504.907	129.19
505.123	130.19
505.34	120.19
505.557	132.19
505.773	122.19
505.99	124.19
506.207	120.19
506.423	126.19
506.64	125.19
506.856	139.19
507.073	128.19
507.289	121.19
507.506	115.19
507.722	135.19
507.939	133.19
508.155	124.19
508.372	122.19
508.588	125.19
508.805	113.19
509.021	116.19
509.238	127.19
509.454	119.19
509.67	108.19
509.887	111.19
510.103	97.19
510.319	119.19
510.536	99.19
510.752	112.19
510.968	95.19
511.184	100.19
511.401	111.19
511.617	108.19
511.833	119.19
512.049	119.19
