Data from StandardFe(NO3)3.TAE.3%Agarose.FlatLispGreen.Lamp.Energy10.07252019_HRD10591_11-54-23-440.txt Node
Date: Thu Jul 25 11:54:23 EDT 2019
User: cochatt
Spectrometer: HR+D1059
Trigger mode: 1
Integration Time (sec): 1.000000E-1
Scans to average: 1
Electric dark correction enabled: true
Nonlinearity correction enabled: false
Boxcar width: 0
XAxis mode: Wavelengths
Number of Pixels in Spectrum: 2048
>>>>>Begin Spectral Data<<<<<
223.165	-13.56
223.4	-13.56
223.635	-13.56
223.869	-13.56
224.104	-16.56
224.338	-4.56
224.573	-24.56
224.808	-12.56
225.042	-27.56
225.277	-6.56
225.511	-0.56
225.746	20.44
225.98	4.44
226.215	6.44
226.449	6.44
226.683	16.44
226.918	31.44
227.152	34.44
227.387	32.44
227.621	34.44
227.856	58.44
228.09	50.44
228.324	59.44
228.559	59.44
228.793	47.44
229.027	47.44
229.262	62.44
229.496	67.44
229.73	72.44
229.964	67.44
230.199	77.44
230.433	85.44
230.667	81.44
230.901	62.44
231.136	71.44
231.37	75.44
231.604	83.44
231.838	101.44
232.072	80.44
232.306	88.44
232.541	89.44
232.775	88.44
233.009	77.44
233.243	74.44
233.477	77.44
233.711	84.44
233.945	91.44
234.179	98.44
234.413	80.44
234.647	84.44
234.881	72.44
235.115	82.44
235.349	91.44
235.583	79.44
235.817	86.44
236.051	80.44
236.285	97.44
236.519	79.44
236.753	66.44
236.987	80.44
237.221	84.44
237.455	93.44
237.689	59.44
237.922	74.44
238.156	76.44
238.39	72.44
238.624	76.44
238.858	81.44
239.091	82.44
239.325	69.44
239.559	74.44
239.793	84.44
240.027	95.44
240.26	86.44
240.494	78.44
240.728	83.44
240.961	85.44
241.195	85.44
241.429	83.44
241.662	79.44
241.896	63.44
242.13	75.44
242.363	65.44
242.597	76.44
242.83	83.44
243.064	83.44
243.298	80.44
243.531	80.44
243.765	89.44
243.998	81.44
244.232	88.44
244.465	86.44
244.699	70.44
244.932	89.44
245.166	75.44
245.399	76.44
245.633	77.44
245.866	81.44
246.099	89.44
246.333	90.44
246.566	70.44
246.8	77.44
247.033	81.44
247.266	86.44
247.5	83.44
247.733	79.44
247.966	79.44
248.2	76.44
248.433	79.44
248.666	95.44
248.899	70.44
249.133	92.44
249.366	86.44
249.599	81.44
249.832	68.44
250.066	91.44
250.299	79.44
250.532	90.44
250.765	78.44
250.998	77.44
251.231	77.44
251.465	80.44
251.698	94.44
251.931	82.44
252.164	83.44
252.397	83.44
252.63	77.44
252.863	92.44
253.096	77.44
253.329	76.44
253.562	82.44
253.795	87.44
254.028	95.44
254.261	107.44
254.494	86.44
254.727	82.44
254.96	83.44
255.193	85.44
255.426	90.44
255.659	93.44
255.892	88.44
256.124	80.44
256.357	80.44
256.59	89.44
256.823	80.44
257.056	74.44
257.289	81.44
257.521	90.44
257.754	71.44
257.987	88.44
258.22	91.44
258.452	90.44
258.685	100.44
258.918	98.44
259.151	94.44
259.383	73.44
259.616	86.44
259.849	76.44
260.081	86.44
260.314	89.44
260.547	97.44
260.779	81.44
261.012	73.44
261.244	70.44
261.477	83.44
261.71	86.44
261.942	79.44
262.175	77.44
262.407	83.44
262.64	77.44
262.872	86.44
263.105	79.44
263.337	77.44
263.57	82.44
263.802	66.44
264.035	84.44
264.267	100.44
264.499	79.44
264.732	94.44
264.964	78.44
265.197	76.44
265.429	82.44
265.661	88.44
265.894	91.44
266.126	107.44
266.358	69.44
266.591	87.44
266.823	88.44
267.055	90.44
267.287	75.44
267.52	86.44
267.752	95.44
267.984	91.44
268.216	87.44
268.448	91.44
268.681	83.44
268.913	90.44
269.145	80.44
269.377	67.44
269.609	86.44
269.841	79.44
270.073	87.44
270.306	84.44
270.538	90.44
270.77	85.44
271.002	84.44
271.234	84.44
271.466	93.44
271.698	94.44
271.93	97.44
272.162	84.44
272.394	86.44
272.626	90.44
272.858	78.44
273.09	75.44
273.322	94.44
273.553	92.44
273.785	81.44
274.017	76.44
274.249	97.44
274.481	75.44
274.713	86.44
274.945	94.44
275.176	79.44
275.408	78.44
275.64	89.44
275.872	95.44
276.104	90.44
276.335	90.44
276.567	80.44
276.799	79.44
277.031	81.44
277.262	88.44
277.494	92.44
277.726	89.44
277.957	78.44
278.189	84.44
278.421	87.44
278.652	85.44
278.884	93.44
279.115	81.44
279.347	68.44
279.579	96.44
279.81	81.44
280.042	78.44
280.273	89.44
280.505	98.44
280.736	86.44
280.968	81.44
281.199	80.44
281.431	87.44
281.662	79.44
281.894	79.44
282.125	77.44
282.356	84.44
282.588	81.44
282.819	90.44
283.051	92.44
283.282	94.44
283.513	87.44
283.745	85.44
283.976	77.44
284.207	85.44
284.439	85.44
284.67	74.44
284.901	79.44
285.132	87.44
285.364	104.44
285.595	83.44
285.826	85.44
286.057	78.44
286.288	81.44
286.52	95.44
286.751	118.44
286.982	86.44
287.213	76.44
287.444	89.44
287.675	73.44
287.906	84.44
288.138	86.44
288.369	92.44
288.6	86.44
288.831	90.44
289.062	84.44
289.293	85.44
289.524	87.44
289.755	92.44
289.986	103.44
290.217	89.44
290.448	92.44
290.679	87.44
290.91	83.44
291.141	93.44
291.371	83.44
291.602	69.44
291.833	78.44
292.064	84.44
292.295	90.44
292.526	108.44
292.757	93.44
292.987	93.44
293.218	87.44
293.449	82.44
293.68	100.44
293.91	94.44
294.141	93.44
294.372	80.44
294.603	88.44
294.833	79.44
295.064	82.44
295.295	91.44
295.525	77.44
295.756	98.44
295.987	91.44
296.217	95.44
296.448	77.44
296.679	91.44
296.909	86.44
297.14	88.44
297.37	90.44
297.601	83.44
297.831	80.44
298.062	92.44
298.292	101.44
298.523	84.44
298.753	86.44
298.984	71.44
299.214	86.44
299.445	84.44
299.675	92.44
299.905	80.44
300.136	81.44
300.366	84.44
300.597	67.44
300.827	84.44
301.057	72.44
301.288	88.44
301.518	79.44
301.748	75.44
301.979	94.44
302.209	95.44
302.439	88.44
302.669	88.44
302.9	74.44
303.13	84.44
303.36	97.44
303.59	84.44
303.82	84.44
304.051	90.44
304.281	88.44
304.511	87.44
304.741	84.44
304.971	84.44
305.201	86.44
305.431	78.44
305.661	99.44
305.891	86.44
306.121	88.44
306.352	85.44
306.582	90.44
306.812	94.44
307.042	86.44
307.272	98.44
307.502	90.44
307.731	94.44
307.961	101.44
308.191	85.44
308.421	91.44
308.651	84.44
308.881	79.44
309.111	83.44
309.341	70.44
309.571	76.44
309.8	85.44
310.03	88.44
310.26	88.44
310.49	96.44
310.72	83.44
310.949	74.44
311.179	83.44
311.409	81.44
311.639	80.44
311.868	73.44
312.098	87.44
312.328	83.44
312.557	95.44
312.787	90.44
313.017	93.44
313.246	79.44
313.476	79.44
313.706	87.44
313.935	90.44
314.165	72.44
314.394	76.44
314.624	86.44
314.853	83.44
315.083	92.44
315.312	80.44
315.542	90.44
315.771	79.44
316.001	89.44
316.23	74.44
316.46	95.44
316.689	83.44
316.919	85.44
317.148	93.44
317.377	86.44
317.607	87.44
317.836	79.44
318.065	86.44
318.295	88.44
318.524	84.44
318.753	94.44
318.983	78.44
319.212	79.44
319.441	94.44
319.67	86.44
319.9	85.44
320.129	101.44
320.358	82.44
320.587	83.44
320.816	80.44
321.046	83.44
321.275	95.44
321.504	85.44
321.733	84.44
321.962	92.44
322.191	95.44
322.42	99.44
322.649	90.44
322.878	88.44
323.108	90.44
323.337	74.44
323.566	83.44
323.795	82.44
324.024	89.44
324.253	82.44
324.482	87.44
324.71	78.44
324.939	91.44
325.168	91.44
325.397	95.44
325.626	79.44
325.855	85.44
326.084	93.44
326.313	87.44
326.542	83.44
326.77	90.44
326.999	95.44
327.228	94.44
327.457	86.44
327.686	101.44
327.914	84.44
328.143	84.44
328.372	87.44
328.6	82.44
328.829	72.44
329.058	98.44
329.287	90.44
329.515	90.44
329.744	86.44
329.972	86.44
330.201	84.44
330.43	88.44
330.658	78.44
330.887	74.44
331.115	98.44
331.344	85.44
331.572	89.44
331.801	88.44
332.03	87.44
332.258	86.44
332.486	101.44
332.715	81.44
332.943	90.44
333.172	104.44
333.4	79.44
333.629	90.44
333.857	85.44
334.085	80.44
334.314	80.44
334.542	91.44
334.771	76.44
334.999	107.44
335.227	93.44
335.455	84.44
335.684	96.44
335.912	78.44
336.14	84.44
336.369	79.44
336.597	82.44
336.825	86.44
337.053	89.44
337.281	95.44
337.51	86.44
337.738	86.44
337.966	71.44
338.194	82.44
338.422	93.44
338.65	73.44
338.878	83.44
339.106	74.44
339.334	91.44
339.562	85.44
339.79	86.44
340.018	88.44
340.246	65.44
340.474	70.44
340.702	79.44
340.93	75.44
341.158	95.44
341.386	90.44
341.614	77.44
341.842	99.44
342.07	72.44
342.298	86.44
342.526	82.44
342.754	104.44
342.981	96.44
343.209	90.44
343.437	91.44
343.665	87.44
343.893	86.44
344.12	90.44
344.348	80.44
344.576	92.44
344.804	79.44
345.031	84.44
345.259	96.44
345.487	83.44
345.714	79.44
345.942	103.44
346.17	83.44
346.397	76.44
346.625	90.44
346.853	86.44
347.08	83.44
347.308	88.44
347.535	101.44
347.763	98.44
347.99	80.44
348.218	89.44
348.445	79.44
348.673	74.44
348.9	89.44
349.128	90.44
349.355	78.44
349.583	90.44
349.81	80.44
350.037	78.44
350.265	84.44
350.492	94.44
350.72	84.44
350.947	91.44
351.174	88.44
351.402	75.44
351.629	82.44
351.856	86.44
352.083	78.44
352.311	79.44
352.538	91.44
352.765	83.44
352.992	96.44
353.22	89.44
353.447	77.44
353.674	94.44
353.901	92.44
354.128	84.44
354.355	75.44
354.583	69.44
354.81	85.44
355.037	88.44
355.264	96.44
355.491	90.44
355.718	91.44
355.945	81.44
356.172	79.44
356.399	82.44
356.626	85.44
356.853	87.44
357.08	90.44
357.307	90.44
357.534	80.44
357.761	84.44
357.988	86.44
358.215	72.44
358.441	78.44
358.668	94.44
358.895	86.44
359.122	94.44
359.349	93.44
359.576	101.44
359.802	83.44
360.029	87.44
360.256	83.44
360.483	78.44
360.709	74.44
360.936	99.44
361.163	78.44
361.39	82.44
361.616	87.44
361.843	108.44
362.07	94.44
362.296	97.44
362.523	94.44
362.749	88.44
362.976	99.44
363.203	92.44
363.429	91.44
363.656	97.44
363.882	79.44
364.109	79.44
364.335	74.44
364.562	86.44
364.788	88.44
365.015	88.44
365.241	78.44
365.468	85.44
365.694	81.44
365.92	98.44
366.147	94.44
366.373	99.44
366.599	90.44
366.826	98.44
367.052	83.44
367.278	95.44
367.505	83.44
367.731	89.44
367.957	77.44
368.184	82.44
368.41	91.44
368.636	91.44
368.862	90.44
369.089	93.44
369.315	100.44
369.541	93.44
369.767	89.44
369.993	77.44
370.219	85.44
370.445	88.44
370.672	75.44
370.898	99.44
371.124	101.44
371.35	86.44
371.576	80.44
371.802	100.44
372.028	86.44
372.254	79.44
372.48	89.44
372.706	88.44
372.932	78.44
373.158	90.44
373.384	94.44
373.61	79.44
373.835	96.44
374.061	88.44
374.287	90.44
374.513	91.44
374.739	100.44
374.965	84.44
375.191	79.44
375.416	87.44
375.642	84.44
375.868	107.44
376.094	97.44
376.319	82.44
376.545	90.44
376.771	81.44
376.997	68.44
377.222	97.44
377.448	90.44
377.674	77.44
377.899	104.44
378.125	76.44
378.35	84.44
378.576	99.44
378.802	95.44
379.027	99.44
379.253	92.44
379.478	76.44
379.704	90.44
379.929	86.44
380.155	99.44
380.38	94.44
380.606	87.44
380.831	89.44
381.057	92.44
381.282	89.44
381.507	88.44
381.733	87.44
381.958	100.44
382.184	88.44
382.409	95.44
382.634	90.44
382.86	89.44
383.085	103.44
383.31	95.44
383.535	104.44
383.761	96.44
383.986	101.44
384.211	93.44
384.436	99.44
384.662	87.44
384.887	113.44
385.112	88.44
385.337	98.44
385.562	86.44
385.787	103.44
386.013	108.44
386.238	104.44
386.463	100.44
386.688	89.44
386.913	95.44
387.138	99.44
387.363	80.44
387.588	108.44
387.813	100.44
388.038	101.44
388.263	98.44
388.488	106.44
388.713	94.44
388.938	100.44
389.163	105.44
389.387	96.44
389.612	96.44
389.837	106.44
390.062	87.44
390.287	88.44
390.512	87.44
390.736	104.44
390.961	96.44
391.186	102.44
391.411	97.44
391.636	93.44
391.86	91.44
392.085	109.44
392.31	109.44
392.534	103.44
392.759	99.44
392.984	100.44
393.208	86.44
393.433	90.44
393.658	106.44
393.882	100.44
394.107	98.44
394.331	93.44
394.556	110.44
394.78	94.44
395.005	108.44
395.229	103.44
395.454	111.44
395.678	94.44
395.903	95.44
396.127	95.44
396.352	91.44
396.576	92.44
396.801	104.44
397.025	99.44
397.249	115.44
397.474	114.44
397.698	106.44
397.922	102.44
398.147	118.44
398.371	107.44
398.595	120.44
398.82	104.44
399.044	107.44
399.268	116.44
399.492	125.44
399.717	121.44
399.941	111.44
400.165	107.44
400.389	130.44
400.613	110.44
400.837	116.44
401.062	111.44
401.286	116.44
401.51	106.44
401.734	111.44
401.958	115.44
402.182	93.44
402.406	134.44
402.63	106.44
402.854	114.44
403.078	106.44
403.302	117.44
403.526	115.44
403.75	119.44
403.974	96.44
404.198	100.44
404.422	118.44
404.645	101.44
404.869	104.44
405.093	103.44
405.317	116.44
405.541	115.44
405.765	106.44
405.988	115.44
406.212	121.44
406.436	115.44
406.66	105.44
406.883	121.44
407.107	119.44
407.331	125.44
407.555	123.44
407.778	107.44
408.002	111.44
408.226	118.44
408.449	120.44
408.673	115.44
408.896	109.44
409.12	120.44
409.344	106.44
409.567	103.44
409.791	125.44
410.014	119.44
410.238	106.44
410.461	105.44
410.685	116.44
410.908	124.44
411.132	139.44
411.355	106.44
411.578	100.44
411.802	121.44
412.025	116.44
412.249	104.44
412.472	126.44
412.695	125.44
412.919	124.44
413.142	119.44
413.365	106.44
413.589	116.44
413.812	115.44
414.035	117.44
414.258	123.44
414.482	116.44
414.705	116.44
414.928	116.44
415.151	117.44
415.374	118.44
415.597	125.44
415.821	107.44
416.044	109.44
416.267	101.44
416.49	122.44
416.713	104.44
416.936	123.44
417.159	112.44
417.382	115.44
417.605	126.44
417.828	128.44
418.051	105.44
418.274	113.44
418.497	124.44
418.72	143.44
418.943	123.44
419.166	126.44
419.389	117.44
419.611	124.44
419.834	117.44
420.057	125.44
420.28	111.44
420.503	114.44
420.726	118.44
420.948	136.44
421.171	127.44
421.394	125.44
421.617	118.44
421.839	112.44
422.062	122.44
422.285	108.44
422.507	114.44
422.73	112.44
422.953	103.44
423.175	112.44
423.398	125.44
423.621	123.44
423.843	109.44
424.066	119.44
424.288	130.44
424.511	138.44
424.733	132.44
424.956	134.44
425.178	123.44
425.401	128.44
425.623	117.44
425.846	105.44
426.068	109.44
426.291	118.44
426.513	130.44
426.735	120.44
426.958	102.44
427.18	121.44
427.402	113.44
427.625	120.44
427.847	111.44
428.069	122.44
428.292	110.44
428.514	112.44
428.736	103.44
428.958	99.44
429.181	114.44
429.403	112.44
429.625	116.44
429.847	102.44
430.069	111.44
430.292	111.44
430.514	131.44
430.736	95.44
430.958	118.44
431.18	113.44
431.402	111.44
431.624	111.44
431.846	111.44
432.068	102.44
432.29	101.44
432.512	120.44
432.734	111.44
432.956	106.44
433.178	130.44
433.4	119.44
433.622	118.44
433.844	114.44
434.066	132.44
434.287	123.44
434.509	111.44
434.731	112.44
434.953	119.44
435.175	108.44
435.397	110.44
435.618	114.44
435.84	122.44
436.062	108.44
436.284	126.44
436.505	118.44
436.727	125.44
436.949	123.44
437.17	121.44
437.392	121.44
437.614	128.44
437.835	116.44
438.057	111.44
438.278	96.44
438.5	119.44
438.721	118.44
438.943	135.44
439.165	113.44
439.386	122.44
439.608	114.44
439.829	128.44
440.05	129.44
440.272	111.44
440.493	123.44
440.715	134.44
440.936	122.44
441.158	130.44
441.379	107.44
441.6	122.44
441.822	106.44
442.043	126.44
442.264	128.44
442.486	118.44
442.707	125.44
442.928	128.44
443.149	109.44
443.371	114.44
443.592	116.44
443.813	129.44
444.034	130.44
444.255	121.44
444.476	122.44
444.698	125.44
444.919	129.44
445.14	232.44
445.361	182.44
445.582	132.44
445.803	125.44
446.024	125.44
446.245	124.44
446.466	118.44
446.687	136.44
446.908	116.44
447.129	128.44
447.35	112.44
447.571	131.44
447.792	124.44
448.013	135.44
448.234	106.44
448.455	133.44
448.675	134.44
448.896	107.44
449.117	110.44
449.338	118.44
449.559	118.44
449.779	132.44
450	126.44
450.221	108.44
450.442	122.44
450.662	134.44
450.883	119.44
451.104	124.44
451.324	108.44
451.545	134.44
451.766	99.44
451.986	101.44
452.207	115.44
452.428	96.44
452.648	124.44
452.869	104.44
453.089	105.44
453.31	106.44
453.53	102.44
453.751	106.44
453.971	111.44
454.192	109.44
454.412	99.44
454.633	108.44
454.853	101.44
455.073	101.44
455.294	121.44
455.514	126.44
455.734	111.44
455.955	105.44
456.175	118.44
456.395	104.44
456.616	111.44
456.836	123.44
457.056	108.44
457.276	94.44
457.497	114.44
457.717	90.44
457.937	110.44
458.157	106.44
458.377	114.44
458.598	116.44
458.818	103.44
459.038	101.44
459.258	106.44
459.478	106.44
459.698	109.44
459.918	117.44
460.138	119.44
460.358	112.44
460.578	125.44
460.798	126.44
461.018	115.44
461.238	114.44
461.458	132.44
461.678	114.44
461.898	125.44
462.118	112.44
462.338	124.44
462.558	116.44
462.777	124.44
462.997	132.44
463.217	134.44
463.437	134.44
463.657	131.44
463.876	142.44
464.096	128.44
464.316	121.44
464.536	122.44
464.755	121.44
464.975	132.44
465.195	126.44
465.414	112.44
465.634	118.44
465.854	122.44
466.073	130.44
466.293	132.44
466.512	106.44
466.732	122.44
466.951	124.44
467.171	123.44
467.391	128.44
467.61	116.44
467.829	122.44
468.049	115.44
468.268	131.44
468.488	109.44
468.707	127.44
468.927	124.44
469.146	117.44
469.365	126.44
469.585	137.44
469.804	138.44
470.023	123.44
470.243	135.44
470.462	126.44
470.681	130.44
470.901	126.44
471.12	124.44
471.339	137.44
471.558	128.44
471.777	136.44
471.997	125.44
472.216	127.44
472.435	120.44
472.654	111.44
472.873	102.44
473.092	127.44
473.311	110.44
473.53	106.44
473.749	124.44
473.968	137.44
474.187	111.44
474.406	127.44
474.625	104.44
474.844	123.44
475.063	126.44
475.282	125.44
475.501	120.44
475.72	130.44
475.939	116.44
476.158	107.44
476.377	118.44
476.596	130.44
476.814	122.44
477.033	118.44
477.252	114.44
477.471	117.44
477.69	109.44
477.908	122.44
478.127	137.44
478.346	134.44
478.564	127.44
478.783	131.44
479.002	131.44
479.22	123.44
479.439	123.44
479.658	127.44
479.876	114.44
480.095	119.44
480.313	107.44
480.532	107.44
480.751	127.44
480.969	107.44
481.188	122.44
481.406	102.44
481.624	117.44
481.843	112.44
482.061	118.44
482.28	125.44
482.498	134.44
482.717	117.44
482.935	106.44
483.153	123.44
483.372	136.44
483.59	136.44
483.808	133.44
484.027	120.44
484.245	133.44
484.463	139.44
484.681	152.44
484.9	118.44
485.118	135.44
485.336	129.44
485.554	115.44
485.772	118.44
485.99	144.44
486.209	129.44
486.427	115.44
486.645	130.44
486.863	130.44
487.081	127.44
487.299	131.44
487.517	130.44
487.735	134.44
487.953	134.44
488.171	136.44
488.389	152.44
488.607	142.44
488.825	135.44
489.043	126.44
489.261	131.44
489.479	138.44
489.696	138.44
489.914	140.44
490.132	120.44
490.35	133.44
490.568	154.44
490.786	147.44
491.003	148.44
491.221	123.44
491.439	153.44
491.657	166.44
491.874	173.44
492.092	171.44
492.31	186.44
492.527	165.44
492.745	163.44
492.963	173.44
493.18	163.44
493.398	147.44
493.615	156.44
493.833	153.44
494.05	136.44
494.268	153.44
494.485	158.44
494.703	162.44
494.92	164.44
495.138	155.44
495.355	155.44
495.573	147.44
495.79	169.44
496.008	162.44
496.225	133.44
496.442	146.44
496.66	164.44
496.877	151.44
497.094	138.44
497.312	152.44
497.529	150.44
497.746	164.44
497.963	138.44
498.181	134.44
498.398	157.44
498.615	163.44
498.832	150.44
499.049	167.44
499.267	173.44
499.484	176.44
499.701	178.44
499.918	172.44
500.135	186.44
500.352	230.44
500.569	230.44
500.786	223.44
501.003	194.44
501.22	200.44
501.437	172.44
501.654	174.44
501.871	173.44
502.088	156.44
502.305	161.44
502.522	159.44
502.739	156.44
502.956	151.44
503.172	134.44
503.389	137.44
503.606	132.44
503.823	147.44
504.04	141.44
504.256	139.44
504.473	136.44
504.69	140.44
504.907	150.44
505.123	153.44
505.34	134.44
505.557	128.44
505.773	126.44
505.99	144.44
506.207	129.44
506.423	128.44
506.64	135.44
506.856	110.44
507.073	123.44
507.289	136.44
507.506	140.44
507.722	139.44
507.939	130.44
508.155	114.44
508.372	129.44
508.588	119.44
508.805	114.44
509.021	118.44
509.238	127.44
509.454	112.44
509.67	121.44
509.887	120.44
510.103	121.44
510.319	130.44
510.536	126.44
510.752	119.44
510.968	124.44
511.184	123.44
