Data from StandardFe(NO3)3.TAE.3%Agarose.FlatLispGreen.Lamp.Energy10.07252019_HRD10591_11-54-56-443.txt Node
Date: Thu Jul 25 11:54:56 EDT 2019
User: cochatt
Spectrometer: HR+D1059
Trigger mode: 1
Integration Time (sec): 1.000000E-1
Scans to average: 1
Electric dark correction enabled: true
Nonlinearity correction enabled: false
Boxcar width: 0
XAxis mode: Wavelengths
Number of Pixels in Spectrum: 2048
>>>>>Begin Spectral Data<<<<<
223.165	-14.12
223.4	-14.12
223.635	-14.12
223.869	-31.12
224.104	-29.12
224.338	-7.12
224.573	-16.12
224.808	-20.12
225.042	-9.12
225.277	-3.12
225.511	6.88
225.746	11.88
225.98	24.88
226.215	3.88
226.449	23.88
226.683	10.88
226.918	15.88
227.152	31.88
227.387	43.88
227.621	43.88
227.856	45.88
228.09	33.88
228.324	39.88
228.559	62.88
228.793	57.88
229.027	65.88
229.262	64.88
229.496	70.88
229.73	71.88
229.964	71.88
230.199	81.88
230.433	78.88
230.667	64.88
230.901	75.88
231.136	74.88
231.37	74.88
231.604	82.88
231.838	91.88
232.072	80.88
232.306	72.88
232.541	67.88
232.775	70.88
233.009	57.88
233.243	93.88
233.477	85.88
233.711	74.88
233.945	78.88
234.179	87.88
234.413	82.88
234.647	75.88
234.881	69.88
235.115	85.88
235.349	78.88
235.583	78.88
235.817	69.88
236.051	82.88
236.285	86.88
236.519	86.88
236.753	84.88
236.987	87.88
237.221	79.88
237.455	77.88
237.689	80.88
237.922	84.88
238.156	66.88
238.39	85.88
238.624	77.88
238.858	72.88
239.091	63.88
239.325	68.88
239.559	80.88
239.793	65.88
240.027	91.88
240.26	65.88
240.494	64.88
240.728	70.88
240.961	62.88
241.195	72.88
241.429	73.88
241.662	79.88
241.896	80.88
242.13	62.88
242.363	76.88
242.597	70.88
242.83	57.88
243.064	67.88
243.298	78.88
243.531	76.88
243.765	66.88
243.998	75.88
244.232	73.88
244.465	68.88
244.699	83.88
244.932	89.88
245.166	62.88
245.399	67.88
245.633	76.88
245.866	82.88
246.099	64.88
246.333	74.88
246.566	78.88
246.8	63.88
247.033	78.88
247.266	81.88
247.5	71.88
247.733	72.88
247.966	71.88
248.2	81.88
248.433	69.88
248.666	75.88
248.899	77.88
249.133	77.88
249.366	81.88
249.599	79.88
249.832	92.88
250.066	74.88
250.299	88.88
250.532	77.88
250.765	81.88
250.998	87.88
251.231	79.88
251.465	82.88
251.698	75.88
251.931	66.88
252.164	77.88
252.397	74.88
252.63	88.88
252.863	71.88
253.096	81.88
253.329	76.88
253.562	72.88
253.795	86.88
254.028	77.88
254.261	83.88
254.494	85.88
254.727	71.88
254.96	75.88
255.193	78.88
255.426	81.88
255.659	83.88
255.892	86.88
256.124	80.88
256.357	80.88
256.59	98.88
256.823	74.88
257.056	74.88
257.289	67.88
257.521	75.88
257.754	67.88
257.987	74.88
258.22	96.88
258.452	79.88
258.685	97.88
258.918	76.88
259.151	75.88
259.383	80.88
259.616	75.88
259.849	75.88
260.081	90.88
260.314	72.88
260.547	74.88
260.779	74.88
261.012	78.88
261.244	81.88
261.477	76.88
261.71	82.88
261.942	67.88
262.175	79.88
262.407	93.88
262.64	89.88
262.872	93.88
263.105	79.88
263.337	81.88
263.57	62.88
263.802	80.88
264.035	80.88
264.267	79.88
264.499	87.88
264.732	94.88
264.964	96.88
265.197	82.88
265.429	71.88
265.661	69.88
265.894	82.88
266.126	99.88
266.358	81.88
266.591	84.88
266.823	73.88
267.055	81.88
267.287	72.88
267.52	70.88
267.752	80.88
267.984	74.88
268.216	92.88
268.448	81.88
268.681	91.88
268.913	82.88
269.145	89.88
269.377	84.88
269.609	67.88
269.841	82.88
270.073	81.88
270.306	87.88
270.538	85.88
270.77	81.88
271.002	78.88
271.234	83.88
271.466	79.88
271.698	84.88
271.93	79.88
272.162	85.88
272.394	81.88
272.626	73.88
272.858	92.88
273.09	78.88
273.322	97.88
273.553	82.88
273.785	84.88
274.017	78.88
274.249	68.88
274.481	74.88
274.713	86.88
274.945	67.88
275.176	83.88
275.408	97.88
275.64	86.88
275.872	75.88
276.104	81.88
276.335	75.88
276.567	81.88
276.799	86.88
277.031	87.88
277.262	72.88
277.494	88.88
277.726	82.88
277.957	84.88
278.189	80.88
278.421	80.88
278.652	78.88
278.884	84.88
279.115	95.88
279.347	76.88
279.579	82.88
279.81	82.88
280.042	74.88
280.273	93.88
280.505	90.88
280.736	91.88
280.968	92.88
281.199	82.88
281.431	84.88
281.662	83.88
281.894	91.88
282.125	84.88
282.356	84.88
282.588	87.88
282.819	83.88
283.051	90.88
283.282	80.88
283.513	79.88
283.745	90.88
283.976	89.88
284.207	67.88
284.439	75.88
284.67	79.88
284.901	93.88
285.132	83.88
285.364	80.88
285.595	81.88
285.826	70.88
286.057	75.88
286.288	74.88
286.52	82.88
286.751	82.88
286.982	66.88
287.213	78.88
287.444	81.88
287.675	88.88
287.906	82.88
288.138	79.88
288.369	81.88
288.6	68.88
288.831	81.88
289.062	84.88
289.293	91.88
289.524	91.88
289.755	91.88
289.986	82.88
290.217	86.88
290.448	77.88
290.679	77.88
290.91	83.88
291.141	72.88
291.371	89.88
291.602	91.88
291.833	82.88
292.064	78.88
292.295	79.88
292.526	81.88
292.757	86.88
292.987	91.88
293.218	81.88
293.449	86.88
293.68	93.88
293.91	87.88
294.141	78.88
294.372	86.88
294.603	81.88
294.833	83.88
295.064	77.88
295.295	80.88
295.525	73.88
295.756	79.88
295.987	87.88
296.217	81.88
296.448	83.88
296.679	76.88
296.909	87.88
297.14	86.88
297.37	83.88
297.601	93.88
297.831	83.88
298.062	80.88
298.292	79.88
298.523	90.88
298.753	93.88
298.984	86.88
299.214	78.88
299.445	75.88
299.675	75.88
299.905	87.88
300.136	84.88
300.366	88.88
300.597	68.88
300.827	97.88
301.057	81.88
301.288	84.88
301.518	85.88
301.748	84.88
301.979	75.88
302.209	73.88
302.439	73.88
302.669	74.88
302.9	89.88
303.13	66.88
303.36	76.88
303.59	85.88
303.82	78.88
304.051	80.88
304.281	82.88
304.511	86.88
304.741	83.88
304.971	66.88
305.201	83.88
305.431	81.88
305.661	95.88
305.891	95.88
306.121	86.88
306.352	90.88
306.582	91.88
306.812	96.88
307.042	78.88
307.272	83.88
307.502	90.88
307.731	86.88
307.961	83.88
308.191	82.88
308.421	83.88
308.651	87.88
308.881	87.88
309.111	85.88
309.341	85.88
309.571	76.88
309.8	78.88
310.03	73.88
310.26	79.88
310.49	88.88
310.72	81.88
310.949	88.88
311.179	73.88
311.409	73.88
311.639	83.88
311.868	80.88
312.098	89.88
312.328	71.88
312.557	79.88
312.787	87.88
313.017	71.88
313.246	91.88
313.476	86.88
313.706	76.88
313.935	69.88
314.165	83.88
314.394	84.88
314.624	94.88
314.853	87.88
315.083	78.88
315.312	86.88
315.542	80.88
315.771	81.88
316.001	74.88
316.23	81.88
316.46	81.88
316.689	79.88
316.919	84.88
317.148	97.88
317.377	76.88
317.607	93.88
317.836	89.88
318.065	95.88
318.295	96.88
318.524	82.88
318.753	82.88
318.983	80.88
319.212	71.88
319.441	86.88
319.67	69.88
319.9	86.88
320.129	89.88
320.358	94.88
320.587	87.88
320.816	77.88
321.046	69.88
321.275	85.88
321.504	89.88
321.733	91.88
321.962	86.88
322.191	87.88
322.42	84.88
322.649	86.88
322.878	80.88
323.108	62.88
323.337	73.88
323.566	86.88
323.795	81.88
324.024	82.88
324.253	92.88
324.482	87.88
324.71	95.88
324.939	89.88
325.168	91.88
325.397	79.88
325.626	88.88
325.855	78.88
326.084	93.88
326.313	72.88
326.542	85.88
326.77	85.88
326.999	90.88
327.228	80.88
327.457	94.88
327.686	101.88
327.914	87.88
328.143	83.88
328.372	93.88
328.6	85.88
328.829	65.88
329.058	83.88
329.287	73.88
329.515	81.88
329.744	86.88
329.972	81.88
330.201	74.88
330.43	70.88
330.658	86.88
330.887	95.88
331.115	77.88
331.344	83.88
331.572	101.88
331.801	85.88
332.03	73.88
332.258	82.88
332.486	89.88
332.715	85.88
332.943	73.88
333.172	79.88
333.4	83.88
333.629	104.88
333.857	92.88
334.085	73.88
334.314	83.88
334.542	70.88
334.771	82.88
334.999	79.88
335.227	83.88
335.455	83.88
335.684	84.88
335.912	83.88
336.14	88.88
336.369	87.88
336.597	91.88
336.825	70.88
337.053	77.88
337.281	68.88
337.51	71.88
337.738	95.88
337.966	86.88
338.194	82.88
338.422	80.88
338.65	82.88
338.878	93.88
339.106	86.88
339.334	84.88
339.562	81.88
339.79	83.88
340.018	85.88
340.246	81.88
340.474	85.88
340.702	87.88
340.93	95.88
341.158	85.88
341.386	84.88
341.614	82.88
341.842	87.88
342.07	77.88
342.298	76.88
342.526	88.88
342.754	99.88
342.981	84.88
343.209	81.88
343.437	78.88
343.665	80.88
343.893	87.88
344.12	87.88
344.348	88.88
344.576	96.88
344.804	87.88
345.031	89.88
345.259	79.88
345.487	93.88
345.714	82.88
345.942	76.88
346.17	81.88
346.397	76.88
346.625	72.88
346.853	80.88
347.08	77.88
347.308	75.88
347.535	84.88
347.763	100.88
347.99	77.88
348.218	96.88
348.445	90.88
348.673	80.88
348.9	79.88
349.128	88.88
349.355	89.88
349.583	83.88
349.81	101.88
350.037	81.88
350.265	90.88
350.492	93.88
350.72	88.88
350.947	83.88
351.174	86.88
351.402	88.88
351.629	85.88
351.856	98.88
352.083	83.88
352.311	91.88
352.538	88.88
352.765	89.88
352.992	96.88
353.22	95.88
353.447	100.88
353.674	91.88
353.901	89.88
354.128	79.88
354.355	72.88
354.583	96.88
354.81	80.88
355.037	79.88
355.264	80.88
355.491	80.88
355.718	69.88
355.945	90.88
356.172	89.88
356.399	78.88
356.626	78.88
356.853	80.88
357.08	72.88
357.307	70.88
357.534	65.88
357.761	70.88
357.988	89.88
358.215	80.88
358.441	94.88
358.668	81.88
358.895	78.88
359.122	81.88
359.349	93.88
359.576	78.88
359.802	78.88
360.029	94.88
360.256	81.88
360.483	88.88
360.709	68.88
360.936	92.88
361.163	85.88
361.39	87.88
361.616	88.88
361.843	84.88
362.07	94.88
362.296	74.88
362.523	77.88
362.749	77.88
362.976	78.88
363.203	94.88
363.429	81.88
363.656	83.88
363.882	76.88
364.109	74.88
364.335	84.88
364.562	81.88
364.788	86.88
365.015	88.88
365.241	81.88
365.468	82.88
365.694	83.88
365.92	75.88
366.147	82.88
366.373	89.88
366.599	99.88
366.826	88.88
367.052	89.88
367.278	82.88
367.505	90.88
367.731	87.88
367.957	79.88
368.184	82.88
368.41	87.88
368.636	94.88
368.862	95.88
369.089	68.88
369.315	78.88
369.541	86.88
369.767	71.88
369.993	88.88
370.219	74.88
370.445	82.88
370.672	87.88
370.898	85.88
371.124	83.88
371.35	75.88
371.576	85.88
371.802	80.88
372.028	87.88
372.254	78.88
372.48	74.88
372.706	80.88
372.932	85.88
373.158	84.88
373.384	82.88
373.61	67.88
373.835	98.88
374.061	86.88
374.287	85.88
374.513	80.88
374.739	96.88
374.965	91.88
375.191	83.88
375.416	86.88
375.642	86.88
375.868	90.88
376.094	94.88
376.319	80.88
376.545	82.88
376.771	86.88
376.997	87.88
377.222	82.88
377.448	77.88
377.674	74.88
377.899	88.88
378.125	88.88
378.35	80.88
378.576	79.88
378.802	93.88
379.027	88.88
379.253	93.88
379.478	90.88
379.704	73.88
379.929	82.88
380.155	72.88
380.38	87.88
380.606	90.88
380.831	87.88
381.057	91.88
381.282	94.88
381.507	90.88
381.733	91.88
381.958	89.88
382.184	95.88
382.409	83.88
382.634	93.88
382.86	85.88
383.085	98.88
383.31	84.88
383.535	78.88
383.761	86.88
383.986	86.88
384.211	75.88
384.436	75.88
384.662	90.88
384.887	88.88
385.112	86.88
385.337	90.88
385.562	88.88
385.787	102.88
386.013	88.88
386.238	94.88
386.463	88.88
386.688	91.88
386.913	82.88
387.138	93.88
387.363	85.88
387.588	96.88
387.813	88.88
388.038	89.88
388.263	101.88
388.488	93.88
388.713	99.88
388.938	87.88
389.163	81.88
389.387	89.88
389.612	91.88
389.837	94.88
390.062	104.88
390.287	99.88
390.512	98.88
390.736	90.88
390.961	104.88
391.186	92.88
391.411	93.88
391.636	83.88
391.86	101.88
392.085	120.88
392.31	87.88
392.534	89.88
392.759	102.88
392.984	99.88
393.208	94.88
393.433	91.88
393.658	105.88
393.882	95.88
394.107	98.88
394.331	99.88
394.556	89.88
394.78	92.88
395.005	104.88
395.229	102.88
395.454	90.88
395.678	96.88
395.903	109.88
396.127	106.88
396.352	102.88
396.576	75.88
396.801	93.88
397.025	101.88
397.249	90.88
397.474	86.88
397.698	92.88
397.922	102.88
398.147	99.88
398.371	92.88
398.595	99.88
398.82	106.88
399.044	99.88
399.268	85.88
399.492	119.88
399.717	121.88
399.941	100.88
400.165	101.88
400.389	119.88
400.613	96.88
400.837	95.88
401.062	105.88
401.286	91.88
401.51	94.88
401.734	95.88
401.958	117.88
402.182	99.88
402.406	104.88
402.63	104.88
402.854	102.88
403.078	102.88
403.302	98.88
403.526	103.88
403.75	103.88
403.974	107.88
404.198	108.88
404.422	121.88
404.645	110.88
404.869	89.88
405.093	99.88
405.317	103.88
405.541	109.88
405.765	109.88
405.988	97.88
406.212	104.88
406.436	106.88
406.66	119.88
406.883	105.88
407.107	104.88
407.331	113.88
407.555	111.88
407.778	122.88
408.002	125.88
408.226	120.88
408.449	117.88
408.673	111.88
408.896	114.88
409.12	94.88
409.344	97.88
409.567	93.88
409.791	102.88
410.014	116.88
410.238	102.88
410.461	119.88
410.685	106.88
410.908	106.88
411.132	110.88
411.355	106.88
411.578	103.88
411.802	103.88
412.025	110.88
412.249	117.88
412.472	101.88
412.695	114.88
412.919	101.88
413.142	106.88
413.365	100.88
413.589	90.88
413.812	113.88
414.035	102.88
414.258	111.88
414.482	103.88
414.705	129.88
414.928	121.88
415.151	95.88
415.374	115.88
415.597	113.88
415.821	101.88
416.044	99.88
416.267	105.88
416.49	115.88
416.713	117.88
416.936	104.88
417.159	97.88
417.382	103.88
417.605	103.88
417.828	102.88
418.051	107.88
418.274	112.88
418.497	104.88
418.72	90.88
418.943	92.88
419.166	110.88
419.389	114.88
419.611	114.88
419.834	115.88
420.057	114.88
420.28	97.88
420.503	96.88
420.726	104.88
420.948	123.88
421.171	106.88
421.394	115.88
421.617	102.88
421.839	118.88
422.062	115.88
422.285	115.88
422.507	97.88
422.73	110.88
422.953	96.88
423.175	109.88
423.398	106.88
423.621	109.88
423.843	113.88
424.066	109.88
424.288	98.88
424.511	109.88
424.733	104.88
424.956	127.88
425.178	107.88
425.401	109.88
425.623	117.88
425.846	102.88
426.068	118.88
426.291	112.88
426.513	111.88
426.735	110.88
426.958	94.88
427.18	104.88
427.402	96.88
427.625	110.88
427.847	101.88
428.069	100.88
428.292	125.88
428.514	115.88
428.736	112.88
428.958	118.88
429.181	118.88
429.403	102.88
429.625	108.88
429.847	100.88
430.069	113.88
430.292	120.88
430.514	113.88
430.736	93.88
430.958	102.88
431.18	116.88
431.402	110.88
431.624	103.88
431.846	119.88
432.068	105.88
432.29	103.88
432.512	104.88
432.734	94.88
432.956	110.88
433.178	103.88
433.4	114.88
433.622	121.88
433.844	109.88
434.066	113.88
434.287	98.88
434.509	96.88
434.731	101.88
434.953	90.88
435.175	122.88
435.397	120.88
435.618	100.88
435.84	107.88
436.062	117.88
436.284	111.88
436.505	93.88
436.727	112.88
436.949	103.88
437.17	117.88
437.392	106.88
437.614	110.88
437.835	117.88
438.057	89.88
438.278	104.88
438.5	107.88
438.721	109.88
438.943	112.88
439.165	122.88
439.386	115.88
439.608	102.88
439.829	104.88
440.05	103.88
440.272	125.88
440.493	121.88
440.715	117.88
440.936	120.88
441.158	115.88
441.379	110.88
441.6	123.88
441.822	115.88
442.043	110.88
442.264	121.88
442.486	119.88
442.707	122.88
442.928	114.88
443.149	127.88
443.371	128.88
443.592	122.88
443.813	111.88
444.034	109.88
444.255	114.88
444.476	120.88
444.698	119.88
444.919	126.88
445.14	202.88
445.361	167.88
445.582	121.88
445.803	129.88
446.024	120.88
446.245	117.88
446.466	120.88
446.687	122.88
446.908	121.88
447.129	104.88
447.35	117.88
447.571	119.88
447.792	124.88
448.013	111.88
448.234	114.88
448.455	99.88
448.675	112.88
448.896	114.88
449.117	109.88
449.338	103.88
449.559	103.88
449.779	125.88
450	121.88
450.221	121.88
450.442	108.88
450.662	110.88
450.883	110.88
451.104	112.88
451.324	102.88
451.545	94.88
451.766	105.88
451.986	110.88
452.207	107.88
452.428	110.88
452.648	95.88
452.869	111.88
453.089	111.88
453.31	96.88
453.53	105.88
453.751	112.88
453.971	102.88
454.192	107.88
454.412	98.88
454.633	104.88
454.853	94.88
455.073	106.88
455.294	113.88
455.514	94.88
455.734	109.88
455.955	106.88
456.175	95.88
456.395	91.88
456.616	98.88
456.836	110.88
457.056	100.88
457.276	104.88
457.497	99.88
457.717	106.88
457.937	91.88
458.157	110.88
458.377	98.88
458.598	103.88
458.818	109.88
459.038	104.88
459.258	107.88
459.478	109.88
459.698	99.88
459.918	115.88
460.138	105.88
460.358	105.88
460.578	137.88
460.798	102.88
461.018	119.88
461.238	123.88
461.458	112.88
461.678	110.88
461.898	96.88
462.118	120.88
462.338	106.88
462.558	117.88
462.777	104.88
462.997	121.88
463.217	128.88
463.437	135.88
463.657	115.88
463.876	123.88
464.096	121.88
464.316	123.88
464.536	112.88
464.755	119.88
464.975	134.88
465.195	109.88
465.414	111.88
465.634	114.88
465.854	108.88
466.073	97.88
466.293	119.88
466.512	111.88
466.732	114.88
466.951	128.88
467.171	115.88
467.391	117.88
467.61	122.88
467.829	116.88
468.049	123.88
468.268	123.88
468.488	118.88
468.707	113.88
468.927	109.88
469.146	109.88
469.365	122.88
469.585	122.88
469.804	134.88
470.023	123.88
470.243	123.88
470.462	119.88
470.681	117.88
470.901	109.88
471.12	117.88
471.339	121.88
471.558	106.88
471.777	121.88
471.997	115.88
472.216	116.88
472.435	109.88
472.654	110.88
472.873	119.88
473.092	118.88
473.311	129.88
473.53	109.88
473.749	121.88
473.968	115.88
474.187	96.88
474.406	109.88
474.625	115.88
474.844	119.88
475.063	117.88
475.282	118.88
475.501	112.88
475.72	106.88
475.939	115.88
476.158	123.88
476.377	119.88
476.596	97.88
476.814	113.88
477.033	125.88
477.252	113.88
477.471	119.88
477.69	114.88
477.908	115.88
478.127	127.88
478.346	125.88
478.564	135.88
478.783	123.88
479.002	133.88
479.22	125.88
479.439	125.88
479.658	122.88
479.876	129.88
480.095	123.88
480.313	114.88
480.532	116.88
480.751	127.88
480.969	111.88
481.188	112.88
481.406	120.88
481.624	103.88
481.843	113.88
482.061	103.88
482.28	115.88
482.498	117.88
482.717	118.88
482.935	116.88
483.153	121.88
483.372	128.88
483.59	114.88
483.808	123.88
484.027	119.88
484.245	109.88
484.463	118.88
484.681	129.88
484.9	125.88
485.118	126.88
485.336	115.88
485.554	121.88
485.772	115.88
485.99	125.88
486.209	117.88
486.427	131.88
486.645	133.88
486.863	127.88
487.081	124.88
487.299	119.88
487.517	147.88
487.735	136.88
487.953	135.88
488.171	142.88
488.389	145.88
488.607	142.88
488.825	129.88
489.043	117.88
489.261	120.88
489.479	136.88
489.696	130.88
489.914	138.88
490.132	122.88
490.35	130.88
490.568	140.88
490.786	136.88
491.003	137.88
491.221	144.88
491.439	145.88
491.657	153.88
491.874	155.88
492.092	166.88
492.31	165.88
492.527	165.88
492.745	155.88
492.963	154.88
493.18	148.88
493.398	148.88
493.615	149.88
493.833	145.88
494.05	151.88
494.268	155.88
494.485	149.88
494.703	149.88
494.92	156.88
495.138	138.88
495.355	134.88
495.573	178.88
495.79	154.88
496.008	132.88
496.225	140.88
496.442	143.88
496.66	149.88
496.877	153.88
497.094	148.88
497.312	145.88
497.529	136.88
497.746	145.88
497.963	149.88
498.181	133.88
498.398	133.88
498.615	137.88
498.832	146.88
499.049	143.88
499.267	139.88
499.484	162.88
499.701	174.88
499.918	189.88
500.135	197.88
500.352	211.88
500.569	212.88
500.786	207.88
501.003	196.88
501.22	176.88
501.437	173.88
501.654	167.88
501.871	157.88
502.088	147.88
502.305	139.88
502.522	138.88
502.739	132.88
502.956	125.88
503.172	134.88
503.389	136.88
503.606	141.88
503.823	141.88
504.04	131.88
504.256	144.88
504.473	139.88
504.69	133.88
504.907	120.88
505.123	123.88
505.34	135.88
505.557	136.88
505.773	137.88
505.99	139.88
506.207	120.88
506.423	134.88
506.64	120.88
506.856	127.88
507.073	115.88
507.289	119.88
507.506	118.88
507.722	112.88
507.939	109.88
508.155	136.88
508.372	124.88
508.588	123.88
508.805	131.88
509.021	106.88
509.238	106.88
509.454	110.88
509.67	111.88
509.887	115.88
510.103	106.88
510.319	96.88
510.536	106.88
510.752	115.88
510.968	111.88
511.184	115.88
511.401	108.88
511.617	107.88
511.833	106.88
512.049	119.88
512.265	121.88
