Data from StandardFe(NO3)3.TAE.3%Agarose.FlatLispGreen.Lamp.Energy10.07252019_HRD10591_11-55-08-440.txt Node
Date: Thu Jul 25 11:55:08 EDT 2019
User: cochatt
Spectrometer: HR+D1059
Trigger mode: 1
Integration Time (sec): 1.000000E-1
Scans to average: 1
Electric dark correction enabled: true
Nonlinearity correction enabled: false
Boxcar width: 0
XAxis mode: Wavelengths
Number of Pixels in Spectrum: 2048
>>>>>Begin Spectral Data<<<<<
223.165	-18.06
223.4	-18.06
223.635	-18.06
223.869	-14.06
224.104	-22.06
224.338	-6.06
224.573	-6.06
224.808	-11.06
225.042	-2.06
225.277	-13.06
225.511	-2.06
225.746	-0.06
225.98	-9.06
226.215	8.94
226.449	32.94
226.683	11.94
226.918	17.94
227.152	31.94
227.387	20.94
227.621	27.94
227.856	49.94
228.09	38.94
228.324	41.94
228.559	47.94
228.793	44.94
229.027	53.94
229.262	53.94
229.496	71.94
229.73	55.94
229.964	76.94
230.199	60.94
230.433	54.94
230.667	66.94
230.901	74.94
231.136	70.94
231.37	59.94
231.604	77.94
231.838	79.94
232.072	64.94
232.306	83.94
232.541	74.94
232.775	88.94
233.009	86.94
233.243	85.94
233.477	89.94
233.711	78.94
233.945	76.94
234.179	72.94
234.413	85.94
234.647	76.94
234.881	77.94
235.115	91.94
235.349	96.94
235.583	83.94
235.817	89.94
236.051	80.94
236.285	74.94
236.519	62.94
236.753	74.94
236.987	68.94
237.221	68.94
237.455	75.94
237.689	70.94
237.922	81.94
238.156	53.94
238.39	79.94
238.624	86.94
238.858	68.94
239.091	93.94
239.325	82.94
239.559	73.94
239.793	79.94
240.027	85.94
240.26	88.94
240.494	67.94
240.728	70.94
240.961	68.94
241.195	65.94
241.429	79.94
241.662	82.94
241.896	85.94
242.13	71.94
242.363	71.94
242.597	73.94
242.83	79.94
243.064	62.94
243.298	78.94
243.531	77.94
243.765	73.94
243.998	79.94
244.232	76.94
244.465	77.94
244.699	65.94
244.932	76.94
245.166	65.94
245.399	80.94
245.633	75.94
245.866	67.94
246.099	79.94
246.333	79.94
246.566	70.94
246.8	64.94
247.033	74.94
247.266	69.94
247.5	83.94
247.733	76.94
247.966	78.94
248.2	76.94
248.433	76.94
248.666	89.94
248.899	63.94
249.133	70.94
249.366	75.94
249.599	74.94
249.832	76.94
250.066	68.94
250.299	64.94
250.532	73.94
250.765	79.94
250.998	67.94
251.231	77.94
251.465	80.94
251.698	70.94
251.931	74.94
252.164	63.94
252.397	69.94
252.63	78.94
252.863	65.94
253.096	69.94
253.329	84.94
253.562	76.94
253.795	81.94
254.028	67.94
254.261	78.94
254.494	67.94
254.727	76.94
254.96	72.94
255.193	57.94
255.426	73.94
255.659	63.94
255.892	81.94
256.124	84.94
256.357	80.94
256.59	70.94
256.823	71.94
257.056	83.94
257.289	78.94
257.521	81.94
257.754	60.94
257.987	89.94
258.22	70.94
258.452	82.94
258.685	78.94
258.918	72.94
259.151	77.94
259.383	83.94
259.616	72.94
259.849	77.94
260.081	75.94
260.314	68.94
260.547	79.94
260.779	76.94
261.012	88.94
261.244	71.94
261.477	72.94
261.71	72.94
261.942	79.94
262.175	96.94
262.407	71.94
262.64	82.94
262.872	83.94
263.105	87.94
263.337	72.94
263.57	80.94
263.802	75.94
264.035	81.94
264.267	78.94
264.499	62.94
264.732	88.94
264.964	78.94
265.197	79.94
265.429	71.94
265.661	85.94
265.894	61.94
266.126	89.94
266.358	76.94
266.591	88.94
266.823	70.94
267.055	76.94
267.287	62.94
267.52	72.94
267.752	69.94
267.984	72.94
268.216	83.94
268.448	70.94
268.681	73.94
268.913	90.94
269.145	63.94
269.377	73.94
269.609	85.94
269.841	79.94
270.073	93.94
270.306	87.94
270.538	83.94
270.77	77.94
271.002	85.94
271.234	73.94
271.466	78.94
271.698	76.94
271.93	85.94
272.162	76.94
272.394	63.94
272.626	83.94
272.858	94.94
273.09	84.94
273.322	76.94
273.553	64.94
273.785	70.94
274.017	82.94
274.249	84.94
274.481	84.94
274.713	81.94
274.945	81.94
275.176	92.94
275.408	78.94
275.64	74.94
275.872	80.94
276.104	85.94
276.335	84.94
276.567	92.94
276.799	90.94
277.031	72.94
277.262	73.94
277.494	72.94
277.726	95.94
277.957	83.94
278.189	78.94
278.421	73.94
278.652	82.94
278.884	69.94
279.115	84.94
279.347	84.94
279.579	78.94
279.81	67.94
280.042	79.94
280.273	76.94
280.505	78.94
280.736	107.94
280.968	87.94
281.199	83.94
281.431	84.94
281.662	84.94
281.894	79.94
282.125	83.94
282.356	69.94
282.588	84.94
282.819	71.94
283.051	87.94
283.282	65.94
283.513	100.94
283.745	70.94
283.976	84.94
284.207	72.94
284.439	85.94
284.67	81.94
284.901	84.94
285.132	86.94
285.364	78.94
285.595	79.94
285.826	75.94
286.057	62.94
286.288	75.94
286.52	66.94
286.751	84.94
286.982	74.94
287.213	78.94
287.444	95.94
287.675	80.94
287.906	83.94
288.138	79.94
288.369	93.94
288.6	86.94
288.831	87.94
289.062	82.94
289.293	86.94
289.524	91.94
289.755	88.94
289.986	88.94
290.217	75.94
290.448	77.94
290.679	83.94
290.91	73.94
291.141	75.94
291.371	78.94
291.602	60.94
291.833	84.94
292.064	92.94
292.295	72.94
292.526	75.94
292.757	84.94
292.987	80.94
293.218	78.94
293.449	80.94
293.68	70.94
293.91	84.94
294.141	91.94
294.372	88.94
294.603	74.94
294.833	76.94
295.064	82.94
295.295	74.94
295.525	88.94
295.756	85.94
295.987	84.94
296.217	87.94
296.448	82.94
296.679	77.94
296.909	89.94
297.14	80.94
297.37	60.94
297.601	78.94
297.831	82.94
298.062	76.94
298.292	84.94
298.523	85.94
298.753	68.94
298.984	60.94
299.214	73.94
299.445	82.94
299.675	76.94
299.905	88.94
300.136	71.94
300.366	81.94
300.597	83.94
300.827	65.94
301.057	72.94
301.288	83.94
301.518	78.94
301.748	85.94
301.979	84.94
302.209	86.94
302.439	98.94
302.669	75.94
302.9	83.94
303.13	72.94
303.36	90.94
303.59	95.94
303.82	92.94
304.051	88.94
304.281	83.94
304.511	80.94
304.741	85.94
304.971	77.94
305.201	86.94
305.431	73.94
305.661	83.94
305.891	77.94
306.121	67.94
306.352	81.94
306.582	75.94
306.812	76.94
307.042	71.94
307.272	84.94
307.502	75.94
307.731	79.94
307.961	96.94
308.191	93.94
308.421	58.94
308.651	72.94
308.881	73.94
309.111	87.94
309.341	87.94
309.571	84.94
309.8	92.94
310.03	85.94
310.26	96.94
310.49	92.94
310.72	82.94
310.949	92.94
311.179	88.94
311.409	92.94
311.639	71.94
311.868	84.94
312.098	87.94
312.328	94.94
312.557	75.94
312.787	69.94
313.017	85.94
313.246	88.94
313.476	91.94
313.706	97.94
313.935	78.94
314.165	96.94
314.394	88.94
314.624	81.94
314.853	74.94
315.083	100.94
315.312	75.94
315.542	68.94
315.771	95.94
316.001	74.94
316.23	86.94
316.46	85.94
316.689	68.94
316.919	78.94
317.148	86.94
317.377	85.94
317.607	75.94
317.836	66.94
318.065	79.94
318.295	89.94
318.524	72.94
318.753	77.94
318.983	90.94
319.212	71.94
319.441	72.94
319.67	80.94
319.9	69.94
320.129	91.94
320.358	95.94
320.587	79.94
320.816	89.94
321.046	93.94
321.275	81.94
321.504	85.94
321.733	83.94
321.962	84.94
322.191	90.94
322.42	81.94
322.649	82.94
322.878	92.94
323.108	74.94
323.337	92.94
323.566	79.94
323.795	81.94
324.024	88.94
324.253	83.94
324.482	81.94
324.71	80.94
324.939	74.94
325.168	88.94
325.397	93.94
325.626	76.94
325.855	83.94
326.084	81.94
326.313	79.94
326.542	73.94
326.77	73.94
326.999	75.94
327.228	64.94
327.457	73.94
327.686	83.94
327.914	88.94
328.143	87.94
328.372	73.94
328.6	79.94
328.829	80.94
329.058	77.94
329.287	83.94
329.515	78.94
329.744	86.94
329.972	74.94
330.201	82.94
330.43	88.94
330.658	69.94
330.887	76.94
331.115	81.94
331.344	85.94
331.572	84.94
331.801	89.94
332.03	88.94
332.258	69.94
332.486	79.94
332.715	63.94
332.943	88.94
333.172	89.94
333.4	77.94
333.629	75.94
333.857	69.94
334.085	87.94
334.314	83.94
334.542	95.94
334.771	72.94
334.999	81.94
335.227	72.94
335.455	76.94
335.684	84.94
335.912	82.94
336.14	79.94
336.369	87.94
336.597	93.94
336.825	77.94
337.053	80.94
337.281	83.94
337.51	72.94
337.738	77.94
337.966	77.94
338.194	88.94
338.422	79.94
338.65	82.94
338.878	70.94
339.106	77.94
339.334	81.94
339.562	78.94
339.79	72.94
340.018	94.94
340.246	77.94
340.474	93.94
340.702	80.94
340.93	82.94
341.158	83.94
341.386	81.94
341.614	87.94
341.842	75.94
342.07	92.94
342.298	78.94
342.526	93.94
342.754	72.94
342.981	88.94
343.209	90.94
343.437	88.94
343.665	79.94
343.893	95.94
344.12	80.94
344.348	81.94
344.576	76.94
344.804	86.94
345.031	93.94
345.259	88.94
345.487	78.94
345.714	84.94
345.942	86.94
346.17	75.94
346.397	77.94
346.625	77.94
346.853	78.94
347.08	67.94
347.308	82.94
347.535	80.94
347.763	92.94
347.99	92.94
348.218	72.94
348.445	78.94
348.673	83.94
348.9	80.94
349.128	92.94
349.355	87.94
349.583	70.94
349.81	78.94
350.037	82.94
350.265	93.94
350.492	84.94
350.72	89.94
350.947	61.94
351.174	79.94
351.402	55.94
351.629	80.94
351.856	87.94
352.083	81.94
352.311	74.94
352.538	79.94
352.765	75.94
352.992	84.94
353.22	76.94
353.447	90.94
353.674	95.94
353.901	82.94
354.128	74.94
354.355	84.94
354.583	91.94
354.81	87.94
355.037	70.94
355.264	82.94
355.491	85.94
355.718	80.94
355.945	86.94
356.172	86.94
356.399	80.94
356.626	95.94
356.853	69.94
357.08	68.94
357.307	85.94
357.534	81.94
357.761	85.94
357.988	93.94
358.215	87.94
358.441	91.94
358.668	85.94
358.895	91.94
359.122	91.94
359.349	87.94
359.576	76.94
359.802	72.94
360.029	75.94
360.256	74.94
360.483	77.94
360.709	91.94
360.936	81.94
361.163	81.94
361.39	87.94
361.616	86.94
361.843	85.94
362.07	93.94
362.296	75.94
362.523	86.94
362.749	68.94
362.976	83.94
363.203	95.94
363.429	77.94
363.656	87.94
363.882	75.94
364.109	94.94
364.335	79.94
364.562	94.94
364.788	92.94
365.015	69.94
365.241	91.94
365.468	87.94
365.694	70.94
365.92	89.94
366.147	97.94
366.373	86.94
366.599	91.94
366.826	76.94
367.052	79.94
367.278	74.94
367.505	79.94
367.731	87.94
367.957	79.94
368.184	84.94
368.41	89.94
368.636	80.94
368.862	98.94
369.089	87.94
369.315	67.94
369.541	84.94
369.767	81.94
369.993	71.94
370.219	75.94
370.445	86.94
370.672	74.94
370.898	85.94
371.124	87.94
371.35	98.94
371.576	76.94
371.802	86.94
372.028	89.94
372.254	95.94
372.48	83.94
372.706	84.94
372.932	80.94
373.158	94.94
373.384	89.94
373.61	87.94
373.835	81.94
374.061	85.94
374.287	87.94
374.513	76.94
374.739	80.94
374.965	89.94
375.191	83.94
375.416	79.94
375.642	88.94
375.868	92.94
376.094	94.94
376.319	80.94
376.545	92.94
376.771	83.94
376.997	102.94
377.222	80.94
377.448	81.94
377.674	85.94
377.899	87.94
378.125	97.94
378.35	81.94
378.576	91.94
378.802	81.94
379.027	84.94
379.253	63.94
379.478	92.94
379.704	91.94
379.929	80.94
380.155	96.94
380.38	95.94
380.606	80.94
380.831	72.94
381.057	101.94
381.282	80.94
381.507	79.94
381.733	88.94
381.958	84.94
382.184	91.94
382.409	78.94
382.634	88.94
382.86	81.94
383.085	81.94
383.31	80.94
383.535	79.94
383.761	85.94
383.986	89.94
384.211	95.94
384.436	95.94
384.662	81.94
384.887	90.94
385.112	90.94
385.337	88.94
385.562	96.94
385.787	93.94
386.013	88.94
386.238	103.94
386.463	88.94
386.688	85.94
386.913	91.94
387.138	102.94
387.363	80.94
387.588	78.94
387.813	102.94
388.038	109.94
388.263	86.94
388.488	89.94
388.713	91.94
388.938	86.94
389.163	95.94
389.387	96.94
389.612	90.94
389.837	85.94
390.062	93.94
390.287	86.94
390.512	80.94
390.736	96.94
390.961	91.94
391.186	105.94
391.411	109.94
391.636	81.94
391.86	91.94
392.085	105.94
392.31	92.94
392.534	84.94
392.759	93.94
392.984	105.94
393.208	102.94
393.433	95.94
393.658	99.94
393.882	98.94
394.107	89.94
394.331	88.94
394.556	84.94
394.78	98.94
395.005	108.94
395.229	98.94
395.454	104.94
395.678	92.94
395.903	88.94
396.127	115.94
396.352	87.94
396.576	96.94
396.801	83.94
397.025	85.94
397.249	88.94
397.474	103.94
397.698	101.94
397.922	101.94
398.147	93.94
398.371	95.94
398.595	93.94
398.82	87.94
399.044	100.94
399.268	103.94
399.492	98.94
399.717	108.94
399.941	123.94
400.165	103.94
400.389	92.94
400.613	88.94
400.837	98.94
401.062	78.94
401.286	111.94
401.51	112.94
401.734	89.94
401.958	102.94
402.182	109.94
402.406	108.94
402.63	97.94
402.854	103.94
403.078	102.94
403.302	109.94
403.526	104.94
403.75	108.94
403.974	111.94
404.198	117.94
404.422	110.94
404.645	102.94
404.869	121.94
405.093	86.94
405.317	99.94
405.541	93.94
405.765	113.94
405.988	101.94
406.212	106.94
406.436	95.94
406.66	103.94
406.883	89.94
407.107	116.94
407.331	100.94
407.555	119.94
407.778	116.94
408.002	99.94
408.226	113.94
408.449	102.94
408.673	102.94
408.896	101.94
409.12	116.94
409.344	103.94
409.567	118.94
409.791	97.94
410.014	117.94
410.238	115.94
410.461	104.94
410.685	95.94
410.908	88.94
411.132	105.94
411.355	101.94
411.578	110.94
411.802	92.94
412.025	112.94
412.249	107.94
412.472	104.94
412.695	103.94
412.919	108.94
413.142	110.94
413.365	111.94
413.589	100.94
413.812	95.94
414.035	119.94
414.258	87.94
414.482	93.94
414.705	112.94
414.928	108.94
415.151	110.94
415.374	96.94
415.597	111.94
415.821	120.94
416.044	115.94
416.267	100.94
416.49	111.94
416.713	97.94
416.936	119.94
417.159	113.94
417.382	106.94
417.605	116.94
417.828	109.94
418.051	107.94
418.274	90.94
418.497	114.94
418.72	112.94
418.943	113.94
419.166	119.94
419.389	113.94
419.611	105.94
419.834	116.94
420.057	123.94
420.28	115.94
420.503	123.94
420.726	117.94
420.948	109.94
421.171	115.94
421.394	110.94
421.617	105.94
421.839	110.94
422.062	109.94
422.285	119.94
422.507	104.94
422.73	97.94
422.953	108.94
423.175	108.94
423.398	106.94
423.621	117.94
423.843	108.94
424.066	121.94
424.288	104.94
424.511	115.94
424.733	121.94
424.956	92.94
425.178	111.94
425.401	119.94
425.623	103.94
425.846	109.94
426.068	115.94
426.291	113.94
426.513	117.94
426.735	121.94
426.958	119.94
427.18	107.94
427.402	114.94
427.625	106.94
427.847	97.94
428.069	109.94
428.292	103.94
428.514	110.94
428.736	98.94
428.958	108.94
429.181	112.94
429.403	108.94
429.625	106.94
429.847	86.94
430.069	114.94
430.292	93.94
430.514	102.94
430.736	104.94
430.958	104.94
431.18	110.94
431.402	95.94
431.624	98.94
431.846	99.94
432.068	99.94
432.29	111.94
432.512	104.94
432.734	104.94
432.956	108.94
433.178	116.94
433.4	110.94
433.622	119.94
433.844	111.94
434.066	100.94
434.287	97.94
434.509	105.94
434.731	108.94
434.953	107.94
435.175	102.94
435.397	121.94
435.618	100.94
435.84	96.94
436.062	96.94
436.284	114.94
436.505	102.94
436.727	116.94
436.949	107.94
437.17	107.94
437.392	105.94
437.614	91.94
437.835	98.94
438.057	104.94
438.278	106.94
438.5	103.94
438.721	120.94
438.943	113.94
439.165	103.94
439.386	99.94
439.608	129.94
439.829	115.94
440.05	117.94
440.272	99.94
440.493	103.94
440.715	130.94
440.936	113.94
441.158	104.94
441.379	115.94
441.6	116.94
441.822	108.94
442.043	118.94
442.264	117.94
442.486	104.94
442.707	107.94
442.928	111.94
443.149	119.94
443.371	108.94
443.592	113.94
443.813	118.94
444.034	107.94
444.255	105.94
444.476	103.94
444.698	118.94
444.919	137.94
445.14	219.94
445.361	166.94
445.582	109.94
445.803	126.94
446.024	107.94
446.245	115.94
446.466	116.94
446.687	123.94
446.908	116.94
447.129	109.94
447.35	112.94
447.571	104.94
447.792	100.94
448.013	111.94
448.234	111.94
448.455	97.94
448.675	101.94
448.896	108.94
449.117	111.94
449.338	112.94
449.559	112.94
449.779	111.94
450	111.94
450.221	109.94
450.442	100.94
450.662	107.94
450.883	103.94
451.104	118.94
451.324	113.94
451.545	93.94
451.766	113.94
451.986	104.94
452.207	103.94
452.428	105.94
452.648	110.94
452.869	104.94
453.089	96.94
453.31	87.94
453.53	93.94
453.751	92.94
453.971	100.94
454.192	113.94
454.412	107.94
454.633	111.94
454.853	92.94
455.073	99.94
455.294	100.94
455.514	102.94
455.734	107.94
455.955	95.94
456.175	99.94
456.395	107.94
456.616	96.94
456.836	96.94
457.056	113.94
457.276	91.94
457.497	102.94
457.717	78.94
457.937	82.94
458.157	101.94
458.377	89.94
458.598	92.94
458.818	86.94
459.038	99.94
459.258	100.94
459.478	100.94
459.698	93.94
459.918	108.94
460.138	107.94
460.358	91.94
460.578	119.94
460.798	103.94
461.018	121.94
461.238	119.94
461.458	94.94
461.678	96.94
461.898	107.94
462.118	92.94
462.338	111.94
462.558	117.94
462.777	108.94
462.997	126.94
463.217	117.94
463.437	121.94
463.657	119.94
463.876	116.94
464.096	105.94
464.316	127.94
464.536	114.94
464.755	125.94
464.975	112.94
465.195	98.94
465.414	101.94
465.634	127.94
465.854	107.94
466.073	108.94
466.293	109.94
466.512	112.94
466.732	112.94
466.951	104.94
467.171	104.94
467.391	123.94
467.61	100.94
467.829	118.94
468.049	108.94
468.268	109.94
468.488	114.94
468.707	92.94
468.927	103.94
469.146	98.94
469.365	119.94
469.585	121.94
469.804	112.94
470.023	114.94
470.243	106.94
470.462	116.94
470.681	108.94
470.901	121.94
471.12	119.94
471.339	110.94
471.558	109.94
471.777	120.94
471.997	111.94
472.216	113.94
472.435	99.94
472.654	99.94
472.873	117.94
473.092	116.94
473.311	114.94
473.53	120.94
473.749	109.94
473.968	111.94
474.187	105.94
474.406	95.94
474.625	104.94
474.844	118.94
475.063	107.94
475.282	109.94
475.501	107.94
475.72	119.94
475.939	98.94
476.158	97.94
476.377	108.94
476.596	111.94
476.814	107.94
477.033	102.94
477.252	99.94
477.471	109.94
477.69	107.94
477.908	111.94
478.127	122.94
478.346	110.94
478.564	125.94
478.783	125.94
479.002	122.94
479.22	121.94
479.439	119.94
479.658	126.94
479.876	120.94
480.095	116.94
480.313	115.94
480.532	116.94
480.751	107.94
480.969	117.94
481.188	110.94
481.406	99.94
481.624	103.94
481.843	115.94
482.061	98.94
482.28	107.94
482.498	101.94
482.717	117.94
482.935	115.94
483.153	128.94
483.372	124.94
483.59	126.94
483.808	119.94
484.027	138.94
484.245	119.94
484.463	111.94
484.681	135.94
484.9	115.94
485.118	131.94
485.336	121.94
485.554	103.94
485.772	109.94
485.99	115.94
486.209	108.94
486.427	117.94
486.645	120.94
486.863	120.94
487.081	133.94
487.299	131.94
487.517	123.94
487.735	135.94
487.953	131.94
488.171	137.94
488.389	123.94
488.607	129.94
488.825	123.94
489.043	102.94
489.261	119.94
489.479	127.94
489.696	134.94
489.914	119.94
490.132	118.94
490.35	133.94
490.568	133.94
490.786	135.94
491.003	140.94
491.221	147.94
491.439	150.94
491.657	154.94
491.874	156.94
492.092	156.94
492.31	153.94
492.527	145.94
492.745	154.94
492.963	153.94
493.18	149.94
493.398	142.94
493.615	143.94
493.833	137.94
494.05	132.94
494.268	149.94
494.485	158.94
494.703	140.94
494.92	145.94
495.138	151.94
495.355	129.94
495.573	125.94
495.79	128.94
496.008	159.94
496.225	145.94
496.442	145.94
496.66	142.94
496.877	136.94
497.094	152.94
497.312	143.94
497.529	141.94
497.746	143.94
497.963	140.94
498.181	139.94
498.398	133.94
498.615	133.94
498.832	133.94
499.049	157.94
499.267	148.94
499.484	166.94
499.701	155.94
499.918	177.94
500.135	200.94
500.352	196.94
500.569	216.94
500.786	214.94
501.003	199.94
501.22	175.94
501.437	162.94
501.654	157.94
501.871	158.94
502.088	128.94
502.305	140.94
502.522	131.94
502.739	153.94
502.956	149.94
503.172	126.94
503.389	121.94
503.606	101.94
503.823	125.94
504.04	123.94
504.256	131.94
504.473	123.94
504.69	129.94
504.907	123.94
505.123	123.94
505.34	136.94
505.557	107.94
505.773	115.94
505.99	120.94
506.207	118.94
506.423	117.94
506.64	113.94
506.856	97.94
507.073	128.94
507.289	114.94
507.506	122.94
507.722	98.94
507.939	116.94
508.155	124.94
508.372	122.94
508.588	116.94
508.805	118.94
509.021	130.94
509.238	129.94
509.454	125.94
509.67	102.94
509.887	109.94
510.103	96.94
510.319	98.94
510.536	131.94
510.752	131.94
510.968	101.94
511.184	114.94
511.401	92.94
511.617	115.94
511.833	109.94
512.049	129.94
512.265	95.94
512.481	104.94
512.698	112.94
