Data from StandardFe(NO3)3.TAE.3%Agarose.FlatLispGreen.Lamp.Energy10.07252019_HRD10591_11-55-13-441.txt Node
Date: Thu Jul 25 11:55:13 EDT 2019
User: cochatt
Spectrometer: HR+D1059
Trigger mode: 1
Integration Time (sec): 1.000000E-1
Scans to average: 1
Electric dark correction enabled: true
Nonlinearity correction enabled: false
Boxcar width: 0
XAxis mode: Wavelengths
Number of Pixels in Spectrum: 2048
>>>>>Begin Spectral Data<<<<<
223.165	-23.44
223.4	-23.44
223.635	-23.44
223.869	-20.44
224.104	-15.44
224.338	-15.44
224.573	-5.44
224.808	-14.44
225.042	-8.44
225.277	-1.44
225.511	6.56
225.746	6.56
225.98	6.56
226.215	16.56
226.449	14.56
226.683	18.56
226.918	8.56
227.152	26.56
227.387	32.56
227.621	37.56
227.856	52.56
228.09	57.56
228.324	41.56
228.559	54.56
228.793	52.56
229.027	48.56
229.262	74.56
229.496	63.56
229.73	71.56
229.964	52.56
230.199	71.56
230.433	62.56
230.667	63.56
230.901	85.56
231.136	76.56
231.37	73.56
231.604	78.56
231.838	78.56
232.072	88.56
232.306	84.56
232.541	72.56
232.775	77.56
233.009	82.56
233.243	78.56
233.477	80.56
233.711	81.56
233.945	67.56
234.179	83.56
234.413	99.56
234.647	91.56
234.881	74.56
235.115	70.56
235.349	64.56
235.583	63.56
235.817	69.56
236.051	79.56
236.285	92.56
236.519	79.56
236.753	72.56
236.987	81.56
237.221	75.56
237.455	81.56
237.689	83.56
237.922	73.56
238.156	60.56
238.39	81.56
238.624	79.56
238.858	74.56
239.091	72.56
239.325	72.56
239.559	55.56
239.793	68.56
240.027	88.56
240.26	64.56
240.494	74.56
240.728	70.56
240.961	73.56
241.195	75.56
241.429	89.56
241.662	71.56
241.896	74.56
242.13	85.56
242.363	67.56
242.597	71.56
242.83	73.56
243.064	81.56
243.298	94.56
243.531	75.56
243.765	68.56
243.998	77.56
244.232	73.56
244.465	72.56
244.699	68.56
244.932	78.56
245.166	72.56
245.399	87.56
245.633	74.56
245.866	69.56
246.099	77.56
246.333	88.56
246.566	74.56
246.8	64.56
247.033	75.56
247.266	73.56
247.5	65.56
247.733	83.56
247.966	75.56
248.2	81.56
248.433	77.56
248.666	84.56
248.899	94.56
249.133	82.56
249.366	67.56
249.599	74.56
249.832	74.56
250.066	63.56
250.299	71.56
250.532	70.56
250.765	66.56
250.998	72.56
251.231	71.56
251.465	84.56
251.698	74.56
251.931	89.56
252.164	74.56
252.397	85.56
252.63	74.56
252.863	68.56
253.096	84.56
253.329	83.56
253.562	92.56
253.795	80.56
254.028	85.56
254.261	79.56
254.494	76.56
254.727	80.56
254.96	78.56
255.193	69.56
255.426	78.56
255.659	85.56
255.892	77.56
256.124	69.56
256.357	79.56
256.59	77.56
256.823	82.56
257.056	82.56
257.289	78.56
257.521	82.56
257.754	74.56
257.987	66.56
258.22	82.56
258.452	72.56
258.685	66.56
258.918	74.56
259.151	75.56
259.383	89.56
259.616	82.56
259.849	86.56
260.081	71.56
260.314	84.56
260.547	91.56
260.779	83.56
261.012	96.56
261.244	83.56
261.477	86.56
261.71	75.56
261.942	74.56
262.175	83.56
262.407	83.56
262.64	85.56
262.872	92.56
263.105	77.56
263.337	74.56
263.57	74.56
263.802	82.56
264.035	76.56
264.267	60.56
264.499	88.56
264.732	83.56
264.964	62.56
265.197	82.56
265.429	90.56
265.661	81.56
265.894	94.56
266.126	86.56
266.358	68.56
266.591	79.56
266.823	67.56
267.055	82.56
267.287	72.56
267.52	87.56
267.752	87.56
267.984	75.56
268.216	92.56
268.448	82.56
268.681	98.56
268.913	80.56
269.145	80.56
269.377	76.56
269.609	88.56
269.841	82.56
270.073	78.56
270.306	89.56
270.538	74.56
270.77	74.56
271.002	78.56
271.234	80.56
271.466	103.56
271.698	68.56
271.93	80.56
272.162	81.56
272.394	85.56
272.626	73.56
272.858	87.56
273.09	81.56
273.322	76.56
273.553	88.56
273.785	78.56
274.017	91.56
274.249	75.56
274.481	94.56
274.713	70.56
274.945	68.56
275.176	86.56
275.408	81.56
275.64	80.56
275.872	95.56
276.104	82.56
276.335	80.56
276.567	85.56
276.799	75.56
277.031	86.56
277.262	78.56
277.494	71.56
277.726	74.56
277.957	85.56
278.189	71.56
278.421	86.56
278.652	62.56
278.884	90.56
279.115	86.56
279.347	83.56
279.579	73.56
279.81	74.56
280.042	73.56
280.273	81.56
280.505	92.56
280.736	71.56
280.968	82.56
281.199	89.56
281.431	77.56
281.662	89.56
281.894	64.56
282.125	89.56
282.356	76.56
282.588	82.56
282.819	68.56
283.051	69.56
283.282	75.56
283.513	90.56
283.745	78.56
283.976	98.56
284.207	72.56
284.439	71.56
284.67	91.56
284.901	77.56
285.132	74.56
285.364	70.56
285.595	100.56
285.826	78.56
286.057	81.56
286.288	79.56
286.52	84.56
286.751	70.56
286.982	67.56
287.213	80.56
287.444	66.56
287.675	70.56
287.906	78.56
288.138	90.56
288.369	82.56
288.6	79.56
288.831	79.56
289.062	88.56
289.293	74.56
289.524	76.56
289.755	89.56
289.986	80.56
290.217	84.56
290.448	79.56
290.679	67.56
290.91	90.56
291.141	67.56
291.371	88.56
291.602	83.56
291.833	82.56
292.064	83.56
292.295	81.56
292.526	89.56
292.757	90.56
292.987	70.56
293.218	83.56
293.449	72.56
293.68	80.56
293.91	83.56
294.141	71.56
294.372	81.56
294.603	75.56
294.833	83.56
295.064	82.56
295.295	87.56
295.525	76.56
295.756	79.56
295.987	83.56
296.217	89.56
296.448	71.56
296.679	86.56
296.909	91.56
297.14	68.56
297.37	70.56
297.601	83.56
297.831	89.56
298.062	79.56
298.292	94.56
298.523	86.56
298.753	77.56
298.984	74.56
299.214	77.56
299.445	82.56
299.675	96.56
299.905	68.56
300.136	89.56
300.366	88.56
300.597	99.56
300.827	89.56
301.057	91.56
301.288	71.56
301.518	86.56
301.748	78.56
301.979	83.56
302.209	91.56
302.439	86.56
302.669	73.56
302.9	82.56
303.13	76.56
303.36	77.56
303.59	76.56
303.82	59.56
304.051	87.56
304.281	79.56
304.511	84.56
304.741	89.56
304.971	81.56
305.201	78.56
305.431	80.56
305.661	79.56
305.891	76.56
306.121	64.56
306.352	72.56
306.582	87.56
306.812	78.56
307.042	73.56
307.272	92.56
307.502	82.56
307.731	80.56
307.961	90.56
308.191	69.56
308.421	85.56
308.651	79.56
308.881	79.56
309.111	78.56
309.341	75.56
309.571	70.56
309.8	85.56
310.03	85.56
310.26	88.56
310.49	73.56
310.72	88.56
310.949	86.56
311.179	83.56
311.409	86.56
311.639	89.56
311.868	89.56
312.098	74.56
312.328	74.56
312.557	76.56
312.787	91.56
313.017	89.56
313.246	94.56
313.476	77.56
313.706	76.56
313.935	78.56
314.165	86.56
314.394	88.56
314.624	82.56
314.853	86.56
315.083	99.56
315.312	74.56
315.542	88.56
315.771	76.56
316.001	87.56
316.23	66.56
316.46	73.56
316.689	79.56
316.919	87.56
317.148	87.56
317.377	86.56
317.607	77.56
317.836	82.56
318.065	83.56
318.295	83.56
318.524	88.56
318.753	86.56
318.983	81.56
319.212	84.56
319.441	75.56
319.67	86.56
319.9	82.56
320.129	77.56
320.358	88.56
320.587	79.56
320.816	78.56
321.046	86.56
321.275	76.56
321.504	83.56
321.733	88.56
321.962	86.56
322.191	83.56
322.42	87.56
322.649	85.56
322.878	90.56
323.108	102.56
323.337	92.56
323.566	71.56
323.795	78.56
324.024	84.56
324.253	76.56
324.482	74.56
324.71	80.56
324.939	86.56
325.168	81.56
325.397	70.56
325.626	83.56
325.855	80.56
326.084	82.56
326.313	74.56
326.542	90.56
326.77	90.56
326.999	94.56
327.228	99.56
327.457	84.56
327.686	78.56
327.914	83.56
328.143	90.56
328.372	81.56
328.6	95.56
328.829	73.56
329.058	76.56
329.287	76.56
329.515	84.56
329.744	85.56
329.972	71.56
330.201	83.56
330.43	89.56
330.658	81.56
330.887	80.56
331.115	92.56
331.344	75.56
331.572	80.56
331.801	71.56
332.03	76.56
332.258	94.56
332.486	76.56
332.715	89.56
332.943	81.56
333.172	73.56
333.4	76.56
333.629	79.56
333.857	80.56
334.085	79.56
334.314	84.56
334.542	69.56
334.771	90.56
334.999	76.56
335.227	76.56
335.455	92.56
335.684	83.56
335.912	87.56
336.14	82.56
336.369	68.56
336.597	88.56
336.825	86.56
337.053	75.56
337.281	82.56
337.51	79.56
337.738	84.56
337.966	87.56
338.194	82.56
338.422	88.56
338.65	92.56
338.878	89.56
339.106	64.56
339.334	86.56
339.562	82.56
339.79	88.56
340.018	70.56
340.246	86.56
340.474	77.56
340.702	86.56
340.93	83.56
341.158	77.56
341.386	92.56
341.614	76.56
341.842	88.56
342.07	71.56
342.298	79.56
342.526	97.56
342.754	76.56
342.981	86.56
343.209	78.56
343.437	85.56
343.665	76.56
343.893	80.56
344.12	82.56
344.348	87.56
344.576	77.56
344.804	72.56
345.031	78.56
345.259	97.56
345.487	81.56
345.714	80.56
345.942	81.56
346.17	74.56
346.397	92.56
346.625	84.56
346.853	75.56
347.08	86.56
347.308	81.56
347.535	79.56
347.763	87.56
347.99	99.56
348.218	82.56
348.445	87.56
348.673	69.56
348.9	77.56
349.128	87.56
349.355	90.56
349.583	98.56
349.81	87.56
350.037	81.56
350.265	90.56
350.492	95.56
350.72	94.56
350.947	101.56
351.174	75.56
351.402	85.56
351.629	85.56
351.856	80.56
352.083	77.56
352.311	83.56
352.538	90.56
352.765	69.56
352.992	84.56
353.22	90.56
353.447	94.56
353.674	84.56
353.901	90.56
354.128	88.56
354.355	75.56
354.583	76.56
354.81	85.56
355.037	86.56
355.264	86.56
355.491	69.56
355.718	85.56
355.945	84.56
356.172	85.56
356.399	72.56
356.626	75.56
356.853	84.56
357.08	93.56
357.307	91.56
357.534	102.56
357.761	86.56
357.988	86.56
358.215	81.56
358.441	73.56
358.668	83.56
358.895	83.56
359.122	88.56
359.349	87.56
359.576	80.56
359.802	94.56
360.029	87.56
360.256	81.56
360.483	78.56
360.709	87.56
360.936	90.56
361.163	95.56
361.39	81.56
361.616	75.56
361.843	83.56
362.07	95.56
362.296	95.56
362.523	79.56
362.749	80.56
362.976	72.56
363.203	78.56
363.429	82.56
363.656	90.56
363.882	88.56
364.109	87.56
364.335	82.56
364.562	80.56
364.788	90.56
365.015	80.56
365.241	102.56
365.468	82.56
365.694	89.56
365.92	71.56
366.147	75.56
366.373	75.56
366.599	79.56
366.826	79.56
367.052	84.56
367.278	98.56
367.505	94.56
367.731	95.56
367.957	92.56
368.184	85.56
368.41	93.56
368.636	76.56
368.862	80.56
369.089	98.56
369.315	86.56
369.541	90.56
369.767	93.56
369.993	75.56
370.219	58.56
370.445	75.56
370.672	87.56
370.898	83.56
371.124	84.56
371.35	88.56
371.576	99.56
371.802	80.56
372.028	86.56
372.254	76.56
372.48	76.56
372.706	86.56
372.932	83.56
373.158	83.56
373.384	91.56
373.61	89.56
373.835	78.56
374.061	74.56
374.287	65.56
374.513	90.56
374.739	81.56
374.965	95.56
375.191	82.56
375.416	90.56
375.642	82.56
375.868	91.56
376.094	82.56
376.319	89.56
376.545	77.56
376.771	80.56
376.997	87.56
377.222	97.56
377.448	96.56
377.674	95.56
377.899	86.56
378.125	94.56
378.35	91.56
378.576	82.56
378.802	76.56
379.027	74.56
379.253	100.56
379.478	86.56
379.704	71.56
379.929	100.56
380.155	94.56
380.38	93.56
380.606	89.56
380.831	92.56
381.057	96.56
381.282	82.56
381.507	103.56
381.733	86.56
381.958	89.56
382.184	89.56
382.409	82.56
382.634	95.56
382.86	94.56
383.085	92.56
383.31	78.56
383.535	96.56
383.761	82.56
383.986	93.56
384.211	98.56
384.436	83.56
384.662	88.56
384.887	91.56
385.112	91.56
385.337	91.56
385.562	99.56
385.787	82.56
386.013	95.56
386.238	89.56
386.463	89.56
386.688	96.56
386.913	99.56
387.138	91.56
387.363	90.56
387.588	94.56
387.813	103.56
388.038	74.56
388.263	89.56
388.488	100.56
388.713	76.56
388.938	98.56
389.163	98.56
389.387	82.56
389.612	74.56
389.837	81.56
390.062	86.56
390.287	103.56
390.512	88.56
390.736	104.56
390.961	94.56
391.186	94.56
391.411	99.56
391.636	96.56
391.86	98.56
392.085	107.56
392.31	94.56
392.534	98.56
392.759	108.56
392.984	98.56
393.208	88.56
393.433	92.56
393.658	111.56
393.882	98.56
394.107	102.56
394.331	91.56
394.556	95.56
394.78	99.56
395.005	92.56
395.229	91.56
395.454	92.56
395.678	84.56
395.903	110.56
396.127	94.56
396.352	94.56
396.576	99.56
396.801	96.56
397.025	88.56
397.249	103.56
397.474	97.56
397.698	105.56
397.922	105.56
398.147	100.56
398.371	86.56
398.595	95.56
398.82	102.56
399.044	103.56
399.268	107.56
399.492	101.56
399.717	106.56
399.941	98.56
400.165	88.56
400.389	95.56
400.613	97.56
400.837	114.56
401.062	88.56
401.286	98.56
401.51	98.56
401.734	105.56
401.958	85.56
402.182	98.56
402.406	98.56
402.63	113.56
402.854	90.56
403.078	107.56
403.302	117.56
403.526	103.56
403.75	98.56
403.974	118.56
404.198	92.56
404.422	114.56
404.645	96.56
404.869	112.56
405.093	100.56
405.317	98.56
405.541	102.56
405.765	94.56
405.988	112.56
406.212	97.56
406.436	106.56
406.66	104.56
406.883	101.56
407.107	98.56
407.331	119.56
407.555	116.56
407.778	110.56
408.002	113.56
408.226	119.56
408.449	112.56
408.673	100.56
408.896	110.56
409.12	98.56
409.344	111.56
409.567	104.56
409.791	92.56
410.014	115.56
410.238	113.56
410.461	106.56
410.685	110.56
410.908	122.56
411.132	106.56
411.355	104.56
411.578	88.56
411.802	99.56
412.025	96.56
412.249	103.56
412.472	103.56
412.695	118.56
412.919	104.56
413.142	107.56
413.365	114.56
413.589	101.56
413.812	103.56
414.035	106.56
414.258	106.56
414.482	105.56
414.705	116.56
414.928	112.56
415.151	115.56
415.374	113.56
415.597	112.56
415.821	107.56
416.044	108.56
416.267	105.56
416.49	96.56
416.713	99.56
416.936	107.56
417.159	118.56
417.382	105.56
417.605	98.56
417.828	110.56
418.051	114.56
418.274	118.56
418.497	107.56
418.72	109.56
418.943	121.56
419.166	109.56
419.389	115.56
419.611	113.56
419.834	120.56
420.057	110.56
420.28	112.56
420.503	122.56
420.726	128.56
420.948	121.56
421.171	107.56
421.394	112.56
421.617	109.56
421.839	92.56
422.062	111.56
422.285	118.56
422.507	96.56
422.73	110.56
422.953	97.56
423.175	121.56
423.398	100.56
423.621	118.56
423.843	120.56
424.066	123.56
424.288	111.56
424.511	122.56
424.733	112.56
424.956	106.56
425.178	115.56
425.401	118.56
425.623	113.56
425.846	110.56
426.068	102.56
426.291	105.56
426.513	116.56
426.735	100.56
426.958	101.56
427.18	103.56
427.402	113.56
427.625	101.56
427.847	103.56
428.069	114.56
428.292	98.56
428.514	113.56
428.736	125.56
428.958	96.56
429.181	115.56
429.403	99.56
429.625	108.56
429.847	99.56
430.069	106.56
430.292	118.56
430.514	110.56
430.736	103.56
430.958	115.56
431.18	104.56
431.402	118.56
431.624	107.56
431.846	104.56
432.068	100.56
432.29	95.56
432.512	113.56
432.734	122.56
432.956	105.56
433.178	100.56
433.4	116.56
433.622	122.56
433.844	110.56
434.066	86.56
434.287	101.56
434.509	106.56
434.731	91.56
434.953	123.56
435.175	106.56
435.397	113.56
435.618	108.56
435.84	105.56
436.062	98.56
436.284	101.56
436.505	138.56
436.727	96.56
436.949	126.56
437.17	106.56
437.392	120.56
437.614	110.56
437.835	97.56
438.057	87.56
438.278	114.56
438.5	102.56
438.721	113.56
438.943	113.56
439.165	107.56
439.386	105.56
439.608	119.56
439.829	110.56
440.05	119.56
440.272	114.56
440.493	100.56
440.715	104.56
440.936	118.56
441.158	121.56
441.379	107.56
441.6	122.56
441.822	115.56
442.043	122.56
442.264	122.56
442.486	114.56
442.707	113.56
442.928	120.56
443.149	96.56
443.371	133.56
443.592	112.56
443.813	112.56
444.034	102.56
444.255	124.56
444.476	105.56
444.698	115.56
444.919	122.56
445.14	228.56
445.361	167.56
445.582	130.56
445.803	110.56
446.024	125.56
446.245	117.56
446.466	118.56
446.687	108.56
446.908	124.56
447.129	120.56
447.35	118.56
447.571	115.56
447.792	103.56
448.013	103.56
448.234	104.56
448.455	107.56
448.675	122.56
448.896	126.56
449.117	120.56
449.338	111.56
449.559	109.56
449.779	118.56
450	120.56
450.221	120.56
450.442	106.56
450.662	106.56
450.883	104.56
451.104	105.56
451.324	114.56
451.545	98.56
451.766	113.56
451.986	118.56
452.207	118.56
452.428	100.56
452.648	99.56
452.869	116.56
453.089	100.56
453.31	98.56
453.53	106.56
453.751	97.56
453.971	90.56
454.192	97.56
454.412	97.56
454.633	91.56
454.853	104.56
455.073	101.56
455.294	99.56
455.514	108.56
455.734	95.56
455.955	104.56
456.175	101.56
456.395	106.56
456.616	111.56
456.836	94.56
457.056	104.56
457.276	112.56
457.497	101.56
457.717	105.56
457.937	119.56
458.157	107.56
458.377	103.56
458.598	96.56
458.818	99.56
459.038	99.56
459.258	111.56
459.478	105.56
459.698	98.56
459.918	103.56
460.138	112.56
460.358	103.56
460.578	110.56
460.798	118.56
461.018	88.56
461.238	110.56
461.458	120.56
461.678	110.56
461.898	100.56
462.118	113.56
462.338	109.56
462.558	112.56
462.777	124.56
462.997	116.56
463.217	122.56
463.437	136.56
463.657	131.56
463.876	114.56
464.096	110.56
464.316	117.56
464.536	98.56
464.755	128.56
464.975	108.56
465.195	108.56
465.414	113.56
465.634	113.56
465.854	112.56
466.073	113.56
466.293	125.56
466.512	110.56
466.732	124.56
466.951	116.56
467.171	110.56
467.391	112.56
467.61	120.56
467.829	110.56
468.049	113.56
468.268	120.56
468.488	116.56
468.707	121.56
468.927	116.56
469.146	115.56
469.365	116.56
469.585	115.56
469.804	121.56
470.023	116.56
470.243	120.56
470.462	113.56
470.681	118.56
470.901	117.56
471.12	111.56
471.339	132.56
471.558	124.56
471.777	107.56
471.997	130.56
472.216	120.56
472.435	100.56
472.654	91.56
472.873	85.56
473.092	104.56
473.311	113.56
473.53	126.56
473.749	112.56
473.968	105.56
474.187	104.56
474.406	93.56
474.625	121.56
474.844	112.56
475.063	132.56
475.282	120.56
475.501	106.56
475.72	119.56
475.939	114.56
476.158	120.56
476.377	113.56
476.596	115.56
476.814	99.56
477.033	115.56
477.252	107.56
477.471	132.56
477.69	114.56
477.908	126.56
478.127	128.56
478.346	123.56
478.564	121.56
478.783	146.56
479.002	130.56
479.22	130.56
479.439	144.56
479.658	128.56
479.876	113.56
480.095	121.56
480.313	110.56
480.532	114.56
480.751	118.56
480.969	120.56
481.188	111.56
481.406	116.56
481.624	106.56
481.843	112.56
482.061	115.56
482.28	110.56
482.498	130.56
482.717	114.56
482.935	119.56
483.153	133.56
483.372	122.56
483.59	137.56
483.808	132.56
484.027	107.56
484.245	114.56
484.463	122.56
484.681	118.56
484.9	133.56
485.118	120.56
485.336	119.56
485.554	122.56
485.772	114.56
485.99	107.56
486.209	119.56
486.427	127.56
486.645	130.56
486.863	131.56
487.081	132.56
487.299	106.56
487.517	124.56
487.735	135.56
487.953	152.56
488.171	133.56
488.389	126.56
488.607	123.56
488.825	120.56
489.043	114.56
489.261	104.56
489.479	124.56
489.696	118.56
489.914	118.56
490.132	121.56
490.35	127.56
490.568	120.56
490.786	132.56
491.003	134.56
491.221	135.56
491.439	144.56
491.657	153.56
491.874	155.56
492.092	153.56
492.31	157.56
492.527	174.56
492.745	154.56
492.963	141.56
493.18	161.56
493.398	139.56
493.615	143.56
493.833	125.56
494.05	127.56
494.268	147.56
494.485	144.56
494.703	141.56
494.92	130.56
495.138	148.56
495.355	134.56
495.573	143.56
495.79	148.56
496.008	136.56
496.225	144.56
496.442	159.56
496.66	136.56
496.877	138.56
497.094	136.56
497.312	138.56
497.529	144.56
497.746	136.56
497.963	135.56
498.181	122.56
498.398	123.56
498.615	151.56
498.832	149.56
499.049	152.56
499.267	158.56
499.484	162.56
499.701	166.56
499.918	172.56
500.135	182.56
500.352	208.56
500.569	222.56
500.786	214.56
501.003	197.56
501.22	186.56
501.437	176.56
501.654	178.56
501.871	158.56
502.088	146.56
502.305	141.56
502.522	137.56
502.739	126.56
502.956	151.56
503.172	150.56
503.389	123.56
503.606	146.56
503.823	130.56
504.04	130.56
504.256	143.56
504.473	122.56
504.69	134.56
504.907	132.56
505.123	128.56
505.34	136.56
505.557	120.56
505.773	129.56
505.99	125.56
506.207	107.56
506.423	124.56
506.64	130.56
506.856	115.56
507.073	110.56
507.289	117.56
507.506	97.56
507.722	122.56
507.939	126.56
508.155	114.56
508.372	115.56
508.588	110.56
508.805	126.56
509.021	122.56
509.238	118.56
509.454	105.56
509.67	123.56
509.887	102.56
510.103	107.56
510.319	116.56
510.536	117.56
510.752	97.56
510.968	102.56
511.184	125.56
511.401	121.56
511.617	99.56
511.833	110.56
512.049	112.56
512.265	112.56
512.481	111.56
