Data from StandardFe(NO3)3.TAE.3%Agarose.FlatLispGreen.Lamp.Energy10.07252019_HRD10591_11-54-09-439.txt Node
Date: Thu Jul 25 11:54:09 EDT 2019
User: cochatt
Spectrometer: HR+D1059
Trigger mode: 1
Integration Time (sec): 1.000000E-1
Scans to average: 1
Electric dark correction enabled: true
Nonlinearity correction enabled: false
Boxcar width: 0
XAxis mode: Wavelengths
Number of Pixels in Spectrum: 2048
>>>>>Begin Spectral Data<<<<<
223.165	-22.25
223.4	-22.25
223.635	-22.25
223.869	-14.25
224.104	-19.25
224.338	-23.25
224.573	-23.25
224.808	-19.25
225.042	-4.25
225.277	2.75
225.511	10.75
225.746	-2.25
225.98	2.75
226.215	21.75
226.449	10.75
226.683	21.75
226.918	29.75
227.152	27.75
227.387	28.75
227.621	45.75
227.856	35.75
228.09	38.75
228.324	47.75
228.559	47.75
228.793	53.75
229.027	61.75
229.262	56.75
229.496	62.75
229.73	71.75
229.964	60.75
230.199	61.75
230.433	75.75
230.667	94.75
230.901	72.75
231.136	81.75
231.37	102.75
231.604	89.75
231.838	78.75
232.072	77.75
232.306	96.75
232.541	76.75
232.775	80.75
233.009	68.75
233.243	72.75
233.477	78.75
233.711	88.75
233.945	68.75
234.179	82.75
234.413	64.75
234.647	80.75
234.881	78.75
235.115	79.75
235.349	82.75
235.583	67.75
235.817	62.75
236.051	63.75
236.285	66.75
236.519	78.75
236.753	77.75
236.987	66.75
237.221	74.75
237.455	74.75
237.689	73.75
237.922	74.75
238.156	74.75
238.39	70.75
238.624	75.75
238.858	75.75
239.091	60.75
239.325	75.75
239.559	81.75
239.793	88.75
240.027	83.75
240.26	89.75
240.494	80.75
240.728	73.75
240.961	78.75
241.195	84.75
241.429	88.75
241.662	64.75
241.896	86.75
242.13	81.75
242.363	68.75
242.597	76.75
242.83	78.75
243.064	84.75
243.298	62.75
243.531	77.75
243.765	77.75
243.998	73.75
244.232	79.75
244.465	67.75
244.699	73.75
244.932	72.75
245.166	77.75
245.399	79.75
245.633	82.75
245.866	73.75
246.099	68.75
246.333	76.75
246.566	68.75
246.8	90.75
247.033	88.75
247.266	60.75
247.5	66.75
247.733	83.75
247.966	70.75
248.2	69.75
248.433	80.75
248.666	73.75
248.899	77.75
249.133	87.75
249.366	77.75
249.599	92.75
249.832	88.75
250.066	62.75
250.299	69.75
250.532	64.75
250.765	69.75
250.998	69.75
251.231	79.75
251.465	88.75
251.698	64.75
251.931	97.75
252.164	72.75
252.397	75.75
252.63	63.75
252.863	61.75
253.096	83.75
253.329	74.75
253.562	82.75
253.795	82.75
254.028	74.75
254.261	83.75
254.494	91.75
254.727	83.75
254.96	65.75
255.193	74.75
255.426	79.75
255.659	67.75
255.892	70.75
256.124	80.75
256.357	72.75
256.59	86.75
256.823	78.75
257.056	69.75
257.289	66.75
257.521	76.75
257.754	69.75
257.987	79.75
258.22	69.75
258.452	85.75
258.685	78.75
258.918	86.75
259.151	76.75
259.383	77.75
259.616	94.75
259.849	77.75
260.081	86.75
260.314	84.75
260.547	86.75
260.779	82.75
261.012	78.75
261.244	78.75
261.477	79.75
261.71	84.75
261.942	70.75
262.175	84.75
262.407	86.75
262.64	74.75
262.872	68.75
263.105	85.75
263.337	86.75
263.57	75.75
263.802	91.75
264.035	87.75
264.267	68.75
264.499	76.75
264.732	78.75
264.964	72.75
265.197	71.75
265.429	86.75
265.661	73.75
265.894	67.75
266.126	95.75
266.358	86.75
266.591	81.75
266.823	83.75
267.055	74.75
267.287	71.75
267.52	84.75
267.752	85.75
267.984	80.75
268.216	78.75
268.448	81.75
268.681	57.75
268.913	72.75
269.145	79.75
269.377	80.75
269.609	74.75
269.841	84.75
270.073	70.75
270.306	96.75
270.538	84.75
270.77	97.75
271.002	85.75
271.234	76.75
271.466	83.75
271.698	72.75
271.93	81.75
272.162	88.75
272.394	101.75
272.626	102.75
272.858	64.75
273.09	84.75
273.322	82.75
273.553	81.75
273.785	74.75
274.017	78.75
274.249	94.75
274.481	74.75
274.713	74.75
274.945	78.75
275.176	88.75
275.408	91.75
275.64	73.75
275.872	96.75
276.104	94.75
276.335	87.75
276.567	92.75
276.799	68.75
277.031	86.75
277.262	87.75
277.494	79.75
277.726	87.75
277.957	94.75
278.189	92.75
278.421	85.75
278.652	77.75
278.884	69.75
279.115	85.75
279.347	81.75
279.579	87.75
279.81	94.75
280.042	70.75
280.273	73.75
280.505	95.75
280.736	82.75
280.968	73.75
281.199	78.75
281.431	80.75
281.662	96.75
281.894	88.75
282.125	77.75
282.356	75.75
282.588	86.75
282.819	88.75
283.051	88.75
283.282	87.75
283.513	86.75
283.745	93.75
283.976	78.75
284.207	71.75
284.439	84.75
284.67	90.75
284.901	84.75
285.132	92.75
285.364	85.75
285.595	82.75
285.826	69.75
286.057	93.75
286.288	85.75
286.52	90.75
286.751	87.75
286.982	76.75
287.213	87.75
287.444	74.75
287.675	86.75
287.906	80.75
288.138	82.75
288.369	76.75
288.6	84.75
288.831	73.75
289.062	78.75
289.293	77.75
289.524	83.75
289.755	82.75
289.986	88.75
290.217	74.75
290.448	79.75
290.679	76.75
290.91	94.75
291.141	92.75
291.371	94.75
291.602	76.75
291.833	88.75
292.064	90.75
292.295	79.75
292.526	92.75
292.757	92.75
292.987	89.75
293.218	75.75
293.449	95.75
293.68	94.75
293.91	85.75
294.141	89.75
294.372	93.75
294.603	78.75
294.833	85.75
295.064	80.75
295.295	90.75
295.525	80.75
295.756	84.75
295.987	81.75
296.217	96.75
296.448	85.75
296.679	73.75
296.909	90.75
297.14	96.75
297.37	96.75
297.601	84.75
297.831	85.75
298.062	79.75
298.292	80.75
298.523	84.75
298.753	82.75
298.984	69.75
299.214	87.75
299.445	78.75
299.675	93.75
299.905	93.75
300.136	82.75
300.366	77.75
300.597	85.75
300.827	79.75
301.057	85.75
301.288	74.75
301.518	86.75
301.748	72.75
301.979	82.75
302.209	87.75
302.439	76.75
302.669	84.75
302.9	86.75
303.13	87.75
303.36	89.75
303.59	89.75
303.82	78.75
304.051	81.75
304.281	71.75
304.511	95.75
304.741	88.75
304.971	79.75
305.201	66.75
305.431	68.75
305.661	80.75
305.891	84.75
306.121	83.75
306.352	98.75
306.582	96.75
306.812	87.75
307.042	77.75
307.272	77.75
307.502	79.75
307.731	81.75
307.961	92.75
308.191	79.75
308.421	94.75
308.651	91.75
308.881	93.75
309.111	85.75
309.341	73.75
309.571	84.75
309.8	74.75
310.03	93.75
310.26	83.75
310.49	98.75
310.72	85.75
310.949	87.75
311.179	89.75
311.409	88.75
311.639	99.75
311.868	97.75
312.098	102.75
312.328	74.75
312.557	102.75
312.787	89.75
313.017	79.75
313.246	96.75
313.476	91.75
313.706	77.75
313.935	95.75
314.165	90.75
314.394	90.75
314.624	88.75
314.853	83.75
315.083	92.75
315.312	90.75
315.542	87.75
315.771	86.75
316.001	88.75
316.23	84.75
316.46	73.75
316.689	83.75
316.919	79.75
317.148	80.75
317.377	91.75
317.607	88.75
317.836	89.75
318.065	83.75
318.295	86.75
318.524	95.75
318.753	90.75
318.983	96.75
319.212	88.75
319.441	78.75
319.67	78.75
319.9	85.75
320.129	82.75
320.358	79.75
320.587	83.75
320.816	89.75
321.046	89.75
321.275	82.75
321.504	84.75
321.733	89.75
321.962	74.75
322.191	75.75
322.42	78.75
322.649	86.75
322.878	89.75
323.108	106.75
323.337	89.75
323.566	81.75
323.795	88.75
324.024	104.75
324.253	86.75
324.482	87.75
324.71	86.75
324.939	82.75
325.168	80.75
325.397	81.75
325.626	79.75
325.855	81.75
326.084	96.75
326.313	95.75
326.542	97.75
326.77	75.75
326.999	82.75
327.228	81.75
327.457	81.75
327.686	73.75
327.914	86.75
328.143	94.75
328.372	86.75
328.6	85.75
328.829	71.75
329.058	73.75
329.287	84.75
329.515	78.75
329.744	74.75
329.972	68.75
330.201	87.75
330.43	86.75
330.658	85.75
330.887	84.75
331.115	75.75
331.344	81.75
331.572	78.75
331.801	78.75
332.03	83.75
332.258	83.75
332.486	83.75
332.715	87.75
332.943	91.75
333.172	88.75
333.4	59.75
333.629	85.75
333.857	89.75
334.085	80.75
334.314	71.75
334.542	88.75
334.771	64.75
334.999	83.75
335.227	87.75
335.455	76.75
335.684	74.75
335.912	81.75
336.14	70.75
336.369	88.75
336.597	83.75
336.825	80.75
337.053	84.75
337.281	80.75
337.51	92.75
337.738	83.75
337.966	85.75
338.194	88.75
338.422	73.75
338.65	86.75
338.878	78.75
339.106	68.75
339.334	82.75
339.562	80.75
339.79	86.75
340.018	77.75
340.246	83.75
340.474	86.75
340.702	96.75
340.93	70.75
341.158	87.75
341.386	88.75
341.614	80.75
341.842	76.75
342.07	71.75
342.298	81.75
342.526	68.75
342.754	84.75
342.981	80.75
343.209	83.75
343.437	81.75
343.665	83.75
343.893	100.75
344.12	89.75
344.348	81.75
344.576	78.75
344.804	78.75
345.031	78.75
345.259	88.75
345.487	83.75
345.714	79.75
345.942	81.75
346.17	91.75
346.397	84.75
346.625	90.75
346.853	86.75
347.08	82.75
347.308	85.75
347.535	82.75
347.763	78.75
347.99	96.75
348.218	85.75
348.445	90.75
348.673	86.75
348.9	79.75
349.128	83.75
349.355	79.75
349.583	90.75
349.81	76.75
350.037	86.75
350.265	84.75
350.492	74.75
350.72	90.75
350.947	88.75
351.174	94.75
351.402	75.75
351.629	87.75
351.856	85.75
352.083	89.75
352.311	86.75
352.538	84.75
352.765	82.75
352.992	82.75
353.22	85.75
353.447	83.75
353.674	89.75
353.901	91.75
354.128	84.75
354.355	99.75
354.583	84.75
354.81	79.75
355.037	83.75
355.264	94.75
355.491	77.75
355.718	81.75
355.945	77.75
356.172	81.75
356.399	90.75
356.626	97.75
356.853	84.75
357.08	83.75
357.307	74.75
357.534	84.75
357.761	88.75
357.988	94.75
358.215	100.75
358.441	99.75
358.668	91.75
358.895	68.75
359.122	83.75
359.349	86.75
359.576	90.75
359.802	84.75
360.029	78.75
360.256	80.75
360.483	84.75
360.709	85.75
360.936	82.75
361.163	77.75
361.39	80.75
361.616	80.75
361.843	78.75
362.07	82.75
362.296	77.75
362.523	87.75
362.749	78.75
362.976	80.75
363.203	81.75
363.429	78.75
363.656	88.75
363.882	84.75
364.109	86.75
364.335	85.75
364.562	89.75
364.788	76.75
365.015	85.75
365.241	73.75
365.468	81.75
365.694	94.75
365.92	77.75
366.147	76.75
366.373	81.75
366.599	85.75
366.826	87.75
367.052	82.75
367.278	79.75
367.505	88.75
367.731	86.75
367.957	80.75
368.184	66.75
368.41	83.75
368.636	74.75
368.862	81.75
369.089	97.75
369.315	106.75
369.541	84.75
369.767	68.75
369.993	88.75
370.219	89.75
370.445	73.75
370.672	83.75
370.898	85.75
371.124	75.75
371.35	93.75
371.576	82.75
371.802	76.75
372.028	87.75
372.254	93.75
372.48	82.75
372.706	90.75
372.932	96.75
373.158	101.75
373.384	84.75
373.61	95.75
373.835	95.75
374.061	74.75
374.287	88.75
374.513	82.75
374.739	96.75
374.965	84.75
375.191	91.75
375.416	83.75
375.642	93.75
375.868	91.75
376.094	85.75
376.319	85.75
376.545	76.75
376.771	95.75
376.997	87.75
377.222	94.75
377.448	80.75
377.674	86.75
377.899	98.75
378.125	92.75
378.35	88.75
378.576	94.75
378.802	96.75
379.027	93.75
379.253	96.75
379.478	102.75
379.704	96.75
379.929	92.75
380.155	90.75
380.38	83.75
380.606	80.75
380.831	93.75
381.057	81.75
381.282	98.75
381.507	97.75
381.733	81.75
381.958	85.75
382.184	79.75
382.409	83.75
382.634	101.75
382.86	77.75
383.085	94.75
383.31	77.75
383.535	98.75
383.761	81.75
383.986	69.75
384.211	83.75
384.436	96.75
384.662	106.75
384.887	98.75
385.112	85.75
385.337	102.75
385.562	94.75
385.787	84.75
386.013	91.75
386.238	92.75
386.463	105.75
386.688	95.75
386.913	99.75
387.138	96.75
387.363	94.75
387.588	91.75
387.813	100.75
388.038	94.75
388.263	95.75
388.488	86.75
388.713	97.75
388.938	91.75
389.163	99.75
389.387	91.75
389.612	105.75
389.837	89.75
390.062	97.75
390.287	101.75
390.512	97.75
390.736	111.75
390.961	95.75
391.186	90.75
391.411	89.75
391.636	92.75
391.86	112.75
392.085	105.75
392.31	112.75
392.534	99.75
392.759	97.75
392.984	105.75
393.208	101.75
393.433	94.75
393.658	92.75
393.882	100.75
394.107	83.75
394.331	109.75
394.556	97.75
394.78	91.75
395.005	110.75
395.229	90.75
395.454	96.75
395.678	99.75
395.903	98.75
396.127	106.75
396.352	90.75
396.576	106.75
396.801	83.75
397.025	99.75
397.249	102.75
397.474	108.75
397.698	110.75
397.922	111.75
398.147	115.75
398.371	108.75
398.595	111.75
398.82	108.75
399.044	100.75
399.268	112.75
399.492	128.75
399.717	114.75
399.941	110.75
400.165	118.75
400.389	102.75
400.613	118.75
400.837	96.75
401.062	101.75
401.286	107.75
401.51	118.75
401.734	110.75
401.958	114.75
402.182	105.75
402.406	94.75
402.63	99.75
402.854	101.75
403.078	107.75
403.302	108.75
403.526	110.75
403.75	113.75
403.974	100.75
404.198	100.75
404.422	106.75
404.645	121.75
404.869	100.75
405.093	106.75
405.317	120.75
405.541	112.75
405.765	98.75
405.988	104.75
406.212	109.75
406.436	97.75
406.66	101.75
406.883	107.75
407.107	106.75
407.331	110.75
407.555	106.75
407.778	102.75
408.002	117.75
408.226	116.75
408.449	124.75
408.673	103.75
408.896	114.75
409.12	117.75
409.344	117.75
409.567	126.75
409.791	97.75
410.014	122.75
410.238	120.75
410.461	116.75
410.685	100.75
410.908	117.75
411.132	122.75
411.355	119.75
411.578	109.75
411.802	101.75
412.025	111.75
412.249	101.75
412.472	114.75
412.695	122.75
412.919	114.75
413.142	117.75
413.365	113.75
413.589	104.75
413.812	85.75
414.035	122.75
414.258	113.75
414.482	105.75
414.705	116.75
414.928	103.75
415.151	122.75
415.374	116.75
415.597	116.75
415.821	102.75
416.044	118.75
416.267	112.75
416.49	110.75
416.713	119.75
416.936	126.75
417.159	108.75
417.382	107.75
417.605	98.75
417.828	119.75
418.051	96.75
418.274	128.75
418.497	115.75
418.72	110.75
418.943	118.75
419.166	109.75
419.389	112.75
419.611	121.75
419.834	123.75
420.057	114.75
420.28	126.75
420.503	119.75
420.726	103.75
420.948	118.75
421.171	105.75
421.394	100.75
421.617	118.75
421.839	114.75
422.062	124.75
422.285	102.75
422.507	119.75
422.73	110.75
422.953	113.75
423.175	104.75
423.398	110.75
423.621	117.75
423.843	112.75
424.066	114.75
424.288	116.75
424.511	112.75
424.733	106.75
424.956	121.75
425.178	112.75
425.401	110.75
425.623	105.75
425.846	108.75
426.068	122.75
426.291	113.75
426.513	110.75
426.735	111.75
426.958	109.75
427.18	117.75
427.402	116.75
427.625	105.75
427.847	116.75
428.069	108.75
428.292	108.75
428.514	111.75
428.736	112.75
428.958	112.75
429.181	124.75
429.403	112.75
429.625	97.75
429.847	116.75
430.069	115.75
430.292	113.75
430.514	122.75
430.736	114.75
430.958	106.75
431.18	123.75
431.402	110.75
431.624	119.75
431.846	112.75
432.068	93.75
432.29	96.75
432.512	116.75
432.734	110.75
432.956	124.75
433.178	125.75
433.4	108.75
433.622	104.75
433.844	115.75
434.066	115.75
434.287	103.75
434.509	104.75
434.731	106.75
434.953	93.75
435.175	122.75
435.397	125.75
435.618	99.75
435.84	108.75
436.062	119.75
436.284	120.75
436.505	116.75
436.727	93.75
436.949	116.75
437.17	115.75
437.392	110.75
437.614	110.75
437.835	104.75
438.057	108.75
438.278	108.75
438.5	107.75
438.721	110.75
438.943	129.75
439.165	102.75
439.386	108.75
439.608	119.75
439.829	130.75
440.05	109.75
440.272	129.75
440.493	127.75
440.715	118.75
440.936	115.75
441.158	100.75
441.379	125.75
441.6	123.75
441.822	104.75
442.043	120.75
442.264	116.75
442.486	124.75
442.707	126.75
442.928	108.75
443.149	116.75
443.371	130.75
443.592	124.75
443.813	121.75
444.034	111.75
444.255	117.75
444.476	124.75
444.698	120.75
444.919	120.75
445.14	270.75
445.361	185.75
445.582	131.75
445.803	120.75
446.024	130.75
446.245	107.75
446.466	124.75
446.687	126.75
446.908	130.75
447.129	107.75
447.35	118.75
447.571	139.75
447.792	123.75
448.013	113.75
448.234	117.75
448.455	109.75
448.675	111.75
448.896	98.75
449.117	119.75
449.338	119.75
449.559	129.75
449.779	103.75
450	114.75
450.221	116.75
450.442	108.75
450.662	122.75
450.883	116.75
451.104	116.75
451.324	111.75
451.545	118.75
451.766	103.75
451.986	104.75
452.207	108.75
452.428	110.75
452.648	116.75
452.869	113.75
453.089	109.75
453.31	125.75
453.53	107.75
453.751	94.75
453.971	89.75
454.192	87.75
454.412	101.75
454.633	95.75
454.853	106.75
455.073	112.75
455.294	110.75
455.514	111.75
455.734	122.75
455.955	95.75
456.175	101.75
456.395	110.75
456.616	109.75
456.836	121.75
457.056	103.75
457.276	102.75
457.497	112.75
457.717	102.75
457.937	97.75
458.157	110.75
458.377	92.75
458.598	91.75
458.818	110.75
459.038	105.75
459.258	108.75
459.478	94.75
459.698	91.75
459.918	95.75
460.138	106.75
460.358	120.75
460.578	121.75
460.798	124.75
461.018	118.75
461.238	119.75
461.458	113.75
461.678	108.75
461.898	117.75
462.118	131.75
462.338	126.75
462.558	118.75
462.777	106.75
462.997	126.75
463.217	132.75
463.437	114.75
463.657	126.75
463.876	120.75
464.096	129.75
464.316	124.75
464.536	120.75
464.755	116.75
464.975	123.75
465.195	121.75
465.414	124.75
465.634	118.75
465.854	109.75
466.073	108.75
466.293	101.75
466.512	121.75
466.732	114.75
466.951	120.75
467.171	124.75
467.391	103.75
467.61	115.75
467.829	119.75
468.049	111.75
468.268	116.75
468.488	125.75
468.707	120.75
468.927	130.75
469.146	126.75
469.365	121.75
469.585	112.75
469.804	128.75
470.023	113.75
470.243	131.75
470.462	130.75
470.681	116.75
470.901	113.75
471.12	126.75
471.339	112.75
471.558	110.75
471.777	120.75
471.997	125.75
472.216	116.75
472.435	109.75
472.654	121.75
472.873	117.75
473.092	116.75
473.311	103.75
473.53	110.75
473.749	118.75
473.968	111.75
474.187	116.75
474.406	121.75
474.625	124.75
474.844	111.75
475.063	118.75
475.282	118.75
475.501	110.75
475.72	109.75
475.939	121.75
476.158	122.75
476.377	121.75
476.596	110.75
476.814	126.75
477.033	112.75
477.252	120.75
477.471	108.75
477.69	124.75
477.908	136.75
478.127	145.75
478.346	108.75
478.564	130.75
478.783	127.75
479.002	132.75
479.22	126.75
479.439	120.75
479.658	110.75
479.876	113.75
480.095	112.75
480.313	130.75
480.532	126.75
480.751	134.75
480.969	111.75
481.188	125.75
481.406	112.75
481.624	97.75
481.843	115.75
482.061	112.75
482.28	126.75
482.498	116.75
482.717	112.75
482.935	137.75
483.153	128.75
483.372	128.75
483.59	132.75
483.808	134.75
484.027	127.75
484.245	125.75
484.463	134.75
484.681	116.75
484.9	121.75
485.118	124.75
485.336	118.75
485.554	131.75
485.772	100.75
485.99	111.75
486.209	120.75
486.427	116.75
486.645	120.75
486.863	113.75
487.081	127.75
487.299	133.75
487.517	132.75
487.735	133.75
487.953	148.75
488.171	151.75
488.389	147.75
488.607	126.75
488.825	136.75
489.043	114.75
489.261	118.75
489.479	124.75
489.696	143.75
489.914	124.75
490.132	121.75
490.35	133.75
490.568	152.75
490.786	144.75
491.003	142.75
491.221	158.75
491.439	151.75
491.657	150.75
491.874	170.75
492.092	165.75
492.31	167.75
492.527	155.75
492.745	144.75
492.963	150.75
493.18	141.75
493.398	152.75
493.615	149.75
493.833	132.75
494.05	153.75
494.268	156.75
494.485	160.75
494.703	149.75
494.92	134.75
495.138	147.75
495.355	155.75
495.573	151.75
495.79	166.75
496.008	147.75
496.225	156.75
496.442	154.75
496.66	151.75
496.877	142.75
497.094	154.75
497.312	154.75
497.529	156.75
497.746	145.75
497.963	147.75
498.181	139.75
498.398	141.75
498.615	139.75
498.832	162.75
499.049	151.75
499.267	162.75
499.484	181.75
499.701	179.75
499.918	187.75
500.135	202.75
500.352	233.75
500.569	225.75
500.786	222.75
501.003	211.75
501.22	219.75
501.437	179.75
501.654	170.75
501.871	166.75
502.088	168.75
502.305	154.75
502.522	161.75
502.739	137.75
502.956	139.75
503.172	148.75
503.389	128.75
503.606	138.75
503.823	129.75
504.04	130.75
504.256	136.75
504.473	129.75
504.69	135.75
504.907	152.75
505.123	148.75
505.34	132.75
505.557	147.75
505.773	121.75
505.99	127.75
506.207	136.75
506.423	136.75
506.64	134.75
506.856	109.75
507.073	128.75
507.289	112.75
507.506	136.75
507.722	129.75
507.939	130.75
508.155	128.75
508.372	127.75
508.588	112.75
508.805	115.75
509.021	127.75
509.238	116.75
509.454	112.75
509.67	120.75
509.887	124.75
510.103	124.75
510.319	111.75
510.536	100.75
510.752	101.75
510.968	104.75
511.184	107.75
511.401	124.75
511.617	120.75
