Data from StandardFe(NO3)3.TAE.3%Agarose.FlatLispGreen.Lamp.Energy10.07252019_HRD10591_11-55-46-442.txt Node
Date: Thu Jul 25 11:55:46 EDT 2019
User: cochatt
Spectrometer: HR+D1059
Trigger mode: 1
Integration Time (sec): 1.000000E-1
Scans to average: 1
Electric dark correction enabled: true
Nonlinearity correction enabled: false
Boxcar width: 0
XAxis mode: Wavelengths
Number of Pixels in Spectrum: 2048
>>>>>Begin Spectral Data<<<<<
223.165	-17.12
223.4	-17.12
223.635	-17.12
223.869	-13.12
224.104	-21.12
224.338	-9.12
224.573	-21.12
224.808	-5.12
225.042	-4.12
225.277	-5.12
225.511	0.88
225.746	-12.12
225.98	12.88
226.215	9.88
226.449	8.88
226.683	20.88
226.918	11.88
227.152	42.88
227.387	34.88
227.621	41.88
227.856	48.88
228.09	38.88
228.324	36.88
228.559	52.88
228.793	60.88
229.027	63.88
229.262	63.88
229.496	57.88
229.73	61.88
229.964	67.88
230.199	61.88
230.433	77.88
230.667	81.88
230.901	83.88
231.136	79.88
231.37	69.88
231.604	72.88
231.838	77.88
232.072	84.88
232.306	70.88
232.541	75.88
232.775	73.88
233.009	86.88
233.243	71.88
233.477	80.88
233.711	77.88
233.945	89.88
234.179	75.88
234.413	89.88
234.647	80.88
234.881	96.88
235.115	74.88
235.349	77.88
235.583	76.88
235.817	73.88
236.051	67.88
236.285	71.88
236.519	79.88
236.753	91.88
236.987	91.88
237.221	85.88
237.455	71.88
237.689	57.88
237.922	72.88
238.156	70.88
238.39	72.88
238.624	64.88
238.858	89.88
239.091	63.88
239.325	71.88
239.559	75.88
239.793	70.88
240.027	91.88
240.26	88.88
240.494	63.88
240.728	70.88
240.961	90.88
241.195	84.88
241.429	73.88
241.662	75.88
241.896	82.88
242.13	81.88
242.363	81.88
242.597	84.88
242.83	82.88
243.064	80.88
243.298	72.88
243.531	66.88
243.765	83.88
243.998	76.88
244.232	78.88
244.465	87.88
244.699	75.88
244.932	69.88
245.166	67.88
245.399	64.88
245.633	58.88
245.866	77.88
246.099	74.88
246.333	82.88
246.566	70.88
246.8	81.88
247.033	88.88
247.266	87.88
247.5	65.88
247.733	64.88
247.966	69.88
248.2	73.88
248.433	77.88
248.666	85.88
248.899	88.88
249.133	80.88
249.366	73.88
249.599	76.88
249.832	81.88
250.066	70.88
250.299	80.88
250.532	83.88
250.765	64.88
250.998	73.88
251.231	84.88
251.465	72.88
251.698	77.88
251.931	84.88
252.164	80.88
252.397	70.88
252.63	72.88
252.863	73.88
253.096	78.88
253.329	72.88
253.562	66.88
253.795	94.88
254.028	72.88
254.261	86.88
254.494	75.88
254.727	82.88
254.96	74.88
255.193	86.88
255.426	78.88
255.659	86.88
255.892	80.88
256.124	77.88
256.357	69.88
256.59	81.88
256.823	84.88
257.056	82.88
257.289	87.88
257.521	90.88
257.754	86.88
257.987	78.88
258.22	73.88
258.452	67.88
258.685	88.88
258.918	66.88
259.151	82.88
259.383	82.88
259.616	86.88
259.849	80.88
260.081	83.88
260.314	80.88
260.547	80.88
260.779	66.88
261.012	86.88
261.244	77.88
261.477	65.88
261.71	76.88
261.942	68.88
262.175	83.88
262.407	70.88
262.64	74.88
262.872	74.88
263.105	85.88
263.337	74.88
263.57	62.88
263.802	85.88
264.035	91.88
264.267	89.88
264.499	83.88
264.732	87.88
264.964	99.88
265.197	80.88
265.429	84.88
265.661	88.88
265.894	95.88
266.126	73.88
266.358	85.88
266.591	82.88
266.823	87.88
267.055	82.88
267.287	71.88
267.52	78.88
267.752	78.88
267.984	86.88
268.216	95.88
268.448	87.88
268.681	77.88
268.913	76.88
269.145	80.88
269.377	92.88
269.609	89.88
269.841	80.88
270.073	89.88
270.306	73.88
270.538	68.88
270.77	84.88
271.002	82.88
271.234	78.88
271.466	86.88
271.698	72.88
271.93	82.88
272.162	81.88
272.394	90.88
272.626	90.88
272.858	79.88
273.09	90.88
273.322	91.88
273.553	95.88
273.785	94.88
274.017	77.88
274.249	74.88
274.481	74.88
274.713	73.88
274.945	75.88
275.176	80.88
275.408	86.88
275.64	95.88
275.872	82.88
276.104	92.88
276.335	98.88
276.567	80.88
276.799	88.88
277.031	64.88
277.262	82.88
277.494	89.88
277.726	82.88
277.957	72.88
278.189	86.88
278.421	80.88
278.652	84.88
278.884	94.88
279.115	91.88
279.347	86.88
279.579	97.88
279.81	76.88
280.042	88.88
280.273	86.88
280.505	82.88
280.736	73.88
280.968	80.88
281.199	94.88
281.431	76.88
281.662	66.88
281.894	82.88
282.125	74.88
282.356	75.88
282.588	76.88
282.819	79.88
283.051	82.88
283.282	83.88
283.513	74.88
283.745	88.88
283.976	83.88
284.207	93.88
284.439	83.88
284.67	98.88
284.901	87.88
285.132	84.88
285.364	83.88
285.595	98.88
285.826	81.88
286.057	107.88
286.288	89.88
286.52	72.88
286.751	81.88
286.982	95.88
287.213	82.88
287.444	86.88
287.675	98.88
287.906	74.88
288.138	80.88
288.369	94.88
288.6	84.88
288.831	88.88
289.062	92.88
289.293	91.88
289.524	84.88
289.755	79.88
289.986	74.88
290.217	83.88
290.448	87.88
290.679	80.88
290.91	88.88
291.141	83.88
291.371	85.88
291.602	93.88
291.833	99.88
292.064	83.88
292.295	82.88
292.526	85.88
292.757	80.88
292.987	84.88
293.218	71.88
293.449	82.88
293.68	85.88
293.91	90.88
294.141	88.88
294.372	82.88
294.603	78.88
294.833	74.88
295.064	90.88
295.295	82.88
295.525	79.88
295.756	89.88
295.987	86.88
296.217	82.88
296.448	82.88
296.679	85.88
296.909	86.88
297.14	88.88
297.37	91.88
297.601	93.88
297.831	85.88
298.062	95.88
298.292	88.88
298.523	78.88
298.753	87.88
298.984	82.88
299.214	93.88
299.445	82.88
299.675	78.88
299.905	83.88
300.136	89.88
300.366	87.88
300.597	95.88
300.827	74.88
301.057	94.88
301.288	91.88
301.518	92.88
301.748	80.88
301.979	80.88
302.209	89.88
302.439	87.88
302.669	82.88
302.9	86.88
303.13	82.88
303.36	79.88
303.59	84.88
303.82	85.88
304.051	76.88
304.281	92.88
304.511	95.88
304.741	79.88
304.971	89.88
305.201	81.88
305.431	89.88
305.661	85.88
305.891	90.88
306.121	81.88
306.352	73.88
306.582	84.88
306.812	98.88
307.042	94.88
307.272	72.88
307.502	92.88
307.731	86.88
307.961	83.88
308.191	84.88
308.421	86.88
308.651	78.88
308.881	73.88
309.111	90.88
309.341	81.88
309.571	77.88
309.8	90.88
310.03	91.88
310.26	84.88
310.49	84.88
310.72	78.88
310.949	81.88
311.179	88.88
311.409	88.88
311.639	81.88
311.868	84.88
312.098	80.88
312.328	97.88
312.557	81.88
312.787	67.88
313.017	97.88
313.246	81.88
313.476	88.88
313.706	87.88
313.935	74.88
314.165	82.88
314.394	91.88
314.624	87.88
314.853	81.88
315.083	80.88
315.312	81.88
315.542	76.88
315.771	82.88
316.001	78.88
316.23	88.88
316.46	83.88
316.689	86.88
316.919	85.88
317.148	72.88
317.377	91.88
317.607	91.88
317.836	81.88
318.065	84.88
318.295	84.88
318.524	85.88
318.753	84.88
318.983	79.88
319.212	76.88
319.441	76.88
319.67	82.88
319.9	84.88
320.129	74.88
320.358	78.88
320.587	91.88
320.816	88.88
321.046	84.88
321.275	71.88
321.504	75.88
321.733	86.88
321.962	81.88
322.191	78.88
322.42	78.88
322.649	71.88
322.878	98.88
323.108	102.88
323.337	77.88
323.566	77.88
323.795	83.88
324.024	81.88
324.253	85.88
324.482	83.88
324.71	86.88
324.939	98.88
325.168	85.88
325.397	80.88
325.626	91.88
325.855	71.88
326.084	89.88
326.313	99.88
326.542	88.88
326.77	85.88
326.999	75.88
327.228	80.88
327.457	74.88
327.686	93.88
327.914	72.88
328.143	89.88
328.372	81.88
328.6	93.88
328.829	82.88
329.058	92.88
329.287	96.88
329.515	90.88
329.744	83.88
329.972	84.88
330.201	90.88
330.43	68.88
330.658	94.88
330.887	82.88
331.115	86.88
331.344	84.88
331.572	94.88
331.801	81.88
332.03	87.88
332.258	91.88
332.486	79.88
332.715	76.88
332.943	92.88
333.172	78.88
333.4	89.88
333.629	84.88
333.857	94.88
334.085	82.88
334.314	83.88
334.542	82.88
334.771	96.88
334.999	75.88
335.227	82.88
335.455	88.88
335.684	96.88
335.912	84.88
336.14	88.88
336.369	91.88
336.597	86.88
336.825	90.88
337.053	74.88
337.281	85.88
337.51	88.88
337.738	83.88
337.966	81.88
338.194	86.88
338.422	95.88
338.65	97.88
338.878	87.88
339.106	90.88
339.334	84.88
339.562	91.88
339.79	73.88
340.018	91.88
340.246	101.88
340.474	85.88
340.702	90.88
340.93	75.88
341.158	79.88
341.386	64.88
341.614	90.88
341.842	92.88
342.07	71.88
342.298	81.88
342.526	82.88
342.754	83.88
342.981	74.88
343.209	84.88
343.437	81.88
343.665	84.88
343.893	98.88
344.12	69.88
344.348	92.88
344.576	79.88
344.804	94.88
345.031	74.88
345.259	88.88
345.487	75.88
345.714	92.88
345.942	79.88
346.17	90.88
346.397	76.88
346.625	81.88
346.853	81.88
347.08	90.88
347.308	87.88
347.535	80.88
347.763	77.88
347.99	86.88
348.218	92.88
348.445	75.88
348.673	78.88
348.9	90.88
349.128	87.88
349.355	76.88
349.583	87.88
349.81	95.88
350.037	87.88
350.265	75.88
350.492	84.88
350.72	88.88
350.947	83.88
351.174	103.88
351.402	92.88
351.629	83.88
351.856	89.88
352.083	91.88
352.311	87.88
352.538	88.88
352.765	81.88
352.992	84.88
353.22	85.88
353.447	91.88
353.674	86.88
353.901	82.88
354.128	79.88
354.355	80.88
354.583	97.88
354.81	94.88
355.037	98.88
355.264	84.88
355.491	90.88
355.718	76.88
355.945	86.88
356.172	102.88
356.399	83.88
356.626	74.88
356.853	85.88
357.08	97.88
357.307	67.88
357.534	79.88
357.761	91.88
357.988	87.88
358.215	86.88
358.441	78.88
358.668	87.88
358.895	76.88
359.122	84.88
359.349	80.88
359.576	91.88
359.802	71.88
360.029	89.88
360.256	93.88
360.483	87.88
360.709	89.88
360.936	103.88
361.163	102.88
361.39	90.88
361.616	80.88
361.843	89.88
362.07	75.88
362.296	97.88
362.523	92.88
362.749	82.88
362.976	92.88
363.203	91.88
363.429	87.88
363.656	77.88
363.882	78.88
364.109	85.88
364.335	94.88
364.562	89.88
364.788	73.88
365.015	83.88
365.241	86.88
365.468	94.88
365.694	92.88
365.92	89.88
366.147	76.88
366.373	91.88
366.599	77.88
366.826	76.88
367.052	88.88
367.278	80.88
367.505	71.88
367.731	85.88
367.957	81.88
368.184	85.88
368.41	87.88
368.636	94.88
368.862	70.88
369.089	93.88
369.315	83.88
369.541	88.88
369.767	86.88
369.993	86.88
370.219	88.88
370.445	82.88
370.672	79.88
370.898	82.88
371.124	88.88
371.35	94.88
371.576	90.88
371.802	80.88
372.028	83.88
372.254	77.88
372.48	92.88
372.706	72.88
372.932	87.88
373.158	90.88
373.384	91.88
373.61	89.88
373.835	90.88
374.061	97.88
374.287	86.88
374.513	90.88
374.739	96.88
374.965	88.88
375.191	88.88
375.416	87.88
375.642	83.88
375.868	91.88
376.094	91.88
376.319	88.88
376.545	78.88
376.771	85.88
376.997	81.88
377.222	75.88
377.448	84.88
377.674	81.88
377.899	82.88
378.125	85.88
378.35	78.88
378.576	99.88
378.802	81.88
379.027	94.88
379.253	97.88
379.478	92.88
379.704	89.88
379.929	96.88
380.155	84.88
380.38	89.88
380.606	101.88
380.831	84.88
381.057	90.88
381.282	94.88
381.507	89.88
381.733	81.88
381.958	91.88
382.184	91.88
382.409	98.88
382.634	88.88
382.86	105.88
383.085	83.88
383.31	90.88
383.535	92.88
383.761	87.88
383.986	91.88
384.211	89.88
384.436	92.88
384.662	85.88
384.887	87.88
385.112	85.88
385.337	91.88
385.562	96.88
385.787	84.88
386.013	87.88
386.238	82.88
386.463	89.88
386.688	95.88
386.913	91.88
387.138	98.88
387.363	92.88
387.588	103.88
387.813	90.88
388.038	97.88
388.263	102.88
388.488	97.88
388.713	94.88
388.938	85.88
389.163	94.88
389.387	98.88
389.612	88.88
389.837	87.88
390.062	91.88
390.287	92.88
390.512	98.88
390.736	101.88
390.961	94.88
391.186	102.88
391.411	105.88
391.636	99.88
391.86	97.88
392.085	101.88
392.31	99.88
392.534	89.88
392.759	92.88
392.984	94.88
393.208	106.88
393.433	96.88
393.658	106.88
393.882	91.88
394.107	100.88
394.331	91.88
394.556	117.88
394.78	88.88
395.005	100.88
395.229	86.88
395.454	110.88
395.678	103.88
395.903	85.88
396.127	93.88
396.352	91.88
396.576	97.88
396.801	84.88
397.025	94.88
397.249	100.88
397.474	110.88
397.698	102.88
397.922	98.88
398.147	94.88
398.371	112.88
398.595	109.88
398.82	91.88
399.044	102.88
399.268	91.88
399.492	98.88
399.717	99.88
399.941	96.88
400.165	96.88
400.389	100.88
400.613	98.88
400.837	93.88
401.062	85.88
401.286	88.88
401.51	111.88
401.734	101.88
401.958	93.88
402.182	101.88
402.406	99.88
402.63	100.88
402.854	107.88
403.078	107.88
403.302	101.88
403.526	105.88
403.75	120.88
403.974	116.88
404.198	112.88
404.422	101.88
404.645	106.88
404.869	97.88
405.093	92.88
405.317	108.88
405.541	97.88
405.765	94.88
405.988	100.88
406.212	113.88
406.436	102.88
406.66	112.88
406.883	109.88
407.107	113.88
407.331	99.88
407.555	112.88
407.778	97.88
408.002	102.88
408.226	122.88
408.449	92.88
408.673	104.88
408.896	99.88
409.12	111.88
409.344	114.88
409.567	103.88
409.791	96.88
410.014	122.88
410.238	99.88
410.461	106.88
410.685	101.88
410.908	110.88
411.132	114.88
411.355	108.88
411.578	111.88
411.802	97.88
412.025	102.88
412.249	116.88
412.472	103.88
412.695	92.88
412.919	111.88
413.142	101.88
413.365	102.88
413.589	108.88
413.812	102.88
414.035	119.88
414.258	139.88
414.482	102.88
414.705	114.88
414.928	103.88
415.151	106.88
415.374	107.88
415.597	100.88
415.821	88.88
416.044	96.88
416.267	114.88
416.49	114.88
416.713	97.88
416.936	103.88
417.159	110.88
417.382	109.88
417.605	119.88
417.828	103.88
418.051	110.88
418.274	104.88
418.497	123.88
418.72	112.88
418.943	105.88
419.166	98.88
419.389	107.88
419.611	109.88
419.834	110.88
420.057	116.88
420.28	122.88
420.503	108.88
420.726	122.88
420.948	112.88
421.171	102.88
421.394	110.88
421.617	96.88
421.839	103.88
422.062	113.88
422.285	115.88
422.507	107.88
422.73	110.88
422.953	118.88
423.175	111.88
423.398	97.88
423.621	114.88
423.843	118.88
424.066	108.88
424.288	121.88
424.511	101.88
424.733	114.88
424.956	105.88
425.178	119.88
425.401	100.88
425.623	110.88
425.846	115.88
426.068	118.88
426.291	111.88
426.513	110.88
426.735	108.88
426.958	105.88
427.18	107.88
427.402	97.88
427.625	112.88
427.847	102.88
428.069	97.88
428.292	107.88
428.514	115.88
428.736	103.88
428.958	112.88
429.181	99.88
429.403	93.88
429.625	108.88
429.847	99.88
430.069	103.88
430.292	122.88
430.514	110.88
430.736	104.88
430.958	126.88
431.18	106.88
431.402	104.88
431.624	116.88
431.846	90.88
432.068	107.88
432.29	113.88
432.512	99.88
432.734	107.88
432.956	108.88
433.178	106.88
433.4	113.88
433.622	114.88
433.844	104.88
434.066	117.88
434.287	98.88
434.509	112.88
434.731	103.88
434.953	97.88
435.175	108.88
435.397	118.88
435.618	102.88
435.84	102.88
436.062	105.88
436.284	98.88
436.505	108.88
436.727	118.88
436.949	104.88
437.17	105.88
437.392	95.88
437.614	109.88
437.835	110.88
438.057	99.88
438.278	99.88
438.5	112.88
438.721	99.88
438.943	111.88
439.165	112.88
439.386	111.88
439.608	116.88
439.829	112.88
440.05	112.88
440.272	92.88
440.493	108.88
440.715	98.88
440.936	103.88
441.158	105.88
441.379	114.88
441.6	130.88
441.822	114.88
442.043	111.88
442.264	130.88
442.486	103.88
442.707	97.88
442.928	113.88
443.149	117.88
443.371	107.88
443.592	112.88
443.813	110.88
444.034	117.88
444.255	121.88
444.476	108.88
444.698	96.88
444.919	130.88
445.14	229.88
445.361	171.88
445.582	121.88
445.803	114.88
446.024	117.88
446.245	127.88
446.466	92.88
446.687	112.88
446.908	109.88
447.129	118.88
447.35	113.88
447.571	105.88
447.792	119.88
448.013	120.88
448.234	111.88
448.455	96.88
448.675	102.88
448.896	100.88
449.117	114.88
449.338	99.88
449.559	114.88
449.779	106.88
450	104.88
450.221	126.88
450.442	114.88
450.662	101.88
450.883	107.88
451.104	110.88
451.324	114.88
451.545	106.88
451.766	103.88
451.986	102.88
452.207	97.88
452.428	97.88
452.648	97.88
452.869	86.88
453.089	89.88
453.31	105.88
453.53	106.88
453.751	117.88
453.971	107.88
454.192	103.88
454.412	99.88
454.633	108.88
454.853	122.88
455.073	96.88
455.294	105.88
455.514	112.88
455.734	114.88
455.955	95.88
456.175	110.88
456.395	101.88
456.616	100.88
456.836	99.88
457.056	98.88
457.276	86.88
457.497	86.88
457.717	96.88
457.937	100.88
458.157	108.88
458.377	108.88
458.598	92.88
458.818	91.88
459.038	91.88
459.258	94.88
459.478	99.88
459.698	103.88
459.918	114.88
460.138	107.88
460.358	105.88
460.578	104.88
460.798	107.88
461.018	87.88
461.238	110.88
461.458	111.88
461.678	117.88
461.898	116.88
462.118	114.88
462.338	112.88
462.558	107.88
462.777	118.88
462.997	116.88
463.217	123.88
463.437	117.88
463.657	113.88
463.876	120.88
464.096	121.88
464.316	124.88
464.536	128.88
464.755	112.88
464.975	112.88
465.195	116.88
465.414	113.88
465.634	120.88
465.854	112.88
466.073	106.88
466.293	109.88
466.512	106.88
466.732	118.88
466.951	116.88
467.171	127.88
467.391	112.88
467.61	119.88
467.829	117.88
468.049	105.88
468.268	119.88
468.488	106.88
468.707	108.88
468.927	115.88
469.146	108.88
469.365	124.88
469.585	121.88
469.804	103.88
470.023	112.88
470.243	123.88
470.462	110.88
470.681	118.88
470.901	123.88
471.12	118.88
471.339	114.88
471.558	115.88
471.777	116.88
471.997	102.88
472.216	116.88
472.435	106.88
472.654	94.88
472.873	113.88
473.092	108.88
473.311	114.88
473.53	101.88
473.749	115.88
473.968	109.88
474.187	101.88
474.406	100.88
474.625	110.88
474.844	100.88
475.063	115.88
475.282	107.88
475.501	98.88
475.72	112.88
475.939	116.88
476.158	122.88
476.377	108.88
476.596	118.88
476.814	112.88
477.033	107.88
477.252	110.88
477.471	114.88
477.69	121.88
477.908	125.88
478.127	128.88
478.346	114.88
478.564	125.88
478.783	123.88
479.002	129.88
479.22	121.88
479.439	103.88
479.658	124.88
479.876	124.88
480.095	107.88
480.313	104.88
480.532	122.88
480.751	120.88
480.969	102.88
481.188	107.88
481.406	124.88
481.624	106.88
481.843	94.88
482.061	98.88
482.28	100.88
482.498	107.88
482.717	120.88
482.935	120.88
483.153	112.88
483.372	141.88
483.59	128.88
483.808	119.88
484.027	106.88
484.245	120.88
484.463	114.88
484.681	125.88
484.9	132.88
485.118	129.88
485.336	134.88
485.554	104.88
485.772	116.88
485.99	122.88
486.209	117.88
486.427	109.88
486.645	123.88
486.863	119.88
487.081	113.88
487.299	114.88
487.517	121.88
487.735	127.88
487.953	139.88
488.171	128.88
488.389	141.88
488.607	135.88
488.825	107.88
489.043	106.88
489.261	121.88
489.479	137.88
489.696	122.88
489.914	129.88
490.132	136.88
490.35	132.88
490.568	135.88
490.786	131.88
491.003	131.88
491.221	156.88
491.439	128.88
491.657	143.88
491.874	143.88
492.092	163.88
492.31	153.88
492.527	159.88
492.745	148.88
492.963	139.88
493.18	141.88
493.398	143.88
493.615	153.88
493.833	142.88
494.05	154.88
494.268	144.88
494.485	147.88
494.703	142.88
494.92	149.88
495.138	120.88
495.355	121.88
495.573	153.88
495.79	147.88
496.008	149.88
496.225	131.88
496.442	140.88
496.66	146.88
496.877	152.88
497.094	121.88
497.312	134.88
497.529	131.88
497.746	139.88
497.963	124.88
498.181	139.88
498.398	138.88
498.615	127.88
498.832	126.88
499.049	138.88
499.267	124.88
499.484	154.88
499.701	171.88
499.918	179.88
500.135	192.88
500.352	207.88
500.569	214.88
500.786	215.88
501.003	189.88
501.22	174.88
501.437	177.88
501.654	169.88
501.871	158.88
502.088	169.88
502.305	152.88
502.522	156.88
502.739	156.88
502.956	143.88
503.172	122.88
503.389	117.88
503.606	131.88
503.823	124.88
504.04	135.88
504.256	128.88
504.473	124.88
504.69	107.88
504.907	118.88
505.123	121.88
505.34	128.88
505.557	114.88
505.773	136.88
505.99	122.88
506.207	128.88
506.423	116.88
506.64	113.88
506.856	118.88
507.073	117.88
507.289	122.88
507.506	115.88
507.722	112.88
507.939	120.88
508.155	108.88
508.372	118.88
508.588	112.88
508.805	123.88
509.021	107.88
509.238	116.88
509.454	122.88
509.67	98.88
509.887	124.88
510.103	122.88
510.319	107.88
510.536	117.88
510.752	99.88
510.968	118.88
511.184	116.88
511.401	107.88
511.617	119.88
511.833	126.88
512.049	122.88
512.265	117.88
512.481	112.88
