Data from StandardFe(NO3)3.TAE.3%Agarose.FlatLispGreen.Lamp.Energy10.07252019_HRD10591_11-56-22-442.txt Node
Date: Thu Jul 25 11:56:22 EDT 2019
User: cochatt
Spectrometer: HR+D1059
Trigger mode: 1
Integration Time (sec): 1.000000E-1
Scans to average: 1
Electric dark correction enabled: true
Nonlinearity correction enabled: false
Boxcar width: 0
XAxis mode: Wavelengths
Number of Pixels in Spectrum: 2048
>>>>>Begin Spectral Data<<<<<
223.165	-24.19
223.4	-24.19
223.635	-24.19
223.869	-22.19
224.104	-32.19
224.338	-7.19
224.573	-12.19
224.808	-14.19
225.042	-6.19
225.277	4.81
225.511	-20.19
225.746	-0.19
225.98	14.81
226.215	17.81
226.449	14.81
226.683	23.81
226.918	29.81
227.152	32.81
227.387	43.81
227.621	41.81
227.856	33.81
228.09	35.81
228.324	43.81
228.559	59.81
228.793	64.81
229.027	66.81
229.262	49.81
229.496	64.81
229.73	56.81
229.964	77.81
230.199	75.81
230.433	65.81
230.667	82.81
230.901	81.81
231.136	77.81
231.37	72.81
231.604	82.81
231.838	85.81
232.072	80.81
232.306	81.81
232.541	79.81
232.775	71.81
233.009	84.81
233.243	75.81
233.477	90.81
233.711	78.81
233.945	89.81
234.179	80.81
234.413	86.81
234.647	84.81
234.881	79.81
235.115	81.81
235.349	81.81
235.583	85.81
235.817	73.81
236.051	85.81
236.285	67.81
236.519	78.81
236.753	68.81
236.987	91.81
237.221	64.81
237.455	78.81
237.689	74.81
237.922	74.81
238.156	76.81
238.39	79.81
238.624	65.81
238.858	82.81
239.091	67.81
239.325	76.81
239.559	87.81
239.793	80.81
240.027	63.81
240.26	74.81
240.494	59.81
240.728	59.81
240.961	58.81
241.195	73.81
241.429	76.81
241.662	97.81
241.896	74.81
242.13	82.81
242.363	71.81
242.597	67.81
242.83	79.81
243.064	71.81
243.298	71.81
243.531	74.81
243.765	80.81
243.998	66.81
244.232	75.81
244.465	73.81
244.699	77.81
244.932	78.81
245.166	77.81
245.399	69.81
245.633	83.81
245.866	79.81
246.099	71.81
246.333	73.81
246.566	67.81
246.8	70.81
247.033	91.81
247.266	77.81
247.5	82.81
247.733	74.81
247.966	83.81
248.2	72.81
248.433	76.81
248.666	75.81
248.899	76.81
249.133	60.81
249.366	83.81
249.599	78.81
249.832	79.81
250.066	87.81
250.299	80.81
250.532	68.81
250.765	82.81
250.998	86.81
251.231	72.81
251.465	77.81
251.698	72.81
251.931	75.81
252.164	93.81
252.397	78.81
252.63	69.81
252.863	70.81
253.096	73.81
253.329	78.81
253.562	77.81
253.795	79.81
254.028	67.81
254.261	75.81
254.494	72.81
254.727	80.81
254.96	72.81
255.193	88.81
255.426	87.81
255.659	81.81
255.892	84.81
256.124	72.81
256.357	89.81
256.59	81.81
256.823	62.81
257.056	82.81
257.289	82.81
257.521	76.81
257.754	75.81
257.987	75.81
258.22	80.81
258.452	81.81
258.685	88.81
258.918	80.81
259.151	60.81
259.383	70.81
259.616	84.81
259.849	75.81
260.081	79.81
260.314	73.81
260.547	74.81
260.779	69.81
261.012	74.81
261.244	98.81
261.477	71.81
261.71	72.81
261.942	74.81
262.175	84.81
262.407	74.81
262.64	67.81
262.872	84.81
263.105	76.81
263.337	80.81
263.57	89.81
263.802	67.81
264.035	69.81
264.267	86.81
264.499	89.81
264.732	85.81
264.964	91.81
265.197	91.81
265.429	90.81
265.661	81.81
265.894	84.81
266.126	98.81
266.358	76.81
266.591	73.81
266.823	89.81
267.055	71.81
267.287	90.81
267.52	85.81
267.752	81.81
267.984	82.81
268.216	84.81
268.448	103.81
268.681	73.81
268.913	81.81
269.145	73.81
269.377	65.81
269.609	82.81
269.841	91.81
270.073	74.81
270.306	80.81
270.538	77.81
270.77	81.81
271.002	90.81
271.234	90.81
271.466	76.81
271.698	79.81
271.93	81.81
272.162	69.81
272.394	77.81
272.626	89.81
272.858	85.81
273.09	80.81
273.322	89.81
273.553	80.81
273.785	84.81
274.017	69.81
274.249	74.81
274.481	73.81
274.713	79.81
274.945	98.81
275.176	84.81
275.408	84.81
275.64	70.81
275.872	84.81
276.104	77.81
276.335	87.81
276.567	69.81
276.799	75.81
277.031	88.81
277.262	90.81
277.494	86.81
277.726	82.81
277.957	70.81
278.189	88.81
278.421	77.81
278.652	83.81
278.884	85.81
279.115	68.81
279.347	88.81
279.579	91.81
279.81	84.81
280.042	74.81
280.273	71.81
280.505	72.81
280.736	88.81
280.968	106.81
281.199	85.81
281.431	76.81
281.662	89.81
281.894	74.81
282.125	82.81
282.356	84.81
282.588	87.81
282.819	83.81
283.051	83.81
283.282	89.81
283.513	85.81
283.745	79.81
283.976	90.81
284.207	90.81
284.439	75.81
284.67	88.81
284.901	76.81
285.132	93.81
285.364	91.81
285.595	89.81
285.826	86.81
286.057	88.81
286.288	71.81
286.52	80.81
286.751	86.81
286.982	77.81
287.213	76.81
287.444	77.81
287.675	86.81
287.906	87.81
288.138	77.81
288.369	73.81
288.6	83.81
288.831	80.81
289.062	89.81
289.293	96.81
289.524	85.81
289.755	85.81
289.986	85.81
290.217	83.81
290.448	86.81
290.679	87.81
290.91	82.81
291.141	78.81
291.371	81.81
291.602	83.81
291.833	82.81
292.064	77.81
292.295	75.81
292.526	73.81
292.757	92.81
292.987	85.81
293.218	84.81
293.449	87.81
293.68	92.81
293.91	91.81
294.141	80.81
294.372	84.81
294.603	92.81
294.833	83.81
295.064	90.81
295.295	89.81
295.525	81.81
295.756	78.81
295.987	73.81
296.217	84.81
296.448	77.81
296.679	91.81
296.909	87.81
297.14	87.81
297.37	83.81
297.601	81.81
297.831	94.81
298.062	79.81
298.292	81.81
298.523	82.81
298.753	70.81
298.984	81.81
299.214	79.81
299.445	85.81
299.675	82.81
299.905	89.81
300.136	75.81
300.366	97.81
300.597	83.81
300.827	98.81
301.057	82.81
301.288	81.81
301.518	89.81
301.748	78.81
301.979	90.81
302.209	71.81
302.439	82.81
302.669	96.81
302.9	90.81
303.13	85.81
303.36	82.81
303.59	78.81
303.82	81.81
304.051	83.81
304.281	93.81
304.511	72.81
304.741	86.81
304.971	82.81
305.201	83.81
305.431	83.81
305.661	87.81
305.891	76.81
306.121	79.81
306.352	88.81
306.582	82.81
306.812	89.81
307.042	74.81
307.272	81.81
307.502	90.81
307.731	80.81
307.961	70.81
308.191	72.81
308.421	72.81
308.651	76.81
308.881	76.81
309.111	86.81
309.341	80.81
309.571	91.81
309.8	77.81
310.03	81.81
310.26	83.81
310.49	81.81
310.72	90.81
310.949	79.81
311.179	66.81
311.409	88.81
311.639	91.81
311.868	90.81
312.098	76.81
312.328	83.81
312.557	84.81
312.787	88.81
313.017	82.81
313.246	87.81
313.476	78.81
313.706	84.81
313.935	76.81
314.165	86.81
314.394	75.81
314.624	71.81
314.853	81.81
315.083	64.81
315.312	86.81
315.542	76.81
315.771	75.81
316.001	84.81
316.23	86.81
316.46	78.81
316.689	94.81
316.919	80.81
317.148	77.81
317.377	84.81
317.607	90.81
317.836	85.81
318.065	85.81
318.295	97.81
318.524	84.81
318.753	85.81
318.983	81.81
319.212	92.81
319.441	99.81
319.67	83.81
319.9	89.81
320.129	95.81
320.358	75.81
320.587	88.81
320.816	92.81
321.046	89.81
321.275	97.81
321.504	92.81
321.733	90.81
321.962	97.81
322.191	97.81
322.42	93.81
322.649	84.81
322.878	90.81
323.108	83.81
323.337	86.81
323.566	76.81
323.795	97.81
324.024	83.81
324.253	91.81
324.482	87.81
324.71	84.81
324.939	92.81
325.168	78.81
325.397	84.81
325.626	75.81
325.855	85.81
326.084	81.81
326.313	85.81
326.542	89.81
326.77	77.81
326.999	95.81
327.228	62.81
327.457	76.81
327.686	88.81
327.914	80.81
328.143	97.81
328.372	78.81
328.6	76.81
328.829	78.81
329.058	89.81
329.287	81.81
329.515	79.81
329.744	92.81
329.972	82.81
330.201	95.81
330.43	87.81
330.658	88.81
330.887	84.81
331.115	87.81
331.344	83.81
331.572	105.81
331.801	96.81
332.03	61.81
332.258	72.81
332.486	92.81
332.715	79.81
332.943	87.81
333.172	82.81
333.4	71.81
333.629	80.81
333.857	94.81
334.085	79.81
334.314	73.81
334.542	81.81
334.771	85.81
334.999	84.81
335.227	88.81
335.455	87.81
335.684	91.81
335.912	87.81
336.14	85.81
336.369	90.81
336.597	76.81
336.825	88.81
337.053	82.81
337.281	73.81
337.51	81.81
337.738	87.81
337.966	88.81
338.194	82.81
338.422	94.81
338.65	90.81
338.878	88.81
339.106	81.81
339.334	94.81
339.562	87.81
339.79	96.81
340.018	91.81
340.246	90.81
340.474	82.81
340.702	93.81
340.93	66.81
341.158	83.81
341.386	67.81
341.614	85.81
341.842	71.81
342.07	87.81
342.298	81.81
342.526	74.81
342.754	81.81
342.981	81.81
343.209	87.81
343.437	86.81
343.665	74.81
343.893	79.81
344.12	90.81
344.348	82.81
344.576	90.81
344.804	85.81
345.031	84.81
345.259	83.81
345.487	97.81
345.714	89.81
345.942	77.81
346.17	85.81
346.397	73.81
346.625	95.81
346.853	87.81
347.08	73.81
347.308	85.81
347.535	95.81
347.763	75.81
347.99	83.81
348.218	82.81
348.445	76.81
348.673	92.81
348.9	98.81
349.128	91.81
349.355	86.81
349.583	79.81
349.81	84.81
350.037	94.81
350.265	78.81
350.492	101.81
350.72	93.81
350.947	99.81
351.174	94.81
351.402	82.81
351.629	92.81
351.856	84.81
352.083	84.81
352.311	82.81
352.538	99.81
352.765	88.81
352.992	94.81
353.22	71.81
353.447	77.81
353.674	82.81
353.901	85.81
354.128	89.81
354.355	92.81
354.583	74.81
354.81	79.81
355.037	99.81
355.264	95.81
355.491	80.81
355.718	92.81
355.945	98.81
356.172	75.81
356.399	82.81
356.626	93.81
356.853	82.81
357.08	82.81
357.307	73.81
357.534	75.81
357.761	86.81
357.988	81.81
358.215	75.81
358.441	93.81
358.668	93.81
358.895	74.81
359.122	85.81
359.349	83.81
359.576	89.81
359.802	87.81
360.029	95.81
360.256	91.81
360.483	69.81
360.709	101.81
360.936	88.81
361.163	71.81
361.39	96.81
361.616	84.81
361.843	83.81
362.07	96.81
362.296	64.81
362.523	78.81
362.749	80.81
362.976	84.81
363.203	98.81
363.429	85.81
363.656	77.81
363.882	88.81
364.109	86.81
364.335	76.81
364.562	80.81
364.788	76.81
365.015	88.81
365.241	100.81
365.468	97.81
365.694	89.81
365.92	88.81
366.147	83.81
366.373	89.81
366.599	88.81
366.826	88.81
367.052	75.81
367.278	85.81
367.505	80.81
367.731	76.81
367.957	89.81
368.184	85.81
368.41	75.81
368.636	84.81
368.862	93.81
369.089	73.81
369.315	72.81
369.541	94.81
369.767	84.81
369.993	90.81
370.219	80.81
370.445	98.81
370.672	93.81
370.898	80.81
371.124	88.81
371.35	74.81
371.576	84.81
371.802	86.81
372.028	92.81
372.254	97.81
372.48	89.81
372.706	81.81
372.932	96.81
373.158	99.81
373.384	72.81
373.61	86.81
373.835	86.81
374.061	73.81
374.287	76.81
374.513	95.81
374.739	89.81
374.965	89.81
375.191	74.81
375.416	114.81
375.642	105.81
375.868	91.81
376.094	88.81
376.319	98.81
376.545	94.81
376.771	96.81
376.997	82.81
377.222	82.81
377.448	98.81
377.674	98.81
377.899	104.81
378.125	94.81
378.35	97.81
378.576	92.81
378.802	71.81
379.027	99.81
379.253	101.81
379.478	90.81
379.704	88.81
379.929	98.81
380.155	102.81
380.38	97.81
380.606	96.81
380.831	77.81
381.057	93.81
381.282	101.81
381.507	95.81
381.733	89.81
381.958	87.81
382.184	90.81
382.409	97.81
382.634	96.81
382.86	96.81
383.085	97.81
383.31	93.81
383.535	91.81
383.761	89.81
383.986	99.81
384.211	108.81
384.436	91.81
384.662	96.81
384.887	96.81
385.112	88.81
385.337	87.81
385.562	88.81
385.787	108.81
386.013	105.81
386.238	96.81
386.463	83.81
386.688	76.81
386.913	93.81
387.138	89.81
387.363	94.81
387.588	107.81
387.813	87.81
388.038	105.81
388.263	97.81
388.488	98.81
388.713	92.81
388.938	75.81
389.163	100.81
389.387	84.81
389.612	89.81
389.837	98.81
390.062	88.81
390.287	92.81
390.512	91.81
390.736	97.81
390.961	88.81
391.186	91.81
391.411	98.81
391.636	110.81
391.86	91.81
392.085	96.81
392.31	109.81
392.534	109.81
392.759	99.81
392.984	105.81
393.208	108.81
393.433	107.81
393.658	96.81
393.882	98.81
394.107	85.81
394.331	111.81
394.556	105.81
394.78	87.81
395.005	105.81
395.229	104.81
395.454	112.81
395.678	101.81
395.903	97.81
396.127	96.81
396.352	100.81
396.576	93.81
396.801	84.81
397.025	91.81
397.249	101.81
397.474	88.81
397.698	92.81
397.922	100.81
398.147	93.81
398.371	76.81
398.595	98.81
398.82	98.81
399.044	98.81
399.268	104.81
399.492	89.81
399.717	107.81
399.941	93.81
400.165	108.81
400.389	92.81
400.613	95.81
400.837	106.81
401.062	93.81
401.286	107.81
401.51	101.81
401.734	95.81
401.958	105.81
402.182	111.81
402.406	106.81
402.63	116.81
402.854	114.81
403.078	95.81
403.302	114.81
403.526	100.81
403.75	103.81
403.974	105.81
404.198	92.81
404.422	121.81
404.645	105.81
404.869	108.81
405.093	107.81
405.317	101.81
405.541	122.81
405.765	107.81
405.988	115.81
406.212	95.81
406.436	116.81
406.66	119.81
406.883	104.81
407.107	98.81
407.331	102.81
407.555	102.81
407.778	119.81
408.002	115.81
408.226	114.81
408.449	117.81
408.673	123.81
408.896	107.81
409.12	104.81
409.344	120.81
409.567	114.81
409.791	114.81
410.014	123.81
410.238	107.81
410.461	103.81
410.685	119.81
410.908	100.81
411.132	91.81
411.355	104.81
411.578	95.81
411.802	118.81
412.025	100.81
412.249	103.81
412.472	111.81
412.695	111.81
412.919	104.81
413.142	84.81
413.365	113.81
413.589	120.81
413.812	114.81
414.035	105.81
414.258	104.81
414.482	97.81
414.705	109.81
414.928	112.81
415.151	103.81
415.374	100.81
415.597	98.81
415.821	107.81
416.044	101.81
416.267	111.81
416.49	108.81
416.713	98.81
416.936	124.81
417.159	117.81
417.382	124.81
417.605	104.81
417.828	117.81
418.051	114.81
418.274	100.81
418.497	98.81
418.72	112.81
418.943	118.81
419.166	95.81
419.389	118.81
419.611	106.81
419.834	113.81
420.057	110.81
420.28	122.81
420.503	120.81
420.726	115.81
420.948	114.81
421.171	116.81
421.394	102.81
421.617	116.81
421.839	121.81
422.062	112.81
422.285	124.81
422.507	103.81
422.73	115.81
422.953	106.81
423.175	117.81
423.398	113.81
423.621	123.81
423.843	109.81
424.066	109.81
424.288	120.81
424.511	113.81
424.733	117.81
424.956	108.81
425.178	125.81
425.401	113.81
425.623	115.81
425.846	113.81
426.068	124.81
426.291	108.81
426.513	123.81
426.735	116.81
426.958	100.81
427.18	110.81
427.402	99.81
427.625	121.81
427.847	108.81
428.069	88.81
428.292	110.81
428.514	108.81
428.736	103.81
428.958	114.81
429.181	111.81
429.403	111.81
429.625	98.81
429.847	104.81
430.069	117.81
430.292	105.81
430.514	108.81
430.736	108.81
430.958	119.81
431.18	111.81
431.402	94.81
431.624	101.81
431.846	107.81
432.068	111.81
432.29	109.81
432.512	107.81
432.734	122.81
432.956	102.81
433.178	108.81
433.4	114.81
433.622	119.81
433.844	113.81
434.066	98.81
434.287	108.81
434.509	104.81
434.731	119.81
434.953	107.81
435.175	115.81
435.397	114.81
435.618	111.81
435.84	116.81
436.062	117.81
436.284	88.81
436.505	121.81
436.727	116.81
436.949	111.81
437.17	93.81
437.392	100.81
437.614	106.81
437.835	105.81
438.057	119.81
438.278	95.81
438.5	101.81
438.721	101.81
438.943	104.81
439.165	104.81
439.386	118.81
439.608	129.81
439.829	126.81
440.05	99.81
440.272	107.81
440.493	124.81
440.715	131.81
440.936	116.81
441.158	116.81
441.379	116.81
441.6	123.81
441.822	115.81
442.043	124.81
442.264	133.81
442.486	122.81
442.707	114.81
442.928	122.81
443.149	118.81
443.371	121.81
443.592	119.81
443.813	118.81
444.034	100.81
444.255	121.81
444.476	121.81
444.698	130.81
444.919	113.81
445.14	266.81
445.361	179.81
445.582	120.81
445.803	113.81
446.024	98.81
446.245	107.81
446.466	112.81
446.687	119.81
446.908	123.81
447.129	121.81
447.35	116.81
447.571	123.81
447.792	116.81
448.013	105.81
448.234	108.81
448.455	118.81
448.675	103.81
448.896	103.81
449.117	124.81
449.338	107.81
449.559	118.81
449.779	92.81
450	115.81
450.221	106.81
450.442	108.81
450.662	101.81
450.883	115.81
451.104	109.81
451.324	114.81
451.545	114.81
451.766	115.81
451.986	100.81
452.207	106.81
452.428	118.81
452.648	112.81
452.869	107.81
453.089	93.81
453.31	95.81
453.53	97.81
453.751	105.81
453.971	101.81
454.192	105.81
454.412	117.81
454.633	99.81
454.853	100.81
455.073	107.81
455.294	105.81
455.514	103.81
455.734	120.81
455.955	105.81
456.175	102.81
456.395	108.81
456.616	103.81
456.836	100.81
457.056	97.81
457.276	99.81
457.497	103.81
457.717	99.81
457.937	108.81
458.157	112.81
458.377	105.81
458.598	100.81
458.818	104.81
459.038	104.81
459.258	105.81
459.478	107.81
459.698	102.81
459.918	107.81
460.138	100.81
460.358	104.81
460.578	121.81
460.798	118.81
461.018	103.81
461.238	107.81
461.458	111.81
461.678	106.81
461.898	123.81
462.118	113.81
462.338	120.81
462.558	104.81
462.777	101.81
462.997	125.81
463.217	123.81
463.437	129.81
463.657	117.81
463.876	124.81
464.096	130.81
464.316	117.81
464.536	114.81
464.755	110.81
464.975	120.81
465.195	115.81
465.414	113.81
465.634	109.81
465.854	101.81
466.073	119.81
466.293	111.81
466.512	116.81
466.732	111.81
466.951	112.81
467.171	98.81
467.391	119.81
467.61	117.81
467.829	115.81
468.049	103.81
468.268	121.81
468.488	99.81
468.707	102.81
468.927	112.81
469.146	109.81
469.365	115.81
469.585	119.81
469.804	114.81
470.023	109.81
470.243	111.81
470.462	116.81
470.681	127.81
470.901	121.81
471.12	125.81
471.339	125.81
471.558	109.81
471.777	108.81
471.997	119.81
472.216	103.81
472.435	111.81
472.654	115.81
472.873	121.81
473.092	122.81
473.311	123.81
473.53	114.81
473.749	114.81
473.968	101.81
474.187	107.81
474.406	119.81
474.625	100.81
474.844	127.81
475.063	125.81
475.282	108.81
475.501	102.81
475.72	106.81
475.939	120.81
476.158	92.81
476.377	116.81
476.596	127.81
476.814	123.81
477.033	115.81
477.252	96.81
477.471	132.81
477.69	115.81
477.908	107.81
478.127	119.81
478.346	126.81
478.564	136.81
478.783	136.81
479.002	122.81
479.22	130.81
479.439	110.81
479.658	119.81
479.876	113.81
480.095	108.81
480.313	121.81
480.532	123.81
480.751	124.81
480.969	131.81
481.188	124.81
481.406	121.81
481.624	107.81
481.843	105.81
482.061	115.81
482.28	116.81
482.498	116.81
482.717	100.81
482.935	121.81
483.153	129.81
483.372	133.81
483.59	137.81
483.808	117.81
484.027	124.81
484.245	130.81
484.463	121.81
484.681	123.81
484.9	123.81
485.118	116.81
485.336	135.81
485.554	135.81
485.772	104.81
485.99	120.81
486.209	133.81
486.427	118.81
486.645	114.81
486.863	127.81
487.081	108.81
487.299	127.81
487.517	129.81
487.735	143.81
487.953	133.81
488.171	133.81
488.389	139.81
488.607	133.81
488.825	126.81
489.043	133.81
489.261	143.81
489.479	125.81
489.696	144.81
489.914	129.81
490.132	141.81
490.35	126.81
490.568	129.81
490.786	150.81
491.003	139.81
491.221	127.81
491.439	149.81
491.657	149.81
491.874	144.81
492.092	152.81
492.31	159.81
492.527	154.81
492.745	161.81
492.963	145.81
493.18	149.81
493.398	140.81
493.615	151.81
493.833	154.81
494.05	147.81
494.268	145.81
494.485	141.81
494.703	144.81
494.92	158.81
495.138	153.81
495.355	146.81
495.573	149.81
495.79	140.81
496.008	131.81
496.225	155.81
496.442	140.81
496.66	145.81
496.877	137.81
497.094	154.81
497.312	147.81
497.529	133.81
497.746	130.81
497.963	123.81
498.181	139.81
498.398	146.81
498.615	160.81
498.832	144.81
499.049	144.81
499.267	159.81
499.484	153.81
499.701	179.81
499.918	185.81
500.135	190.81
500.352	228.81
500.569	233.81
500.786	215.81
501.003	199.81
501.22	200.81
501.437	179.81
501.654	174.81
501.871	169.81
502.088	170.81
502.305	150.81
502.522	135.81
502.739	145.81
502.956	132.81
503.172	154.81
503.389	139.81
503.606	126.81
503.823	132.81
504.04	135.81
504.256	146.81
504.473	145.81
504.69	132.81
504.907	138.81
505.123	134.81
505.34	136.81
505.557	140.81
505.773	137.81
505.99	120.81
506.207	131.81
506.423	143.81
506.64	109.81
506.856	101.81
507.073	118.81
507.289	135.81
507.506	125.81
507.722	123.81
507.939	128.81
508.155	131.81
508.372	127.81
508.588	120.81
508.805	109.81
509.021	116.81
509.238	111.81
509.454	119.81
509.67	107.81
509.887	114.81
510.103	113.81
510.319	100.81
510.536	111.81
510.752	114.81
510.968	121.81
511.184	115.81
511.401	104.81
511.617	110.81
511.833	108.81
512.049	106.81
