Data from StandardFe(NO3)3.TAE.3%Agarose.FlatLispGreen.Lamp.Energy10.07252019_HRD10591_11-55-03-441.txt Node
Date: Thu Jul 25 11:55:03 EDT 2019
User: cochatt
Spectrometer: HR+D1059
Trigger mode: 1
Integration Time (sec): 1.000000E-1
Scans to average: 1
Electric dark correction enabled: true
Nonlinearity correction enabled: false
Boxcar width: 0
XAxis mode: Wavelengths
Number of Pixels in Spectrum: 2048
>>>>>Begin Spectral Data<<<<<
223.165	-12.56
223.4	-12.56
223.635	-12.56
223.869	-11.56
224.104	-26.56
224.338	-15.56
224.573	-25.56
224.808	-6.56
225.042	-14.56
225.277	-8.56
225.511	-5.56
225.746	-6.56
225.98	10.44
226.215	20.44
226.449	20.44
226.683	18.44
226.918	29.44
227.152	34.44
227.387	38.44
227.621	52.44
227.856	36.44
228.09	35.44
228.324	37.44
228.559	39.44
228.793	59.44
229.027	57.44
229.262	61.44
229.496	46.44
229.73	73.44
229.964	62.44
230.199	63.44
230.433	76.44
230.667	84.44
230.901	78.44
231.136	76.44
231.37	80.44
231.604	88.44
231.838	65.44
232.072	66.44
232.306	81.44
232.541	77.44
232.775	86.44
233.009	78.44
233.243	77.44
233.477	93.44
233.711	78.44
233.945	73.44
234.179	88.44
234.413	69.44
234.647	79.44
234.881	88.44
235.115	84.44
235.349	75.44
235.583	87.44
235.817	66.44
236.051	80.44
236.285	88.44
236.519	83.44
236.753	81.44
236.987	72.44
237.221	76.44
237.455	81.44
237.689	76.44
237.922	80.44
238.156	65.44
238.39	81.44
238.624	83.44
238.858	79.44
239.091	64.44
239.325	92.44
239.559	79.44
239.793	86.44
240.027	76.44
240.26	85.44
240.494	81.44
240.728	77.44
240.961	73.44
241.195	84.44
241.429	84.44
241.662	71.44
241.896	76.44
242.13	85.44
242.363	74.44
242.597	79.44
242.83	85.44
243.064	77.44
243.298	72.44
243.531	87.44
243.765	68.44
243.998	82.44
244.232	74.44
244.465	78.44
244.699	87.44
244.932	70.44
245.166	84.44
245.399	66.44
245.633	87.44
245.866	89.44
246.099	85.44
246.333	76.44
246.566	76.44
246.8	94.44
247.033	88.44
247.266	70.44
247.5	78.44
247.733	82.44
247.966	76.44
248.2	85.44
248.433	68.44
248.666	92.44
248.899	74.44
249.133	73.44
249.366	87.44
249.599	84.44
249.832	83.44
250.066	81.44
250.299	81.44
250.532	78.44
250.765	76.44
250.998	62.44
251.231	83.44
251.465	93.44
251.698	86.44
251.931	83.44
252.164	72.44
252.397	63.44
252.63	68.44
252.863	88.44
253.096	94.44
253.329	95.44
253.562	70.44
253.795	69.44
254.028	73.44
254.261	74.44
254.494	84.44
254.727	77.44
254.96	87.44
255.193	79.44
255.426	75.44
255.659	78.44
255.892	74.44
256.124	97.44
256.357	82.44
256.59	66.44
256.823	80.44
257.056	83.44
257.289	81.44
257.521	79.44
257.754	76.44
257.987	74.44
258.22	74.44
258.452	88.44
258.685	76.44
258.918	86.44
259.151	86.44
259.383	68.44
259.616	75.44
259.849	82.44
260.081	79.44
260.314	74.44
260.547	85.44
260.779	89.44
261.012	75.44
261.244	76.44
261.477	81.44
261.71	82.44
261.942	73.44
262.175	80.44
262.407	84.44
262.64	85.44
262.872	68.44
263.105	81.44
263.337	80.44
263.57	83.44
263.802	72.44
264.035	87.44
264.267	80.44
264.499	64.44
264.732	96.44
264.964	89.44
265.197	95.44
265.429	87.44
265.661	81.44
265.894	85.44
266.126	85.44
266.358	89.44
266.591	73.44
266.823	87.44
267.055	77.44
267.287	96.44
267.52	75.44
267.752	80.44
267.984	79.44
268.216	84.44
268.448	84.44
268.681	75.44
268.913	90.44
269.145	65.44
269.377	80.44
269.609	79.44
269.841	92.44
270.073	100.44
270.306	87.44
270.538	82.44
270.77	75.44
271.002	86.44
271.234	86.44
271.466	82.44
271.698	88.44
271.93	90.44
272.162	84.44
272.394	71.44
272.626	76.44
272.858	89.44
273.09	99.44
273.322	80.44
273.553	81.44
273.785	89.44
274.017	73.44
274.249	80.44
274.481	79.44
274.713	84.44
274.945	86.44
275.176	95.44
275.408	89.44
275.64	82.44
275.872	88.44
276.104	91.44
276.335	84.44
276.567	93.44
276.799	90.44
277.031	75.44
277.262	76.44
277.494	85.44
277.726	86.44
277.957	86.44
278.189	76.44
278.421	98.44
278.652	77.44
278.884	86.44
279.115	87.44
279.347	72.44
279.579	82.44
279.81	80.44
280.042	80.44
280.273	81.44
280.505	75.44
280.736	79.44
280.968	87.44
281.199	86.44
281.431	83.44
281.662	80.44
281.894	92.44
282.125	76.44
282.356	81.44
282.588	76.44
282.819	86.44
283.051	82.44
283.282	89.44
283.513	83.44
283.745	80.44
283.976	83.44
284.207	93.44
284.439	79.44
284.67	70.44
284.901	76.44
285.132	78.44
285.364	83.44
285.595	91.44
285.826	89.44
286.057	74.44
286.288	99.44
286.52	84.44
286.751	79.44
286.982	94.44
287.213	71.44
287.444	74.44
287.675	85.44
287.906	71.44
288.138	72.44
288.369	88.44
288.6	94.44
288.831	88.44
289.062	89.44
289.293	80.44
289.524	81.44
289.755	83.44
289.986	65.44
290.217	86.44
290.448	84.44
290.679	82.44
290.91	83.44
291.141	88.44
291.371	95.44
291.602	83.44
291.833	85.44
292.064	86.44
292.295	87.44
292.526	82.44
292.757	79.44
292.987	78.44
293.218	95.44
293.449	90.44
293.68	89.44
293.91	92.44
294.141	83.44
294.372	77.44
294.603	80.44
294.833	77.44
295.064	88.44
295.295	78.44
295.525	103.44
295.756	90.44
295.987	76.44
296.217	80.44
296.448	80.44
296.679	85.44
296.909	74.44
297.14	75.44
297.37	85.44
297.601	73.44
297.831	85.44
298.062	100.44
298.292	77.44
298.523	73.44
298.753	86.44
298.984	83.44
299.214	80.44
299.445	77.44
299.675	94.44
299.905	90.44
300.136	79.44
300.366	79.44
300.597	95.44
300.827	86.44
301.057	79.44
301.288	82.44
301.518	87.44
301.748	81.44
301.979	77.44
302.209	90.44
302.439	81.44
302.669	79.44
302.9	85.44
303.13	82.44
303.36	73.44
303.59	82.44
303.82	75.44
304.051	87.44
304.281	84.44
304.511	89.44
304.741	82.44
304.971	79.44
305.201	88.44
305.431	76.44
305.661	69.44
305.891	96.44
306.121	93.44
306.352	84.44
306.582	84.44
306.812	83.44
307.042	81.44
307.272	81.44
307.502	83.44
307.731	80.44
307.961	76.44
308.191	81.44
308.421	76.44
308.651	84.44
308.881	90.44
309.111	98.44
309.341	99.44
309.571	94.44
309.8	82.44
310.03	72.44
310.26	72.44
310.49	85.44
310.72	90.44
310.949	92.44
311.179	97.44
311.409	88.44
311.639	82.44
311.868	72.44
312.098	85.44
312.328	86.44
312.557	86.44
312.787	74.44
313.017	89.44
313.246	87.44
313.476	88.44
313.706	84.44
313.935	69.44
314.165	79.44
314.394	80.44
314.624	82.44
314.853	94.44
315.083	73.44
315.312	84.44
315.542	90.44
315.771	78.44
316.001	80.44
316.23	79.44
316.46	75.44
316.689	91.44
316.919	65.44
317.148	94.44
317.377	92.44
317.607	87.44
317.836	91.44
318.065	82.44
318.295	79.44
318.524	76.44
318.753	85.44
318.983	82.44
319.212	82.44
319.441	86.44
319.67	89.44
319.9	75.44
320.129	83.44
320.358	82.44
320.587	95.44
320.816	86.44
321.046	86.44
321.275	85.44
321.504	76.44
321.733	79.44
321.962	86.44
322.191	69.44
322.42	81.44
322.649	89.44
322.878	84.44
323.108	99.44
323.337	84.44
323.566	84.44
323.795	73.44
324.024	89.44
324.253	85.44
324.482	85.44
324.71	87.44
324.939	74.44
325.168	78.44
325.397	75.44
325.626	74.44
325.855	75.44
326.084	75.44
326.313	74.44
326.542	72.44
326.77	103.44
326.999	92.44
327.228	82.44
327.457	78.44
327.686	83.44
327.914	79.44
328.143	85.44
328.372	92.44
328.6	95.44
328.829	84.44
329.058	93.44
329.287	69.44
329.515	83.44
329.744	80.44
329.972	95.44
330.201	85.44
330.43	76.44
330.658	85.44
330.887	80.44
331.115	90.44
331.344	73.44
331.572	79.44
331.801	85.44
332.03	76.44
332.258	78.44
332.486	99.44
332.715	86.44
332.943	102.44
333.172	75.44
333.4	85.44
333.629	108.44
333.857	101.44
334.085	76.44
334.314	83.44
334.542	84.44
334.771	94.44
334.999	89.44
335.227	83.44
335.455	86.44
335.684	92.44
335.912	78.44
336.14	92.44
336.369	83.44
336.597	84.44
336.825	84.44
337.053	84.44
337.281	80.44
337.51	80.44
337.738	87.44
337.966	80.44
338.194	98.44
338.422	100.44
338.65	86.44
338.878	99.44
339.106	74.44
339.334	102.44
339.562	99.44
339.79	84.44
340.018	93.44
340.246	88.44
340.474	78.44
340.702	79.44
340.93	77.44
341.158	84.44
341.386	84.44
341.614	91.44
341.842	90.44
342.07	82.44
342.298	90.44
342.526	80.44
342.754	87.44
342.981	90.44
343.209	94.44
343.437	85.44
343.665	99.44
343.893	75.44
344.12	86.44
344.348	94.44
344.576	97.44
344.804	85.44
345.031	86.44
345.259	90.44
345.487	85.44
345.714	83.44
345.942	81.44
346.17	77.44
346.397	80.44
346.625	85.44
346.853	84.44
347.08	78.44
347.308	85.44
347.535	84.44
347.763	86.44
347.99	89.44
348.218	89.44
348.445	90.44
348.673	77.44
348.9	83.44
349.128	104.44
349.355	90.44
349.583	92.44
349.81	87.44
350.037	96.44
350.265	80.44
350.492	90.44
350.72	80.44
350.947	78.44
351.174	88.44
351.402	91.44
351.629	90.44
351.856	88.44
352.083	78.44
352.311	79.44
352.538	74.44
352.765	70.44
352.992	73.44
353.22	85.44
353.447	86.44
353.674	76.44
353.901	79.44
354.128	81.44
354.355	83.44
354.583	90.44
354.81	102.44
355.037	80.44
355.264	82.44
355.491	79.44
355.718	82.44
355.945	91.44
356.172	83.44
356.399	83.44
356.626	76.44
356.853	82.44
357.08	81.44
357.307	90.44
357.534	88.44
357.761	81.44
357.988	87.44
358.215	86.44
358.441	85.44
358.668	92.44
358.895	81.44
359.122	73.44
359.349	90.44
359.576	91.44
359.802	81.44
360.029	69.44
360.256	86.44
360.483	80.44
360.709	75.44
360.936	104.44
361.163	70.44
361.39	91.44
361.616	92.44
361.843	84.44
362.07	87.44
362.296	87.44
362.523	83.44
362.749	112.44
362.976	96.44
363.203	103.44
363.429	95.44
363.656	82.44
363.882	68.44
364.109	92.44
364.335	70.44
364.562	103.44
364.788	78.44
365.015	73.44
365.241	93.44
365.468	101.44
365.694	80.44
365.92	87.44
366.147	97.44
366.373	90.44
366.599	79.44
366.826	86.44
367.052	105.44
367.278	85.44
367.505	88.44
367.731	76.44
367.957	75.44
368.184	78.44
368.41	87.44
368.636	73.44
368.862	78.44
369.089	74.44
369.315	77.44
369.541	86.44
369.767	90.44
369.993	80.44
370.219	66.44
370.445	71.44
370.672	94.44
370.898	89.44
371.124	74.44
371.35	96.44
371.576	85.44
371.802	86.44
372.028	87.44
372.254	85.44
372.48	89.44
372.706	83.44
372.932	76.44
373.158	80.44
373.384	98.44
373.61	92.44
373.835	87.44
374.061	95.44
374.287	87.44
374.513	87.44
374.739	89.44
374.965	71.44
375.191	88.44
375.416	87.44
375.642	86.44
375.868	87.44
376.094	67.44
376.319	75.44
376.545	81.44
376.771	81.44
376.997	71.44
377.222	88.44
377.448	87.44
377.674	89.44
377.899	101.44
378.125	83.44
378.35	91.44
378.576	87.44
378.802	98.44
379.027	103.44
379.253	95.44
379.478	94.44
379.704	82.44
379.929	90.44
380.155	81.44
380.38	90.44
380.606	71.44
380.831	99.44
381.057	80.44
381.282	98.44
381.507	93.44
381.733	82.44
381.958	92.44
382.184	92.44
382.409	95.44
382.634	96.44
382.86	95.44
383.085	88.44
383.31	88.44
383.535	88.44
383.761	92.44
383.986	82.44
384.211	93.44
384.436	89.44
384.662	94.44
384.887	87.44
385.112	80.44
385.337	82.44
385.562	82.44
385.787	82.44
386.013	106.44
386.238	92.44
386.463	83.44
386.688	98.44
386.913	85.44
387.138	83.44
387.363	97.44
387.588	95.44
387.813	85.44
388.038	89.44
388.263	99.44
388.488	94.44
388.713	86.44
388.938	90.44
389.163	89.44
389.387	89.44
389.612	108.44
389.837	99.44
390.062	98.44
390.287	100.44
390.512	95.44
390.736	104.44
390.961	94.44
391.186	88.44
391.411	91.44
391.636	87.44
391.86	98.44
392.085	94.44
392.31	107.44
392.534	102.44
392.759	81.44
392.984	112.44
393.208	95.44
393.433	110.44
393.658	86.44
393.882	94.44
394.107	102.44
394.331	90.44
394.556	80.44
394.78	99.44
395.005	90.44
395.229	100.44
395.454	95.44
395.678	88.44
395.903	87.44
396.127	93.44
396.352	88.44
396.576	92.44
396.801	90.44
397.025	91.44
397.249	107.44
397.474	119.44
397.698	88.44
397.922	93.44
398.147	83.44
398.371	99.44
398.595	118.44
398.82	110.44
399.044	103.44
399.268	99.44
399.492	106.44
399.717	115.44
399.941	122.44
400.165	96.44
400.389	102.44
400.613	110.44
400.837	99.44
401.062	113.44
401.286	94.44
401.51	118.44
401.734	82.44
401.958	107.44
402.182	98.44
402.406	104.44
402.63	110.44
402.854	107.44
403.078	93.44
403.302	113.44
403.526	96.44
403.75	115.44
403.974	92.44
404.198	105.44
404.422	123.44
404.645	100.44
404.869	98.44
405.093	107.44
405.317	113.44
405.541	110.44
405.765	107.44
405.988	99.44
406.212	92.44
406.436	109.44
406.66	119.44
406.883	109.44
407.107	111.44
407.331	126.44
407.555	119.44
407.778	104.44
408.002	108.44
408.226	104.44
408.449	112.44
408.673	118.44
408.896	101.44
409.12	117.44
409.344	113.44
409.567	107.44
409.791	106.44
410.014	131.44
410.238	97.44
410.461	108.44
410.685	103.44
410.908	110.44
411.132	108.44
411.355	110.44
411.578	112.44
411.802	117.44
412.025	115.44
412.249	115.44
412.472	107.44
412.695	106.44
412.919	104.44
413.142	104.44
413.365	115.44
413.589	110.44
413.812	97.44
414.035	118.44
414.258	118.44
414.482	102.44
414.705	118.44
414.928	114.44
415.151	95.44
415.374	110.44
415.597	99.44
415.821	119.44
416.044	116.44
416.267	115.44
416.49	107.44
416.713	110.44
416.936	108.44
417.159	110.44
417.382	112.44
417.605	93.44
417.828	119.44
418.051	111.44
418.274	116.44
418.497	117.44
418.72	115.44
418.943	114.44
419.166	126.44
419.389	116.44
419.611	118.44
419.834	129.44
420.057	117.44
420.28	102.44
420.503	114.44
420.726	124.44
420.948	127.44
421.171	99.44
421.394	121.44
421.617	104.44
421.839	107.44
422.062	115.44
422.285	104.44
422.507	118.44
422.73	104.44
422.953	118.44
423.175	107.44
423.398	110.44
423.621	134.44
423.843	119.44
424.066	113.44
424.288	116.44
424.511	107.44
424.733	113.44
424.956	126.44
425.178	112.44
425.401	112.44
425.623	118.44
425.846	117.44
426.068	119.44
426.291	96.44
426.513	130.44
426.735	103.44
426.958	114.44
427.18	116.44
427.402	107.44
427.625	115.44
427.847	119.44
428.069	116.44
428.292	119.44
428.514	124.44
428.736	113.44
428.958	103.44
429.181	106.44
429.403	111.44
429.625	113.44
429.847	111.44
430.069	111.44
430.292	117.44
430.514	118.44
430.736	95.44
430.958	97.44
431.18	97.44
431.402	113.44
431.624	100.44
431.846	109.44
432.068	97.44
432.29	104.44
432.512	110.44
432.734	94.44
432.956	112.44
433.178	121.44
433.4	110.44
433.622	112.44
433.844	115.44
434.066	121.44
434.287	118.44
434.509	93.44
434.731	98.44
434.953	107.44
435.175	114.44
435.397	106.44
435.618	123.44
435.84	86.44
436.062	104.44
436.284	123.44
436.505	112.44
436.727	94.44
436.949	109.44
437.17	110.44
437.392	107.44
437.614	97.44
437.835	106.44
438.057	104.44
438.278	110.44
438.5	106.44
438.721	113.44
438.943	110.44
439.165	111.44
439.386	115.44
439.608	98.44
439.829	120.44
440.05	104.44
440.272	120.44
440.493	126.44
440.715	130.44
440.936	122.44
441.158	126.44
441.379	110.44
441.6	118.44
441.822	111.44
442.043	109.44
442.264	119.44
442.486	105.44
442.707	115.44
442.928	124.44
443.149	121.44
443.371	132.44
443.592	109.44
443.813	115.44
444.034	124.44
444.255	131.44
444.476	126.44
444.698	120.44
444.919	117.44
445.14	224.44
445.361	172.44
445.582	132.44
445.803	114.44
446.024	120.44
446.245	110.44
446.466	100.44
446.687	108.44
446.908	107.44
447.129	119.44
447.35	108.44
447.571	122.44
447.792	113.44
448.013	124.44
448.234	107.44
448.455	118.44
448.675	89.44
448.896	121.44
449.117	120.44
449.338	107.44
449.559	126.44
449.779	113.44
450	106.44
450.221	112.44
450.442	108.44
450.662	100.44
450.883	127.44
451.104	123.44
451.324	122.44
451.545	106.44
451.766	122.44
451.986	103.44
452.207	96.44
452.428	91.44
452.648	99.44
452.869	99.44
453.089	86.44
453.31	105.44
453.53	96.44
453.751	105.44
453.971	105.44
454.192	91.44
454.412	105.44
454.633	93.44
454.853	101.44
455.073	97.44
455.294	107.44
455.514	96.44
455.734	108.44
455.955	116.44
456.175	82.44
456.395	106.44
456.616	106.44
456.836	95.44
457.056	113.44
457.276	99.44
457.497	94.44
457.717	107.44
457.937	120.44
458.157	108.44
458.377	108.44
458.598	103.44
458.818	107.44
459.038	102.44
459.258	84.44
459.478	99.44
459.698	115.44
459.918	104.44
460.138	119.44
460.358	115.44
460.578	118.44
460.798	117.44
461.018	127.44
461.238	126.44
461.458	116.44
461.678	119.44
461.898	110.44
462.118	118.44
462.338	110.44
462.558	115.44
462.777	124.44
462.997	115.44
463.217	146.44
463.437	132.44
463.657	124.44
463.876	101.44
464.096	109.44
464.316	134.44
464.536	101.44
464.755	126.44
464.975	117.44
465.195	121.44
465.414	112.44
465.634	122.44
465.854	108.44
466.073	103.44
466.293	106.44
466.512	123.44
466.732	119.44
466.951	123.44
467.171	117.44
467.391	115.44
467.61	119.44
467.829	129.44
468.049	115.44
468.268	121.44
468.488	102.44
468.707	110.44
468.927	114.44
469.146	115.44
469.365	131.44
469.585	122.44
469.804	139.44
470.023	111.44
470.243	126.44
470.462	128.44
470.681	147.44
470.901	132.44
471.12	135.44
471.339	117.44
471.558	121.44
471.777	121.44
471.997	114.44
472.216	103.44
472.435	105.44
472.654	108.44
472.873	108.44
473.092	110.44
473.311	108.44
473.53	94.44
473.749	112.44
473.968	111.44
474.187	115.44
474.406	105.44
474.625	120.44
474.844	126.44
475.063	104.44
475.282	119.44
475.501	118.44
475.72	124.44
475.939	112.44
476.158	111.44
476.377	112.44
476.596	116.44
476.814	120.44
477.033	111.44
477.252	114.44
477.471	91.44
477.69	115.44
477.908	123.44
478.127	119.44
478.346	120.44
478.564	124.44
478.783	124.44
479.002	144.44
479.22	132.44
479.439	125.44
479.658	134.44
479.876	124.44
480.095	108.44
480.313	124.44
480.532	138.44
480.751	123.44
480.969	123.44
481.188	124.44
481.406	117.44
481.624	103.44
481.843	122.44
482.061	116.44
482.28	121.44
482.498	112.44
482.717	109.44
482.935	112.44
483.153	125.44
483.372	130.44
483.59	128.44
483.808	130.44
484.027	124.44
484.245	122.44
484.463	126.44
484.681	140.44
484.9	123.44
485.118	132.44
485.336	118.44
485.554	126.44
485.772	119.44
485.99	109.44
486.209	119.44
486.427	130.44
486.645	121.44
486.863	115.44
487.081	138.44
487.299	115.44
487.517	137.44
487.735	136.44
487.953	158.44
488.171	138.44
488.389	147.44
488.607	140.44
488.825	121.44
489.043	114.44
489.261	121.44
489.479	124.44
489.696	108.44
489.914	131.44
490.132	126.44
490.35	136.44
490.568	138.44
490.786	129.44
491.003	142.44
491.221	152.44
491.439	157.44
491.657	152.44
491.874	152.44
492.092	152.44
492.31	171.44
492.527	157.44
492.745	147.44
492.963	156.44
493.18	146.44
493.398	154.44
493.615	166.44
493.833	158.44
494.05	148.44
494.268	147.44
494.485	134.44
494.703	147.44
494.92	148.44
495.138	154.44
495.355	152.44
495.573	145.44
495.79	132.44
496.008	149.44
496.225	144.44
496.442	149.44
496.66	150.44
496.877	146.44
497.094	148.44
497.312	144.44
497.529	150.44
497.746	138.44
497.963	135.44
498.181	145.44
498.398	126.44
498.615	142.44
498.832	152.44
499.049	158.44
499.267	168.44
499.484	159.44
499.701	167.44
499.918	194.44
500.135	199.44
500.352	219.44
500.569	233.44
500.786	213.44
501.003	208.44
501.22	190.44
501.437	159.44
501.654	171.44
501.871	177.44
502.088	158.44
502.305	146.44
502.522	140.44
502.739	142.44
502.956	159.44
503.172	138.44
503.389	132.44
503.606	136.44
503.823	126.44
504.04	149.44
504.256	139.44
504.473	130.44
504.69	129.44
504.907	131.44
505.123	134.44
505.34	128.44
505.557	128.44
505.773	136.44
505.99	130.44
506.207	132.44
506.423	142.44
506.64	120.44
506.856	124.44
507.073	137.44
507.289	131.44
507.506	124.44
507.722	119.44
507.939	122.44
508.155	122.44
508.372	115.44
508.588	105.44
508.805	117.44
509.021	122.44
509.238	108.44
509.454	114.44
509.67	115.44
509.887	122.44
510.103	104.44
510.319	111.44
510.536	110.44
510.752	106.44
510.968	112.44
511.184	96.44
511.401	109.44
511.617	116.44
511.833	110.44
512.049	107.44
