Data from StandardFe(NO3)3.TAE.3%Agarose.FlatLispGreen.Lamp.Energy10.07252019_HRD10591_11-55-02-441.txt Node
Date: Thu Jul 25 11:55:02 EDT 2019
User: cochatt
Spectrometer: HR+D1059
Trigger mode: 1
Integration Time (sec): 1.000000E-1
Scans to average: 1
Electric dark correction enabled: true
Nonlinearity correction enabled: false
Boxcar width: 0
XAxis mode: Wavelengths
Number of Pixels in Spectrum: 2048
>>>>>Begin Spectral Data<<<<<
223.165	-15.19
223.4	-15.19
223.635	-15.19
223.869	-11.19
224.104	-24.19
224.338	-21.19
224.573	0.81
224.808	-9.19
225.042	-5.19
225.277	-9.19
225.511	-13.19
225.746	-9.19
225.98	7.81
226.215	23.81
226.449	21.81
226.683	16.81
226.918	23.81
227.152	22.81
227.387	31.81
227.621	37.81
227.856	44.81
228.09	45.81
228.324	52.81
228.559	36.81
228.793	48.81
229.027	51.81
229.262	82.81
229.496	55.81
229.73	65.81
229.964	60.81
230.199	69.81
230.433	74.81
230.667	80.81
230.901	81.81
231.136	71.81
231.37	70.81
231.604	67.81
231.838	89.81
232.072	67.81
232.306	92.81
232.541	75.81
232.775	69.81
233.009	71.81
233.243	78.81
233.477	76.81
233.711	76.81
233.945	70.81
234.179	80.81
234.413	76.81
234.647	81.81
234.881	80.81
235.115	68.81
235.349	88.81
235.583	72.81
235.817	73.81
236.051	86.81
236.285	82.81
236.519	86.81
236.753	81.81
236.987	89.81
237.221	70.81
237.455	76.81
237.689	73.81
237.922	73.81
238.156	76.81
238.39	82.81
238.624	78.81
238.858	70.81
239.091	70.81
239.325	74.81
239.559	71.81
239.793	72.81
240.027	64.81
240.26	57.81
240.494	63.81
240.728	76.81
240.961	79.81
241.195	57.81
241.429	75.81
241.662	90.81
241.896	65.81
242.13	79.81
242.363	69.81
242.597	71.81
242.83	74.81
243.064	70.81
243.298	77.81
243.531	65.81
243.765	74.81
243.998	95.81
244.232	92.81
244.465	82.81
244.699	87.81
244.932	64.81
245.166	70.81
245.399	73.81
245.633	71.81
245.866	70.81
246.099	78.81
246.333	84.81
246.566	65.81
246.8	74.81
247.033	68.81
247.266	79.81
247.5	84.81
247.733	70.81
247.966	79.81
248.2	73.81
248.433	96.81
248.666	70.81
248.899	76.81
249.133	73.81
249.366	71.81
249.599	81.81
249.832	68.81
250.066	79.81
250.299	75.81
250.532	85.81
250.765	78.81
250.998	61.81
251.231	80.81
251.465	84.81
251.698	76.81
251.931	67.81
252.164	78.81
252.397	73.81
252.63	89.81
252.863	72.81
253.096	67.81
253.329	73.81
253.562	81.81
253.795	69.81
254.028	88.81
254.261	71.81
254.494	88.81
254.727	75.81
254.96	64.81
255.193	73.81
255.426	93.81
255.659	69.81
255.892	90.81
256.124	75.81
256.357	87.81
256.59	80.81
256.823	85.81
257.056	66.81
257.289	77.81
257.521	85.81
257.754	96.81
257.987	66.81
258.22	77.81
258.452	73.81
258.685	78.81
258.918	79.81
259.151	89.81
259.383	73.81
259.616	61.81
259.849	87.81
260.081	70.81
260.314	87.81
260.547	70.81
260.779	79.81
261.012	80.81
261.244	73.81
261.477	79.81
261.71	59.81
261.942	81.81
262.175	100.81
262.407	75.81
262.64	69.81
262.872	97.81
263.105	71.81
263.337	77.81
263.57	72.81
263.802	72.81
264.035	77.81
264.267	94.81
264.499	86.81
264.732	69.81
264.964	94.81
265.197	77.81
265.429	74.81
265.661	80.81
265.894	85.81
266.126	85.81
266.358	78.81
266.591	87.81
266.823	85.81
267.055	82.81
267.287	84.81
267.52	77.81
267.752	63.81
267.984	79.81
268.216	86.81
268.448	82.81
268.681	75.81
268.913	71.81
269.145	83.81
269.377	81.81
269.609	76.81
269.841	85.81
270.073	81.81
270.306	85.81
270.538	79.81
270.77	79.81
271.002	87.81
271.234	87.81
271.466	78.81
271.698	85.81
271.93	79.81
272.162	72.81
272.394	83.81
272.626	65.81
272.858	78.81
273.09	79.81
273.322	77.81
273.553	78.81
273.785	86.81
274.017	74.81
274.249	65.81
274.481	80.81
274.713	77.81
274.945	65.81
275.176	75.81
275.408	78.81
275.64	65.81
275.872	86.81
276.104	92.81
276.335	80.81
276.567	80.81
276.799	94.81
277.031	66.81
277.262	71.81
277.494	79.81
277.726	87.81
277.957	74.81
278.189	69.81
278.421	100.81
278.652	79.81
278.884	82.81
279.115	78.81
279.347	76.81
279.579	76.81
279.81	72.81
280.042	85.81
280.273	78.81
280.505	77.81
280.736	71.81
280.968	94.81
281.199	84.81
281.431	73.81
281.662	79.81
281.894	88.81
282.125	67.81
282.356	67.81
282.588	84.81
282.819	89.81
283.051	72.81
283.282	79.81
283.513	85.81
283.745	85.81
283.976	80.81
284.207	75.81
284.439	74.81
284.67	77.81
284.901	93.81
285.132	82.81
285.364	82.81
285.595	74.81
285.826	79.81
286.057	68.81
286.288	79.81
286.52	81.81
286.751	100.81
286.982	88.81
287.213	68.81
287.444	89.81
287.675	94.81
287.906	90.81
288.138	82.81
288.369	89.81
288.6	75.81
288.831	69.81
289.062	91.81
289.293	78.81
289.524	85.81
289.755	71.81
289.986	79.81
290.217	68.81
290.448	90.81
290.679	81.81
290.91	79.81
291.141	80.81
291.371	102.81
291.602	74.81
291.833	79.81
292.064	80.81
292.295	68.81
292.526	79.81
292.757	84.81
292.987	93.81
293.218	84.81
293.449	84.81
293.68	89.81
293.91	87.81
294.141	78.81
294.372	85.81
294.603	84.81
294.833	78.81
295.064	80.81
295.295	79.81
295.525	78.81
295.756	74.81
295.987	79.81
296.217	94.81
296.448	75.81
296.679	88.81
296.909	73.81
297.14	75.81
297.37	85.81
297.601	93.81
297.831	80.81
298.062	79.81
298.292	73.81
298.523	88.81
298.753	86.81
298.984	78.81
299.214	79.81
299.445	79.81
299.675	95.81
299.905	69.81
300.136	73.81
300.366	74.81
300.597	72.81
300.827	90.81
301.057	83.81
301.288	97.81
301.518	78.81
301.748	82.81
301.979	85.81
302.209	80.81
302.439	94.81
302.669	78.81
302.9	87.81
303.13	78.81
303.36	87.81
303.59	75.81
303.82	80.81
304.051	82.81
304.281	78.81
304.511	73.81
304.741	75.81
304.971	78.81
305.201	88.81
305.431	79.81
305.661	73.81
305.891	91.81
306.121	86.81
306.352	82.81
306.582	87.81
306.812	95.81
307.042	80.81
307.272	90.81
307.502	84.81
307.731	93.81
307.961	90.81
308.191	83.81
308.421	71.81
308.651	57.81
308.881	96.81
309.111	84.81
309.341	65.81
309.571	92.81
309.8	83.81
310.03	87.81
310.26	89.81
310.49	85.81
310.72	81.81
310.949	81.81
311.179	81.81
311.409	84.81
311.639	92.81
311.868	79.81
312.098	74.81
312.328	74.81
312.557	79.81
312.787	77.81
313.017	84.81
313.246	81.81
313.476	85.81
313.706	85.81
313.935	97.81
314.165	87.81
314.394	86.81
314.624	94.81
314.853	99.81
315.083	85.81
315.312	85.81
315.542	57.81
315.771	86.81
316.001	87.81
316.23	76.81
316.46	94.81
316.689	75.81
316.919	88.81
317.148	94.81
317.377	84.81
317.607	75.81
317.836	87.81
318.065	86.81
318.295	92.81
318.524	81.81
318.753	78.81
318.983	77.81
319.212	74.81
319.441	82.81
319.67	79.81
319.9	80.81
320.129	88.81
320.358	82.81
320.587	87.81
320.816	76.81
321.046	94.81
321.275	88.81
321.504	88.81
321.733	85.81
321.962	92.81
322.191	101.81
322.42	83.81
322.649	90.81
322.878	75.81
323.108	82.81
323.337	83.81
323.566	89.81
323.795	79.81
324.024	70.81
324.253	86.81
324.482	69.81
324.71	83.81
324.939	72.81
325.168	93.81
325.397	88.81
325.626	103.81
325.855	77.81
326.084	76.81
326.313	76.81
326.542	79.81
326.77	81.81
326.999	80.81
327.228	83.81
327.457	79.81
327.686	76.81
327.914	71.81
328.143	80.81
328.372	71.81
328.6	82.81
328.829	74.81
329.058	85.81
329.287	103.81
329.515	90.81
329.744	80.81
329.972	82.81
330.201	67.81
330.43	68.81
330.658	79.81
330.887	74.81
331.115	102.81
331.344	77.81
331.572	85.81
331.801	76.81
332.03	83.81
332.258	80.81
332.486	71.81
332.715	82.81
332.943	97.81
333.172	87.81
333.4	74.81
333.629	82.81
333.857	88.81
334.085	74.81
334.314	94.81
334.542	91.81
334.771	94.81
334.999	86.81
335.227	75.81
335.455	80.81
335.684	93.81
335.912	77.81
336.14	77.81
336.369	72.81
336.597	85.81
336.825	74.81
337.053	72.81
337.281	85.81
337.51	81.81
337.738	64.81
337.966	65.81
338.194	75.81
338.422	77.81
338.65	88.81
338.878	87.81
339.106	88.81
339.334	87.81
339.562	74.81
339.79	73.81
340.018	84.81
340.246	80.81
340.474	76.81
340.702	88.81
340.93	87.81
341.158	83.81
341.386	85.81
341.614	93.81
341.842	85.81
342.07	93.81
342.298	94.81
342.526	83.81
342.754	86.81
342.981	80.81
343.209	86.81
343.437	96.81
343.665	98.81
343.893	93.81
344.12	93.81
344.348	97.81
344.576	79.81
344.804	76.81
345.031	74.81
345.259	82.81
345.487	80.81
345.714	86.81
345.942	72.81
346.17	86.81
346.397	71.81
346.625	92.81
346.853	81.81
347.08	85.81
347.308	76.81
347.535	77.81
347.763	82.81
347.99	87.81
348.218	85.81
348.445	78.81
348.673	75.81
348.9	92.81
349.128	82.81
349.355	84.81
349.583	83.81
349.81	86.81
350.037	88.81
350.265	92.81
350.492	77.81
350.72	78.81
350.947	95.81
351.174	72.81
351.402	87.81
351.629	78.81
351.856	97.81
352.083	71.81
352.311	80.81
352.538	85.81
352.765	78.81
352.992	81.81
353.22	87.81
353.447	80.81
353.674	87.81
353.901	79.81
354.128	86.81
354.355	84.81
354.583	78.81
354.81	93.81
355.037	82.81
355.264	89.81
355.491	87.81
355.718	86.81
355.945	109.81
356.172	78.81
356.399	90.81
356.626	83.81
356.853	77.81
357.08	81.81
357.307	79.81
357.534	76.81
357.761	90.81
357.988	79.81
358.215	78.81
358.441	78.81
358.668	98.81
358.895	82.81
359.122	71.81
359.349	89.81
359.576	79.81
359.802	78.81
360.029	74.81
360.256	92.81
360.483	81.81
360.709	79.81
360.936	84.81
361.163	81.81
361.39	92.81
361.616	89.81
361.843	75.81
362.07	89.81
362.296	70.81
362.523	82.81
362.749	67.81
362.976	78.81
363.203	86.81
363.429	89.81
363.656	89.81
363.882	87.81
364.109	82.81
364.335	86.81
364.562	88.81
364.788	100.81
365.015	93.81
365.241	77.81
365.468	89.81
365.694	72.81
365.92	84.81
366.147	89.81
366.373	66.81
366.599	71.81
366.826	97.81
367.052	80.81
367.278	100.81
367.505	85.81
367.731	86.81
367.957	85.81
368.184	81.81
368.41	96.81
368.636	74.81
368.862	91.81
369.089	82.81
369.315	89.81
369.541	80.81
369.767	92.81
369.993	77.81
370.219	96.81
370.445	89.81
370.672	73.81
370.898	84.81
371.124	89.81
371.35	75.81
371.576	77.81
371.802	74.81
372.028	84.81
372.254	101.81
372.48	91.81
372.706	75.81
372.932	71.81
373.158	70.81
373.384	93.81
373.61	90.81
373.835	103.81
374.061	90.81
374.287	93.81
374.513	74.81
374.739	94.81
374.965	99.81
375.191	82.81
375.416	71.81
375.642	86.81
375.868	79.81
376.094	86.81
376.319	72.81
376.545	87.81
376.771	96.81
376.997	73.81
377.222	93.81
377.448	91.81
377.674	69.81
377.899	90.81
378.125	87.81
378.35	86.81
378.576	78.81
378.802	86.81
379.027	87.81
379.253	81.81
379.478	92.81
379.704	85.81
379.929	86.81
380.155	89.81
380.38	85.81
380.606	89.81
380.831	79.81
381.057	97.81
381.282	93.81
381.507	97.81
381.733	84.81
381.958	100.81
382.184	87.81
382.409	87.81
382.634	89.81
382.86	101.81
383.085	80.81
383.31	92.81
383.535	83.81
383.761	86.81
383.986	92.81
384.211	89.81
384.436	74.81
384.662	83.81
384.887	86.81
385.112	87.81
385.337	90.81
385.562	87.81
385.787	76.81
386.013	92.81
386.238	96.81
386.463	84.81
386.688	78.81
386.913	88.81
387.138	97.81
387.363	92.81
387.588	85.81
387.813	93.81
388.038	90.81
388.263	100.81
388.488	89.81
388.713	93.81
388.938	81.81
389.163	87.81
389.387	98.81
389.612	97.81
389.837	92.81
390.062	94.81
390.287	90.81
390.512	88.81
390.736	94.81
390.961	101.81
391.186	95.81
391.411	95.81
391.636	93.81
391.86	97.81
392.085	84.81
392.31	97.81
392.534	99.81
392.759	95.81
392.984	73.81
393.208	103.81
393.433	105.81
393.658	87.81
393.882	104.81
394.107	88.81
394.331	93.81
394.556	100.81
394.78	95.81
395.005	88.81
395.229	88.81
395.454	92.81
395.678	89.81
395.903	85.81
396.127	81.81
396.352	89.81
396.576	92.81
396.801	86.81
397.025	92.81
397.249	102.81
397.474	94.81
397.698	94.81
397.922	106.81
398.147	92.81
398.371	102.81
398.595	99.81
398.82	96.81
399.044	105.81
399.268	87.81
399.492	98.81
399.717	102.81
399.941	113.81
400.165	113.81
400.389	103.81
400.613	100.81
400.837	99.81
401.062	95.81
401.286	116.81
401.51	106.81
401.734	92.81
401.958	101.81
402.182	92.81
402.406	111.81
402.63	105.81
402.854	98.81
403.078	99.81
403.302	103.81
403.526	102.81
403.75	108.81
403.974	106.81
404.198	100.81
404.422	99.81
404.645	110.81
404.869	109.81
405.093	109.81
405.317	97.81
405.541	93.81
405.765	109.81
405.988	108.81
406.212	106.81
406.436	93.81
406.66	101.81
406.883	100.81
407.107	114.81
407.331	110.81
407.555	103.81
407.778	114.81
408.002	106.81
408.226	118.81
408.449	126.81
408.673	114.81
408.896	99.81
409.12	116.81
409.344	106.81
409.567	117.81
409.791	111.81
410.014	107.81
410.238	89.81
410.461	104.81
410.685	117.81
410.908	113.81
411.132	110.81
411.355	114.81
411.578	118.81
411.802	106.81
412.025	116.81
412.249	110.81
412.472	97.81
412.695	110.81
412.919	112.81
413.142	105.81
413.365	97.81
413.589	108.81
413.812	105.81
414.035	113.81
414.258	88.81
414.482	115.81
414.705	97.81
414.928	112.81
415.151	109.81
415.374	114.81
415.597	110.81
415.821	109.81
416.044	102.81
416.267	108.81
416.49	105.81
416.713	106.81
416.936	113.81
417.159	103.81
417.382	108.81
417.605	114.81
417.828	133.81
418.051	111.81
418.274	106.81
418.497	110.81
418.72	115.81
418.943	121.81
419.166	106.81
419.389	102.81
419.611	113.81
419.834	101.81
420.057	112.81
420.28	106.81
420.503	115.81
420.726	119.81
420.948	103.81
421.171	103.81
421.394	109.81
421.617	110.81
421.839	112.81
422.062	99.81
422.285	122.81
422.507	118.81
422.73	105.81
422.953	95.81
423.175	126.81
423.398	115.81
423.621	121.81
423.843	111.81
424.066	119.81
424.288	117.81
424.511	111.81
424.733	112.81
424.956	134.81
425.178	116.81
425.401	111.81
425.623	120.81
425.846	114.81
426.068	114.81
426.291	118.81
426.513	98.81
426.735	126.81
426.958	109.81
427.18	127.81
427.402	126.81
427.625	114.81
427.847	101.81
428.069	116.81
428.292	103.81
428.514	103.81
428.736	105.81
428.958	101.81
429.181	97.81
429.403	115.81
429.625	108.81
429.847	114.81
430.069	105.81
430.292	110.81
430.514	106.81
430.736	99.81
430.958	111.81
431.18	95.81
431.402	91.81
431.624	103.81
431.846	98.81
432.068	103.81
432.29	120.81
432.512	105.81
432.734	98.81
432.956	106.81
433.178	100.81
433.4	116.81
433.622	110.81
433.844	123.81
434.066	118.81
434.287	104.81
434.509	114.81
434.731	111.81
434.953	108.81
435.175	110.81
435.397	108.81
435.618	114.81
435.84	97.81
436.062	98.81
436.284	115.81
436.505	110.81
436.727	110.81
436.949	109.81
437.17	122.81
437.392	99.81
437.614	112.81
437.835	97.81
438.057	102.81
438.278	97.81
438.5	100.81
438.721	101.81
438.943	115.81
439.165	108.81
439.386	115.81
439.608	121.81
439.829	118.81
440.05	113.81
440.272	113.81
440.493	113.81
440.715	108.81
440.936	114.81
441.158	101.81
441.379	116.81
441.6	112.81
441.822	110.81
442.043	111.81
442.264	112.81
442.486	113.81
442.707	102.81
442.928	114.81
443.149	105.81
443.371	110.81
443.592	104.81
443.813	120.81
444.034	121.81
444.255	138.81
444.476	118.81
444.698	125.81
444.919	131.81
445.14	227.81
445.361	166.81
445.582	109.81
445.803	118.81
446.024	116.81
446.245	115.81
446.466	127.81
446.687	121.81
446.908	107.81
447.129	123.81
447.35	111.81
447.571	111.81
447.792	112.81
448.013	102.81
448.234	95.81
448.455	99.81
448.675	116.81
448.896	102.81
449.117	117.81
449.338	114.81
449.559	120.81
449.779	128.81
450	108.81
450.221	103.81
450.442	102.81
450.662	89.81
450.883	110.81
451.104	96.81
451.324	98.81
451.545	109.81
451.766	112.81
451.986	97.81
452.207	102.81
452.428	104.81
452.648	104.81
452.869	112.81
453.089	109.81
453.31	105.81
453.53	102.81
453.751	108.81
453.971	93.81
454.192	103.81
454.412	87.81
454.633	93.81
454.853	103.81
455.073	106.81
455.294	108.81
455.514	119.81
455.734	103.81
455.955	110.81
456.175	92.81
456.395	97.81
456.616	91.81
456.836	100.81
457.056	105.81
457.276	102.81
457.497	94.81
457.717	94.81
457.937	93.81
458.157	96.81
458.377	113.81
458.598	102.81
458.818	95.81
459.038	106.81
459.258	113.81
459.478	116.81
459.698	105.81
459.918	101.81
460.138	85.81
460.358	110.81
460.578	111.81
460.798	107.81
461.018	120.81
461.238	107.81
461.458	121.81
461.678	121.81
461.898	113.81
462.118	105.81
462.338	111.81
462.558	100.81
462.777	118.81
462.997	126.81
463.217	103.81
463.437	116.81
463.657	105.81
463.876	121.81
464.096	117.81
464.316	105.81
464.536	105.81
464.755	113.81
464.975	119.81
465.195	110.81
465.414	112.81
465.634	104.81
465.854	123.81
466.073	103.81
466.293	114.81
466.512	110.81
466.732	116.81
466.951	106.81
467.171	122.81
467.391	96.81
467.61	124.81
467.829	120.81
468.049	120.81
468.268	103.81
468.488	124.81
468.707	123.81
468.927	118.81
469.146	114.81
469.365	127.81
469.585	121.81
469.804	111.81
470.023	132.81
470.243	119.81
470.462	132.81
470.681	118.81
470.901	119.81
471.12	129.81
471.339	129.81
471.558	108.81
471.777	100.81
471.997	122.81
472.216	90.81
472.435	122.81
472.654	90.81
472.873	101.81
473.092	103.81
473.311	115.81
473.53	110.81
473.749	100.81
473.968	120.81
474.187	112.81
474.406	104.81
474.625	121.81
474.844	121.81
475.063	111.81
475.282	111.81
475.501	125.81
475.72	115.81
475.939	110.81
476.158	120.81
476.377	117.81
476.596	108.81
476.814	120.81
477.033	119.81
477.252	121.81
477.471	105.81
477.69	116.81
477.908	108.81
478.127	123.81
478.346	128.81
478.564	123.81
478.783	122.81
479.002	119.81
479.22	117.81
479.439	118.81
479.658	117.81
479.876	112.81
480.095	99.81
480.313	130.81
480.532	121.81
480.751	111.81
480.969	114.81
481.188	97.81
481.406	111.81
481.624	100.81
481.843	114.81
482.061	107.81
482.28	124.81
482.498	116.81
482.717	105.81
482.935	113.81
483.153	124.81
483.372	135.81
483.59	135.81
483.808	140.81
484.027	126.81
484.245	126.81
484.463	120.81
484.681	137.81
484.9	117.81
485.118	123.81
485.336	126.81
485.554	100.81
485.772	109.81
485.99	115.81
486.209	122.81
486.427	112.81
486.645	121.81
486.863	121.81
487.081	124.81
487.299	128.81
487.517	141.81
487.735	129.81
487.953	151.81
488.171	146.81
488.389	131.81
488.607	133.81
488.825	111.81
489.043	116.81
489.261	114.81
489.479	116.81
489.696	114.81
489.914	125.81
490.132	126.81
490.35	134.81
490.568	133.81
490.786	118.81
491.003	142.81
491.221	129.81
491.439	138.81
491.657	144.81
491.874	162.81
492.092	151.81
492.31	172.81
492.527	146.81
492.745	156.81
492.963	138.81
493.18	147.81
493.398	153.81
493.615	143.81
493.833	142.81
494.05	149.81
494.268	128.81
494.485	161.81
494.703	152.81
494.92	153.81
495.138	133.81
495.355	134.81
495.573	156.81
495.79	158.81
496.008	156.81
496.225	147.81
496.442	135.81
496.66	146.81
496.877	137.81
497.094	138.81
497.312	145.81
497.529	138.81
497.746	146.81
497.963	140.81
498.181	130.81
498.398	138.81
498.615	138.81
498.832	136.81
499.049	157.81
499.267	142.81
499.484	162.81
499.701	173.81
499.918	188.81
500.135	207.81
500.352	200.81
500.569	201.81
500.786	206.81
501.003	185.81
501.22	174.81
501.437	164.81
501.654	164.81
501.871	156.81
502.088	146.81
502.305	135.81
502.522	130.81
502.739	126.81
502.956	141.81
503.172	152.81
503.389	132.81
503.606	116.81
503.823	118.81
504.04	121.81
504.256	130.81
504.473	144.81
504.69	137.81
504.907	138.81
505.123	128.81
505.34	131.81
505.557	121.81
505.773	120.81
505.99	137.81
506.207	128.81
506.423	122.81
506.64	115.81
506.856	125.81
507.073	121.81
507.289	128.81
507.506	125.81
507.722	133.81
507.939	112.81
508.155	124.81
508.372	108.81
508.588	124.81
508.805	119.81
509.021	106.81
509.238	129.81
509.454	108.81
509.67	106.81
509.887	116.81
510.103	110.81
510.319	98.81
510.536	92.81
510.752	102.81
510.968	110.81
511.184	112.81
511.401	117.81
511.617	96.81
511.833	97.81
512.049	101.81
512.265	101.81
