Data from StandardFe(NO3)3.TAE.3%Agarose.FlatLispGreen.Lamp.Energy10.07252019_HRD10591_11-54-25-440.txt Node
Date: Thu Jul 25 11:54:25 EDT 2019
User: cochatt
Spectrometer: HR+D1059
Trigger mode: 1
Integration Time (sec): 1.000000E-1
Scans to average: 1
Electric dark correction enabled: true
Nonlinearity correction enabled: false
Boxcar width: 0
XAxis mode: Wavelengths
Number of Pixels in Spectrum: 2048
>>>>>Begin Spectral Data<<<<<
223.165	-11.88
223.4	-11.88
223.635	-11.88
223.869	-20.88
224.104	-28.88
224.338	-6.88
224.573	-5.88
224.808	-20.88
225.042	-10.88
225.277	-5.88
225.511	-0.88
225.746	8.12
225.98	6.12
226.215	12.12
226.449	19.12
226.683	14.12
226.918	23.12
227.152	30.12
227.387	44.12
227.621	29.12
227.856	36.12
228.09	64.12
228.324	44.12
228.559	51.12
228.793	57.12
229.027	57.12
229.262	66.12
229.496	68.12
229.73	64.12
229.964	61.12
230.199	78.12
230.433	67.12
230.667	68.12
230.901	91.12
231.136	82.12
231.37	63.12
231.604	90.12
231.838	81.12
232.072	70.12
232.306	88.12
232.541	85.12
232.775	83.12
233.009	79.12
233.243	82.12
233.477	75.12
233.711	77.12
233.945	87.12
234.179	84.12
234.413	79.12
234.647	85.12
234.881	90.12
235.115	79.12
235.349	74.12
235.583	80.12
235.817	77.12
236.051	78.12
236.285	79.12
236.519	75.12
236.753	88.12
236.987	83.12
237.221	71.12
237.455	82.12
237.689	77.12
237.922	73.12
238.156	63.12
238.39	81.12
238.624	78.12
238.858	69.12
239.091	92.12
239.325	67.12
239.559	75.12
239.793	82.12
240.027	68.12
240.26	77.12
240.494	92.12
240.728	75.12
240.961	84.12
241.195	83.12
241.429	79.12
241.662	76.12
241.896	89.12
242.13	75.12
242.363	77.12
242.597	83.12
242.83	79.12
243.064	75.12
243.298	83.12
243.531	64.12
243.765	70.12
243.998	70.12
244.232	74.12
244.465	78.12
244.699	77.12
244.932	85.12
245.166	84.12
245.399	84.12
245.633	83.12
245.866	87.12
246.099	86.12
246.333	81.12
246.566	82.12
246.8	89.12
247.033	86.12
247.266	77.12
247.5	86.12
247.733	70.12
247.966	75.12
248.2	78.12
248.433	84.12
248.666	79.12
248.899	78.12
249.133	73.12
249.366	89.12
249.599	85.12
249.832	85.12
250.066	78.12
250.299	71.12
250.532	89.12
250.765	89.12
250.998	94.12
251.231	78.12
251.465	84.12
251.698	77.12
251.931	74.12
252.164	75.12
252.397	81.12
252.63	78.12
252.863	83.12
253.096	75.12
253.329	67.12
253.562	83.12
253.795	83.12
254.028	77.12
254.261	76.12
254.494	85.12
254.727	89.12
254.96	72.12
255.193	83.12
255.426	77.12
255.659	93.12
255.892	90.12
256.124	88.12
256.357	76.12
256.59	75.12
256.823	78.12
257.056	90.12
257.289	92.12
257.521	93.12
257.754	78.12
257.987	89.12
258.22	88.12
258.452	89.12
258.685	93.12
258.918	84.12
259.151	74.12
259.383	80.12
259.616	76.12
259.849	89.12
260.081	85.12
260.314	89.12
260.547	78.12
260.779	73.12
261.012	74.12
261.244	85.12
261.477	97.12
261.71	79.12
261.942	92.12
262.175	85.12
262.407	88.12
262.64	85.12
262.872	86.12
263.105	97.12
263.337	77.12
263.57	84.12
263.802	98.12
264.035	90.12
264.267	76.12
264.499	84.12
264.732	80.12
264.964	91.12
265.197	78.12
265.429	83.12
265.661	83.12
265.894	83.12
266.126	97.12
266.358	89.12
266.591	84.12
266.823	95.12
267.055	93.12
267.287	83.12
267.52	82.12
267.752	99.12
267.984	87.12
268.216	85.12
268.448	69.12
268.681	79.12
268.913	91.12
269.145	84.12
269.377	83.12
269.609	84.12
269.841	89.12
270.073	86.12
270.306	85.12
270.538	78.12
270.77	83.12
271.002	86.12
271.234	76.12
271.466	98.12
271.698	79.12
271.93	81.12
272.162	89.12
272.394	80.12
272.626	88.12
272.858	86.12
273.09	94.12
273.322	89.12
273.553	82.12
273.785	89.12
274.017	87.12
274.249	92.12
274.481	79.12
274.713	92.12
274.945	91.12
275.176	65.12
275.408	76.12
275.64	97.12
275.872	89.12
276.104	74.12
276.335	89.12
276.567	96.12
276.799	80.12
277.031	89.12
277.262	84.12
277.494	84.12
277.726	86.12
277.957	66.12
278.189	88.12
278.421	85.12
278.652	90.12
278.884	73.12
279.115	81.12
279.347	84.12
279.579	98.12
279.81	79.12
280.042	87.12
280.273	91.12
280.505	84.12
280.736	79.12
280.968	83.12
281.199	85.12
281.431	80.12
281.662	87.12
281.894	97.12
282.125	89.12
282.356	85.12
282.588	85.12
282.819	78.12
283.051	76.12
283.282	91.12
283.513	95.12
283.745	80.12
283.976	83.12
284.207	77.12
284.439	82.12
284.67	80.12
284.901	76.12
285.132	85.12
285.364	83.12
285.595	85.12
285.826	71.12
286.057	83.12
286.288	95.12
286.52	81.12
286.751	96.12
286.982	80.12
287.213	84.12
287.444	85.12
287.675	90.12
287.906	99.12
288.138	98.12
288.369	93.12
288.6	85.12
288.831	88.12
289.062	95.12
289.293	75.12
289.524	91.12
289.755	98.12
289.986	81.12
290.217	81.12
290.448	106.12
290.679	98.12
290.91	89.12
291.141	85.12
291.371	79.12
291.602	102.12
291.833	79.12
292.064	70.12
292.295	71.12
292.526	77.12
292.757	73.12
292.987	89.12
293.218	85.12
293.449	82.12
293.68	93.12
293.91	87.12
294.141	91.12
294.372	102.12
294.603	106.12
294.833	87.12
295.064	85.12
295.295	95.12
295.525	91.12
295.756	89.12
295.987	91.12
296.217	80.12
296.448	83.12
296.679	83.12
296.909	82.12
297.14	83.12
297.37	91.12
297.601	79.12
297.831	87.12
298.062	99.12
298.292	99.12
298.523	97.12
298.753	87.12
298.984	84.12
299.214	82.12
299.445	92.12
299.675	84.12
299.905	84.12
300.136	94.12
300.366	77.12
300.597	92.12
300.827	96.12
301.057	77.12
301.288	79.12
301.518	83.12
301.748	90.12
301.979	88.12
302.209	87.12
302.439	84.12
302.669	92.12
302.9	105.12
303.13	92.12
303.36	77.12
303.59	77.12
303.82	78.12
304.051	94.12
304.281	98.12
304.511	92.12
304.741	86.12
304.971	98.12
305.201	99.12
305.431	84.12
305.661	85.12
305.891	90.12
306.121	85.12
306.352	85.12
306.582	94.12
306.812	100.12
307.042	90.12
307.272	88.12
307.502	86.12
307.731	76.12
307.961	85.12
308.191	85.12
308.421	94.12
308.651	79.12
308.881	79.12
309.111	95.12
309.341	86.12
309.571	72.12
309.8	82.12
310.03	92.12
310.26	85.12
310.49	89.12
310.72	85.12
310.949	87.12
311.179	67.12
311.409	80.12
311.639	88.12
311.868	84.12
312.098	93.12
312.328	103.12
312.557	80.12
312.787	95.12
313.017	97.12
313.246	73.12
313.476	79.12
313.706	92.12
313.935	87.12
314.165	93.12
314.394	84.12
314.624	86.12
314.853	100.12
315.083	78.12
315.312	108.12
315.542	88.12
315.771	103.12
316.001	75.12
316.23	81.12
316.46	79.12
316.689	83.12
316.919	78.12
317.148	81.12
317.377	86.12
317.607	82.12
317.836	89.12
318.065	85.12
318.295	95.12
318.524	81.12
318.753	85.12
318.983	100.12
319.212	79.12
319.441	74.12
319.67	98.12
319.9	88.12
320.129	73.12
320.358	72.12
320.587	108.12
320.816	84.12
321.046	89.12
321.275	86.12
321.504	69.12
321.733	80.12
321.962	95.12
322.191	86.12
322.42	88.12
322.649	86.12
322.878	81.12
323.108	84.12
323.337	93.12
323.566	90.12
323.795	72.12
324.024	89.12
324.253	80.12
324.482	73.12
324.71	86.12
324.939	74.12
325.168	85.12
325.397	86.12
325.626	78.12
325.855	99.12
326.084	105.12
326.313	86.12
326.542	96.12
326.77	94.12
326.999	85.12
327.228	87.12
327.457	79.12
327.686	80.12
327.914	81.12
328.143	90.12
328.372	89.12
328.6	89.12
328.829	88.12
329.058	90.12
329.287	82.12
329.515	79.12
329.744	94.12
329.972	87.12
330.201	77.12
330.43	90.12
330.658	80.12
330.887	76.12
331.115	86.12
331.344	82.12
331.572	102.12
331.801	78.12
332.03	71.12
332.258	77.12
332.486	96.12
332.715	83.12
332.943	85.12
333.172	96.12
333.4	79.12
333.629	80.12
333.857	76.12
334.085	85.12
334.314	87.12
334.542	82.12
334.771	85.12
334.999	89.12
335.227	72.12
335.455	77.12
335.684	93.12
335.912	106.12
336.14	80.12
336.369	93.12
336.597	84.12
336.825	86.12
337.053	83.12
337.281	84.12
337.51	82.12
337.738	84.12
337.966	76.12
338.194	82.12
338.422	92.12
338.65	91.12
338.878	91.12
339.106	73.12
339.334	85.12
339.562	69.12
339.79	73.12
340.018	82.12
340.246	80.12
340.474	82.12
340.702	84.12
340.93	94.12
341.158	92.12
341.386	92.12
341.614	84.12
341.842	80.12
342.07	93.12
342.298	96.12
342.526	88.12
342.754	75.12
342.981	91.12
343.209	95.12
343.437	84.12
343.665	76.12
343.893	82.12
344.12	95.12
344.348	84.12
344.576	85.12
344.804	90.12
345.031	94.12
345.259	88.12
345.487	91.12
345.714	92.12
345.942	75.12
346.17	93.12
346.397	77.12
346.625	77.12
346.853	82.12
347.08	78.12
347.308	74.12
347.535	72.12
347.763	73.12
347.99	93.12
348.218	82.12
348.445	84.12
348.673	70.12
348.9	78.12
349.128	85.12
349.355	83.12
349.583	85.12
349.81	82.12
350.037	80.12
350.265	92.12
350.492	73.12
350.72	81.12
350.947	75.12
351.174	82.12
351.402	90.12
351.629	82.12
351.856	86.12
352.083	82.12
352.311	100.12
352.538	92.12
352.765	102.12
352.992	82.12
353.22	87.12
353.447	88.12
353.674	96.12
353.901	88.12
354.128	91.12
354.355	92.12
354.583	89.12
354.81	97.12
355.037	92.12
355.264	102.12
355.491	75.12
355.718	88.12
355.945	82.12
356.172	87.12
356.399	82.12
356.626	90.12
356.853	87.12
357.08	101.12
357.307	95.12
357.534	88.12
357.761	78.12
357.988	79.12
358.215	78.12
358.441	74.12
358.668	95.12
358.895	88.12
359.122	89.12
359.349	87.12
359.576	88.12
359.802	91.12
360.029	85.12
360.256	99.12
360.483	86.12
360.709	77.12
360.936	93.12
361.163	76.12
361.39	88.12
361.616	77.12
361.843	89.12
362.07	87.12
362.296	77.12
362.523	87.12
362.749	85.12
362.976	87.12
363.203	91.12
363.429	100.12
363.656	97.12
363.882	77.12
364.109	82.12
364.335	89.12
364.562	89.12
364.788	103.12
365.015	81.12
365.241	85.12
365.468	84.12
365.694	87.12
365.92	93.12
366.147	89.12
366.373	99.12
366.599	90.12
366.826	94.12
367.052	79.12
367.278	99.12
367.505	77.12
367.731	90.12
367.957	90.12
368.184	90.12
368.41	76.12
368.636	76.12
368.862	86.12
369.089	87.12
369.315	91.12
369.541	79.12
369.767	84.12
369.993	106.12
370.219	100.12
370.445	103.12
370.672	89.12
370.898	84.12
371.124	78.12
371.35	97.12
371.576	87.12
371.802	89.12
372.028	89.12
372.254	91.12
372.48	97.12
372.706	95.12
372.932	93.12
373.158	91.12
373.384	90.12
373.61	94.12
373.835	93.12
374.061	89.12
374.287	96.12
374.513	79.12
374.739	81.12
374.965	84.12
375.191	69.12
375.416	69.12
375.642	95.12
375.868	83.12
376.094	79.12
376.319	90.12
376.545	82.12
376.771	88.12
376.997	89.12
377.222	86.12
377.448	88.12
377.674	105.12
377.899	99.12
378.125	82.12
378.35	84.12
378.576	90.12
378.802	87.12
379.027	88.12
379.253	81.12
379.478	84.12
379.704	93.12
379.929	86.12
380.155	83.12
380.38	89.12
380.606	91.12
380.831	95.12
381.057	107.12
381.282	96.12
381.507	83.12
381.733	93.12
381.958	97.12
382.184	80.12
382.409	88.12
382.634	90.12
382.86	95.12
383.085	94.12
383.31	91.12
383.535	91.12
383.761	94.12
383.986	89.12
384.211	86.12
384.436	89.12
384.662	107.12
384.887	87.12
385.112	96.12
385.337	97.12
385.562	97.12
385.787	90.12
386.013	100.12
386.238	104.12
386.463	93.12
386.688	90.12
386.913	94.12
387.138	101.12
387.363	91.12
387.588	107.12
387.813	102.12
388.038	87.12
388.263	109.12
388.488	94.12
388.713	116.12
388.938	99.12
389.163	88.12
389.387	103.12
389.612	85.12
389.837	96.12
390.062	98.12
390.287	110.12
390.512	99.12
390.736	85.12
390.961	100.12
391.186	94.12
391.411	108.12
391.636	97.12
391.86	99.12
392.085	101.12
392.31	97.12
392.534	91.12
392.759	98.12
392.984	83.12
393.208	104.12
393.433	94.12
393.658	94.12
393.882	107.12
394.107	122.12
394.331	109.12
394.556	101.12
394.78	98.12
395.005	93.12
395.229	111.12
395.454	109.12
395.678	104.12
395.903	109.12
396.127	105.12
396.352	87.12
396.576	105.12
396.801	102.12
397.025	85.12
397.249	84.12
397.474	113.12
397.698	107.12
397.922	99.12
398.147	105.12
398.371	104.12
398.595	96.12
398.82	90.12
399.044	90.12
399.268	110.12
399.492	117.12
399.717	112.12
399.941	115.12
400.165	121.12
400.389	119.12
400.613	112.12
400.837	125.12
401.062	119.12
401.286	105.12
401.51	117.12
401.734	102.12
401.958	106.12
402.182	106.12
402.406	104.12
402.63	98.12
402.854	119.12
403.078	100.12
403.302	101.12
403.526	105.12
403.75	107.12
403.974	109.12
404.198	115.12
404.422	115.12
404.645	115.12
404.869	115.12
405.093	113.12
405.317	115.12
405.541	105.12
405.765	105.12
405.988	122.12
406.212	108.12
406.436	84.12
406.66	98.12
406.883	112.12
407.107	121.12
407.331	137.12
407.555	114.12
407.778	108.12
408.002	122.12
408.226	123.12
408.449	119.12
408.673	121.12
408.896	107.12
409.12	112.12
409.344	113.12
409.567	124.12
409.791	132.12
410.014	110.12
410.238	99.12
410.461	106.12
410.685	121.12
410.908	118.12
411.132	110.12
411.355	111.12
411.578	121.12
411.802	116.12
412.025	126.12
412.249	114.12
412.472	115.12
412.695	119.12
412.919	129.12
413.142	110.12
413.365	101.12
413.589	107.12
413.812	116.12
414.035	124.12
414.258	106.12
414.482	114.12
414.705	122.12
414.928	131.12
415.151	121.12
415.374	114.12
415.597	130.12
415.821	104.12
416.044	110.12
416.267	117.12
416.49	121.12
416.713	110.12
416.936	103.12
417.159	113.12
417.382	106.12
417.605	123.12
417.828	118.12
418.051	119.12
418.274	132.12
418.497	116.12
418.72	117.12
418.943	117.12
419.166	119.12
419.389	125.12
419.611	105.12
419.834	111.12
420.057	93.12
420.28	118.12
420.503	113.12
420.726	117.12
420.948	101.12
421.171	110.12
421.394	110.12
421.617	122.12
421.839	107.12
422.062	123.12
422.285	123.12
422.507	114.12
422.73	109.12
422.953	115.12
423.175	116.12
423.398	126.12
423.621	122.12
423.843	123.12
424.066	135.12
424.288	129.12
424.511	129.12
424.733	120.12
424.956	121.12
425.178	90.12
425.401	101.12
425.623	105.12
425.846	125.12
426.068	127.12
426.291	110.12
426.513	121.12
426.735	101.12
426.958	113.12
427.18	123.12
427.402	123.12
427.625	120.12
427.847	110.12
428.069	117.12
428.292	102.12
428.514	111.12
428.736	115.12
428.958	102.12
429.181	113.12
429.403	115.12
429.625	100.12
429.847	99.12
430.069	112.12
430.292	115.12
430.514	120.12
430.736	112.12
430.958	113.12
431.18	116.12
431.402	111.12
431.624	109.12
431.846	113.12
432.068	105.12
432.29	103.12
432.512	119.12
432.734	119.12
432.956	119.12
433.178	124.12
433.4	134.12
433.622	107.12
433.844	125.12
434.066	117.12
434.287	99.12
434.509	98.12
434.731	102.12
434.953	128.12
435.175	117.12
435.397	119.12
435.618	115.12
435.84	119.12
436.062	111.12
436.284	125.12
436.505	112.12
436.727	113.12
436.949	108.12
437.17	127.12
437.392	120.12
437.614	115.12
437.835	89.12
438.057	104.12
438.278	118.12
438.5	123.12
438.721	115.12
438.943	119.12
439.165	107.12
439.386	111.12
439.608	115.12
439.829	113.12
440.05	109.12
440.272	127.12
440.493	133.12
440.715	126.12
440.936	118.12
441.158	122.12
441.379	122.12
441.6	124.12
441.822	117.12
442.043	123.12
442.264	131.12
442.486	131.12
442.707	106.12
442.928	107.12
443.149	117.12
443.371	123.12
443.592	125.12
443.813	132.12
444.034	114.12
444.255	129.12
444.476	123.12
444.698	120.12
444.919	119.12
445.14	236.12
445.361	161.12
445.582	133.12
445.803	118.12
446.024	145.12
446.245	129.12
446.466	110.12
446.687	129.12
446.908	119.12
447.129	111.12
447.35	121.12
447.571	131.12
447.792	134.12
448.013	107.12
448.234	111.12
448.455	122.12
448.675	106.12
448.896	118.12
449.117	115.12
449.338	117.12
449.559	121.12
449.779	117.12
450	116.12
450.221	107.12
450.442	128.12
450.662	105.12
450.883	123.12
451.104	123.12
451.324	124.12
451.545	121.12
451.766	123.12
451.986	123.12
452.207	117.12
452.428	113.12
452.648	110.12
452.869	117.12
453.089	105.12
453.31	107.12
453.53	115.12
453.751	117.12
453.971	92.12
454.192	94.12
454.412	97.12
454.633	96.12
454.853	109.12
455.073	115.12
455.294	103.12
455.514	110.12
455.734	122.12
455.955	114.12
456.175	116.12
456.395	116.12
456.616	109.12
456.836	116.12
457.056	88.12
457.276	104.12
457.497	93.12
457.717	94.12
457.937	117.12
458.157	102.12
458.377	104.12
458.598	95.12
458.818	96.12
459.038	96.12
459.258	103.12
459.478	123.12
459.698	111.12
459.918	121.12
460.138	120.12
460.358	107.12
460.578	111.12
460.798	116.12
461.018	125.12
461.238	109.12
461.458	103.12
461.678	107.12
461.898	126.12
462.118	115.12
462.338	121.12
462.558	119.12
462.777	117.12
462.997	119.12
463.217	123.12
463.437	120.12
463.657	109.12
463.876	117.12
464.096	125.12
464.316	115.12
464.536	124.12
464.755	115.12
464.975	138.12
465.195	113.12
465.414	125.12
465.634	115.12
465.854	119.12
466.073	116.12
466.293	107.12
466.512	107.12
466.732	124.12
466.951	136.12
467.171	119.12
467.391	108.12
467.61	113.12
467.829	117.12
468.049	134.12
468.268	117.12
468.488	135.12
468.707	120.12
468.927	119.12
469.146	114.12
469.365	123.12
469.585	140.12
469.804	121.12
470.023	119.12
470.243	126.12
470.462	125.12
470.681	121.12
470.901	118.12
471.12	113.12
471.339	130.12
471.558	133.12
471.777	128.12
471.997	124.12
472.216	117.12
472.435	132.12
472.654	102.12
472.873	122.12
473.092	120.12
473.311	118.12
473.53	120.12
473.749	113.12
473.968	122.12
474.187	119.12
474.406	111.12
474.625	120.12
474.844	130.12
475.063	113.12
475.282	120.12
475.501	93.12
475.72	123.12
475.939	122.12
476.158	120.12
476.377	116.12
476.596	119.12
476.814	119.12
477.033	115.12
477.252	108.12
477.471	106.12
477.69	113.12
477.908	135.12
478.127	123.12
478.346	114.12
478.564	142.12
478.783	126.12
479.002	121.12
479.22	120.12
479.439	110.12
479.658	122.12
479.876	126.12
480.095	131.12
480.313	124.12
480.532	123.12
480.751	127.12
480.969	122.12
481.188	107.12
481.406	102.12
481.624	113.12
481.843	117.12
482.061	134.12
482.28	113.12
482.498	123.12
482.717	119.12
482.935	126.12
483.153	130.12
483.372	121.12
483.59	133.12
483.808	138.12
484.027	122.12
484.245	123.12
484.463	122.12
484.681	125.12
484.9	145.12
485.118	132.12
485.336	129.12
485.554	124.12
485.772	125.12
485.99	125.12
486.209	137.12
486.427	130.12
486.645	115.12
486.863	125.12
487.081	119.12
487.299	120.12
487.517	121.12
487.735	145.12
487.953	149.12
488.171	153.12
488.389	142.12
488.607	116.12
488.825	132.12
489.043	133.12
489.261	130.12
489.479	139.12
489.696	124.12
489.914	137.12
490.132	126.12
490.35	153.12
490.568	141.12
490.786	150.12
491.003	157.12
491.221	147.12
491.439	142.12
491.657	151.12
491.874	154.12
492.092	174.12
492.31	184.12
492.527	163.12
492.745	145.12
492.963	163.12
493.18	154.12
493.398	158.12
493.615	149.12
493.833	148.12
494.05	152.12
494.268	157.12
494.485	157.12
494.703	155.12
494.92	147.12
495.138	157.12
495.355	157.12
495.573	155.12
495.79	137.12
496.008	151.12
496.225	144.12
496.442	151.12
496.66	131.12
496.877	147.12
497.094	151.12
497.312	143.12
497.529	158.12
497.746	126.12
497.963	150.12
498.181	134.12
498.398	137.12
498.615	135.12
498.832	141.12
499.049	153.12
499.267	158.12
499.484	167.12
499.701	179.12
499.918	190.12
500.135	202.12
500.352	222.12
500.569	217.12
500.786	206.12
501.003	205.12
501.22	213.12
501.437	193.12
501.654	181.12
501.871	166.12
502.088	155.12
502.305	161.12
502.522	161.12
502.739	148.12
502.956	154.12
503.172	144.12
503.389	147.12
503.606	146.12
503.823	137.12
504.04	131.12
504.256	139.12
504.473	149.12
504.69	124.12
504.907	149.12
505.123	135.12
505.34	133.12
505.557	135.12
505.773	131.12
505.99	136.12
506.207	130.12
506.423	122.12
506.64	126.12
506.856	131.12
507.073	139.12
507.289	123.12
507.506	125.12
507.722	128.12
507.939	135.12
508.155	120.12
508.372	129.12
508.588	127.12
508.805	125.12
509.021	120.12
509.238	125.12
509.454	125.12
509.67	126.12
509.887	115.12
510.103	121.12
510.319	110.12
510.536	116.12
510.752	125.12
510.968	118.12
511.184	110.12
511.401	103.12
