Data from StandardFe(NO3)3.TAE.3%Agarose.FlatLispGreen.Lamp.Energy10.07252019_HRD10591_11-54-46-440.txt Node
Date: Thu Jul 25 11:54:46 EDT 2019
User: cochatt
Spectrometer: HR+D1059
Trigger mode: 1
Integration Time (sec): 1.000000E-1
Scans to average: 1
Electric dark correction enabled: true
Nonlinearity correction enabled: false
Boxcar width: 0
XAxis mode: Wavelengths
Number of Pixels in Spectrum: 2048
>>>>>Begin Spectral Data<<<<<
223.165	-28.19
223.4	-28.19
223.635	-28.19
223.869	-19.19
224.104	-22.19
224.338	-18.19
224.573	-15.19
224.808	-2.19
225.042	-6.19
225.277	-9.19
225.511	-3.19
225.746	0.81
225.98	14.81
226.215	25.81
226.449	14.81
226.683	12.81
226.918	36.81
227.152	17.81
227.387	13.81
227.621	43.81
227.856	35.81
228.09	53.81
228.324	56.81
228.559	51.81
228.793	54.81
229.027	72.81
229.262	69.81
229.496	67.81
229.73	68.81
229.964	66.81
230.199	75.81
230.433	69.81
230.667	84.81
230.901	70.81
231.136	79.81
231.37	71.81
231.604	92.81
231.838	98.81
232.072	83.81
232.306	90.81
232.541	88.81
232.775	82.81
233.009	85.81
233.243	91.81
233.477	83.81
233.711	82.81
233.945	91.81
234.179	92.81
234.413	79.81
234.647	78.81
234.881	82.81
235.115	75.81
235.349	73.81
235.583	81.81
235.817	74.81
236.051	75.81
236.285	80.81
236.519	72.81
236.753	77.81
236.987	76.81
237.221	76.81
237.455	91.81
237.689	66.81
237.922	80.81
238.156	79.81
238.39	75.81
238.624	73.81
238.858	85.81
239.091	76.81
239.325	65.81
239.559	94.81
239.793	78.81
240.027	80.81
240.26	82.81
240.494	89.81
240.728	84.81
240.961	77.81
241.195	76.81
241.429	76.81
241.662	78.81
241.896	77.81
242.13	83.81
242.363	71.81
242.597	88.81
242.83	91.81
243.064	77.81
243.298	78.81
243.531	78.81
243.765	80.81
243.998	70.81
244.232	88.81
244.465	76.81
244.699	76.81
244.932	93.81
245.166	77.81
245.399	68.81
245.633	80.81
245.866	81.81
246.099	72.81
246.333	82.81
246.566	80.81
246.8	83.81
247.033	83.81
247.266	84.81
247.5	89.81
247.733	67.81
247.966	83.81
248.2	80.81
248.433	69.81
248.666	79.81
248.899	85.81
249.133	70.81
249.366	80.81
249.599	74.81
249.832	71.81
250.066	97.81
250.299	94.81
250.532	84.81
250.765	87.81
250.998	69.81
251.231	73.81
251.465	81.81
251.698	75.81
251.931	80.81
252.164	84.81
252.397	83.81
252.63	81.81
252.863	98.81
253.096	82.81
253.329	77.81
253.562	75.81
253.795	80.81
254.028	84.81
254.261	65.81
254.494	88.81
254.727	82.81
254.96	82.81
255.193	92.81
255.426	85.81
255.659	85.81
255.892	87.81
256.124	83.81
256.357	81.81
256.59	66.81
256.823	86.81
257.056	76.81
257.289	84.81
257.521	81.81
257.754	75.81
257.987	78.81
258.22	88.81
258.452	89.81
258.685	79.81
258.918	90.81
259.151	76.81
259.383	90.81
259.616	89.81
259.849	69.81
260.081	84.81
260.314	82.81
260.547	87.81
260.779	85.81
261.012	74.81
261.244	77.81
261.477	85.81
261.71	82.81
261.942	86.81
262.175	77.81
262.407	73.81
262.64	92.81
262.872	97.81
263.105	83.81
263.337	76.81
263.57	89.81
263.802	72.81
264.035	77.81
264.267	78.81
264.499	75.81
264.732	78.81
264.964	80.81
265.197	86.81
265.429	88.81
265.661	93.81
265.894	75.81
266.126	94.81
266.358	85.81
266.591	80.81
266.823	82.81
267.055	82.81
267.287	86.81
267.52	93.81
267.752	78.81
267.984	71.81
268.216	81.81
268.448	72.81
268.681	98.81
268.913	88.81
269.145	81.81
269.377	81.81
269.609	83.81
269.841	98.81
270.073	84.81
270.306	76.81
270.538	78.81
270.77	82.81
271.002	88.81
271.234	92.81
271.466	92.81
271.698	93.81
271.93	89.81
272.162	81.81
272.394	70.81
272.626	80.81
272.858	80.81
273.09	93.81
273.322	74.81
273.553	84.81
273.785	92.81
274.017	87.81
274.249	85.81
274.481	92.81
274.713	93.81
274.945	85.81
275.176	87.81
275.408	83.81
275.64	80.81
275.872	78.81
276.104	99.81
276.335	94.81
276.567	83.81
276.799	86.81
277.031	75.81
277.262	70.81
277.494	85.81
277.726	91.81
277.957	82.81
278.189	93.81
278.421	89.81
278.652	82.81
278.884	94.81
279.115	84.81
279.347	70.81
279.579	92.81
279.81	88.81
280.042	77.81
280.273	64.81
280.505	77.81
280.736	90.81
280.968	89.81
281.199	85.81
281.431	79.81
281.662	92.81
281.894	85.81
282.125	87.81
282.356	88.81
282.588	78.81
282.819	90.81
283.051	98.81
283.282	92.81
283.513	93.81
283.745	85.81
283.976	98.81
284.207	89.81
284.439	96.81
284.67	101.81
284.901	73.81
285.132	72.81
285.364	82.81
285.595	98.81
285.826	85.81
286.057	71.81
286.288	93.81
286.52	88.81
286.751	90.81
286.982	76.81
287.213	98.81
287.444	84.81
287.675	85.81
287.906	81.81
288.138	101.81
288.369	86.81
288.6	98.81
288.831	96.81
289.062	82.81
289.293	80.81
289.524	89.81
289.755	84.81
289.986	93.81
290.217	80.81
290.448	91.81
290.679	93.81
290.91	78.81
291.141	76.81
291.371	89.81
291.602	97.81
291.833	84.81
292.064	88.81
292.295	104.81
292.526	95.81
292.757	97.81
292.987	79.81
293.218	84.81
293.449	91.81
293.68	79.81
293.91	80.81
294.141	78.81
294.372	88.81
294.603	84.81
294.833	92.81
295.064	92.81
295.295	81.81
295.525	86.81
295.756	96.81
295.987	81.81
296.217	87.81
296.448	74.81
296.679	78.81
296.909	100.81
297.14	73.81
297.37	89.81
297.601	64.81
297.831	87.81
298.062	90.81
298.292	76.81
298.523	87.81
298.753	78.81
298.984	96.81
299.214	94.81
299.445	94.81
299.675	76.81
299.905	71.81
300.136	93.81
300.366	97.81
300.597	84.81
300.827	79.81
301.057	89.81
301.288	90.81
301.518	79.81
301.748	96.81
301.979	99.81
302.209	85.81
302.439	71.81
302.669	81.81
302.9	83.81
303.13	82.81
303.36	88.81
303.59	89.81
303.82	90.81
304.051	81.81
304.281	81.81
304.511	74.81
304.741	96.81
304.971	85.81
305.201	72.81
305.431	89.81
305.661	72.81
305.891	86.81
306.121	93.81
306.352	88.81
306.582	74.81
306.812	94.81
307.042	90.81
307.272	78.81
307.502	90.81
307.731	89.81
307.961	90.81
308.191	83.81
308.421	88.81
308.651	90.81
308.881	87.81
309.111	92.81
309.341	77.81
309.571	77.81
309.8	74.81
310.03	88.81
310.26	77.81
310.49	85.81
310.72	92.81
310.949	83.81
311.179	89.81
311.409	93.81
311.639	99.81
311.868	76.81
312.098	79.81
312.328	74.81
312.557	83.81
312.787	85.81
313.017	85.81
313.246	75.81
313.476	82.81
313.706	79.81
313.935	77.81
314.165	99.81
314.394	84.81
314.624	89.81
314.853	86.81
315.083	97.81
315.312	93.81
315.542	70.81
315.771	101.81
316.001	88.81
316.23	94.81
316.46	104.81
316.689	78.81
316.919	87.81
317.148	78.81
317.377	77.81
317.607	88.81
317.836	87.81
318.065	93.81
318.295	82.81
318.524	81.81
318.753	86.81
318.983	89.81
319.212	79.81
319.441	89.81
319.67	84.81
319.9	81.81
320.129	94.81
320.358	86.81
320.587	88.81
320.816	86.81
321.046	93.81
321.275	88.81
321.504	84.81
321.733	84.81
321.962	85.81
322.191	82.81
322.42	86.81
322.649	84.81
322.878	79.81
323.108	89.81
323.337	86.81
323.566	91.81
323.795	84.81
324.024	78.81
324.253	89.81
324.482	91.81
324.71	78.81
324.939	79.81
325.168	87.81
325.397	90.81
325.626	94.81
325.855	93.81
326.084	76.81
326.313	103.81
326.542	89.81
326.77	93.81
326.999	104.81
327.228	86.81
327.457	90.81
327.686	97.81
327.914	77.81
328.143	90.81
328.372	73.81
328.6	91.81
328.829	91.81
329.058	87.81
329.287	76.81
329.515	74.81
329.744	100.81
329.972	78.81
330.201	85.81
330.43	82.81
330.658	76.81
330.887	90.81
331.115	76.81
331.344	96.81
331.572	89.81
331.801	82.81
332.03	91.81
332.258	85.81
332.486	85.81
332.715	94.81
332.943	98.81
333.172	77.81
333.4	83.81
333.629	76.81
333.857	75.81
334.085	78.81
334.314	77.81
334.542	95.81
334.771	80.81
334.999	78.81
335.227	85.81
335.455	85.81
335.684	79.81
335.912	88.81
336.14	91.81
336.369	98.81
336.597	91.81
336.825	87.81
337.053	89.81
337.281	83.81
337.51	84.81
337.738	88.81
337.966	87.81
338.194	77.81
338.422	91.81
338.65	72.81
338.878	82.81
339.106	81.81
339.334	82.81
339.562	92.81
339.79	75.81
340.018	83.81
340.246	72.81
340.474	103.81
340.702	102.81
340.93	80.81
341.158	82.81
341.386	86.81
341.614	84.81
341.842	98.81
342.07	96.81
342.298	95.81
342.526	96.81
342.754	91.81
342.981	84.81
343.209	87.81
343.437	88.81
343.665	86.81
343.893	83.81
344.12	91.81
344.348	88.81
344.576	84.81
344.804	81.81
345.031	96.81
345.259	88.81
345.487	87.81
345.714	93.81
345.942	100.81
346.17	82.81
346.397	86.81
346.625	92.81
346.853	70.81
347.08	82.81
347.308	88.81
347.535	87.81
347.763	78.81
347.99	89.81
348.218	88.81
348.445	84.81
348.673	88.81
348.9	80.81
349.128	73.81
349.355	82.81
349.583	80.81
349.81	84.81
350.037	90.81
350.265	100.81
350.492	78.81
350.72	91.81
350.947	88.81
351.174	95.81
351.402	80.81
351.629	90.81
351.856	96.81
352.083	88.81
352.311	96.81
352.538	83.81
352.765	100.81
352.992	106.81
353.22	80.81
353.447	73.81
353.674	68.81
353.901	78.81
354.128	98.81
354.355	96.81
354.583	78.81
354.81	89.81
355.037	91.81
355.264	93.81
355.491	87.81
355.718	88.81
355.945	98.81
356.172	95.81
356.399	86.81
356.626	83.81
356.853	87.81
357.08	76.81
357.307	64.81
357.534	83.81
357.761	87.81
357.988	80.81
358.215	88.81
358.441	84.81
358.668	91.81
358.895	84.81
359.122	84.81
359.349	99.81
359.576	86.81
359.802	73.81
360.029	81.81
360.256	82.81
360.483	94.81
360.709	91.81
360.936	97.81
361.163	102.81
361.39	80.81
361.616	84.81
361.843	68.81
362.07	88.81
362.296	92.81
362.523	92.81
362.749	101.81
362.976	92.81
363.203	93.81
363.429	71.81
363.656	90.81
363.882	83.81
364.109	80.81
364.335	96.81
364.562	81.81
364.788	85.81
365.015	99.81
365.241	102.81
365.468	96.81
365.694	105.81
365.92	99.81
366.147	90.81
366.373	65.81
366.599	89.81
366.826	80.81
367.052	83.81
367.278	96.81
367.505	85.81
367.731	86.81
367.957	85.81
368.184	93.81
368.41	97.81
368.636	98.81
368.862	101.81
369.089	81.81
369.315	92.81
369.541	89.81
369.767	90.81
369.993	92.81
370.219	85.81
370.445	81.81
370.672	86.81
370.898	87.81
371.124	88.81
371.35	82.81
371.576	97.81
371.802	95.81
372.028	87.81
372.254	97.81
372.48	91.81
372.706	100.81
372.932	93.81
373.158	92.81
373.384	91.81
373.61	91.81
373.835	97.81
374.061	99.81
374.287	97.81
374.513	99.81
374.739	93.81
374.965	88.81
375.191	79.81
375.416	81.81
375.642	96.81
375.868	89.81
376.094	78.81
376.319	95.81
376.545	86.81
376.771	90.81
376.997	82.81
377.222	106.81
377.448	92.81
377.674	82.81
377.899	95.81
378.125	84.81
378.35	81.81
378.576	104.81
378.802	91.81
379.027	88.81
379.253	91.81
379.478	82.81
379.704	85.81
379.929	85.81
380.155	91.81
380.38	100.81
380.606	82.81
380.831	82.81
381.057	92.81
381.282	93.81
381.507	104.81
381.733	90.81
381.958	96.81
382.184	85.81
382.409	83.81
382.634	99.81
382.86	84.81
383.085	87.81
383.31	106.81
383.535	92.81
383.761	102.81
383.986	92.81
384.211	94.81
384.436	84.81
384.662	95.81
384.887	100.81
385.112	97.81
385.337	96.81
385.562	88.81
385.787	83.81
386.013	87.81
386.238	102.81
386.463	100.81
386.688	95.81
386.913	100.81
387.138	105.81
387.363	104.81
387.588	105.81
387.813	90.81
388.038	96.81
388.263	89.81
388.488	105.81
388.713	93.81
388.938	106.81
389.163	95.81
389.387	99.81
389.612	100.81
389.837	90.81
390.062	87.81
390.287	99.81
390.512	89.81
390.736	96.81
390.961	86.81
391.186	102.81
391.411	101.81
391.636	111.81
391.86	101.81
392.085	100.81
392.31	101.81
392.534	92.81
392.759	115.81
392.984	96.81
393.208	97.81
393.433	93.81
393.658	99.81
393.882	92.81
394.107	99.81
394.331	98.81
394.556	113.81
394.78	98.81
395.005	110.81
395.229	118.81
395.454	105.81
395.678	98.81
395.903	100.81
396.127	108.81
396.352	109.81
396.576	112.81
396.801	107.81
397.025	88.81
397.249	93.81
397.474	110.81
397.698	92.81
397.922	107.81
398.147	102.81
398.371	83.81
398.595	96.81
398.82	101.81
399.044	99.81
399.268	105.81
399.492	115.81
399.717	120.81
399.941	107.81
400.165	115.81
400.389	107.81
400.613	104.81
400.837	104.81
401.062	89.81
401.286	108.81
401.51	96.81
401.734	102.81
401.958	100.81
402.182	101.81
402.406	102.81
402.63	95.81
402.854	89.81
403.078	100.81
403.302	100.81
403.526	107.81
403.75	100.81
403.974	108.81
404.198	101.81
404.422	106.81
404.645	103.81
404.869	106.81
405.093	113.81
405.317	103.81
405.541	102.81
405.765	99.81
405.988	99.81
406.212	98.81
406.436	119.81
406.66	100.81
406.883	96.81
407.107	116.81
407.331	122.81
407.555	108.81
407.778	130.81
408.002	126.81
408.226	120.81
408.449	104.81
408.673	116.81
408.896	109.81
409.12	113.81
409.344	118.81
409.567	110.81
409.791	118.81
410.014	125.81
410.238	125.81
410.461	109.81
410.685	106.81
410.908	104.81
411.132	122.81
411.355	103.81
411.578	111.81
411.802	106.81
412.025	103.81
412.249	108.81
412.472	120.81
412.695	110.81
412.919	109.81
413.142	104.81
413.365	103.81
413.589	114.81
413.812	108.81
414.035	105.81
414.258	98.81
414.482	104.81
414.705	113.81
414.928	107.81
415.151	126.81
415.374	110.81
415.597	112.81
415.821	120.81
416.044	112.81
416.267	113.81
416.49	107.81
416.713	121.81
416.936	110.81
417.159	99.81
417.382	112.81
417.605	112.81
417.828	112.81
418.051	120.81
418.274	114.81
418.497	106.81
418.72	119.81
418.943	116.81
419.166	100.81
419.389	123.81
419.611	109.81
419.834	110.81
420.057	115.81
420.28	124.81
420.503	121.81
420.726	108.81
420.948	101.81
421.171	101.81
421.394	108.81
421.617	124.81
421.839	112.81
422.062	125.81
422.285	132.81
422.507	114.81
422.73	125.81
422.953	112.81
423.175	103.81
423.398	130.81
423.621	116.81
423.843	118.81
424.066	125.81
424.288	125.81
424.511	121.81
424.733	116.81
424.956	122.81
425.178	118.81
425.401	120.81
425.623	121.81
425.846	128.81
426.068	123.81
426.291	123.81
426.513	101.81
426.735	100.81
426.958	114.81
427.18	111.81
427.402	108.81
427.625	98.81
427.847	110.81
428.069	113.81
428.292	123.81
428.514	118.81
428.736	112.81
428.958	122.81
429.181	94.81
429.403	112.81
429.625	106.81
429.847	114.81
430.069	110.81
430.292	114.81
430.514	106.81
430.736	114.81
430.958	123.81
431.18	107.81
431.402	118.81
431.624	107.81
431.846	105.81
432.068	107.81
432.29	110.81
432.512	106.81
432.734	122.81
432.956	104.81
433.178	113.81
433.4	118.81
433.622	130.81
433.844	132.81
434.066	99.81
434.287	108.81
434.509	106.81
434.731	108.81
434.953	109.81
435.175	124.81
435.397	119.81
435.618	112.81
435.84	104.81
436.062	101.81
436.284	105.81
436.505	109.81
436.727	106.81
436.949	109.81
437.17	112.81
437.392	110.81
437.614	103.81
437.835	115.81
438.057	101.81
438.278	103.81
438.5	111.81
438.721	120.81
438.943	120.81
439.165	109.81
439.386	128.81
439.608	123.81
439.829	115.81
440.05	125.81
440.272	129.81
440.493	126.81
440.715	115.81
440.936	122.81
441.158	126.81
441.379	117.81
441.6	123.81
441.822	108.81
442.043	102.81
442.264	104.81
442.486	121.81
442.707	123.81
442.928	126.81
443.149	133.81
443.371	122.81
443.592	112.81
443.813	115.81
444.034	121.81
444.255	123.81
444.476	126.81
444.698	127.81
444.919	128.81
445.14	264.81
445.361	179.81
445.582	126.81
445.803	124.81
446.024	113.81
446.245	124.81
446.466	119.81
446.687	115.81
446.908	119.81
447.129	116.81
447.35	102.81
447.571	123.81
447.792	98.81
448.013	123.81
448.234	120.81
448.455	107.81
448.675	123.81
448.896	123.81
449.117	111.81
449.338	102.81
449.559	106.81
449.779	111.81
450	102.81
450.221	116.81
450.442	113.81
450.662	117.81
450.883	114.81
451.104	116.81
451.324	106.81
451.545	104.81
451.766	108.81
451.986	114.81
452.207	107.81
452.428	110.81
452.648	114.81
452.869	112.81
453.089	114.81
453.31	97.81
453.53	116.81
453.751	109.81
453.971	107.81
454.192	110.81
454.412	107.81
454.633	98.81
454.853	102.81
455.073	106.81
455.294	106.81
455.514	111.81
455.734	114.81
455.955	112.81
456.175	107.81
456.395	109.81
456.616	103.81
456.836	97.81
457.056	116.81
457.276	105.81
457.497	100.81
457.717	112.81
457.937	108.81
458.157	100.81
458.377	113.81
458.598	96.81
458.818	117.81
459.038	103.81
459.258	99.81
459.478	104.81
459.698	100.81
459.918	96.81
460.138	115.81
460.358	118.81
460.578	116.81
460.798	111.81
461.018	109.81
461.238	116.81
461.458	120.81
461.678	116.81
461.898	124.81
462.118	105.81
462.338	113.81
462.558	114.81
462.777	113.81
462.997	116.81
463.217	130.81
463.437	123.81
463.657	122.81
463.876	122.81
464.096	133.81
464.316	113.81
464.536	137.81
464.755	104.81
464.975	127.81
465.195	129.81
465.414	122.81
465.634	112.81
465.854	119.81
466.073	110.81
466.293	125.81
466.512	104.81
466.732	114.81
466.951	130.81
467.171	122.81
467.391	116.81
467.61	116.81
467.829	127.81
468.049	117.81
468.268	121.81
468.488	105.81
468.707	120.81
468.927	122.81
469.146	111.81
469.365	105.81
469.585	141.81
469.804	117.81
470.023	113.81
470.243	124.81
470.462	117.81
470.681	109.81
470.901	112.81
471.12	118.81
471.339	111.81
471.558	121.81
471.777	113.81
471.997	115.81
472.216	114.81
472.435	100.81
472.654	118.81
472.873	114.81
473.092	118.81
473.311	113.81
473.53	116.81
473.749	119.81
473.968	117.81
474.187	114.81
474.406	121.81
474.625	124.81
474.844	124.81
475.063	123.81
475.282	117.81
475.501	117.81
475.72	118.81
475.939	117.81
476.158	129.81
476.377	121.81
476.596	125.81
476.814	110.81
477.033	115.81
477.252	112.81
477.471	110.81
477.69	124.81
477.908	111.81
478.127	122.81
478.346	107.81
478.564	115.81
478.783	114.81
479.002	125.81
479.22	144.81
479.439	130.81
479.658	127.81
479.876	120.81
480.095	110.81
480.313	120.81
480.532	106.81
480.751	132.81
480.969	119.81
481.188	109.81
481.406	99.81
481.624	118.81
481.843	122.81
482.061	124.81
482.28	102.81
482.498	116.81
482.717	118.81
482.935	129.81
483.153	124.81
483.372	102.81
483.59	124.81
483.808	129.81
484.027	117.81
484.245	129.81
484.463	121.81
484.681	137.81
484.9	138.81
485.118	121.81
485.336	118.81
485.554	121.81
485.772	105.81
485.99	117.81
486.209	131.81
486.427	125.81
486.645	128.81
486.863	131.81
487.081	148.81
487.299	123.81
487.517	120.81
487.735	139.81
487.953	136.81
488.171	149.81
488.389	132.81
488.607	117.81
488.825	124.81
489.043	134.81
489.261	131.81
489.479	124.81
489.696	133.81
489.914	135.81
490.132	138.81
490.35	147.81
490.568	142.81
490.786	153.81
491.003	130.81
491.221	143.81
491.439	135.81
491.657	149.81
491.874	153.81
492.092	166.81
492.31	167.81
492.527	155.81
492.745	153.81
492.963	161.81
493.18	162.81
493.398	164.81
493.615	152.81
493.833	149.81
494.05	139.81
494.268	160.81
494.485	150.81
494.703	150.81
494.92	145.81
495.138	164.81
495.355	154.81
495.573	158.81
495.79	149.81
496.008	154.81
496.225	143.81
496.442	151.81
496.66	142.81
496.877	147.81
497.094	154.81
497.312	148.81
497.529	145.81
497.746	148.81
497.963	148.81
498.181	122.81
498.398	129.81
498.615	132.81
498.832	152.81
499.049	141.81
499.267	149.81
499.484	177.81
499.701	178.81
499.918	177.81
500.135	193.81
500.352	216.81
500.569	206.81
500.786	222.81
501.003	206.81
501.22	190.81
501.437	180.81
501.654	161.81
501.871	158.81
502.088	142.81
502.305	151.81
502.522	160.81
502.739	128.81
502.956	141.81
503.172	141.81
503.389	143.81
503.606	132.81
503.823	131.81
504.04	136.81
504.256	141.81
504.473	130.81
504.69	137.81
504.907	140.81
505.123	134.81
505.34	149.81
505.557	143.81
505.773	138.81
505.99	128.81
506.207	123.81
506.423	113.81
506.64	119.81
506.856	108.81
507.073	136.81
507.289	136.81
507.506	132.81
507.722	121.81
507.939	124.81
508.155	131.81
508.372	122.81
508.588	125.81
508.805	110.81
509.021	118.81
509.238	128.81
509.454	108.81
509.67	119.81
509.887	119.81
510.103	125.81
510.319	122.81
510.536	117.81
510.752	115.81
510.968	113.81
511.184	114.81
511.401	130.81
