Data from StandardFe(NO3)3.TAE.3%Agarose.FlatLispGreen.Lamp.Energy10.07252019_HRD10591_11-55-58-441.txt Node
Date: Thu Jul 25 11:55:58 EDT 2019
User: cochatt
Spectrometer: HR+D1059
Trigger mode: 1
Integration Time (sec): 1.000000E-1
Scans to average: 1
Electric dark correction enabled: true
Nonlinearity correction enabled: false
Boxcar width: 0
XAxis mode: Wavelengths
Number of Pixels in Spectrum: 2048
>>>>>Begin Spectral Data<<<<<
223.165	-15.88
223.4	-15.88
223.635	-15.88
223.869	-6.88
224.104	-21.88
224.338	-26.88
224.573	-17.88
224.808	-10.88
225.042	-2.88
225.277	3.12
225.511	-8.88
225.746	-2.88
225.98	2.12
226.215	16.12
226.449	4.12
226.683	24.12
226.918	29.12
227.152	36.12
227.387	34.12
227.621	35.12
227.856	32.12
228.09	41.12
228.324	62.12
228.559	51.12
228.793	44.12
229.027	51.12
229.262	57.12
229.496	64.12
229.73	58.12
229.964	68.12
230.199	66.12
230.433	80.12
230.667	69.12
230.901	72.12
231.136	70.12
231.37	84.12
231.604	64.12
231.838	87.12
232.072	75.12
232.306	78.12
232.541	69.12
232.775	70.12
233.009	84.12
233.243	72.12
233.477	73.12
233.711	75.12
233.945	79.12
234.179	67.12
234.413	87.12
234.647	79.12
234.881	75.12
235.115	75.12
235.349	86.12
235.583	80.12
235.817	82.12
236.051	71.12
236.285	78.12
236.519	88.12
236.753	74.12
236.987	65.12
237.221	71.12
237.455	71.12
237.689	79.12
237.922	70.12
238.156	73.12
238.39	70.12
238.624	74.12
238.858	62.12
239.091	72.12
239.325	85.12
239.559	67.12
239.793	72.12
240.027	71.12
240.26	83.12
240.494	71.12
240.728	82.12
240.961	73.12
241.195	75.12
241.429	81.12
241.662	77.12
241.896	85.12
242.13	69.12
242.363	82.12
242.597	69.12
242.83	68.12
243.064	77.12
243.298	69.12
243.531	81.12
243.765	61.12
243.998	71.12
244.232	65.12
244.465	74.12
244.699	71.12
244.932	74.12
245.166	75.12
245.399	70.12
245.633	75.12
245.866	84.12
246.099	69.12
246.333	72.12
246.566	62.12
246.8	68.12
247.033	72.12
247.266	77.12
247.5	81.12
247.733	78.12
247.966	86.12
248.2	90.12
248.433	78.12
248.666	77.12
248.899	67.12
249.133	81.12
249.366	71.12
249.599	78.12
249.832	80.12
250.066	87.12
250.299	74.12
250.532	85.12
250.765	69.12
250.998	78.12
251.231	78.12
251.465	76.12
251.698	79.12
251.931	77.12
252.164	84.12
252.397	76.12
252.63	85.12
252.863	73.12
253.096	77.12
253.329	75.12
253.562	83.12
253.795	67.12
254.028	69.12
254.261	68.12
254.494	72.12
254.727	87.12
254.96	77.12
255.193	84.12
255.426	86.12
255.659	77.12
255.892	81.12
256.124	80.12
256.357	82.12
256.59	84.12
256.823	73.12
257.056	76.12
257.289	83.12
257.521	75.12
257.754	89.12
257.987	84.12
258.22	81.12
258.452	81.12
258.685	84.12
258.918	63.12
259.151	77.12
259.383	85.12
259.616	84.12
259.849	77.12
260.081	81.12
260.314	88.12
260.547	80.12
260.779	75.12
261.012	78.12
261.244	76.12
261.477	82.12
261.71	86.12
261.942	87.12
262.175	81.12
262.407	76.12
262.64	83.12
262.872	75.12
263.105	66.12
263.337	70.12
263.57	77.12
263.802	76.12
264.035	71.12
264.267	73.12
264.499	92.12
264.732	80.12
264.964	93.12
265.197	86.12
265.429	66.12
265.661	82.12
265.894	86.12
266.126	88.12
266.358	82.12
266.591	76.12
266.823	75.12
267.055	81.12
267.287	73.12
267.52	79.12
267.752	83.12
267.984	75.12
268.216	88.12
268.448	97.12
268.681	72.12
268.913	83.12
269.145	96.12
269.377	87.12
269.609	83.12
269.841	78.12
270.073	66.12
270.306	78.12
270.538	86.12
270.77	88.12
271.002	72.12
271.234	77.12
271.466	69.12
271.698	80.12
271.93	81.12
272.162	88.12
272.394	70.12
272.626	72.12
272.858	72.12
273.09	91.12
273.322	84.12
273.553	81.12
273.785	72.12
274.017	81.12
274.249	96.12
274.481	82.12
274.713	84.12
274.945	73.12
275.176	73.12
275.408	77.12
275.64	78.12
275.872	78.12
276.104	87.12
276.335	71.12
276.567	65.12
276.799	81.12
277.031	84.12
277.262	77.12
277.494	78.12
277.726	66.12
277.957	91.12
278.189	87.12
278.421	69.12
278.652	74.12
278.884	79.12
279.115	84.12
279.347	71.12
279.579	81.12
279.81	86.12
280.042	78.12
280.273	99.12
280.505	82.12
280.736	85.12
280.968	93.12
281.199	79.12
281.431	85.12
281.662	89.12
281.894	81.12
282.125	71.12
282.356	75.12
282.588	72.12
282.819	81.12
283.051	81.12
283.282	77.12
283.513	88.12
283.745	90.12
283.976	73.12
284.207	83.12
284.439	95.12
284.67	90.12
284.901	55.12
285.132	84.12
285.364	80.12
285.595	73.12
285.826	87.12
286.057	86.12
286.288	69.12
286.52	84.12
286.751	81.12
286.982	79.12
287.213	82.12
287.444	89.12
287.675	74.12
287.906	84.12
288.138	72.12
288.369	93.12
288.6	79.12
288.831	89.12
289.062	80.12
289.293	87.12
289.524	78.12
289.755	79.12
289.986	74.12
290.217	68.12
290.448	84.12
290.679	67.12
290.91	78.12
291.141	82.12
291.371	80.12
291.602	89.12
291.833	79.12
292.064	81.12
292.295	80.12
292.526	86.12
292.757	81.12
292.987	83.12
293.218	77.12
293.449	88.12
293.68	85.12
293.91	78.12
294.141	79.12
294.372	73.12
294.603	88.12
294.833	88.12
295.064	92.12
295.295	89.12
295.525	76.12
295.756	96.12
295.987	81.12
296.217	84.12
296.448	66.12
296.679	87.12
296.909	73.12
297.14	92.12
297.37	77.12
297.601	87.12
297.831	79.12
298.062	75.12
298.292	89.12
298.523	87.12
298.753	69.12
298.984	76.12
299.214	85.12
299.445	71.12
299.675	71.12
299.905	96.12
300.136	80.12
300.366	72.12
300.597	103.12
300.827	75.12
301.057	72.12
301.288	82.12
301.518	79.12
301.748	87.12
301.979	80.12
302.209	82.12
302.439	79.12
302.669	63.12
302.9	79.12
303.13	88.12
303.36	82.12
303.59	88.12
303.82	94.12
304.051	81.12
304.281	98.12
304.511	89.12
304.741	88.12
304.971	79.12
305.201	82.12
305.431	88.12
305.661	70.12
305.891	71.12
306.121	85.12
306.352	97.12
306.582	86.12
306.812	69.12
307.042	91.12
307.272	75.12
307.502	89.12
307.731	91.12
307.961	67.12
308.191	89.12
308.421	80.12
308.651	69.12
308.881	90.12
309.111	80.12
309.341	93.12
309.571	72.12
309.8	81.12
310.03	65.12
310.26	75.12
310.49	74.12
310.72	79.12
310.949	71.12
311.179	90.12
311.409	74.12
311.639	83.12
311.868	92.12
312.098	82.12
312.328	95.12
312.557	82.12
312.787	86.12
313.017	80.12
313.246	84.12
313.476	69.12
313.706	75.12
313.935	72.12
314.165	90.12
314.394	87.12
314.624	81.12
314.853	87.12
315.083	77.12
315.312	81.12
315.542	81.12
315.771	93.12
316.001	83.12
316.23	73.12
316.46	69.12
316.689	75.12
316.919	94.12
317.148	83.12
317.377	92.12
317.607	88.12
317.836	81.12
318.065	77.12
318.295	75.12
318.524	78.12
318.753	83.12
318.983	79.12
319.212	94.12
319.441	81.12
319.67	76.12
319.9	71.12
320.129	73.12
320.358	78.12
320.587	83.12
320.816	99.12
321.046	78.12
321.275	79.12
321.504	82.12
321.733	81.12
321.962	69.12
322.191	79.12
322.42	76.12
322.649	81.12
322.878	80.12
323.108	82.12
323.337	83.12
323.566	83.12
323.795	76.12
324.024	78.12
324.253	81.12
324.482	83.12
324.71	88.12
324.939	90.12
325.168	77.12
325.397	82.12
325.626	79.12
325.855	72.12
326.084	90.12
326.313	90.12
326.542	78.12
326.77	69.12
326.999	72.12
327.228	80.12
327.457	96.12
327.686	88.12
327.914	87.12
328.143	79.12
328.372	81.12
328.6	87.12
328.829	81.12
329.058	81.12
329.287	91.12
329.515	74.12
329.744	81.12
329.972	82.12
330.201	90.12
330.43	78.12
330.658	88.12
330.887	82.12
331.115	73.12
331.344	82.12
331.572	91.12
331.801	89.12
332.03	86.12
332.258	62.12
332.486	83.12
332.715	89.12
332.943	88.12
333.172	96.12
333.4	69.12
333.629	76.12
333.857	73.12
334.085	87.12
334.314	85.12
334.542	83.12
334.771	86.12
334.999	80.12
335.227	71.12
335.455	87.12
335.684	79.12
335.912	74.12
336.14	79.12
336.369	88.12
336.597	89.12
336.825	82.12
337.053	91.12
337.281	85.12
337.51	88.12
337.738	81.12
337.966	76.12
338.194	81.12
338.422	81.12
338.65	87.12
338.878	98.12
339.106	82.12
339.334	117.12
339.562	81.12
339.79	78.12
340.018	98.12
340.246	81.12
340.474	80.12
340.702	88.12
340.93	79.12
341.158	66.12
341.386	85.12
341.614	80.12
341.842	86.12
342.07	73.12
342.298	70.12
342.526	58.12
342.754	76.12
342.981	83.12
343.209	90.12
343.437	86.12
343.665	97.12
343.893	85.12
344.12	87.12
344.348	70.12
344.576	77.12
344.804	87.12
345.031	83.12
345.259	68.12
345.487	93.12
345.714	84.12
345.942	89.12
346.17	88.12
346.397	82.12
346.625	83.12
346.853	90.12
347.08	81.12
347.308	81.12
347.535	90.12
347.763	88.12
347.99	83.12
348.218	86.12
348.445	93.12
348.673	75.12
348.9	77.12
349.128	80.12
349.355	88.12
349.583	89.12
349.81	73.12
350.037	71.12
350.265	83.12
350.492	82.12
350.72	86.12
350.947	86.12
351.174	89.12
351.402	72.12
351.629	68.12
351.856	78.12
352.083	89.12
352.311	83.12
352.538	77.12
352.765	78.12
352.992	73.12
353.22	69.12
353.447	84.12
353.674	88.12
353.901	80.12
354.128	83.12
354.355	95.12
354.583	84.12
354.81	84.12
355.037	82.12
355.264	92.12
355.491	79.12
355.718	88.12
355.945	88.12
356.172	85.12
356.399	95.12
356.626	105.12
356.853	85.12
357.08	75.12
357.307	85.12
357.534	78.12
357.761	85.12
357.988	83.12
358.215	80.12
358.441	78.12
358.668	85.12
358.895	70.12
359.122	73.12
359.349	87.12
359.576	78.12
359.802	90.12
360.029	93.12
360.256	83.12
360.483	80.12
360.709	73.12
360.936	89.12
361.163	81.12
361.39	86.12
361.616	79.12
361.843	96.12
362.07	84.12
362.296	82.12
362.523	91.12
362.749	79.12
362.976	80.12
363.203	95.12
363.429	78.12
363.656	96.12
363.882	86.12
364.109	86.12
364.335	80.12
364.562	83.12
364.788	81.12
365.015	93.12
365.241	81.12
365.468	78.12
365.694	81.12
365.92	77.12
366.147	86.12
366.373	72.12
366.599	87.12
366.826	85.12
367.052	79.12
367.278	84.12
367.505	89.12
367.731	89.12
367.957	85.12
368.184	73.12
368.41	79.12
368.636	73.12
368.862	94.12
369.089	90.12
369.315	88.12
369.541	86.12
369.767	79.12
369.993	85.12
370.219	79.12
370.445	85.12
370.672	82.12
370.898	94.12
371.124	76.12
371.35	85.12
371.576	82.12
371.802	76.12
372.028	69.12
372.254	86.12
372.48	89.12
372.706	73.12
372.932	88.12
373.158	90.12
373.384	85.12
373.61	97.12
373.835	76.12
374.061	80.12
374.287	101.12
374.513	90.12
374.739	90.12
374.965	88.12
375.191	73.12
375.416	79.12
375.642	88.12
375.868	86.12
376.094	88.12
376.319	75.12
376.545	91.12
376.771	85.12
376.997	96.12
377.222	88.12
377.448	81.12
377.674	95.12
377.899	81.12
378.125	79.12
378.35	88.12
378.576	96.12
378.802	69.12
379.027	84.12
379.253	87.12
379.478	80.12
379.704	86.12
379.929	96.12
380.155	87.12
380.38	72.12
380.606	97.12
380.831	85.12
381.057	114.12
381.282	83.12
381.507	74.12
381.733	73.12
381.958	81.12
382.184	82.12
382.409	84.12
382.634	95.12
382.86	60.12
383.085	73.12
383.31	96.12
383.535	93.12
383.761	92.12
383.986	91.12
384.211	84.12
384.436	81.12
384.662	87.12
384.887	105.12
385.112	86.12
385.337	87.12
385.562	93.12
385.787	77.12
386.013	92.12
386.238	106.12
386.463	89.12
386.688	93.12
386.913	89.12
387.138	84.12
387.363	88.12
387.588	106.12
387.813	103.12
388.038	85.12
388.263	75.12
388.488	112.12
388.713	91.12
388.938	100.12
389.163	85.12
389.387	97.12
389.612	88.12
389.837	103.12
390.062	91.12
390.287	96.12
390.512	89.12
390.736	86.12
390.961	95.12
391.186	93.12
391.411	93.12
391.636	81.12
391.86	96.12
392.085	107.12
392.31	93.12
392.534	87.12
392.759	88.12
392.984	100.12
393.208	94.12
393.433	93.12
393.658	78.12
393.882	96.12
394.107	87.12
394.331	99.12
394.556	100.12
394.78	95.12
395.005	103.12
395.229	114.12
395.454	78.12
395.678	100.12
395.903	96.12
396.127	88.12
396.352	87.12
396.576	92.12
396.801	127.12
397.025	101.12
397.249	111.12
397.474	103.12
397.698	107.12
397.922	92.12
398.147	106.12
398.371	113.12
398.595	104.12
398.82	87.12
399.044	91.12
399.268	104.12
399.492	118.12
399.717	104.12
399.941	108.12
400.165	101.12
400.389	101.12
400.613	100.12
400.837	83.12
401.062	97.12
401.286	100.12
401.51	91.12
401.734	102.12
401.958	108.12
402.182	105.12
402.406	117.12
402.63	103.12
402.854	106.12
403.078	95.12
403.302	91.12
403.526	113.12
403.75	101.12
403.974	109.12
404.198	100.12
404.422	113.12
404.645	96.12
404.869	110.12
405.093	86.12
405.317	106.12
405.541	109.12
405.765	117.12
405.988	103.12
406.212	117.12
406.436	99.12
406.66	105.12
406.883	101.12
407.107	94.12
407.331	109.12
407.555	103.12
407.778	124.12
408.002	120.12
408.226	104.12
408.449	89.12
408.673	99.12
408.896	109.12
409.12	103.12
409.344	101.12
409.567	103.12
409.791	115.12
410.014	110.12
410.238	119.12
410.461	99.12
410.685	113.12
410.908	109.12
411.132	107.12
411.355	97.12
411.578	118.12
411.802	106.12
412.025	117.12
412.249	97.12
412.472	115.12
412.695	99.12
412.919	105.12
413.142	87.12
413.365	113.12
413.589	114.12
413.812	95.12
414.035	107.12
414.258	100.12
414.482	109.12
414.705	112.12
414.928	104.12
415.151	110.12
415.374	97.12
415.597	92.12
415.821	101.12
416.044	107.12
416.267	102.12
416.49	110.12
416.713	103.12
416.936	113.12
417.159	101.12
417.382	95.12
417.605	103.12
417.828	115.12
418.051	110.12
418.274	103.12
418.497	113.12
418.72	109.12
418.943	118.12
419.166	105.12
419.389	106.12
419.611	121.12
419.834	110.12
420.057	104.12
420.28	113.12
420.503	115.12
420.726	87.12
420.948	100.12
421.171	113.12
421.394	105.12
421.617	106.12
421.839	103.12
422.062	106.12
422.285	120.12
422.507	125.12
422.73	111.12
422.953	109.12
423.175	116.12
423.398	110.12
423.621	116.12
423.843	107.12
424.066	120.12
424.288	102.12
424.511	116.12
424.733	114.12
424.956	101.12
425.178	117.12
425.401	114.12
425.623	105.12
425.846	95.12
426.068	100.12
426.291	99.12
426.513	99.12
426.735	102.12
426.958	105.12
427.18	104.12
427.402	102.12
427.625	115.12
427.847	96.12
428.069	104.12
428.292	123.12
428.514	105.12
428.736	93.12
428.958	100.12
429.181	104.12
429.403	98.12
429.625	120.12
429.847	106.12
430.069	99.12
430.292	104.12
430.514	115.12
430.736	97.12
430.958	101.12
431.18	113.12
431.402	106.12
431.624	113.12
431.846	105.12
432.068	113.12
432.29	99.12
432.512	99.12
432.734	99.12
432.956	110.12
433.178	119.12
433.4	98.12
433.622	116.12
433.844	123.12
434.066	108.12
434.287	120.12
434.509	92.12
434.731	90.12
434.953	109.12
435.175	101.12
435.397	109.12
435.618	115.12
435.84	113.12
436.062	110.12
436.284	117.12
436.505	113.12
436.727	109.12
436.949	102.12
437.17	103.12
437.392	101.12
437.614	102.12
437.835	106.12
438.057	106.12
438.278	115.12
438.5	114.12
438.721	112.12
438.943	109.12
439.165	104.12
439.386	113.12
439.608	115.12
439.829	106.12
440.05	119.12
440.272	112.12
440.493	115.12
440.715	116.12
440.936	108.12
441.158	113.12
441.379	128.12
441.6	117.12
441.822	105.12
442.043	123.12
442.264	117.12
442.486	110.12
442.707	111.12
442.928	114.12
443.149	108.12
443.371	115.12
443.592	98.12
443.813	101.12
444.034	113.12
444.255	113.12
444.476	104.12
444.698	125.12
444.919	118.12
445.14	246.12
445.361	170.12
445.582	129.12
445.803	113.12
446.024	112.12
446.245	105.12
446.466	109.12
446.687	119.12
446.908	105.12
447.129	133.12
447.35	101.12
447.571	119.12
447.792	120.12
448.013	105.12
448.234	96.12
448.455	111.12
448.675	110.12
448.896	110.12
449.117	110.12
449.338	117.12
449.559	121.12
449.779	112.12
450	90.12
450.221	87.12
450.442	99.12
450.662	106.12
450.883	105.12
451.104	110.12
451.324	106.12
451.545	109.12
451.766	115.12
451.986	91.12
452.207	105.12
452.428	119.12
452.648	108.12
452.869	104.12
453.089	84.12
453.31	120.12
453.53	105.12
453.751	94.12
453.971	96.12
454.192	94.12
454.412	102.12
454.633	93.12
454.853	102.12
455.073	101.12
455.294	103.12
455.514	101.12
455.734	115.12
455.955	98.12
456.175	96.12
456.395	106.12
456.616	98.12
456.836	88.12
457.056	106.12
457.276	101.12
457.497	88.12
457.717	100.12
457.937	101.12
458.157	95.12
458.377	114.12
458.598	82.12
458.818	77.12
459.038	93.12
459.258	94.12
459.478	113.12
459.698	103.12
459.918	108.12
460.138	89.12
460.358	115.12
460.578	110.12
460.798	112.12
461.018	115.12
461.238	122.12
461.458	97.12
461.678	93.12
461.898	113.12
462.118	102.12
462.338	126.12
462.558	126.12
462.777	118.12
462.997	126.12
463.217	117.12
463.437	116.12
463.657	122.12
463.876	121.12
464.096	125.12
464.316	120.12
464.536	119.12
464.755	105.12
464.975	113.12
465.195	114.12
465.414	115.12
465.634	118.12
465.854	115.12
466.073	110.12
466.293	114.12
466.512	109.12
466.732	116.12
466.951	100.12
467.171	111.12
467.391	121.12
467.61	93.12
467.829	104.12
468.049	99.12
468.268	99.12
468.488	112.12
468.707	121.12
468.927	109.12
469.146	120.12
469.365	119.12
469.585	126.12
469.804	119.12
470.023	107.12
470.243	117.12
470.462	115.12
470.681	117.12
470.901	126.12
471.12	121.12
471.339	114.12
471.558	117.12
471.777	123.12
471.997	121.12
472.216	118.12
472.435	113.12
472.654	107.12
472.873	107.12
473.092	117.12
473.311	105.12
473.53	111.12
473.749	115.12
473.968	117.12
474.187	92.12
474.406	99.12
474.625	103.12
474.844	126.12
475.063	115.12
475.282	104.12
475.501	96.12
475.72	118.12
475.939	123.12
476.158	113.12
476.377	114.12
476.596	115.12
476.814	110.12
477.033	107.12
477.252	105.12
477.471	102.12
477.69	121.12
477.908	121.12
478.127	125.12
478.346	125.12
478.564	115.12
478.783	118.12
479.002	114.12
479.22	119.12
479.439	124.12
479.658	112.12
479.876	105.12
480.095	104.12
480.313	111.12
480.532	107.12
480.751	130.12
480.969	110.12
481.188	114.12
481.406	105.12
481.624	105.12
481.843	107.12
482.061	110.12
482.28	98.12
482.498	123.12
482.717	109.12
482.935	121.12
483.153	127.12
483.372	118.12
483.59	118.12
483.808	122.12
484.027	117.12
484.245	120.12
484.463	123.12
484.681	139.12
484.9	124.12
485.118	126.12
485.336	129.12
485.554	117.12
485.772	114.12
485.99	128.12
486.209	119.12
486.427	123.12
486.645	121.12
486.863	123.12
487.081	127.12
487.299	107.12
487.517	114.12
487.735	126.12
487.953	134.12
488.171	142.12
488.389	130.12
488.607	138.12
488.825	134.12
489.043	119.12
489.261	122.12
489.479	122.12
489.696	138.12
489.914	125.12
490.132	131.12
490.35	131.12
490.568	114.12
490.786	149.12
491.003	139.12
491.221	149.12
491.439	147.12
491.657	147.12
491.874	148.12
492.092	151.12
492.31	169.12
492.527	153.12
492.745	155.12
492.963	160.12
493.18	149.12
493.398	152.12
493.615	143.12
493.833	137.12
494.05	135.12
494.268	149.12
494.485	152.12
494.703	132.12
494.92	139.12
495.138	135.12
495.355	146.12
495.573	143.12
495.79	140.12
496.008	135.12
496.225	135.12
496.442	128.12
496.66	137.12
496.877	144.12
497.094	137.12
497.312	147.12
497.529	125.12
497.746	138.12
497.963	132.12
498.181	149.12
498.398	141.12
498.615	135.12
498.832	142.12
499.049	128.12
499.267	153.12
499.484	151.12
499.701	149.12
499.918	170.12
500.135	189.12
500.352	206.12
500.569	216.12
500.786	207.12
501.003	197.12
501.22	173.12
501.437	186.12
501.654	163.12
501.871	151.12
502.088	145.12
502.305	133.12
502.522	127.12
502.739	141.12
502.956	121.12
503.172	138.12
503.389	126.12
503.606	129.12
503.823	133.12
504.04	126.12
504.256	130.12
504.473	112.12
504.69	127.12
504.907	119.12
505.123	135.12
505.34	139.12
505.557	126.12
505.773	121.12
505.99	131.12
506.207	117.12
506.423	132.12
506.64	127.12
506.856	115.12
507.073	123.12
507.289	126.12
507.506	111.12
507.722	117.12
507.939	119.12
508.155	115.12
508.372	116.12
508.588	119.12
508.805	105.12
509.021	109.12
509.238	129.12
509.454	123.12
509.67	109.12
509.887	104.12
510.103	113.12
510.319	118.12
510.536	114.12
510.752	123.12
510.968	105.12
511.184	113.12
511.401	111.12
511.617	105.12
511.833	109.12
512.049	107.12
512.265	119.12
512.481	109.12
