Data from StandardFe(NO3)3.TAE.3%Agarose.FlatLispGreen.Lamp.Energy10.07252019_HRD10591_11-54-03-439.txt Node
Date: Thu Jul 25 11:54:03 EDT 2019
User: cochatt
Spectrometer: HR+D1059
Trigger mode: 1
Integration Time (sec): 1.000000E-1
Scans to average: 1
Electric dark correction enabled: true
Nonlinearity correction enabled: false
Boxcar width: 0
XAxis mode: Wavelengths
Number of Pixels in Spectrum: 2048
>>>>>Begin Spectral Data<<<<<
223.165	-24.88
223.4	-24.88
223.635	-24.88
223.869	-9.88
224.104	-4.88
224.338	-13.88
224.573	-16.88
224.808	-15.88
225.042	-14.88
225.277	-9.88
225.511	-11.88
225.746	13.12
225.98	8.12
226.215	2.12
226.449	23.12
226.683	22.12
226.918	27.12
227.152	27.12
227.387	21.12
227.621	33.12
227.856	53.12
228.09	53.12
228.324	53.12
228.559	63.12
228.793	59.12
229.027	50.12
229.262	68.12
229.496	72.12
229.73	72.12
229.964	71.12
230.199	67.12
230.433	78.12
230.667	78.12
230.901	82.12
231.136	74.12
231.37	84.12
231.604	70.12
231.838	85.12
232.072	92.12
232.306	86.12
232.541	82.12
232.775	81.12
233.009	76.12
233.243	77.12
233.477	80.12
233.711	88.12
233.945	91.12
234.179	86.12
234.413	77.12
234.647	85.12
234.881	81.12
235.115	81.12
235.349	66.12
235.583	84.12
235.817	84.12
236.051	76.12
236.285	91.12
236.519	100.12
236.753	91.12
236.987	79.12
237.221	74.12
237.455	74.12
237.689	63.12
237.922	81.12
238.156	70.12
238.39	75.12
238.624	81.12
238.858	75.12
239.091	75.12
239.325	76.12
239.559	81.12
239.793	78.12
240.027	71.12
240.26	77.12
240.494	78.12
240.728	77.12
240.961	86.12
241.195	79.12
241.429	73.12
241.662	77.12
241.896	73.12
242.13	73.12
242.363	80.12
242.597	73.12
242.83	78.12
243.064	83.12
243.298	74.12
243.531	72.12
243.765	82.12
243.998	82.12
244.232	82.12
244.465	84.12
244.699	87.12
244.932	81.12
245.166	75.12
245.399	84.12
245.633	79.12
245.866	89.12
246.099	89.12
246.333	84.12
246.566	80.12
246.8	72.12
247.033	78.12
247.266	74.12
247.5	76.12
247.733	61.12
247.966	56.12
248.2	76.12
248.433	77.12
248.666	87.12
248.899	94.12
249.133	68.12
249.366	91.12
249.599	75.12
249.832	84.12
250.066	86.12
250.299	76.12
250.532	85.12
250.765	76.12
250.998	74.12
251.231	77.12
251.465	71.12
251.698	70.12
251.931	74.12
252.164	92.12
252.397	84.12
252.63	88.12
252.863	75.12
253.096	79.12
253.329	74.12
253.562	91.12
253.795	78.12
254.028	72.12
254.261	91.12
254.494	77.12
254.727	86.12
254.96	79.12
255.193	70.12
255.426	78.12
255.659	76.12
255.892	79.12
256.124	79.12
256.357	72.12
256.59	70.12
256.823	81.12
257.056	100.12
257.289	93.12
257.521	85.12
257.754	78.12
257.987	78.12
258.22	82.12
258.452	82.12
258.685	95.12
258.918	80.12
259.151	74.12
259.383	79.12
259.616	73.12
259.849	82.12
260.081	82.12
260.314	56.12
260.547	81.12
260.779	83.12
261.012	85.12
261.244	89.12
261.477	76.12
261.71	83.12
261.942	72.12
262.175	75.12
262.407	58.12
262.64	89.12
262.872	92.12
263.105	74.12
263.337	87.12
263.57	84.12
263.802	75.12
264.035	78.12
264.267	67.12
264.499	93.12
264.732	91.12
264.964	86.12
265.197	93.12
265.429	86.12
265.661	88.12
265.894	80.12
266.126	72.12
266.358	92.12
266.591	78.12
266.823	78.12
267.055	89.12
267.287	75.12
267.52	91.12
267.752	85.12
267.984	75.12
268.216	88.12
268.448	92.12
268.681	77.12
268.913	89.12
269.145	88.12
269.377	87.12
269.609	84.12
269.841	82.12
270.073	89.12
270.306	81.12
270.538	72.12
270.77	92.12
271.002	84.12
271.234	76.12
271.466	93.12
271.698	88.12
271.93	82.12
272.162	87.12
272.394	78.12
272.626	90.12
272.858	90.12
273.09	84.12
273.322	90.12
273.553	85.12
273.785	76.12
274.017	78.12
274.249	82.12
274.481	90.12
274.713	87.12
274.945	77.12
275.176	87.12
275.408	82.12
275.64	81.12
275.872	79.12
276.104	75.12
276.335	74.12
276.567	86.12
276.799	96.12
277.031	92.12
277.262	97.12
277.494	72.12
277.726	90.12
277.957	89.12
278.189	85.12
278.421	89.12
278.652	76.12
278.884	87.12
279.115	98.12
279.347	87.12
279.579	96.12
279.81	85.12
280.042	83.12
280.273	83.12
280.505	73.12
280.736	81.12
280.968	73.12
281.199	70.12
281.431	83.12
281.662	92.12
281.894	101.12
282.125	83.12
282.356	82.12
282.588	75.12
282.819	87.12
283.051	85.12
283.282	65.12
283.513	93.12
283.745	97.12
283.976	85.12
284.207	99.12
284.439	76.12
284.67	76.12
284.901	89.12
285.132	74.12
285.364	93.12
285.595	91.12
285.826	100.12
286.057	79.12
286.288	84.12
286.52	79.12
286.751	88.12
286.982	102.12
287.213	76.12
287.444	76.12
287.675	81.12
287.906	92.12
288.138	82.12
288.369	95.12
288.6	81.12
288.831	102.12
289.062	86.12
289.293	72.12
289.524	100.12
289.755	82.12
289.986	80.12
290.217	105.12
290.448	96.12
290.679	81.12
290.91	94.12
291.141	89.12
291.371	87.12
291.602	92.12
291.833	87.12
292.064	91.12
292.295	88.12
292.526	73.12
292.757	86.12
292.987	83.12
293.218	77.12
293.449	84.12
293.68	82.12
293.91	85.12
294.141	95.12
294.372	92.12
294.603	88.12
294.833	79.12
295.064	83.12
295.295	90.12
295.525	77.12
295.756	94.12
295.987	81.12
296.217	65.12
296.448	70.12
296.679	76.12
296.909	89.12
297.14	101.12
297.37	83.12
297.601	76.12
297.831	78.12
298.062	74.12
298.292	93.12
298.523	80.12
298.753	95.12
298.984	88.12
299.214	98.12
299.445	84.12
299.675	88.12
299.905	94.12
300.136	77.12
300.366	82.12
300.597	98.12
300.827	93.12
301.057	76.12
301.288	78.12
301.518	92.12
301.748	96.12
301.979	78.12
302.209	90.12
302.439	82.12
302.669	85.12
302.9	88.12
303.13	85.12
303.36	85.12
303.59	84.12
303.82	89.12
304.051	87.12
304.281	82.12
304.511	88.12
304.741	76.12
304.971	92.12
305.201	71.12
305.431	79.12
305.661	88.12
305.891	94.12
306.121	86.12
306.352	95.12
306.582	97.12
306.812	92.12
307.042	86.12
307.272	86.12
307.502	75.12
307.731	65.12
307.961	91.12
308.191	88.12
308.421	93.12
308.651	82.12
308.881	89.12
309.111	93.12
309.341	69.12
309.571	77.12
309.8	77.12
310.03	93.12
310.26	86.12
310.49	85.12
310.72	93.12
310.949	98.12
311.179	83.12
311.409	94.12
311.639	81.12
311.868	103.12
312.098	96.12
312.328	90.12
312.557	96.12
312.787	84.12
313.017	87.12
313.246	90.12
313.476	79.12
313.706	98.12
313.935	76.12
314.165	92.12
314.394	77.12
314.624	83.12
314.853	86.12
315.083	90.12
315.312	104.12
315.542	80.12
315.771	87.12
316.001	83.12
316.23	74.12
316.46	100.12
316.689	81.12
316.919	77.12
317.148	84.12
317.377	83.12
317.607	84.12
317.836	75.12
318.065	86.12
318.295	92.12
318.524	77.12
318.753	84.12
318.983	86.12
319.212	84.12
319.441	99.12
319.67	89.12
319.9	90.12
320.129	83.12
320.358	89.12
320.587	92.12
320.816	102.12
321.046	101.12
321.275	72.12
321.504	83.12
321.733	79.12
321.962	85.12
322.191	98.12
322.42	89.12
322.649	84.12
322.878	77.12
323.108	88.12
323.337	81.12
323.566	82.12
323.795	91.12
324.024	105.12
324.253	101.12
324.482	83.12
324.71	83.12
324.939	94.12
325.168	93.12
325.397	93.12
325.626	72.12
325.855	85.12
326.084	89.12
326.313	88.12
326.542	88.12
326.77	92.12
326.999	91.12
327.228	73.12
327.457	87.12
327.686	99.12
327.914	86.12
328.143	92.12
328.372	91.12
328.6	77.12
328.829	84.12
329.058	77.12
329.287	89.12
329.515	81.12
329.744	90.12
329.972	78.12
330.201	96.12
330.43	87.12
330.658	77.12
330.887	74.12
331.115	100.12
331.344	84.12
331.572	87.12
331.801	93.12
332.03	82.12
332.258	90.12
332.486	87.12
332.715	78.12
332.943	73.12
333.172	80.12
333.4	93.12
333.629	73.12
333.857	93.12
334.085	82.12
334.314	96.12
334.542	90.12
334.771	87.12
334.999	96.12
335.227	82.12
335.455	85.12
335.684	91.12
335.912	102.12
336.14	90.12
336.369	72.12
336.597	93.12
336.825	82.12
337.053	78.12
337.281	94.12
337.51	84.12
337.738	91.12
337.966	91.12
338.194	90.12
338.422	99.12
338.65	76.12
338.878	76.12
339.106	78.12
339.334	97.12
339.562	87.12
339.79	77.12
340.018	75.12
340.246	96.12
340.474	93.12
340.702	87.12
340.93	86.12
341.158	87.12
341.386	86.12
341.614	98.12
341.842	80.12
342.07	72.12
342.298	86.12
342.526	73.12
342.754	92.12
342.981	93.12
343.209	87.12
343.437	72.12
343.665	87.12
343.893	89.12
344.12	99.12
344.348	83.12
344.576	82.12
344.804	96.12
345.031	82.12
345.259	94.12
345.487	83.12
345.714	87.12
345.942	89.12
346.17	96.12
346.397	102.12
346.625	66.12
346.853	89.12
347.08	93.12
347.308	82.12
347.535	92.12
347.763	69.12
347.99	88.12
348.218	99.12
348.445	82.12
348.673	86.12
348.9	96.12
349.128	92.12
349.355	81.12
349.583	72.12
349.81	107.12
350.037	95.12
350.265	83.12
350.492	94.12
350.72	85.12
350.947	91.12
351.174	67.12
351.402	91.12
351.629	99.12
351.856	95.12
352.083	94.12
352.311	82.12
352.538	88.12
352.765	89.12
352.992	97.12
353.22	86.12
353.447	83.12
353.674	81.12
353.901	91.12
354.128	97.12
354.355	91.12
354.583	91.12
354.81	88.12
355.037	94.12
355.264	91.12
355.491	95.12
355.718	90.12
355.945	73.12
356.172	87.12
356.399	88.12
356.626	70.12
356.853	86.12
357.08	90.12
357.307	87.12
357.534	101.12
357.761	69.12
357.988	98.12
358.215	86.12
358.441	78.12
358.668	84.12
358.895	82.12
359.122	92.12
359.349	90.12
359.576	93.12
359.802	92.12
360.029	82.12
360.256	88.12
360.483	86.12
360.709	81.12
360.936	90.12
361.163	89.12
361.39	85.12
361.616	85.12
361.843	79.12
362.07	81.12
362.296	93.12
362.523	74.12
362.749	76.12
362.976	91.12
363.203	102.12
363.429	80.12
363.656	84.12
363.882	88.12
364.109	87.12
364.335	97.12
364.562	86.12
364.788	79.12
365.015	89.12
365.241	90.12
365.468	96.12
365.694	88.12
365.92	88.12
366.147	80.12
366.373	71.12
366.599	94.12
366.826	86.12
367.052	93.12
367.278	88.12
367.505	80.12
367.731	93.12
367.957	102.12
368.184	92.12
368.41	91.12
368.636	79.12
368.862	90.12
369.089	85.12
369.315	87.12
369.541	95.12
369.767	86.12
369.993	81.12
370.219	81.12
370.445	94.12
370.672	82.12
370.898	102.12
371.124	101.12
371.35	89.12
371.576	84.12
371.802	74.12
372.028	76.12
372.254	93.12
372.48	77.12
372.706	98.12
372.932	87.12
373.158	84.12
373.384	84.12
373.61	95.12
373.835	94.12
374.061	90.12
374.287	78.12
374.513	86.12
374.739	99.12
374.965	93.12
375.191	85.12
375.416	98.12
375.642	94.12
375.868	87.12
376.094	105.12
376.319	95.12
376.545	105.12
376.771	93.12
376.997	93.12
377.222	98.12
377.448	90.12
377.674	76.12
377.899	97.12
378.125	99.12
378.35	88.12
378.576	92.12
378.802	90.12
379.027	91.12
379.253	91.12
379.478	90.12
379.704	103.12
379.929	80.12
380.155	89.12
380.38	106.12
380.606	73.12
380.831	92.12
381.057	94.12
381.282	104.12
381.507	94.12
381.733	102.12
381.958	90.12
382.184	78.12
382.409	101.12
382.634	102.12
382.86	79.12
383.085	103.12
383.31	85.12
383.535	92.12
383.761	99.12
383.986	97.12
384.211	103.12
384.436	113.12
384.662	91.12
384.887	94.12
385.112	101.12
385.337	102.12
385.562	89.12
385.787	101.12
386.013	104.12
386.238	95.12
386.463	80.12
386.688	87.12
386.913	89.12
387.138	101.12
387.363	103.12
387.588	96.12
387.813	102.12
388.038	95.12
388.263	89.12
388.488	102.12
388.713	105.12
388.938	97.12
389.163	99.12
389.387	84.12
389.612	94.12
389.837	104.12
390.062	100.12
390.287	87.12
390.512	90.12
390.736	105.12
390.961	114.12
391.186	86.12
391.411	92.12
391.636	102.12
391.86	95.12
392.085	97.12
392.31	105.12
392.534	100.12
392.759	98.12
392.984	92.12
393.208	106.12
393.433	104.12
393.658	110.12
393.882	110.12
394.107	111.12
394.331	94.12
394.556	102.12
394.78	123.12
395.005	91.12
395.229	86.12
395.454	99.12
395.678	95.12
395.903	94.12
396.127	106.12
396.352	109.12
396.576	99.12
396.801	111.12
397.025	110.12
397.249	92.12
397.474	91.12
397.698	112.12
397.922	100.12
398.147	89.12
398.371	106.12
398.595	96.12
398.82	104.12
399.044	100.12
399.268	104.12
399.492	94.12
399.717	112.12
399.941	132.12
400.165	110.12
400.389	105.12
400.613	112.12
400.837	112.12
401.062	117.12
401.286	96.12
401.51	93.12
401.734	95.12
401.958	112.12
402.182	94.12
402.406	107.12
402.63	120.12
402.854	123.12
403.078	132.12
403.302	121.12
403.526	109.12
403.75	110.12
403.974	113.12
404.198	136.12
404.422	108.12
404.645	105.12
404.869	106.12
405.093	113.12
405.317	118.12
405.541	132.12
405.765	107.12
405.988	112.12
406.212	110.12
406.436	112.12
406.66	109.12
406.883	112.12
407.107	109.12
407.331	108.12
407.555	113.12
407.778	108.12
408.002	112.12
408.226	112.12
408.449	115.12
408.673	116.12
408.896	106.12
409.12	101.12
409.344	101.12
409.567	113.12
409.791	109.12
410.014	124.12
410.238	119.12
410.461	115.12
410.685	113.12
410.908	95.12
411.132	103.12
411.355	102.12
411.578	122.12
411.802	106.12
412.025	110.12
412.249	116.12
412.472	109.12
412.695	104.12
412.919	105.12
413.142	111.12
413.365	124.12
413.589	107.12
413.812	116.12
414.035	112.12
414.258	118.12
414.482	94.12
414.705	103.12
414.928	114.12
415.151	120.12
415.374	105.12
415.597	107.12
415.821	112.12
416.044	118.12
416.267	102.12
416.49	108.12
416.713	123.12
416.936	124.12
417.159	116.12
417.382	115.12
417.605	118.12
417.828	123.12
418.051	118.12
418.274	122.12
418.497	116.12
418.72	122.12
418.943	114.12
419.166	117.12
419.389	122.12
419.611	126.12
419.834	124.12
420.057	111.12
420.28	120.12
420.503	124.12
420.726	109.12
420.948	105.12
421.171	117.12
421.394	113.12
421.617	122.12
421.839	127.12
422.062	121.12
422.285	113.12
422.507	120.12
422.73	108.12
422.953	102.12
423.175	123.12
423.398	128.12
423.621	112.12
423.843	137.12
424.066	112.12
424.288	112.12
424.511	122.12
424.733	119.12
424.956	116.12
425.178	125.12
425.401	128.12
425.623	119.12
425.846	119.12
426.068	101.12
426.291	110.12
426.513	112.12
426.735	112.12
426.958	132.12
427.18	119.12
427.402	112.12
427.625	114.12
427.847	114.12
428.069	105.12
428.292	121.12
428.514	123.12
428.736	117.12
428.958	132.12
429.181	128.12
429.403	102.12
429.625	117.12
429.847	100.12
430.069	119.12
430.292	112.12
430.514	120.12
430.736	116.12
430.958	117.12
431.18	108.12
431.402	116.12
431.624	116.12
431.846	106.12
432.068	109.12
432.29	102.12
432.512	113.12
432.734	122.12
432.956	110.12
433.178	138.12
433.4	120.12
433.622	116.12
433.844	128.12
434.066	110.12
434.287	118.12
434.509	101.12
434.731	106.12
434.953	89.12
435.175	100.12
435.397	121.12
435.618	109.12
435.84	121.12
436.062	114.12
436.284	120.12
436.505	111.12
436.727	129.12
436.949	123.12
437.17	120.12
437.392	114.12
437.614	110.12
437.835	114.12
438.057	117.12
438.278	110.12
438.5	123.12
438.721	110.12
438.943	106.12
439.165	100.12
439.386	115.12
439.608	121.12
439.829	125.12
440.05	124.12
440.272	131.12
440.493	115.12
440.715	138.12
440.936	108.12
441.158	120.12
441.379	121.12
441.6	118.12
441.822	117.12
442.043	129.12
442.264	125.12
442.486	125.12
442.707	124.12
442.928	136.12
443.149	112.12
443.371	120.12
443.592	127.12
443.813	117.12
444.034	132.12
444.255	129.12
444.476	129.12
444.698	129.12
444.919	127.12
445.14	229.12
445.361	176.12
445.582	141.12
445.803	97.12
446.024	120.12
446.245	130.12
446.466	119.12
446.687	130.12
446.908	107.12
447.129	129.12
447.35	130.12
447.571	116.12
447.792	131.12
448.013	120.12
448.234	114.12
448.455	115.12
448.675	115.12
448.896	127.12
449.117	117.12
449.338	106.12
449.559	122.12
449.779	119.12
450	105.12
450.221	120.12
450.442	102.12
450.662	112.12
450.883	117.12
451.104	106.12
451.324	108.12
451.545	108.12
451.766	120.12
451.986	128.12
452.207	126.12
452.428	123.12
452.648	105.12
452.869	113.12
453.089	116.12
453.31	102.12
453.53	106.12
453.751	113.12
453.971	101.12
454.192	111.12
454.412	101.12
454.633	111.12
454.853	123.12
455.073	112.12
455.294	102.12
455.514	112.12
455.734	101.12
455.955	108.12
456.175	106.12
456.395	93.12
456.616	93.12
456.836	107.12
457.056	96.12
457.276	107.12
457.497	109.12
457.717	104.12
457.937	103.12
458.157	96.12
458.377	93.12
458.598	112.12
458.818	90.12
459.038	108.12
459.258	99.12
459.478	105.12
459.698	93.12
459.918	101.12
460.138	102.12
460.358	106.12
460.578	113.12
460.798	128.12
461.018	116.12
461.238	113.12
461.458	115.12
461.678	130.12
461.898	120.12
462.118	103.12
462.338	135.12
462.558	112.12
462.777	119.12
462.997	116.12
463.217	118.12
463.437	132.12
463.657	120.12
463.876	116.12
464.096	123.12
464.316	125.12
464.536	119.12
464.755	122.12
464.975	114.12
465.195	123.12
465.414	102.12
465.634	119.12
465.854	115.12
466.073	114.12
466.293	115.12
466.512	108.12
466.732	118.12
466.951	126.12
467.171	134.12
467.391	130.12
467.61	124.12
467.829	123.12
468.049	114.12
468.268	122.12
468.488	135.12
468.707	118.12
468.927	123.12
469.146	128.12
469.365	117.12
469.585	106.12
469.804	132.12
470.023	112.12
470.243	114.12
470.462	115.12
470.681	118.12
470.901	131.12
471.12	131.12
471.339	119.12
471.558	108.12
471.777	121.12
471.997	124.12
472.216	124.12
472.435	116.12
472.654	120.12
472.873	117.12
473.092	115.12
473.311	116.12
473.53	121.12
473.749	120.12
473.968	131.12
474.187	118.12
474.406	120.12
474.625	120.12
474.844	114.12
475.063	114.12
475.282	110.12
475.501	122.12
475.72	128.12
475.939	123.12
476.158	125.12
476.377	117.12
476.596	119.12
476.814	109.12
477.033	106.12
477.252	121.12
477.471	126.12
477.69	109.12
477.908	124.12
478.127	134.12
478.346	126.12
478.564	134.12
478.783	131.12
479.002	133.12
479.22	138.12
479.439	132.12
479.658	120.12
479.876	140.12
480.095	123.12
480.313	123.12
480.532	116.12
480.751	131.12
480.969	114.12
481.188	113.12
481.406	119.12
481.624	107.12
481.843	128.12
482.061	121.12
482.28	122.12
482.498	126.12
482.717	122.12
482.935	132.12
483.153	122.12
483.372	131.12
483.59	128.12
483.808	133.12
484.027	125.12
484.245	133.12
484.463	109.12
484.681	145.12
484.9	138.12
485.118	122.12
485.336	126.12
485.554	139.12
485.772	111.12
485.99	114.12
486.209	116.12
486.427	125.12
486.645	133.12
486.863	131.12
487.081	126.12
487.299	118.12
487.517	135.12
487.735	157.12
487.953	163.12
488.171	163.12
488.389	137.12
488.607	130.12
488.825	122.12
489.043	129.12
489.261	133.12
489.479	137.12
489.696	137.12
489.914	138.12
490.132	133.12
490.35	136.12
490.568	128.12
490.786	139.12
491.003	151.12
491.221	169.12
491.439	165.12
491.657	142.12
491.874	157.12
492.092	171.12
492.31	169.12
492.527	165.12
492.745	146.12
492.963	156.12
493.18	162.12
493.398	154.12
493.615	154.12
493.833	150.12
494.05	161.12
494.268	149.12
494.485	146.12
494.703	148.12
494.92	153.12
495.138	140.12
495.355	148.12
495.573	134.12
495.79	160.12
496.008	151.12
496.225	146.12
496.442	148.12
496.66	157.12
496.877	150.12
497.094	151.12
497.312	155.12
497.529	148.12
497.746	145.12
497.963	156.12
498.181	150.12
498.398	147.12
498.615	136.12
498.832	146.12
499.049	154.12
499.267	156.12
499.484	157.12
499.701	182.12
499.918	198.12
500.135	205.12
500.352	217.12
500.569	229.12
500.786	244.12
501.003	217.12
501.22	205.12
501.437	206.12
501.654	177.12
501.871	154.12
502.088	158.12
502.305	142.12
502.522	157.12
502.739	160.12
502.956	150.12
503.172	128.12
503.389	130.12
503.606	154.12
503.823	135.12
504.04	131.12
504.256	133.12
504.473	137.12
504.69	141.12
504.907	133.12
505.123	126.12
505.34	122.12
505.557	122.12
505.773	148.12
505.99	142.12
506.207	124.12
506.423	121.12
506.64	123.12
506.856	121.12
507.073	121.12
507.289	118.12
507.506	124.12
507.722	123.12
507.939	113.12
508.155	128.12
508.372	132.12
508.588	130.12
508.805	115.12
509.021	102.12
509.238	118.12
509.454	109.12
509.67	118.12
509.887	117.12
510.103	126.12
510.319	121.12
510.536	125.12
510.752	107.12
510.968	124.12
511.184	112.12
