Data from StandardFe(NO3)3.TAE.3%Agarose.FlatLispGreen.Lamp.Energy10.07252019_HRD10591_11-55-37-441.txt Node
Date: Thu Jul 25 11:55:37 EDT 2019
User: cochatt
Spectrometer: HR+D1059
Trigger mode: 1
Integration Time (sec): 1.000000E-1
Scans to average: 1
Electric dark correction enabled: true
Nonlinearity correction enabled: false
Boxcar width: 0
XAxis mode: Wavelengths
Number of Pixels in Spectrum: 2048
>>>>>Begin Spectral Data<<<<<
223.165	-12.88
223.4	-12.88
223.635	-12.88
223.869	-26.88
224.104	-21.88
224.338	-23.88
224.573	-5.88
224.808	-8.88
225.042	-10.88
225.277	3.12
225.511	-20.88
225.746	-17.88
225.98	4.12
226.215	13.12
226.449	32.12
226.683	34.12
226.918	30.12
227.152	33.12
227.387	45.12
227.621	50.12
227.856	37.12
228.09	52.12
228.324	64.12
228.559	51.12
228.793	68.12
229.027	57.12
229.262	67.12
229.496	56.12
229.73	89.12
229.964	67.12
230.199	74.12
230.433	68.12
230.667	69.12
230.901	81.12
231.136	92.12
231.37	88.12
231.604	96.12
231.838	81.12
232.072	82.12
232.306	87.12
232.541	78.12
232.775	93.12
233.009	92.12
233.243	90.12
233.477	83.12
233.711	80.12
233.945	79.12
234.179	76.12
234.413	72.12
234.647	81.12
234.881	85.12
235.115	82.12
235.349	87.12
235.583	81.12
235.817	74.12
236.051	78.12
236.285	85.12
236.519	89.12
236.753	83.12
236.987	83.12
237.221	71.12
237.455	79.12
237.689	83.12
237.922	80.12
238.156	84.12
238.39	80.12
238.624	70.12
238.858	74.12
239.091	75.12
239.325	85.12
239.559	84.12
239.793	74.12
240.027	74.12
240.26	86.12
240.494	63.12
240.728	77.12
240.961	75.12
241.195	73.12
241.429	84.12
241.662	93.12
241.896	74.12
242.13	82.12
242.363	80.12
242.597	76.12
242.83	80.12
243.064	88.12
243.298	77.12
243.531	72.12
243.765	78.12
243.998	59.12
244.232	74.12
244.465	73.12
244.699	70.12
244.932	75.12
245.166	84.12
245.399	70.12
245.633	90.12
245.866	78.12
246.099	90.12
246.333	73.12
246.566	76.12
246.8	89.12
247.033	80.12
247.266	83.12
247.5	78.12
247.733	77.12
247.966	84.12
248.2	77.12
248.433	74.12
248.666	92.12
248.899	80.12
249.133	75.12
249.366	90.12
249.599	105.12
249.832	79.12
250.066	91.12
250.299	71.12
250.532	75.12
250.765	80.12
250.998	84.12
251.231	64.12
251.465	86.12
251.698	68.12
251.931	90.12
252.164	86.12
252.397	82.12
252.63	79.12
252.863	82.12
253.096	79.12
253.329	83.12
253.562	84.12
253.795	95.12
254.028	99.12
254.261	83.12
254.494	86.12
254.727	79.12
254.96	78.12
255.193	77.12
255.426	79.12
255.659	85.12
255.892	94.12
256.124	91.12
256.357	86.12
256.59	80.12
256.823	90.12
257.056	87.12
257.289	87.12
257.521	90.12
257.754	95.12
257.987	87.12
258.22	99.12
258.452	91.12
258.685	80.12
258.918	89.12
259.151	86.12
259.383	83.12
259.616	88.12
259.849	91.12
260.081	81.12
260.314	86.12
260.547	86.12
260.779	98.12
261.012	77.12
261.244	88.12
261.477	87.12
261.71	85.12
261.942	92.12
262.175	82.12
262.407	87.12
262.64	89.12
262.872	87.12
263.105	87.12
263.337	89.12
263.57	77.12
263.802	90.12
264.035	91.12
264.267	84.12
264.499	79.12
264.732	95.12
264.964	85.12
265.197	89.12
265.429	94.12
265.661	84.12
265.894	86.12
266.126	92.12
266.358	70.12
266.591	102.12
266.823	95.12
267.055	100.12
267.287	88.12
267.52	88.12
267.752	83.12
267.984	76.12
268.216	86.12
268.448	78.12
268.681	83.12
268.913	83.12
269.145	81.12
269.377	85.12
269.609	80.12
269.841	83.12
270.073	75.12
270.306	82.12
270.538	79.12
270.77	78.12
271.002	85.12
271.234	97.12
271.466	77.12
271.698	83.12
271.93	78.12
272.162	85.12
272.394	94.12
272.626	84.12
272.858	83.12
273.09	79.12
273.322	94.12
273.553	79.12
273.785	95.12
274.017	88.12
274.249	98.12
274.481	91.12
274.713	92.12
274.945	79.12
275.176	82.12
275.408	81.12
275.64	92.12
275.872	78.12
276.104	88.12
276.335	78.12
276.567	86.12
276.799	86.12
277.031	76.12
277.262	94.12
277.494	88.12
277.726	75.12
277.957	83.12
278.189	91.12
278.421	80.12
278.652	90.12
278.884	88.12
279.115	94.12
279.347	100.12
279.579	90.12
279.81	93.12
280.042	99.12
280.273	95.12
280.505	89.12
280.736	86.12
280.968	94.12
281.199	88.12
281.431	79.12
281.662	86.12
281.894	84.12
282.125	95.12
282.356	85.12
282.588	76.12
282.819	97.12
283.051	67.12
283.282	84.12
283.513	75.12
283.745	94.12
283.976	89.12
284.207	81.12
284.439	87.12
284.67	93.12
284.901	96.12
285.132	103.12
285.364	83.12
285.595	87.12
285.826	84.12
286.057	87.12
286.288	86.12
286.52	84.12
286.751	87.12
286.982	85.12
287.213	95.12
287.444	90.12
287.675	85.12
287.906	93.12
288.138	88.12
288.369	78.12
288.6	81.12
288.831	91.12
289.062	86.12
289.293	89.12
289.524	88.12
289.755	84.12
289.986	91.12
290.217	95.12
290.448	101.12
290.679	87.12
290.91	88.12
291.141	100.12
291.371	94.12
291.602	99.12
291.833	88.12
292.064	87.12
292.295	85.12
292.526	95.12
292.757	83.12
292.987	71.12
293.218	86.12
293.449	90.12
293.68	100.12
293.91	91.12
294.141	75.12
294.372	77.12
294.603	85.12
294.833	85.12
295.064	84.12
295.295	85.12
295.525	95.12
295.756	83.12
295.987	89.12
296.217	85.12
296.448	106.12
296.679	89.12
296.909	85.12
297.14	89.12
297.37	95.12
297.601	86.12
297.831	88.12
298.062	98.12
298.292	90.12
298.523	83.12
298.753	89.12
298.984	79.12
299.214	95.12
299.445	89.12
299.675	91.12
299.905	80.12
300.136	79.12
300.366	88.12
300.597	92.12
300.827	90.12
301.057	91.12
301.288	87.12
301.518	88.12
301.748	85.12
301.979	94.12
302.209	86.12
302.439	89.12
302.669	73.12
302.9	102.12
303.13	74.12
303.36	98.12
303.59	86.12
303.82	90.12
304.051	80.12
304.281	91.12
304.511	86.12
304.741	85.12
304.971	100.12
305.201	93.12
305.431	90.12
305.661	91.12
305.891	78.12
306.121	88.12
306.352	93.12
306.582	78.12
306.812	85.12
307.042	90.12
307.272	80.12
307.502	90.12
307.731	72.12
307.961	87.12
308.191	90.12
308.421	100.12
308.651	81.12
308.881	89.12
309.111	89.12
309.341	86.12
309.571	80.12
309.8	90.12
310.03	95.12
310.26	96.12
310.49	84.12
310.72	104.12
310.949	100.12
311.179	85.12
311.409	99.12
311.639	92.12
311.868	77.12
312.098	102.12
312.328	94.12
312.557	77.12
312.787	91.12
313.017	83.12
313.246	100.12
313.476	99.12
313.706	87.12
313.935	97.12
314.165	101.12
314.394	106.12
314.624	94.12
314.853	85.12
315.083	86.12
315.312	87.12
315.542	88.12
315.771	94.12
316.001	83.12
316.23	80.12
316.46	86.12
316.689	94.12
316.919	91.12
317.148	89.12
317.377	87.12
317.607	91.12
317.836	83.12
318.065	93.12
318.295	72.12
318.524	98.12
318.753	83.12
318.983	96.12
319.212	92.12
319.441	82.12
319.67	87.12
319.9	100.12
320.129	88.12
320.358	96.12
320.587	96.12
320.816	102.12
321.046	107.12
321.275	95.12
321.504	92.12
321.733	97.12
321.962	89.12
322.191	89.12
322.42	97.12
322.649	93.12
322.878	72.12
323.108	81.12
323.337	87.12
323.566	83.12
323.795	93.12
324.024	94.12
324.253	79.12
324.482	84.12
324.71	88.12
324.939	91.12
325.168	97.12
325.397	100.12
325.626	99.12
325.855	82.12
326.084	95.12
326.313	98.12
326.542	92.12
326.77	91.12
326.999	88.12
327.228	79.12
327.457	86.12
327.686	92.12
327.914	99.12
328.143	93.12
328.372	95.12
328.6	81.12
328.829	86.12
329.058	82.12
329.287	86.12
329.515	102.12
329.744	103.12
329.972	81.12
330.201	99.12
330.43	96.12
330.658	94.12
330.887	88.12
331.115	88.12
331.344	88.12
331.572	110.12
331.801	96.12
332.03	92.12
332.258	89.12
332.486	91.12
332.715	91.12
332.943	99.12
333.172	80.12
333.4	98.12
333.629	89.12
333.857	93.12
334.085	85.12
334.314	90.12
334.542	100.12
334.771	94.12
334.999	97.12
335.227	96.12
335.455	83.12
335.684	91.12
335.912	93.12
336.14	92.12
336.369	89.12
336.597	79.12
336.825	74.12
337.053	75.12
337.281	92.12
337.51	83.12
337.738	103.12
337.966	77.12
338.194	89.12
338.422	96.12
338.65	90.12
338.878	88.12
339.106	84.12
339.334	98.12
339.562	90.12
339.79	98.12
340.018	89.12
340.246	89.12
340.474	100.12
340.702	101.12
340.93	74.12
341.158	77.12
341.386	85.12
341.614	99.12
341.842	93.12
342.07	92.12
342.298	98.12
342.526	95.12
342.754	99.12
342.981	93.12
343.209	74.12
343.437	83.12
343.665	74.12
343.893	91.12
344.12	80.12
344.348	90.12
344.576	96.12
344.804	90.12
345.031	87.12
345.259	84.12
345.487	93.12
345.714	97.12
345.942	95.12
346.17	98.12
346.397	93.12
346.625	68.12
346.853	93.12
347.08	93.12
347.308	91.12
347.535	87.12
347.763	92.12
347.99	88.12
348.218	89.12
348.445	85.12
348.673	105.12
348.9	79.12
349.128	107.12
349.355	88.12
349.583	87.12
349.81	85.12
350.037	97.12
350.265	100.12
350.492	86.12
350.72	102.12
350.947	91.12
351.174	74.12
351.402	92.12
351.629	84.12
351.856	88.12
352.083	79.12
352.311	97.12
352.538	84.12
352.765	79.12
352.992	90.12
353.22	79.12
353.447	76.12
353.674	85.12
353.901	102.12
354.128	98.12
354.355	80.12
354.583	90.12
354.81	79.12
355.037	76.12
355.264	76.12
355.491	98.12
355.718	83.12
355.945	98.12
356.172	88.12
356.399	88.12
356.626	87.12
356.853	73.12
357.08	91.12
357.307	91.12
357.534	89.12
357.761	84.12
357.988	86.12
358.215	86.12
358.441	82.12
358.668	91.12
358.895	75.12
359.122	86.12
359.349	95.12
359.576	93.12
359.802	88.12
360.029	79.12
360.256	86.12
360.483	92.12
360.709	79.12
360.936	86.12
361.163	90.12
361.39	87.12
361.616	91.12
361.843	99.12
362.07	95.12
362.296	97.12
362.523	92.12
362.749	82.12
362.976	78.12
363.203	87.12
363.429	87.12
363.656	92.12
363.882	86.12
364.109	89.12
364.335	98.12
364.562	88.12
364.788	96.12
365.015	91.12
365.241	78.12
365.468	86.12
365.694	84.12
365.92	96.12
366.147	94.12
366.373	97.12
366.599	85.12
366.826	84.12
367.052	77.12
367.278	87.12
367.505	97.12
367.731	94.12
367.957	77.12
368.184	94.12
368.41	78.12
368.636	97.12
368.862	89.12
369.089	80.12
369.315	97.12
369.541	103.12
369.767	85.12
369.993	100.12
370.219	90.12
370.445	92.12
370.672	96.12
370.898	89.12
371.124	88.12
371.35	79.12
371.576	87.12
371.802	94.12
372.028	87.12
372.254	88.12
372.48	93.12
372.706	99.12
372.932	91.12
373.158	74.12
373.384	101.12
373.61	82.12
373.835	93.12
374.061	108.12
374.287	93.12
374.513	91.12
374.739	94.12
374.965	95.12
375.191	91.12
375.416	95.12
375.642	80.12
375.868	86.12
376.094	88.12
376.319	96.12
376.545	86.12
376.771	118.12
376.997	98.12
377.222	102.12
377.448	92.12
377.674	81.12
377.899	77.12
378.125	92.12
378.35	91.12
378.576	103.12
378.802	87.12
379.027	102.12
379.253	86.12
379.478	84.12
379.704	89.12
379.929	82.12
380.155	91.12
380.38	83.12
380.606	98.12
380.831	89.12
381.057	99.12
381.282	98.12
381.507	99.12
381.733	110.12
381.958	92.12
382.184	84.12
382.409	93.12
382.634	93.12
382.86	81.12
383.085	92.12
383.31	104.12
383.535	86.12
383.761	91.12
383.986	87.12
384.211	100.12
384.436	97.12
384.662	95.12
384.887	95.12
385.112	93.12
385.337	84.12
385.562	87.12
385.787	83.12
386.013	123.12
386.238	109.12
386.463	95.12
386.688	102.12
386.913	97.12
387.138	101.12
387.363	92.12
387.588	94.12
387.813	88.12
388.038	104.12
388.263	99.12
388.488	100.12
388.713	102.12
388.938	98.12
389.163	87.12
389.387	110.12
389.612	100.12
389.837	103.12
390.062	101.12
390.287	84.12
390.512	95.12
390.736	93.12
390.961	92.12
391.186	92.12
391.411	91.12
391.636	85.12
391.86	108.12
392.085	99.12
392.31	103.12
392.534	94.12
392.759	99.12
392.984	99.12
393.208	107.12
393.433	94.12
393.658	103.12
393.882	98.12
394.107	100.12
394.331	101.12
394.556	101.12
394.78	105.12
395.005	99.12
395.229	99.12
395.454	115.12
395.678	105.12
395.903	102.12
396.127	108.12
396.352	110.12
396.576	104.12
396.801	99.12
397.025	91.12
397.249	90.12
397.474	115.12
397.698	103.12
397.922	108.12
398.147	101.12
398.371	93.12
398.595	108.12
398.82	105.12
399.044	103.12
399.268	109.12
399.492	122.12
399.717	124.12
399.941	119.12
400.165	126.12
400.389	95.12
400.613	111.12
400.837	98.12
401.062	94.12
401.286	100.12
401.51	103.12
401.734	103.12
401.958	109.12
402.182	112.12
402.406	103.12
402.63	107.12
402.854	102.12
403.078	100.12
403.302	111.12
403.526	107.12
403.75	115.12
403.974	103.12
404.198	114.12
404.422	122.12
404.645	114.12
404.869	106.12
405.093	98.12
405.317	106.12
405.541	110.12
405.765	106.12
405.988	128.12
406.212	125.12
406.436	111.12
406.66	100.12
406.883	102.12
407.107	92.12
407.331	114.12
407.555	124.12
407.778	117.12
408.002	108.12
408.226	116.12
408.449	110.12
408.673	95.12
408.896	102.12
409.12	110.12
409.344	110.12
409.567	108.12
409.791	114.12
410.014	111.12
410.238	114.12
410.461	119.12
410.685	104.12
410.908	108.12
411.132	109.12
411.355	127.12
411.578	109.12
411.802	119.12
412.025	120.12
412.249	118.12
412.472	122.12
412.695	98.12
412.919	102.12
413.142	95.12
413.365	124.12
413.589	115.12
413.812	106.12
414.035	111.12
414.258	110.12
414.482	100.12
414.705	107.12
414.928	131.12
415.151	105.12
415.374	107.12
415.597	106.12
415.821	125.12
416.044	111.12
416.267	103.12
416.49	113.12
416.713	117.12
416.936	101.12
417.159	100.12
417.382	100.12
417.605	114.12
417.828	115.12
418.051	102.12
418.274	98.12
418.497	111.12
418.72	108.12
418.943	115.12
419.166	124.12
419.389	125.12
419.611	120.12
419.834	121.12
420.057	106.12
420.28	95.12
420.503	117.12
420.726	100.12
420.948	114.12
421.171	115.12
421.394	119.12
421.617	120.12
421.839	119.12
422.062	123.12
422.285	103.12
422.507	126.12
422.73	123.12
422.953	118.12
423.175	112.12
423.398	130.12
423.621	126.12
423.843	119.12
424.066	105.12
424.288	126.12
424.511	108.12
424.733	127.12
424.956	117.12
425.178	115.12
425.401	121.12
425.623	131.12
425.846	120.12
426.068	120.12
426.291	107.12
426.513	120.12
426.735	102.12
426.958	124.12
427.18	105.12
427.402	109.12
427.625	111.12
427.847	103.12
428.069	109.12
428.292	115.12
428.514	119.12
428.736	110.12
428.958	117.12
429.181	112.12
429.403	117.12
429.625	118.12
429.847	121.12
430.069	111.12
430.292	105.12
430.514	111.12
430.736	110.12
430.958	118.12
431.18	118.12
431.402	130.12
431.624	100.12
431.846	108.12
432.068	118.12
432.29	103.12
432.512	112.12
432.734	111.12
432.956	111.12
433.178	123.12
433.4	124.12
433.622	127.12
433.844	120.12
434.066	111.12
434.287	89.12
434.509	108.12
434.731	112.12
434.953	114.12
435.175	97.12
435.397	126.12
435.618	117.12
435.84	110.12
436.062	109.12
436.284	115.12
436.505	116.12
436.727	118.12
436.949	115.12
437.17	114.12
437.392	109.12
437.614	110.12
437.835	107.12
438.057	97.12
438.278	104.12
438.5	123.12
438.721	120.12
438.943	121.12
439.165	124.12
439.386	116.12
439.608	116.12
439.829	107.12
440.05	99.12
440.272	124.12
440.493	114.12
440.715	114.12
440.936	108.12
441.158	109.12
441.379	116.12
441.6	124.12
441.822	110.12
442.043	117.12
442.264	120.12
442.486	132.12
442.707	120.12
442.928	112.12
443.149	101.12
443.371	130.12
443.592	120.12
443.813	126.12
444.034	125.12
444.255	138.12
444.476	120.12
444.698	126.12
444.919	130.12
445.14	255.12
445.361	180.12
445.582	117.12
445.803	129.12
446.024	118.12
446.245	131.12
446.466	115.12
446.687	113.12
446.908	124.12
447.129	132.12
447.35	114.12
447.571	116.12
447.792	125.12
448.013	117.12
448.234	122.12
448.455	119.12
448.675	107.12
448.896	114.12
449.117	132.12
449.338	115.12
449.559	111.12
449.779	123.12
450	116.12
450.221	114.12
450.442	94.12
450.662	114.12
450.883	122.12
451.104	105.12
451.324	122.12
451.545	121.12
451.766	124.12
451.986	109.12
452.207	119.12
452.428	115.12
452.648	116.12
452.869	103.12
453.089	113.12
453.31	99.12
453.53	96.12
453.751	110.12
453.971	109.12
454.192	111.12
454.412	125.12
454.633	98.12
454.853	112.12
455.073	117.12
455.294	100.12
455.514	118.12
455.734	98.12
455.955	110.12
456.175	99.12
456.395	105.12
456.616	106.12
456.836	114.12
457.056	107.12
457.276	95.12
457.497	102.12
457.717	121.12
457.937	99.12
458.157	94.12
458.377	114.12
458.598	98.12
458.818	106.12
459.038	127.12
459.258	98.12
459.478	94.12
459.698	100.12
459.918	116.12
460.138	105.12
460.358	118.12
460.578	105.12
460.798	118.12
461.018	136.12
461.238	132.12
461.458	107.12
461.678	124.12
461.898	120.12
462.118	118.12
462.338	112.12
462.558	111.12
462.777	109.12
462.997	111.12
463.217	121.12
463.437	121.12
463.657	120.12
463.876	120.12
464.096	113.12
464.316	108.12
464.536	128.12
464.755	127.12
464.975	118.12
465.195	112.12
465.414	115.12
465.634	106.12
465.854	109.12
466.073	108.12
466.293	108.12
466.512	119.12
466.732	125.12
466.951	110.12
467.171	124.12
467.391	126.12
467.61	115.12
467.829	130.12
468.049	103.12
468.268	99.12
468.488	116.12
468.707	126.12
468.927	123.12
469.146	120.12
469.365	130.12
469.585	116.12
469.804	116.12
470.023	120.12
470.243	122.12
470.462	118.12
470.681	129.12
470.901	118.12
471.12	128.12
471.339	127.12
471.558	111.12
471.777	114.12
471.997	114.12
472.216	110.12
472.435	115.12
472.654	114.12
472.873	108.12
473.092	120.12
473.311	124.12
473.53	109.12
473.749	106.12
473.968	128.12
474.187	124.12
474.406	114.12
474.625	112.12
474.844	109.12
475.063	126.12
475.282	116.12
475.501	114.12
475.72	104.12
475.939	113.12
476.158	115.12
476.377	131.12
476.596	119.12
476.814	119.12
477.033	126.12
477.252	117.12
477.471	116.12
477.69	126.12
477.908	115.12
478.127	122.12
478.346	126.12
478.564	127.12
478.783	129.12
479.002	142.12
479.22	136.12
479.439	120.12
479.658	130.12
479.876	122.12
480.095	114.12
480.313	114.12
480.532	130.12
480.751	133.12
480.969	116.12
481.188	104.12
481.406	124.12
481.624	118.12
481.843	112.12
482.061	120.12
482.28	112.12
482.498	126.12
482.717	110.12
482.935	124.12
483.153	125.12
483.372	137.12
483.59	121.12
483.808	123.12
484.027	124.12
484.245	119.12
484.463	122.12
484.681	125.12
484.9	136.12
485.118	127.12
485.336	118.12
485.554	133.12
485.772	111.12
485.99	106.12
486.209	125.12
486.427	119.12
486.645	127.12
486.863	130.12
487.081	145.12
487.299	131.12
487.517	149.12
487.735	139.12
487.953	138.12
488.171	140.12
488.389	133.12
488.607	136.12
488.825	130.12
489.043	128.12
489.261	114.12
489.479	140.12
489.696	137.12
489.914	134.12
490.132	139.12
490.35	137.12
490.568	134.12
490.786	150.12
491.003	147.12
491.221	129.12
491.439	147.12
491.657	149.12
491.874	154.12
492.092	166.12
492.31	172.12
492.527	144.12
492.745	168.12
492.963	156.12
493.18	135.12
493.398	156.12
493.615	137.12
493.833	134.12
494.05	145.12
494.268	161.12
494.485	147.12
494.703	150.12
494.92	148.12
495.138	140.12
495.355	140.12
495.573	157.12
495.79	153.12
496.008	152.12
496.225	144.12
496.442	147.12
496.66	138.12
496.877	141.12
497.094	150.12
497.312	149.12
497.529	144.12
497.746	137.12
497.963	156.12
498.181	144.12
498.398	139.12
498.615	132.12
498.832	137.12
499.049	154.12
499.267	156.12
499.484	184.12
499.701	184.12
499.918	189.12
500.135	199.12
500.352	216.12
500.569	213.12
500.786	213.12
501.003	207.12
501.22	198.12
501.437	186.12
501.654	180.12
501.871	167.12
502.088	162.12
502.305	146.12
502.522	158.12
502.739	139.12
502.956	143.12
503.172	137.12
503.389	152.12
503.606	128.12
503.823	138.12
504.04	141.12
504.256	145.12
504.473	144.12
504.69	146.12
504.907	134.12
505.123	131.12
505.34	140.12
505.557	144.12
505.773	134.12
505.99	140.12
506.207	124.12
506.423	129.12
506.64	138.12
506.856	114.12
507.073	130.12
507.289	133.12
507.506	126.12
507.722	134.12
507.939	123.12
508.155	140.12
508.372	131.12
508.588	135.12
508.805	134.12
509.021	126.12
509.238	142.12
509.454	106.12
509.67	123.12
509.887	123.12
510.103	116.12
510.319	123.12
510.536	107.12
510.752	114.12
510.968	124.12
511.184	95.12
