Data from StandardFe(NO3)3.TAE.3%Agarose.FlatLispGreen.Lamp.Energy10.07252019_HRD10591_11-54-21-439.txt Node
Date: Thu Jul 25 11:54:21 EDT 2019
User: cochatt
Spectrometer: HR+D1059
Trigger mode: 1
Integration Time (sec): 1.000000E-1
Scans to average: 1
Electric dark correction enabled: true
Nonlinearity correction enabled: false
Boxcar width: 0
XAxis mode: Wavelengths
Number of Pixels in Spectrum: 2048
>>>>>Begin Spectral Data<<<<<
223.165	-10.31
223.4	-10.31
223.635	-10.31
223.869	-22.31
224.104	-11.31
224.338	-7.31
224.573	-18.31
224.808	-19.31
225.042	-13.31
225.277	-1.31
225.511	-6.31
225.746	2.69
225.98	8.69
226.215	-4.31
226.449	18.69
226.683	35.69
226.918	20.69
227.152	27.69
227.387	31.69
227.621	34.69
227.856	45.69
228.09	52.69
228.324	45.69
228.559	59.69
228.793	57.69
229.027	41.69
229.262	67.69
229.496	68.69
229.73	62.69
229.964	67.69
230.199	81.69
230.433	79.69
230.667	85.69
230.901	83.69
231.136	85.69
231.37	65.69
231.604	61.69
231.838	70.69
232.072	79.69
232.306	84.69
232.541	74.69
232.775	90.69
233.009	88.69
233.243	75.69
233.477	83.69
233.711	69.69
233.945	85.69
234.179	86.69
234.413	69.69
234.647	70.69
234.881	80.69
235.115	79.69
235.349	83.69
235.583	69.69
235.817	76.69
236.051	67.69
236.285	78.69
236.519	77.69
236.753	71.69
236.987	81.69
237.221	56.69
237.455	74.69
237.689	62.69
237.922	85.69
238.156	80.69
238.39	90.69
238.624	73.69
238.858	70.69
239.091	75.69
239.325	83.69
239.559	79.69
239.793	66.69
240.027	78.69
240.26	79.69
240.494	80.69
240.728	73.69
240.961	84.69
241.195	75.69
241.429	77.69
241.662	75.69
241.896	62.69
242.13	75.69
242.363	82.69
242.597	87.69
242.83	83.69
243.064	78.69
243.298	66.69
243.531	71.69
243.765	79.69
243.998	89.69
244.232	78.69
244.465	94.69
244.699	86.69
244.932	67.69
245.166	80.69
245.399	74.69
245.633	76.69
245.866	72.69
246.099	76.69
246.333	78.69
246.566	71.69
246.8	70.69
247.033	84.69
247.266	77.69
247.5	76.69
247.733	65.69
247.966	64.69
248.2	69.69
248.433	72.69
248.666	72.69
248.899	82.69
249.133	84.69
249.366	82.69
249.599	94.69
249.832	76.69
250.066	87.69
250.299	72.69
250.532	89.69
250.765	69.69
250.998	77.69
251.231	67.69
251.465	82.69
251.698	87.69
251.931	85.69
252.164	70.69
252.397	61.69
252.63	81.69
252.863	91.69
253.096	80.69
253.329	88.69
253.562	87.69
253.795	78.69
254.028	82.69
254.261	78.69
254.494	76.69
254.727	104.69
254.96	85.69
255.193	87.69
255.426	89.69
255.659	86.69
255.892	78.69
256.124	78.69
256.357	76.69
256.59	81.69
256.823	79.69
257.056	86.69
257.289	80.69
257.521	85.69
257.754	79.69
257.987	89.69
258.22	84.69
258.452	88.69
258.685	68.69
258.918	72.69
259.151	91.69
259.383	86.69
259.616	73.69
259.849	78.69
260.081	76.69
260.314	81.69
260.547	89.69
260.779	83.69
261.012	73.69
261.244	82.69
261.477	84.69
261.71	83.69
261.942	85.69
262.175	82.69
262.407	85.69
262.64	83.69
262.872	82.69
263.105	90.69
263.337	77.69
263.57	81.69
263.802	91.69
264.035	82.69
264.267	72.69
264.499	66.69
264.732	85.69
264.964	81.69
265.197	92.69
265.429	74.69
265.661	83.69
265.894	86.69
266.126	81.69
266.358	76.69
266.591	78.69
266.823	80.69
267.055	85.69
267.287	74.69
267.52	84.69
267.752	90.69
267.984	87.69
268.216	71.69
268.448	85.69
268.681	68.69
268.913	86.69
269.145	91.69
269.377	78.69
269.609	86.69
269.841	78.69
270.073	88.69
270.306	73.69
270.538	82.69
270.77	72.69
271.002	76.69
271.234	87.69
271.466	86.69
271.698	89.69
271.93	83.69
272.162	78.69
272.394	77.69
272.626	81.69
272.858	64.69
273.09	71.69
273.322	82.69
273.553	83.69
273.785	81.69
274.017	76.69
274.249	92.69
274.481	75.69
274.713	92.69
274.945	89.69
275.176	86.69
275.408	86.69
275.64	75.69
275.872	77.69
276.104	76.69
276.335	71.69
276.567	86.69
276.799	91.69
277.031	85.69
277.262	80.69
277.494	82.69
277.726	88.69
277.957	79.69
278.189	76.69
278.421	99.69
278.652	77.69
278.884	71.69
279.115	88.69
279.347	74.69
279.579	80.69
279.81	88.69
280.042	104.69
280.273	82.69
280.505	76.69
280.736	81.69
280.968	83.69
281.199	91.69
281.431	85.69
281.662	86.69
281.894	92.69
282.125	83.69
282.356	84.69
282.588	83.69
282.819	91.69
283.051	93.69
283.282	94.69
283.513	91.69
283.745	88.69
283.976	84.69
284.207	90.69
284.439	80.69
284.67	91.69
284.901	86.69
285.132	74.69
285.364	82.69
285.595	95.69
285.826	99.69
286.057	89.69
286.288	80.69
286.52	73.69
286.751	86.69
286.982	92.69
287.213	78.69
287.444	78.69
287.675	93.69
287.906	85.69
288.138	81.69
288.369	85.69
288.6	73.69
288.831	78.69
289.062	91.69
289.293	90.69
289.524	93.69
289.755	107.69
289.986	82.69
290.217	80.69
290.448	68.69
290.679	85.69
290.91	87.69
291.141	88.69
291.371	88.69
291.602	105.69
291.833	90.69
292.064	89.69
292.295	88.69
292.526	85.69
292.757	70.69
292.987	72.69
293.218	92.69
293.449	86.69
293.68	89.69
293.91	75.69
294.141	74.69
294.372	69.69
294.603	98.69
294.833	84.69
295.064	89.69
295.295	69.69
295.525	100.69
295.756	93.69
295.987	96.69
296.217	99.69
296.448	90.69
296.679	95.69
296.909	83.69
297.14	85.69
297.37	74.69
297.601	82.69
297.831	79.69
298.062	89.69
298.292	92.69
298.523	80.69
298.753	76.69
298.984	88.69
299.214	88.69
299.445	90.69
299.675	96.69
299.905	93.69
300.136	81.69
300.366	94.69
300.597	78.69
300.827	86.69
301.057	72.69
301.288	85.69
301.518	76.69
301.748	74.69
301.979	93.69
302.209	85.69
302.439	104.69
302.669	97.69
302.9	94.69
303.13	86.69
303.36	84.69
303.59	89.69
303.82	83.69
304.051	100.69
304.281	91.69
304.511	84.69
304.741	85.69
304.971	91.69
305.201	88.69
305.431	81.69
305.661	98.69
305.891	89.69
306.121	81.69
306.352	80.69
306.582	87.69
306.812	77.69
307.042	85.69
307.272	86.69
307.502	85.69
307.731	81.69
307.961	89.69
308.191	80.69
308.421	93.69
308.651	87.69
308.881	90.69
309.111	91.69
309.341	67.69
309.571	84.69
309.8	77.69
310.03	98.69
310.26	95.69
310.49	91.69
310.72	82.69
310.949	99.69
311.179	83.69
311.409	83.69
311.639	93.69
311.868	92.69
312.098	89.69
312.328	90.69
312.557	89.69
312.787	77.69
313.017	65.69
313.246	77.69
313.476	91.69
313.706	83.69
313.935	96.69
314.165	99.69
314.394	93.69
314.624	71.69
314.853	82.69
315.083	84.69
315.312	89.69
315.542	76.69
315.771	90.69
316.001	83.69
316.23	92.69
316.46	83.69
316.689	80.69
316.919	70.69
317.148	100.69
317.377	87.69
317.607	76.69
317.836	81.69
318.065	89.69
318.295	88.69
318.524	96.69
318.753	91.69
318.983	70.69
319.212	85.69
319.441	85.69
319.67	84.69
319.9	95.69
320.129	89.69
320.358	93.69
320.587	81.69
320.816	89.69
321.046	90.69
321.275	96.69
321.504	80.69
321.733	80.69
321.962	88.69
322.191	75.69
322.42	92.69
322.649	89.69
322.878	84.69
323.108	92.69
323.337	99.69
323.566	98.69
323.795	86.69
324.024	86.69
324.253	84.69
324.482	81.69
324.71	95.69
324.939	82.69
325.168	88.69
325.397	85.69
325.626	78.69
325.855	94.69
326.084	84.69
326.313	88.69
326.542	81.69
326.77	92.69
326.999	80.69
327.228	83.69
327.457	85.69
327.686	75.69
327.914	82.69
328.143	89.69
328.372	93.69
328.6	104.69
328.829	96.69
329.058	88.69
329.287	83.69
329.515	84.69
329.744	77.69
329.972	77.69
330.201	76.69
330.43	90.69
330.658	82.69
330.887	73.69
331.115	79.69
331.344	91.69
331.572	93.69
331.801	87.69
332.03	85.69
332.258	94.69
332.486	83.69
332.715	89.69
332.943	92.69
333.172	79.69
333.4	78.69
333.629	86.69
333.857	78.69
334.085	89.69
334.314	88.69
334.542	75.69
334.771	71.69
334.999	89.69
335.227	94.69
335.455	93.69
335.684	103.69
335.912	83.69
336.14	87.69
336.369	82.69
336.597	88.69
336.825	82.69
337.053	69.69
337.281	97.69
337.51	85.69
337.738	95.69
337.966	90.69
338.194	87.69
338.422	82.69
338.65	79.69
338.878	83.69
339.106	100.69
339.334	83.69
339.562	80.69
339.79	71.69
340.018	83.69
340.246	83.69
340.474	93.69
340.702	83.69
340.93	94.69
341.158	78.69
341.386	91.69
341.614	77.69
341.842	90.69
342.07	87.69
342.298	87.69
342.526	86.69
342.754	80.69
342.981	72.69
343.209	83.69
343.437	86.69
343.665	80.69
343.893	102.69
344.12	102.69
344.348	78.69
344.576	86.69
344.804	90.69
345.031	74.69
345.259	83.69
345.487	95.69
345.714	94.69
345.942	90.69
346.17	90.69
346.397	77.69
346.625	85.69
346.853	85.69
347.08	78.69
347.308	80.69
347.535	80.69
347.763	79.69
347.99	89.69
348.218	82.69
348.445	93.69
348.673	73.69
348.9	86.69
349.128	79.69
349.355	94.69
349.583	81.69
349.81	99.69
350.037	91.69
350.265	74.69
350.492	78.69
350.72	74.69
350.947	80.69
351.174	70.69
351.402	86.69
351.629	86.69
351.856	71.69
352.083	93.69
352.311	100.69
352.538	81.69
352.765	86.69
352.992	82.69
353.22	85.69
353.447	88.69
353.674	80.69
353.901	74.69
354.128	93.69
354.355	92.69
354.583	73.69
354.81	83.69
355.037	83.69
355.264	81.69
355.491	86.69
355.718	88.69
355.945	89.69
356.172	95.69
356.399	76.69
356.626	82.69
356.853	92.69
357.08	83.69
357.307	87.69
357.534	75.69
357.761	72.69
357.988	83.69
358.215	92.69
358.441	77.69
358.668	84.69
358.895	86.69
359.122	80.69
359.349	96.69
359.576	70.69
359.802	70.69
360.029	81.69
360.256	88.69
360.483	66.69
360.709	72.69
360.936	76.69
361.163	73.69
361.39	99.69
361.616	88.69
361.843	80.69
362.07	90.69
362.296	81.69
362.523	92.69
362.749	88.69
362.976	90.69
363.203	90.69
363.429	89.69
363.656	86.69
363.882	87.69
364.109	81.69
364.335	82.69
364.562	86.69
364.788	83.69
365.015	87.69
365.241	92.69
365.468	78.69
365.694	91.69
365.92	74.69
366.147	93.69
366.373	72.69
366.599	76.69
366.826	89.69
367.052	84.69
367.278	88.69
367.505	94.69
367.731	77.69
367.957	77.69
368.184	78.69
368.41	86.69
368.636	89.69
368.862	90.69
369.089	77.69
369.315	80.69
369.541	94.69
369.767	95.69
369.993	71.69
370.219	74.69
370.445	89.69
370.672	84.69
370.898	97.69
371.124	96.69
371.35	90.69
371.576	80.69
371.802	101.69
372.028	84.69
372.254	101.69
372.48	82.69
372.706	85.69
372.932	89.69
373.158	80.69
373.384	95.69
373.61	90.69
373.835	98.69
374.061	101.69
374.287	88.69
374.513	92.69
374.739	71.69
374.965	99.69
375.191	88.69
375.416	88.69
375.642	99.69
375.868	96.69
376.094	83.69
376.319	88.69
376.545	101.69
376.771	91.69
376.997	82.69
377.222	80.69
377.448	94.69
377.674	83.69
377.899	99.69
378.125	83.69
378.35	96.69
378.576	90.69
378.802	93.69
379.027	88.69
379.253	95.69
379.478	89.69
379.704	96.69
379.929	101.69
380.155	87.69
380.38	82.69
380.606	90.69
380.831	84.69
381.057	97.69
381.282	95.69
381.507	94.69
381.733	87.69
381.958	90.69
382.184	84.69
382.409	92.69
382.634	90.69
382.86	92.69
383.085	83.69
383.31	100.69
383.535	98.69
383.761	85.69
383.986	104.69
384.211	81.69
384.436	88.69
384.662	98.69
384.887	105.69
385.112	86.69
385.337	87.69
385.562	99.69
385.787	97.69
386.013	108.69
386.238	85.69
386.463	78.69
386.688	96.69
386.913	76.69
387.138	74.69
387.363	97.69
387.588	87.69
387.813	99.69
388.038	101.69
388.263	92.69
388.488	87.69
388.713	93.69
388.938	71.69
389.163	83.69
389.387	90.69
389.612	86.69
389.837	87.69
390.062	100.69
390.287	90.69
390.512	98.69
390.736	100.69
390.961	76.69
391.186	106.69
391.411	105.69
391.636	100.69
391.86	91.69
392.085	91.69
392.31	100.69
392.534	96.69
392.759	103.69
392.984	81.69
393.208	98.69
393.433	103.69
393.658	104.69
393.882	98.69
394.107	100.69
394.331	115.69
394.556	102.69
394.78	84.69
395.005	103.69
395.229	107.69
395.454	96.69
395.678	117.69
395.903	99.69
396.127	110.69
396.352	100.69
396.576	90.69
396.801	90.69
397.025	99.69
397.249	108.69
397.474	116.69
397.698	107.69
397.922	116.69
398.147	108.69
398.371	93.69
398.595	116.69
398.82	122.69
399.044	106.69
399.268	110.69
399.492	113.69
399.717	118.69
399.941	126.69
400.165	101.69
400.389	109.69
400.613	94.69
400.837	105.69
401.062	115.69
401.286	94.69
401.51	92.69
401.734	114.69
401.958	97.69
402.182	84.69
402.406	109.69
402.63	96.69
402.854	106.69
403.078	107.69
403.302	116.69
403.526	112.69
403.75	96.69
403.974	116.69
404.198	110.69
404.422	117.69
404.645	106.69
404.869	106.69
405.093	134.69
405.317	124.69
405.541	116.69
405.765	113.69
405.988	115.69
406.212	105.69
406.436	121.69
406.66	120.69
406.883	126.69
407.107	121.69
407.331	117.69
407.555	117.69
407.778	115.69
408.002	108.69
408.226	103.69
408.449	112.69
408.673	120.69
408.896	120.69
409.12	118.69
409.344	116.69
409.567	104.69
409.791	105.69
410.014	123.69
410.238	116.69
410.461	121.69
410.685	128.69
410.908	93.69
411.132	122.69
411.355	116.69
411.578	108.69
411.802	114.69
412.025	116.69
412.249	111.69
412.472	119.69
412.695	107.69
412.919	99.69
413.142	111.69
413.365	125.69
413.589	109.69
413.812	108.69
414.035	110.69
414.258	109.69
414.482	116.69
414.705	101.69
414.928	115.69
415.151	116.69
415.374	141.69
415.597	110.69
415.821	107.69
416.044	113.69
416.267	106.69
416.49	123.69
416.713	116.69
416.936	105.69
417.159	114.69
417.382	120.69
417.605	119.69
417.828	114.69
418.051	103.69
418.274	122.69
418.497	112.69
418.72	121.69
418.943	121.69
419.166	121.69
419.389	131.69
419.611	114.69
419.834	99.69
420.057	134.69
420.28	130.69
420.503	114.69
420.726	119.69
420.948	100.69
421.171	93.69
421.394	104.69
421.617	123.69
421.839	111.69
422.062	116.69
422.285	114.69
422.507	114.69
422.73	127.69
422.953	114.69
423.175	121.69
423.398	109.69
423.621	107.69
423.843	117.69
424.066	128.69
424.288	108.69
424.511	122.69
424.733	114.69
424.956	110.69
425.178	106.69
425.401	110.69
425.623	132.69
425.846	111.69
426.068	121.69
426.291	113.69
426.513	124.69
426.735	115.69
426.958	108.69
427.18	130.69
427.402	122.69
427.625	112.69
427.847	104.69
428.069	126.69
428.292	115.69
428.514	114.69
428.736	115.69
428.958	109.69
429.181	100.69
429.403	98.69
429.625	110.69
429.847	98.69
430.069	117.69
430.292	128.69
430.514	109.69
430.736	124.69
430.958	114.69
431.18	103.69
431.402	111.69
431.624	108.69
431.846	116.69
432.068	117.69
432.29	109.69
432.512	108.69
432.734	114.69
432.956	116.69
433.178	114.69
433.4	104.69
433.622	122.69
433.844	124.69
434.066	108.69
434.287	99.69
434.509	96.69
434.731	105.69
434.953	108.69
435.175	115.69
435.397	110.69
435.618	123.69
435.84	123.69
436.062	110.69
436.284	115.69
436.505	124.69
436.727	129.69
436.949	124.69
437.17	113.69
437.392	97.69
437.614	116.69
437.835	117.69
438.057	113.69
438.278	117.69
438.5	112.69
438.721	113.69
438.943	127.69
439.165	120.69
439.386	123.69
439.608	131.69
439.829	122.69
440.05	117.69
440.272	116.69
440.493	112.69
440.715	114.69
440.936	106.69
441.158	122.69
441.379	112.69
441.6	117.69
441.822	124.69
442.043	138.69
442.264	138.69
442.486	121.69
442.707	114.69
442.928	118.69
443.149	128.69
443.371	112.69
443.592	108.69
443.813	120.69
444.034	136.69
444.255	132.69
444.476	116.69
444.698	135.69
444.919	129.69
445.14	242.69
445.361	182.69
445.582	138.69
445.803	125.69
446.024	135.69
446.245	130.69
446.466	128.69
446.687	132.69
446.908	99.69
447.129	118.69
447.35	124.69
447.571	127.69
447.792	124.69
448.013	114.69
448.234	128.69
448.455	134.69
448.675	119.69
448.896	122.69
449.117	117.69
449.338	143.69
449.559	123.69
449.779	120.69
450	128.69
450.221	130.69
450.442	120.69
450.662	118.69
450.883	108.69
451.104	121.69
451.324	123.69
451.545	129.69
451.766	126.69
451.986	114.69
452.207	115.69
452.428	108.69
452.648	108.69
452.869	96.69
453.089	103.69
453.31	106.69
453.53	117.69
453.751	102.69
453.971	107.69
454.192	117.69
454.412	106.69
454.633	118.69
454.853	114.69
455.073	112.69
455.294	120.69
455.514	125.69
455.734	112.69
455.955	118.69
456.175	117.69
456.395	106.69
456.616	117.69
456.836	108.69
457.056	107.69
457.276	93.69
457.497	115.69
457.717	106.69
457.937	110.69
458.157	100.69
458.377	106.69
458.598	100.69
458.818	106.69
459.038	98.69
459.258	103.69
459.478	98.69
459.698	116.69
459.918	121.69
460.138	120.69
460.358	120.69
460.578	123.69
460.798	103.69
461.018	113.69
461.238	121.69
461.458	114.69
461.678	118.69
461.898	124.69
462.118	113.69
462.338	122.69
462.558	124.69
462.777	126.69
462.997	121.69
463.217	135.69
463.437	125.69
463.657	114.69
463.876	117.69
464.096	132.69
464.316	118.69
464.536	113.69
464.755	126.69
464.975	128.69
465.195	134.69
465.414	121.69
465.634	112.69
465.854	122.69
466.073	118.69
466.293	119.69
466.512	98.69
466.732	130.69
466.951	105.69
467.171	123.69
467.391	118.69
467.61	107.69
467.829	126.69
468.049	118.69
468.268	114.69
468.488	123.69
468.707	123.69
468.927	121.69
469.146	114.69
469.365	128.69
469.585	117.69
469.804	124.69
470.023	121.69
470.243	131.69
470.462	116.69
470.681	126.69
470.901	135.69
471.12	136.69
471.339	123.69
471.558	120.69
471.777	112.69
471.997	125.69
472.216	116.69
472.435	122.69
472.654	120.69
472.873	118.69
473.092	116.69
473.311	116.69
473.53	120.69
473.749	105.69
473.968	112.69
474.187	117.69
474.406	117.69
474.625	114.69
474.844	116.69
475.063	124.69
475.282	119.69
475.501	114.69
475.72	125.69
475.939	117.69
476.158	114.69
476.377	103.69
476.596	120.69
476.814	114.69
477.033	105.69
477.252	100.69
477.471	105.69
477.69	115.69
477.908	122.69
478.127	115.69
478.346	132.69
478.564	141.69
478.783	128.69
479.002	125.69
479.22	131.69
479.439	133.69
479.658	121.69
479.876	116.69
480.095	130.69
480.313	132.69
480.532	130.69
480.751	134.69
480.969	124.69
481.188	120.69
481.406	123.69
481.624	110.69
481.843	126.69
482.061	104.69
482.28	126.69
482.498	124.69
482.717	124.69
482.935	124.69
483.153	135.69
483.372	129.69
483.59	122.69
483.808	123.69
484.027	139.69
484.245	131.69
484.463	134.69
484.681	140.69
484.9	150.69
485.118	124.69
485.336	117.69
485.554	113.69
485.772	112.69
485.99	118.69
486.209	113.69
486.427	141.69
486.645	121.69
486.863	140.69
487.081	117.69
487.299	138.69
487.517	117.69
487.735	146.69
487.953	153.69
488.171	142.69
488.389	137.69
488.607	132.69
488.825	126.69
489.043	118.69
489.261	121.69
489.479	121.69
489.696	135.69
489.914	122.69
490.132	138.69
490.35	125.69
490.568	130.69
490.786	160.69
491.003	142.69
491.221	129.69
491.439	138.69
491.657	141.69
491.874	157.69
492.092	171.69
492.31	176.69
492.527	175.69
492.745	154.69
492.963	148.69
493.18	149.69
493.398	142.69
493.615	160.69
493.833	156.69
494.05	152.69
494.268	153.69
494.485	137.69
494.703	150.69
494.92	150.69
495.138	167.69
495.355	148.69
495.573	152.69
495.79	146.69
496.008	153.69
496.225	147.69
496.442	143.69
496.66	142.69
496.877	146.69
497.094	157.69
497.312	147.69
497.529	148.69
497.746	138.69
497.963	138.69
498.181	140.69
498.398	144.69
498.615	141.69
498.832	148.69
499.049	148.69
499.267	168.69
499.484	162.69
499.701	167.69
499.918	195.69
500.135	192.69
500.352	209.69
500.569	227.69
500.786	225.69
501.003	221.69
501.22	218.69
501.437	186.69
501.654	169.69
501.871	152.69
502.088	151.69
502.305	172.69
502.522	161.69
502.739	157.69
502.956	138.69
503.172	141.69
503.389	145.69
503.606	124.69
503.823	136.69
504.04	138.69
504.256	126.69
504.473	136.69
504.69	143.69
504.907	152.69
505.123	139.69
505.34	120.69
505.557	124.69
505.773	135.69
505.99	135.69
506.207	134.69
506.423	124.69
506.64	120.69
506.856	142.69
507.073	136.69
507.289	136.69
507.506	142.69
507.722	139.69
507.939	131.69
508.155	131.69
508.372	124.69
508.588	119.69
508.805	114.69
509.021	130.69
509.238	130.69
509.454	115.69
509.67	129.69
509.887	120.69
510.103	118.69
510.319	112.69
510.536	113.69
510.752	113.69
510.968	98.69
511.184	120.69
511.401	116.69
511.617	118.69
