Data from StandardFe(NO3)3.TAE.3%Agarose.FlatLispGreen.Lamp.Energy10.07252019_HRD10591_11-55-50-442.txt Node
Date: Thu Jul 25 11:55:50 EDT 2019
User: cochatt
Spectrometer: HR+D1059
Trigger mode: 1
Integration Time (sec): 1.000000E-1
Scans to average: 1
Electric dark correction enabled: true
Nonlinearity correction enabled: false
Boxcar width: 0
XAxis mode: Wavelengths
Number of Pixels in Spectrum: 2048
>>>>>Begin Spectral Data<<<<<
223.165	-20.81
223.4	-20.81
223.635	-20.81
223.869	-18.81
224.104	-25.81
224.338	-15.81
224.573	-10.81
224.808	-6.81
225.042	0.19
225.277	-7.81
225.511	-5.81
225.746	-7.81
225.98	9.19
226.215	16.19
226.449	15.19
226.683	15.19
226.918	34.19
227.152	30.19
227.387	40.19
227.621	39.19
227.856	37.19
228.09	41.19
228.324	42.19
228.559	49.19
228.793	58.19
229.027	58.19
229.262	63.19
229.496	65.19
229.73	79.19
229.964	81.19
230.199	69.19
230.433	75.19
230.667	81.19
230.901	62.19
231.136	62.19
231.37	84.19
231.604	83.19
231.838	91.19
232.072	86.19
232.306	96.19
232.541	78.19
232.775	67.19
233.009	89.19
233.243	89.19
233.477	74.19
233.711	73.19
233.945	75.19
234.179	74.19
234.413	61.19
234.647	76.19
234.881	80.19
235.115	80.19
235.349	78.19
235.583	84.19
235.817	83.19
236.051	60.19
236.285	70.19
236.519	70.19
236.753	74.19
236.987	87.19
237.221	75.19
237.455	64.19
237.689	71.19
237.922	73.19
238.156	83.19
238.39	76.19
238.624	72.19
238.858	79.19
239.091	74.19
239.325	82.19
239.559	91.19
239.793	71.19
240.027	78.19
240.26	82.19
240.494	89.19
240.728	59.19
240.961	84.19
241.195	85.19
241.429	80.19
241.662	80.19
241.896	77.19
242.13	62.19
242.363	64.19
242.597	85.19
242.83	80.19
243.064	80.19
243.298	81.19
243.531	69.19
243.765	104.19
243.998	72.19
244.232	83.19
244.465	71.19
244.699	88.19
244.932	79.19
245.166	76.19
245.399	83.19
245.633	85.19
245.866	71.19
246.099	88.19
246.333	86.19
246.566	76.19
246.8	73.19
247.033	83.19
247.266	80.19
247.5	82.19
247.733	69.19
247.966	74.19
248.2	83.19
248.433	83.19
248.666	87.19
248.899	78.19
249.133	76.19
249.366	78.19
249.599	68.19
249.832	72.19
250.066	71.19
250.299	83.19
250.532	75.19
250.765	81.19
250.998	85.19
251.231	87.19
251.465	83.19
251.698	86.19
251.931	69.19
252.164	73.19
252.397	76.19
252.63	74.19
252.863	74.19
253.096	72.19
253.329	90.19
253.562	68.19
253.795	79.19
254.028	80.19
254.261	89.19
254.494	86.19
254.727	85.19
254.96	79.19
255.193	74.19
255.426	62.19
255.659	73.19
255.892	76.19
256.124	88.19
256.357	78.19
256.59	82.19
256.823	79.19
257.056	86.19
257.289	90.19
257.521	97.19
257.754	90.19
257.987	76.19
258.22	76.19
258.452	76.19
258.685	71.19
258.918	79.19
259.151	67.19
259.383	78.19
259.616	84.19
259.849	76.19
260.081	80.19
260.314	76.19
260.547	80.19
260.779	81.19
261.012	95.19
261.244	68.19
261.477	65.19
261.71	71.19
261.942	74.19
262.175	79.19
262.407	75.19
262.64	72.19
262.872	58.19
263.105	85.19
263.337	85.19
263.57	74.19
263.802	87.19
264.035	84.19
264.267	83.19
264.499	77.19
264.732	87.19
264.964	71.19
265.197	78.19
265.429	83.19
265.661	84.19
265.894	81.19
266.126	86.19
266.358	76.19
266.591	82.19
266.823	83.19
267.055	74.19
267.287	74.19
267.52	80.19
267.752	77.19
267.984	94.19
268.216	75.19
268.448	92.19
268.681	86.19
268.913	87.19
269.145	92.19
269.377	94.19
269.609	84.19
269.841	99.19
270.073	84.19
270.306	92.19
270.538	91.19
270.77	78.19
271.002	75.19
271.234	73.19
271.466	85.19
271.698	95.19
271.93	75.19
272.162	84.19
272.394	97.19
272.626	76.19
272.858	90.19
273.09	76.19
273.322	86.19
273.553	88.19
273.785	75.19
274.017	88.19
274.249	92.19
274.481	82.19
274.713	78.19
274.945	82.19
275.176	85.19
275.408	82.19
275.64	70.19
275.872	82.19
276.104	82.19
276.335	92.19
276.567	84.19
276.799	77.19
277.031	88.19
277.262	75.19
277.494	82.19
277.726	85.19
277.957	83.19
278.189	73.19
278.421	82.19
278.652	96.19
278.884	83.19
279.115	71.19
279.347	85.19
279.579	85.19
279.81	75.19
280.042	82.19
280.273	80.19
280.505	82.19
280.736	90.19
280.968	93.19
281.199	85.19
281.431	81.19
281.662	89.19
281.894	78.19
282.125	77.19
282.356	82.19
282.588	79.19
282.819	97.19
283.051	94.19
283.282	89.19
283.513	95.19
283.745	83.19
283.976	85.19
284.207	90.19
284.439	84.19
284.67	89.19
284.901	80.19
285.132	86.19
285.364	86.19
285.595	80.19
285.826	86.19
286.057	96.19
286.288	78.19
286.52	94.19
286.751	85.19
286.982	89.19
287.213	83.19
287.444	97.19
287.675	78.19
287.906	68.19
288.138	81.19
288.369	80.19
288.6	82.19
288.831	84.19
289.062	78.19
289.293	86.19
289.524	81.19
289.755	78.19
289.986	65.19
290.217	88.19
290.448	82.19
290.679	78.19
290.91	72.19
291.141	82.19
291.371	90.19
291.602	93.19
291.833	88.19
292.064	71.19
292.295	88.19
292.526	96.19
292.757	94.19
292.987	82.19
293.218	87.19
293.449	94.19
293.68	87.19
293.91	84.19
294.141	82.19
294.372	69.19
294.603	80.19
294.833	91.19
295.064	84.19
295.295	88.19
295.525	80.19
295.756	86.19
295.987	100.19
296.217	87.19
296.448	86.19
296.679	80.19
296.909	90.19
297.14	94.19
297.37	94.19
297.601	87.19
297.831	83.19
298.062	81.19
298.292	75.19
298.523	81.19
298.753	95.19
298.984	78.19
299.214	81.19
299.445	79.19
299.675	74.19
299.905	79.19
300.136	83.19
300.366	73.19
300.597	78.19
300.827	76.19
301.057	73.19
301.288	87.19
301.518	84.19
301.748	73.19
301.979	97.19
302.209	76.19
302.439	88.19
302.669	100.19
302.9	81.19
303.13	83.19
303.36	83.19
303.59	74.19
303.82	78.19
304.051	69.19
304.281	97.19
304.511	88.19
304.741	95.19
304.971	81.19
305.201	87.19
305.431	87.19
305.661	86.19
305.891	83.19
306.121	73.19
306.352	75.19
306.582	82.19
306.812	93.19
307.042	83.19
307.272	84.19
307.502	92.19
307.731	79.19
307.961	82.19
308.191	83.19
308.421	88.19
308.651	90.19
308.881	80.19
309.111	72.19
309.341	83.19
309.571	70.19
309.8	79.19
310.03	85.19
310.26	71.19
310.49	80.19
310.72	87.19
310.949	85.19
311.179	80.19
311.409	94.19
311.639	93.19
311.868	93.19
312.098	93.19
312.328	89.19
312.557	93.19
312.787	86.19
313.017	94.19
313.246	99.19
313.476	90.19
313.706	79.19
313.935	75.19
314.165	85.19
314.394	86.19
314.624	86.19
314.853	100.19
315.083	93.19
315.312	83.19
315.542	84.19
315.771	87.19
316.001	88.19
316.23	75.19
316.46	90.19
316.689	83.19
316.919	83.19
317.148	97.19
317.377	84.19
317.607	75.19
317.836	84.19
318.065	72.19
318.295	71.19
318.524	83.19
318.753	98.19
318.983	81.19
319.212	82.19
319.441	83.19
319.67	80.19
319.9	98.19
320.129	86.19
320.358	83.19
320.587	75.19
320.816	85.19
321.046	88.19
321.275	94.19
321.504	82.19
321.733	83.19
321.962	107.19
322.191	86.19
322.42	97.19
322.649	89.19
322.878	85.19
323.108	103.19
323.337	76.19
323.566	87.19
323.795	81.19
324.024	86.19
324.253	83.19
324.482	101.19
324.71	89.19
324.939	83.19
325.168	86.19
325.397	67.19
325.626	102.19
325.855	98.19
326.084	92.19
326.313	90.19
326.542	89.19
326.77	83.19
326.999	91.19
327.228	90.19
327.457	92.19
327.686	75.19
327.914	94.19
328.143	88.19
328.372	76.19
328.6	73.19
328.829	74.19
329.058	77.19
329.287	78.19
329.515	88.19
329.744	87.19
329.972	86.19
330.201	76.19
330.43	89.19
330.658	83.19
330.887	81.19
331.115	82.19
331.344	77.19
331.572	92.19
331.801	73.19
332.03	84.19
332.258	91.19
332.486	71.19
332.715	82.19
332.943	75.19
333.172	82.19
333.4	91.19
333.629	74.19
333.857	75.19
334.085	96.19
334.314	89.19
334.542	90.19
334.771	97.19
334.999	85.19
335.227	73.19
335.455	97.19
335.684	90.19
335.912	86.19
336.14	88.19
336.369	97.19
336.597	80.19
336.825	85.19
337.053	83.19
337.281	91.19
337.51	79.19
337.738	86.19
337.966	80.19
338.194	85.19
338.422	89.19
338.65	96.19
338.878	80.19
339.106	87.19
339.334	79.19
339.562	75.19
339.79	86.19
340.018	86.19
340.246	71.19
340.474	86.19
340.702	96.19
340.93	94.19
341.158	79.19
341.386	64.19
341.614	84.19
341.842	96.19
342.07	90.19
342.298	74.19
342.526	92.19
342.754	93.19
342.981	82.19
343.209	85.19
343.437	88.19
343.665	77.19
343.893	84.19
344.12	100.19
344.348	104.19
344.576	81.19
344.804	84.19
345.031	91.19
345.259	81.19
345.487	92.19
345.714	81.19
345.942	76.19
346.17	84.19
346.397	83.19
346.625	88.19
346.853	75.19
347.08	79.19
347.308	72.19
347.535	78.19
347.763	84.19
347.99	78.19
348.218	78.19
348.445	89.19
348.673	90.19
348.9	79.19
349.128	94.19
349.355	78.19
349.583	90.19
349.81	75.19
350.037	83.19
350.265	75.19
350.492	78.19
350.72	87.19
350.947	82.19
351.174	66.19
351.402	91.19
351.629	87.19
351.856	77.19
352.083	86.19
352.311	83.19
352.538	87.19
352.765	79.19
352.992	82.19
353.22	87.19
353.447	88.19
353.674	85.19
353.901	95.19
354.128	71.19
354.355	74.19
354.583	98.19
354.81	77.19
355.037	80.19
355.264	86.19
355.491	85.19
355.718	87.19
355.945	77.19
356.172	87.19
356.399	81.19
356.626	91.19
356.853	87.19
357.08	89.19
357.307	93.19
357.534	83.19
357.761	83.19
357.988	91.19
358.215	78.19
358.441	80.19
358.668	80.19
358.895	84.19
359.122	83.19
359.349	86.19
359.576	77.19
359.802	79.19
360.029	85.19
360.256	82.19
360.483	92.19
360.709	76.19
360.936	101.19
361.163	88.19
361.39	82.19
361.616	90.19
361.843	83.19
362.07	96.19
362.296	89.19
362.523	86.19
362.749	68.19
362.976	93.19
363.203	96.19
363.429	81.19
363.656	98.19
363.882	79.19
364.109	94.19
364.335	93.19
364.562	83.19
364.788	86.19
365.015	77.19
365.241	89.19
365.468	89.19
365.694	82.19
365.92	98.19
366.147	79.19
366.373	91.19
366.599	77.19
366.826	77.19
367.052	98.19
367.278	87.19
367.505	92.19
367.731	94.19
367.957	87.19
368.184	87.19
368.41	83.19
368.636	92.19
368.862	92.19
369.089	94.19
369.315	92.19
369.541	88.19
369.767	99.19
369.993	77.19
370.219	97.19
370.445	81.19
370.672	105.19
370.898	86.19
371.124	89.19
371.35	76.19
371.576	88.19
371.802	88.19
372.028	87.19
372.254	93.19
372.48	75.19
372.706	99.19
372.932	86.19
373.158	89.19
373.384	66.19
373.61	86.19
373.835	91.19
374.061	86.19
374.287	92.19
374.513	80.19
374.739	111.19
374.965	82.19
375.191	87.19
375.416	70.19
375.642	93.19
375.868	89.19
376.094	91.19
376.319	87.19
376.545	97.19
376.771	79.19
376.997	79.19
377.222	90.19
377.448	100.19
377.674	81.19
377.899	89.19
378.125	87.19
378.35	92.19
378.576	91.19
378.802	96.19
379.027	97.19
379.253	87.19
379.478	101.19
379.704	86.19
379.929	101.19
380.155	84.19
380.38	76.19
380.606	67.19
380.831	87.19
381.057	85.19
381.282	100.19
381.507	90.19
381.733	94.19
381.958	82.19
382.184	96.19
382.409	90.19
382.634	84.19
382.86	95.19
383.085	98.19
383.31	76.19
383.535	108.19
383.761	102.19
383.986	93.19
384.211	95.19
384.436	88.19
384.662	78.19
384.887	79.19
385.112	95.19
385.337	93.19
385.562	92.19
385.787	97.19
386.013	84.19
386.238	92.19
386.463	94.19
386.688	101.19
386.913	93.19
387.138	79.19
387.363	91.19
387.588	86.19
387.813	82.19
388.038	82.19
388.263	96.19
388.488	99.19
388.713	94.19
388.938	93.19
389.163	94.19
389.387	81.19
389.612	99.19
389.837	89.19
390.062	84.19
390.287	96.19
390.512	82.19
390.736	97.19
390.961	91.19
391.186	80.19
391.411	95.19
391.636	90.19
391.86	87.19
392.085	96.19
392.31	87.19
392.534	94.19
392.759	85.19
392.984	105.19
393.208	92.19
393.433	96.19
393.658	98.19
393.882	97.19
394.107	101.19
394.331	98.19
394.556	87.19
394.78	90.19
395.005	102.19
395.229	97.19
395.454	94.19
395.678	92.19
395.903	101.19
396.127	107.19
396.352	93.19
396.576	86.19
396.801	101.19
397.025	89.19
397.249	105.19
397.474	101.19
397.698	113.19
397.922	112.19
398.147	92.19
398.371	88.19
398.595	107.19
398.82	111.19
399.044	96.19
399.268	100.19
399.492	100.19
399.717	91.19
399.941	100.19
400.165	107.19
400.389	106.19
400.613	95.19
400.837	98.19
401.062	102.19
401.286	112.19
401.51	96.19
401.734	106.19
401.958	103.19
402.182	90.19
402.406	92.19
402.63	92.19
402.854	114.19
403.078	105.19
403.302	107.19
403.526	100.19
403.75	98.19
403.974	115.19
404.198	114.19
404.422	111.19
404.645	101.19
404.869	107.19
405.093	103.19
405.317	120.19
405.541	106.19
405.765	91.19
405.988	108.19
406.212	107.19
406.436	114.19
406.66	110.19
406.883	104.19
407.107	102.19
407.331	106.19
407.555	112.19
407.778	111.19
408.002	110.19
408.226	122.19
408.449	114.19
408.673	105.19
408.896	105.19
409.12	102.19
409.344	124.19
409.567	106.19
409.791	88.19
410.014	94.19
410.238	104.19
410.461	92.19
410.685	98.19
410.908	97.19
411.132	117.19
411.355	96.19
411.578	114.19
411.802	111.19
412.025	123.19
412.249	97.19
412.472	110.19
412.695	107.19
412.919	118.19
413.142	106.19
413.365	115.19
413.589	111.19
413.812	116.19
414.035	107.19
414.258	120.19
414.482	105.19
414.705	118.19
414.928	98.19
415.151	116.19
415.374	108.19
415.597	118.19
415.821	107.19
416.044	110.19
416.267	105.19
416.49	97.19
416.713	110.19
416.936	87.19
417.159	99.19
417.382	94.19
417.605	91.19
417.828	119.19
418.051	102.19
418.274	114.19
418.497	109.19
418.72	99.19
418.943	110.19
419.166	128.19
419.389	118.19
419.611	122.19
419.834	123.19
420.057	112.19
420.28	97.19
420.503	105.19
420.726	119.19
420.948	115.19
421.171	111.19
421.394	108.19
421.617	107.19
421.839	122.19
422.062	117.19
422.285	104.19
422.507	110.19
422.73	108.19
422.953	97.19
423.175	108.19
423.398	113.19
423.621	116.19
423.843	111.19
424.066	117.19
424.288	116.19
424.511	112.19
424.733	125.19
424.956	106.19
425.178	107.19
425.401	117.19
425.623	102.19
425.846	110.19
426.068	117.19
426.291	97.19
426.513	112.19
426.735	102.19
426.958	114.19
427.18	117.19
427.402	115.19
427.625	118.19
427.847	100.19
428.069	91.19
428.292	116.19
428.514	113.19
428.736	116.19
428.958	104.19
429.181	117.19
429.403	88.19
429.625	89.19
429.847	108.19
430.069	115.19
430.292	97.19
430.514	120.19
430.736	110.19
430.958	115.19
431.18	99.19
431.402	98.19
431.624	116.19
431.846	92.19
432.068	103.19
432.29	96.19
432.512	105.19
432.734	114.19
432.956	114.19
433.178	111.19
433.4	108.19
433.622	107.19
433.844	106.19
434.066	115.19
434.287	94.19
434.509	102.19
434.731	102.19
434.953	114.19
435.175	110.19
435.397	117.19
435.618	94.19
435.84	92.19
436.062	100.19
436.284	110.19
436.505	103.19
436.727	110.19
436.949	112.19
437.17	107.19
437.392	95.19
437.614	104.19
437.835	112.19
438.057	110.19
438.278	104.19
438.5	103.19
438.721	100.19
438.943	94.19
439.165	123.19
439.386	107.19
439.608	101.19
439.829	123.19
440.05	114.19
440.272	127.19
440.493	120.19
440.715	115.19
440.936	98.19
441.158	121.19
441.379	108.19
441.6	121.19
441.822	115.19
442.043	114.19
442.264	114.19
442.486	121.19
442.707	121.19
442.928	118.19
443.149	111.19
443.371	107.19
443.592	102.19
443.813	113.19
444.034	118.19
444.255	99.19
444.476	108.19
444.698	119.19
444.919	128.19
445.14	216.19
445.361	142.19
445.582	121.19
445.803	128.19
446.024	108.19
446.245	108.19
446.466	119.19
446.687	110.19
446.908	121.19
447.129	114.19
447.35	123.19
447.571	110.19
447.792	118.19
448.013	115.19
448.234	131.19
448.455	117.19
448.675	103.19
448.896	110.19
449.117	113.19
449.338	111.19
449.559	99.19
449.779	112.19
450	110.19
450.221	90.19
450.442	102.19
450.662	114.19
450.883	100.19
451.104	119.19
451.324	100.19
451.545	98.19
451.766	108.19
451.986	107.19
452.207	115.19
452.428	103.19
452.648	117.19
452.869	107.19
453.089	105.19
453.31	100.19
453.53	90.19
453.751	103.19
453.971	97.19
454.192	102.19
454.412	107.19
454.633	93.19
454.853	117.19
455.073	112.19
455.294	92.19
455.514	113.19
455.734	103.19
455.955	89.19
456.175	96.19
456.395	108.19
456.616	106.19
456.836	111.19
457.056	107.19
457.276	90.19
457.497	100.19
457.717	87.19
457.937	103.19
458.157	82.19
458.377	97.19
458.598	103.19
458.818	84.19
459.038	96.19
459.258	102.19
459.478	116.19
459.698	112.19
459.918	123.19
460.138	116.19
460.358	106.19
460.578	111.19
460.798	99.19
461.018	116.19
461.238	115.19
461.458	114.19
461.678	104.19
461.898	120.19
462.118	112.19
462.338	122.19
462.558	124.19
462.777	123.19
462.997	114.19
463.217	121.19
463.437	117.19
463.657	113.19
463.876	129.19
464.096	118.19
464.316	121.19
464.536	120.19
464.755	133.19
464.975	113.19
465.195	111.19
465.414	107.19
465.634	107.19
465.854	120.19
466.073	110.19
466.293	105.19
466.512	111.19
466.732	118.19
466.951	128.19
467.171	122.19
467.391	120.19
467.61	120.19
467.829	114.19
468.049	105.19
468.268	116.19
468.488	116.19
468.707	104.19
468.927	106.19
469.146	123.19
469.365	111.19
469.585	121.19
469.804	118.19
470.023	111.19
470.243	122.19
470.462	102.19
470.681	117.19
470.901	122.19
471.12	105.19
471.339	120.19
471.558	116.19
471.777	131.19
471.997	120.19
472.216	113.19
472.435	116.19
472.654	102.19
472.873	95.19
473.092	104.19
473.311	109.19
473.53	103.19
473.749	101.19
473.968	111.19
474.187	108.19
474.406	104.19
474.625	106.19
474.844	98.19
475.063	126.19
475.282	96.19
475.501	119.19
475.72	124.19
475.939	105.19
476.158	98.19
476.377	121.19
476.596	118.19
476.814	111.19
477.033	116.19
477.252	108.19
477.471	114.19
477.69	124.19
477.908	100.19
478.127	128.19
478.346	127.19
478.564	121.19
478.783	105.19
479.002	128.19
479.22	116.19
479.439	107.19
479.658	126.19
479.876	104.19
480.095	124.19
480.313	125.19
480.532	132.19
480.751	125.19
480.969	125.19
481.188	120.19
481.406	114.19
481.624	97.19
481.843	105.19
482.061	108.19
482.28	109.19
482.498	115.19
482.717	108.19
482.935	123.19
483.153	123.19
483.372	128.19
483.59	134.19
483.808	122.19
484.027	129.19
484.245	122.19
484.463	126.19
484.681	129.19
484.9	124.19
485.118	118.19
485.336	115.19
485.554	102.19
485.772	114.19
485.99	110.19
486.209	119.19
486.427	118.19
486.645	129.19
486.863	126.19
487.081	123.19
487.299	140.19
487.517	138.19
487.735	148.19
487.953	150.19
488.171	126.19
488.389	130.19
488.607	145.19
488.825	104.19
489.043	135.19
489.261	128.19
489.479	131.19
489.696	111.19
489.914	122.19
490.132	132.19
490.35	143.19
490.568	131.19
490.786	129.19
491.003	131.19
491.221	138.19
491.439	138.19
491.657	136.19
491.874	146.19
492.092	153.19
492.31	155.19
492.527	158.19
492.745	161.19
492.963	153.19
493.18	144.19
493.398	135.19
493.615	141.19
493.833	150.19
494.05	129.19
494.268	142.19
494.485	144.19
494.703	152.19
494.92	143.19
495.138	171.19
495.355	140.19
495.573	154.19
495.79	125.19
496.008	146.19
496.225	144.19
496.442	127.19
496.66	144.19
496.877	132.19
497.094	137.19
497.312	148.19
497.529	148.19
497.746	145.19
497.963	137.19
498.181	131.19
498.398	131.19
498.615	123.19
498.832	146.19
499.049	150.19
499.267	151.19
499.484	171.19
499.701	169.19
499.918	164.19
500.135	195.19
500.352	206.19
500.569	226.19
500.786	195.19
501.003	202.19
501.22	168.19
501.437	169.19
501.654	176.19
501.871	169.19
502.088	148.19
502.305	142.19
502.522	143.19
502.739	146.19
502.956	134.19
503.172	122.19
503.389	129.19
503.606	123.19
503.823	134.19
504.04	134.19
504.256	130.19
504.473	126.19
504.69	127.19
504.907	146.19
505.123	138.19
505.34	121.19
505.557	138.19
505.773	127.19
505.99	123.19
506.207	118.19
506.423	126.19
506.64	109.19
506.856	115.19
507.073	121.19
507.289	105.19
507.506	106.19
507.722	109.19
507.939	120.19
508.155	122.19
508.372	128.19
508.588	106.19
508.805	125.19
509.021	110.19
509.238	112.19
509.454	116.19
509.67	94.19
509.887	130.19
510.103	110.19
510.319	100.19
510.536	110.19
510.752	119.19
510.968	111.19
511.184	102.19
511.401	115.19
511.617	102.19
511.833	113.19
512.049	111.19
512.265	99.19
