Data from StandardFe(NO3)3.TAE.3%Agarose.FlatLispGreen.Lamp.Energy10.07252019_HRD10591_11-54-07-440.txt Node
Date: Thu Jul 25 11:54:07 EDT 2019
User: cochatt
Spectrometer: HR+D1059
Trigger mode: 1
Integration Time (sec): 1.000000E-1
Scans to average: 1
Electric dark correction enabled: true
Nonlinearity correction enabled: false
Boxcar width: 0
XAxis mode: Wavelengths
Number of Pixels in Spectrum: 2048
>>>>>Begin Spectral Data<<<<<
223.165	-3.5
223.4	-3.5
223.635	-3.5
223.869	-22.5
224.104	-33.5
224.338	-8.5
224.573	-15.5
224.808	-6.5
225.042	-8.5
225.277	4.5
225.511	-11.5
225.746	6.5
225.98	16.5
226.215	16.5
226.449	14.5
226.683	19.5
226.918	20.5
227.152	11.5
227.387	41.5
227.621	39.5
227.856	59.5
228.09	50.5
228.324	48.5
228.559	60.5
228.793	57.5
229.027	67.5
229.262	81.5
229.496	57.5
229.73	66.5
229.964	69.5
230.199	81.5
230.433	80.5
230.667	79.5
230.901	81.5
231.136	74.5
231.37	83.5
231.604	77.5
231.838	75.5
232.072	84.5
232.306	91.5
232.541	88.5
232.775	102.5
233.009	93.5
233.243	83.5
233.477	87.5
233.711	85.5
233.945	78.5
234.179	84.5
234.413	89.5
234.647	77.5
234.881	105.5
235.115	86.5
235.349	92.5
235.583	94.5
235.817	78.5
236.051	78.5
236.285	86.5
236.519	88.5
236.753	75.5
236.987	78.5
237.221	77.5
237.455	81.5
237.689	78.5
237.922	80.5
238.156	78.5
238.39	78.5
238.624	73.5
238.858	84.5
239.091	86.5
239.325	83.5
239.559	79.5
239.793	76.5
240.027	75.5
240.26	75.5
240.494	81.5
240.728	76.5
240.961	92.5
241.195	80.5
241.429	77.5
241.662	73.5
241.896	76.5
242.13	76.5
242.363	62.5
242.597	78.5
242.83	89.5
243.064	90.5
243.298	80.5
243.531	82.5
243.765	66.5
243.998	79.5
244.232	84.5
244.465	82.5
244.699	85.5
244.932	94.5
245.166	80.5
245.399	81.5
245.633	80.5
245.866	92.5
246.099	89.5
246.333	75.5
246.566	83.5
246.8	71.5
247.033	86.5
247.266	94.5
247.5	75.5
247.733	74.5
247.966	79.5
248.2	76.5
248.433	80.5
248.666	67.5
248.899	65.5
249.133	92.5
249.366	88.5
249.599	83.5
249.832	76.5
250.066	88.5
250.299	72.5
250.532	94.5
250.765	85.5
250.998	82.5
251.231	80.5
251.465	79.5
251.698	85.5
251.931	74.5
252.164	77.5
252.397	80.5
252.63	86.5
252.863	67.5
253.096	82.5
253.329	80.5
253.562	77.5
253.795	82.5
254.028	68.5
254.261	89.5
254.494	92.5
254.727	97.5
254.96	83.5
255.193	77.5
255.426	88.5
255.659	86.5
255.892	86.5
256.124	91.5
256.357	87.5
256.59	70.5
256.823	90.5
257.056	87.5
257.289	91.5
257.521	84.5
257.754	93.5
257.987	78.5
258.22	84.5
258.452	79.5
258.685	81.5
258.918	90.5
259.151	89.5
259.383	101.5
259.616	87.5
259.849	77.5
260.081	84.5
260.314	74.5
260.547	69.5
260.779	82.5
261.012	88.5
261.244	79.5
261.477	88.5
261.71	92.5
261.942	91.5
262.175	87.5
262.407	76.5
262.64	79.5
262.872	76.5
263.105	84.5
263.337	96.5
263.57	94.5
263.802	92.5
264.035	85.5
264.267	83.5
264.499	87.5
264.732	88.5
264.964	86.5
265.197	73.5
265.429	85.5
265.661	75.5
265.894	88.5
266.126	83.5
266.358	74.5
266.591	91.5
266.823	75.5
267.055	84.5
267.287	101.5
267.52	78.5
267.752	76.5
267.984	77.5
268.216	76.5
268.448	72.5
268.681	80.5
268.913	93.5
269.145	101.5
269.377	100.5
269.609	90.5
269.841	90.5
270.073	91.5
270.306	88.5
270.538	95.5
270.77	76.5
271.002	87.5
271.234	82.5
271.466	98.5
271.698	92.5
271.93	105.5
272.162	96.5
272.394	84.5
272.626	79.5
272.858	88.5
273.09	82.5
273.322	77.5
273.553	91.5
273.785	82.5
274.017	96.5
274.249	90.5
274.481	93.5
274.713	93.5
274.945	79.5
275.176	78.5
275.408	96.5
275.64	102.5
275.872	92.5
276.104	75.5
276.335	87.5
276.567	83.5
276.799	91.5
277.031	94.5
277.262	71.5
277.494	86.5
277.726	86.5
277.957	77.5
278.189	87.5
278.421	62.5
278.652	86.5
278.884	87.5
279.115	77.5
279.347	94.5
279.579	80.5
279.81	93.5
280.042	89.5
280.273	89.5
280.505	75.5
280.736	86.5
280.968	92.5
281.199	79.5
281.431	88.5
281.662	95.5
281.894	85.5
282.125	84.5
282.356	85.5
282.588	85.5
282.819	78.5
283.051	87.5
283.282	90.5
283.513	104.5
283.745	93.5
283.976	87.5
284.207	92.5
284.439	87.5
284.67	90.5
284.901	94.5
285.132	84.5
285.364	90.5
285.595	84.5
285.826	80.5
286.057	86.5
286.288	75.5
286.52	97.5
286.751	91.5
286.982	102.5
287.213	73.5
287.444	83.5
287.675	90.5
287.906	89.5
288.138	79.5
288.369	80.5
288.6	95.5
288.831	92.5
289.062	90.5
289.293	86.5
289.524	72.5
289.755	82.5
289.986	90.5
290.217	84.5
290.448	100.5
290.679	95.5
290.91	88.5
291.141	95.5
291.371	88.5
291.602	96.5
291.833	86.5
292.064	90.5
292.295	85.5
292.526	75.5
292.757	80.5
292.987	88.5
293.218	80.5
293.449	81.5
293.68	105.5
293.91	84.5
294.141	87.5
294.372	86.5
294.603	80.5
294.833	95.5
295.064	82.5
295.295	83.5
295.525	75.5
295.756	97.5
295.987	100.5
296.217	104.5
296.448	98.5
296.679	96.5
296.909	75.5
297.14	90.5
297.37	88.5
297.601	77.5
297.831	87.5
298.062	85.5
298.292	79.5
298.523	84.5
298.753	87.5
298.984	93.5
299.214	88.5
299.445	88.5
299.675	94.5
299.905	75.5
300.136	80.5
300.366	82.5
300.597	84.5
300.827	89.5
301.057	88.5
301.288	101.5
301.518	98.5
301.748	88.5
301.979	96.5
302.209	99.5
302.439	97.5
302.669	78.5
302.9	90.5
303.13	90.5
303.36	99.5
303.59	94.5
303.82	95.5
304.051	75.5
304.281	92.5
304.511	86.5
304.741	89.5
304.971	89.5
305.201	94.5
305.431	80.5
305.661	85.5
305.891	92.5
306.121	92.5
306.352	87.5
306.582	82.5
306.812	76.5
307.042	78.5
307.272	82.5
307.502	93.5
307.731	101.5
307.961	83.5
308.191	64.5
308.421	93.5
308.651	87.5
308.881	95.5
309.111	81.5
309.341	88.5
309.571	79.5
309.8	87.5
310.03	98.5
310.26	94.5
310.49	89.5
310.72	91.5
310.949	74.5
311.179	81.5
311.409	90.5
311.639	99.5
311.868	91.5
312.098	92.5
312.328	92.5
312.557	83.5
312.787	86.5
313.017	88.5
313.246	85.5
313.476	92.5
313.706	81.5
313.935	84.5
314.165	74.5
314.394	78.5
314.624	91.5
314.853	86.5
315.083	95.5
315.312	77.5
315.542	82.5
315.771	86.5
316.001	76.5
316.23	91.5
316.46	86.5
316.689	79.5
316.919	85.5
317.148	92.5
317.377	92.5
317.607	70.5
317.836	78.5
318.065	79.5
318.295	83.5
318.524	94.5
318.753	99.5
318.983	86.5
319.212	95.5
319.441	74.5
319.67	95.5
319.9	95.5
320.129	91.5
320.358	90.5
320.587	85.5
320.816	80.5
321.046	90.5
321.275	79.5
321.504	91.5
321.733	82.5
321.962	93.5
322.191	75.5
322.42	73.5
322.649	77.5
322.878	91.5
323.108	89.5
323.337	80.5
323.566	88.5
323.795	74.5
324.024	82.5
324.253	87.5
324.482	95.5
324.71	93.5
324.939	83.5
325.168	88.5
325.397	91.5
325.626	79.5
325.855	72.5
326.084	90.5
326.313	83.5
326.542	81.5
326.77	96.5
326.999	95.5
327.228	84.5
327.457	88.5
327.686	92.5
327.914	86.5
328.143	80.5
328.372	92.5
328.6	84.5
328.829	75.5
329.058	84.5
329.287	88.5
329.515	84.5
329.744	90.5
329.972	80.5
330.201	100.5
330.43	96.5
330.658	88.5
330.887	80.5
331.115	88.5
331.344	78.5
331.572	88.5
331.801	99.5
332.03	91.5
332.258	96.5
332.486	87.5
332.715	85.5
332.943	86.5
333.172	91.5
333.4	94.5
333.629	96.5
333.857	91.5
334.085	79.5
334.314	87.5
334.542	84.5
334.771	77.5
334.999	84.5
335.227	93.5
335.455	85.5
335.684	94.5
335.912	85.5
336.14	78.5
336.369	109.5
336.597	78.5
336.825	78.5
337.053	70.5
337.281	78.5
337.51	83.5
337.738	89.5
337.966	80.5
338.194	84.5
338.422	91.5
338.65	95.5
338.878	85.5
339.106	80.5
339.334	104.5
339.562	96.5
339.79	80.5
340.018	78.5
340.246	81.5
340.474	90.5
340.702	93.5
340.93	106.5
341.158	80.5
341.386	93.5
341.614	72.5
341.842	79.5
342.07	80.5
342.298	100.5
342.526	101.5
342.754	79.5
342.981	83.5
343.209	78.5
343.437	88.5
343.665	83.5
343.893	79.5
344.12	85.5
344.348	96.5
344.576	98.5
344.804	69.5
345.031	84.5
345.259	75.5
345.487	78.5
345.714	89.5
345.942	86.5
346.17	83.5
346.397	88.5
346.625	88.5
346.853	85.5
347.08	83.5
347.308	90.5
347.535	79.5
347.763	90.5
347.99	74.5
348.218	95.5
348.445	82.5
348.673	90.5
348.9	76.5
349.128	96.5
349.355	96.5
349.583	89.5
349.81	92.5
350.037	109.5
350.265	91.5
350.492	92.5
350.72	101.5
350.947	86.5
351.174	97.5
351.402	68.5
351.629	84.5
351.856	97.5
352.083	88.5
352.311	88.5
352.538	88.5
352.765	85.5
352.992	95.5
353.22	86.5
353.447	89.5
353.674	77.5
353.901	89.5
354.128	102.5
354.355	85.5
354.583	78.5
354.81	96.5
355.037	89.5
355.264	89.5
355.491	104.5
355.718	98.5
355.945	86.5
356.172	98.5
356.399	104.5
356.626	84.5
356.853	103.5
357.08	93.5
357.307	94.5
357.534	89.5
357.761	88.5
357.988	91.5
358.215	89.5
358.441	96.5
358.668	80.5
358.895	96.5
359.122	97.5
359.349	93.5
359.576	87.5
359.802	80.5
360.029	88.5
360.256	79.5
360.483	96.5
360.709	77.5
360.936	84.5
361.163	82.5
361.39	95.5
361.616	94.5
361.843	77.5
362.07	78.5
362.296	95.5
362.523	88.5
362.749	90.5
362.976	88.5
363.203	78.5
363.429	87.5
363.656	87.5
363.882	80.5
364.109	88.5
364.335	102.5
364.562	89.5
364.788	86.5
365.015	85.5
365.241	93.5
365.468	84.5
365.694	85.5
365.92	85.5
366.147	80.5
366.373	80.5
366.599	94.5
366.826	87.5
367.052	95.5
367.278	89.5
367.505	76.5
367.731	97.5
367.957	95.5
368.184	86.5
368.41	97.5
368.636	91.5
368.862	85.5
369.089	97.5
369.315	76.5
369.541	90.5
369.767	88.5
369.993	97.5
370.219	89.5
370.445	85.5
370.672	85.5
370.898	87.5
371.124	88.5
371.35	89.5
371.576	90.5
371.802	109.5
372.028	96.5
372.254	99.5
372.48	93.5
372.706	89.5
372.932	87.5
373.158	88.5
373.384	100.5
373.61	85.5
373.835	83.5
374.061	100.5
374.287	102.5
374.513	92.5
374.739	91.5
374.965	80.5
375.191	96.5
375.416	96.5
375.642	97.5
375.868	98.5
376.094	92.5
376.319	85.5
376.545	85.5
376.771	80.5
376.997	92.5
377.222	81.5
377.448	90.5
377.674	78.5
377.899	94.5
378.125	79.5
378.35	90.5
378.576	96.5
378.802	85.5
379.027	92.5
379.253	94.5
379.478	92.5
379.704	91.5
379.929	95.5
380.155	94.5
380.38	96.5
380.606	84.5
380.831	82.5
381.057	95.5
381.282	84.5
381.507	88.5
381.733	90.5
381.958	109.5
382.184	101.5
382.409	87.5
382.634	91.5
382.86	87.5
383.085	91.5
383.31	96.5
383.535	97.5
383.761	95.5
383.986	96.5
384.211	96.5
384.436	94.5
384.662	98.5
384.887	83.5
385.112	80.5
385.337	86.5
385.562	100.5
385.787	96.5
386.013	99.5
386.238	92.5
386.463	105.5
386.688	114.5
386.913	98.5
387.138	102.5
387.363	107.5
387.588	108.5
387.813	109.5
388.038	103.5
388.263	105.5
388.488	105.5
388.713	102.5
388.938	88.5
389.163	92.5
389.387	101.5
389.612	86.5
389.837	96.5
390.062	111.5
390.287	108.5
390.512	98.5
390.736	90.5
390.961	103.5
391.186	89.5
391.411	110.5
391.636	100.5
391.86	87.5
392.085	104.5
392.31	100.5
392.534	101.5
392.759	105.5
392.984	105.5
393.208	104.5
393.433	99.5
393.658	109.5
393.882	106.5
394.107	102.5
394.331	100.5
394.556	87.5
394.78	101.5
395.005	93.5
395.229	109.5
395.454	112.5
395.678	95.5
395.903	104.5
396.127	103.5
396.352	101.5
396.576	96.5
396.801	87.5
397.025	98.5
397.249	112.5
397.474	104.5
397.698	104.5
397.922	107.5
398.147	105.5
398.371	119.5
398.595	101.5
398.82	109.5
399.044	115.5
399.268	110.5
399.492	126.5
399.717	126.5
399.941	123.5
400.165	125.5
400.389	99.5
400.613	111.5
400.837	119.5
401.062	120.5
401.286	108.5
401.51	115.5
401.734	103.5
401.958	101.5
402.182	131.5
402.406	120.5
402.63	110.5
402.854	108.5
403.078	107.5
403.302	114.5
403.526	104.5
403.75	114.5
403.974	111.5
404.198	118.5
404.422	114.5
404.645	104.5
404.869	108.5
405.093	105.5
405.317	129.5
405.541	108.5
405.765	111.5
405.988	118.5
406.212	109.5
406.436	117.5
406.66	105.5
406.883	132.5
407.107	122.5
407.331	126.5
407.555	123.5
407.778	121.5
408.002	126.5
408.226	106.5
408.449	117.5
408.673	132.5
408.896	100.5
409.12	107.5
409.344	107.5
409.567	108.5
409.791	114.5
410.014	130.5
410.238	106.5
410.461	117.5
410.685	122.5
410.908	101.5
411.132	108.5
411.355	131.5
411.578	101.5
411.802	105.5
412.025	100.5
412.249	124.5
412.472	105.5
412.695	108.5
412.919	117.5
413.142	108.5
413.365	124.5
413.589	122.5
413.812	120.5
414.035	126.5
414.258	98.5
414.482	104.5
414.705	119.5
414.928	105.5
415.151	130.5
415.374	107.5
415.597	105.5
415.821	94.5
416.044	112.5
416.267	107.5
416.49	114.5
416.713	100.5
416.936	125.5
417.159	97.5
417.382	99.5
417.605	108.5
417.828	116.5
418.051	115.5
418.274	125.5
418.497	126.5
418.72	121.5
418.943	122.5
419.166	115.5
419.389	114.5
419.611	124.5
419.834	98.5
420.057	119.5
420.28	113.5
420.503	120.5
420.726	122.5
420.948	120.5
421.171	120.5
421.394	111.5
421.617	104.5
421.839	116.5
422.062	125.5
422.285	112.5
422.507	105.5
422.73	123.5
422.953	110.5
423.175	114.5
423.398	110.5
423.621	122.5
423.843	124.5
424.066	105.5
424.288	111.5
424.511	123.5
424.733	118.5
424.956	114.5
425.178	111.5
425.401	124.5
425.623	119.5
425.846	123.5
426.068	118.5
426.291	115.5
426.513	121.5
426.735	99.5
426.958	119.5
427.18	121.5
427.402	116.5
427.625	121.5
427.847	102.5
428.069	110.5
428.292	124.5
428.514	115.5
428.736	120.5
428.958	110.5
429.181	119.5
429.403	120.5
429.625	115.5
429.847	109.5
430.069	110.5
430.292	122.5
430.514	108.5
430.736	121.5
430.958	106.5
431.18	111.5
431.402	110.5
431.624	108.5
431.846	127.5
432.068	108.5
432.29	113.5
432.512	117.5
432.734	114.5
432.956	114.5
433.178	115.5
433.4	122.5
433.622	126.5
433.844	108.5
434.066	116.5
434.287	109.5
434.509	105.5
434.731	104.5
434.953	91.5
435.175	111.5
435.397	131.5
435.618	116.5
435.84	108.5
436.062	106.5
436.284	114.5
436.505	117.5
436.727	127.5
436.949	120.5
437.17	125.5
437.392	119.5
437.614	125.5
437.835	124.5
438.057	106.5
438.278	114.5
438.5	116.5
438.721	116.5
438.943	121.5
439.165	115.5
439.386	123.5
439.608	122.5
439.829	118.5
440.05	138.5
440.272	124.5
440.493	138.5
440.715	117.5
440.936	125.5
441.158	122.5
441.379	116.5
441.6	135.5
441.822	120.5
442.043	115.5
442.264	125.5
442.486	123.5
442.707	128.5
442.928	118.5
443.149	120.5
443.371	121.5
443.592	119.5
443.813	130.5
444.034	134.5
444.255	129.5
444.476	138.5
444.698	116.5
444.919	124.5
445.14	252.5
445.361	183.5
445.582	123.5
445.803	124.5
446.024	128.5
446.245	124.5
446.466	137.5
446.687	120.5
446.908	122.5
447.129	112.5
447.35	123.5
447.571	131.5
447.792	122.5
448.013	119.5
448.234	116.5
448.455	115.5
448.675	111.5
448.896	116.5
449.117	117.5
449.338	109.5
449.559	117.5
449.779	125.5
450	114.5
450.221	110.5
450.442	119.5
450.662	111.5
450.883	125.5
451.104	121.5
451.324	128.5
451.545	120.5
451.766	108.5
451.986	115.5
452.207	135.5
452.428	119.5
452.648	126.5
452.869	126.5
453.089	118.5
453.31	119.5
453.53	105.5
453.751	114.5
453.971	106.5
454.192	102.5
454.412	104.5
454.633	120.5
454.853	108.5
455.073	123.5
455.294	105.5
455.514	114.5
455.734	114.5
455.955	105.5
456.175	113.5
456.395	111.5
456.616	101.5
456.836	102.5
457.056	108.5
457.276	110.5
457.497	105.5
457.717	109.5
457.937	104.5
458.157	102.5
458.377	100.5
458.598	104.5
458.818	116.5
459.038	92.5
459.258	104.5
459.478	108.5
459.698	125.5
459.918	122.5
460.138	122.5
460.358	126.5
460.578	125.5
460.798	120.5
461.018	124.5
461.238	123.5
461.458	123.5
461.678	136.5
461.898	127.5
462.118	112.5
462.338	121.5
462.558	118.5
462.777	129.5
462.997	135.5
463.217	133.5
463.437	132.5
463.657	139.5
463.876	116.5
464.096	121.5
464.316	120.5
464.536	126.5
464.755	125.5
464.975	119.5
465.195	110.5
465.414	106.5
465.634	118.5
465.854	119.5
466.073	131.5
466.293	118.5
466.512	114.5
466.732	125.5
466.951	131.5
467.171	112.5
467.391	141.5
467.61	124.5
467.829	134.5
468.049	114.5
468.268	117.5
468.488	127.5
468.707	130.5
468.927	114.5
469.146	107.5
469.365	134.5
469.585	114.5
469.804	107.5
470.023	128.5
470.243	121.5
470.462	124.5
470.681	141.5
470.901	124.5
471.12	122.5
471.339	117.5
471.558	134.5
471.777	129.5
471.997	126.5
472.216	114.5
472.435	125.5
472.654	111.5
472.873	127.5
473.092	126.5
473.311	107.5
473.53	119.5
473.749	124.5
473.968	132.5
474.187	119.5
474.406	124.5
474.625	121.5
474.844	110.5
475.063	110.5
475.282	122.5
475.501	110.5
475.72	134.5
475.939	134.5
476.158	128.5
476.377	127.5
476.596	116.5
476.814	126.5
477.033	118.5
477.252	120.5
477.471	125.5
477.69	114.5
477.908	130.5
478.127	147.5
478.346	122.5
478.564	117.5
478.783	128.5
479.002	123.5
479.22	121.5
479.439	126.5
479.658	124.5
479.876	120.5
480.095	127.5
480.313	130.5
480.532	118.5
480.751	135.5
480.969	126.5
481.188	116.5
481.406	127.5
481.624	121.5
481.843	122.5
482.061	128.5
482.28	100.5
482.498	122.5
482.717	106.5
482.935	107.5
483.153	124.5
483.372	136.5
483.59	138.5
483.808	138.5
484.027	128.5
484.245	130.5
484.463	132.5
484.681	147.5
484.9	114.5
485.118	124.5
485.336	133.5
485.554	138.5
485.772	134.5
485.99	118.5
486.209	127.5
486.427	122.5
486.645	128.5
486.863	130.5
487.081	150.5
487.299	115.5
487.517	142.5
487.735	147.5
487.953	165.5
488.171	151.5
488.389	135.5
488.607	149.5
488.825	136.5
489.043	130.5
489.261	127.5
489.479	136.5
489.696	138.5
489.914	121.5
490.132	125.5
490.35	135.5
490.568	144.5
490.786	158.5
491.003	153.5
491.221	166.5
491.439	150.5
491.657	159.5
491.874	174.5
492.092	161.5
492.31	164.5
492.527	178.5
492.745	154.5
492.963	167.5
493.18	164.5
493.398	148.5
493.615	156.5
493.833	154.5
494.05	146.5
494.268	160.5
494.485	158.5
494.703	144.5
494.92	141.5
495.138	154.5
495.355	150.5
495.573	155.5
495.79	153.5
496.008	158.5
496.225	158.5
496.442	166.5
496.66	146.5
496.877	149.5
497.094	151.5
497.312	145.5
497.529	140.5
497.746	148.5
497.963	151.5
498.181	142.5
498.398	142.5
498.615	139.5
498.832	154.5
499.049	160.5
499.267	143.5
499.484	170.5
499.701	173.5
499.918	185.5
500.135	208.5
500.352	218.5
500.569	229.5
500.786	233.5
501.003	224.5
501.22	194.5
501.437	194.5
501.654	172.5
501.871	173.5
502.088	159.5
502.305	162.5
502.522	162.5
502.739	144.5
502.956	143.5
503.172	146.5
503.389	132.5
503.606	137.5
503.823	146.5
504.04	144.5
504.256	145.5
504.473	144.5
504.69	146.5
504.907	145.5
505.123	137.5
505.34	134.5
505.557	125.5
505.773	131.5
505.99	121.5
506.207	121.5
506.423	132.5
506.64	130.5
506.856	118.5
507.073	130.5
507.289	123.5
507.506	130.5
507.722	134.5
507.939	138.5
508.155	127.5
508.372	121.5
508.588	122.5
508.805	125.5
509.021	128.5
509.238	128.5
509.454	120.5
509.67	102.5
509.887	105.5
510.103	118.5
510.319	126.5
510.536	122.5
510.752	111.5
510.968	120.5
511.184	126.5
511.401	115.5
511.617	124.5
511.833	130.5
512.049	115.5
512.265	121.5
512.481	123.5
512.698	120.5
512.914	125.5
513.13	108.5
513.346	105.5
513.562	119.5
513.778	116.5
513.994	107.5
514.21	132.5
514.426	111.5
514.642	118.5
514.858	118.5
515.074	127.5
515.29	128.5
515.506	113.5
515.721	112.5
515.937	101.5
516.153	122.5
516.369	133.5
516.585	126.5
516.801	116.5
517.016	133.5
517.232	120.5
517.448	133.5
517.664	148.5
517.879	138.5
518.095	130.5
518.311	118.5
518.527	133.5
518.742	125.5
518.958	145.5
519.173	125.5
519.389	127.5
519.605	127.5
519.82	126.5
520.036	116.5
520.251	119.5
520.467	122.5
520.682	126.5
520.898	129.5
521.113	114.5
521.329	115.5
521.544	118.5
521.76	122.5
521.975	111.5
522.19	132.5
522.406	109.5
522.621	108.5
522.836	114.5
523.052	125.5
523.267	122.5
523.482	116.5
523.698	126.5
523.913	129.5
524.128	127.5
524.343	117.5
524.559	130.5
524.774	134.5
524.989	141.5
525.204	137.5
525.419	111.5
525.634	143.5
525.849	116.5
526.064	128.5
526.28	132.5
526.495	123.5
526.71	109.5
526.925	120.5
527.14	109.5
527.355	120.5
527.57	113.5
527.785	117.5
527.999	121.5
528.214	123.5
528.429	129.5
528.644	107.5
528.859	124.5
529.074	131.5
529.289	132.5
529.503	150.5
