Data from StandardFe(NO3)3.TAE.3%Agarose.FlatLispGreen.Lamp.Energy10.07252019_HRD10591_11-55-35-441.txt Node
Date: Thu Jul 25 11:55:35 EDT 2019
User: cochatt
Spectrometer: HR+D1059
Trigger mode: 1
Integration Time (sec): 1.000000E-1
Scans to average: 1
Electric dark correction enabled: true
Nonlinearity correction enabled: false
Boxcar width: 0
XAxis mode: Wavelengths
Number of Pixels in Spectrum: 2048
>>>>>Begin Spectral Data<<<<<
223.165	-16.38
223.4	-16.38
223.635	-16.38
223.869	-14.38
224.104	-8.38
224.338	-18.38
224.573	-15.38
224.808	-0.38
225.042	-5.38
225.277	-7.38
225.511	-10.38
225.746	-9.38
225.98	3.62
226.215	1.62
226.449	18.62
226.683	25.62
226.918	16.62
227.152	39.62
227.387	41.62
227.621	30.62
227.856	33.62
228.09	46.62
228.324	52.62
228.559	58.62
228.793	55.62
229.027	59.62
229.262	63.62
229.496	62.62
229.73	59.62
229.964	73.62
230.199	71.62
230.433	70.62
230.667	62.62
230.901	69.62
231.136	73.62
231.37	65.62
231.604	96.62
231.838	86.62
232.072	85.62
232.306	94.62
232.541	86.62
232.775	73.62
233.009	83.62
233.243	86.62
233.477	69.62
233.711	81.62
233.945	87.62
234.179	80.62
234.413	98.62
234.647	68.62
234.881	79.62
235.115	73.62
235.349	82.62
235.583	78.62
235.817	72.62
236.051	78.62
236.285	66.62
236.519	71.62
236.753	75.62
236.987	79.62
237.221	62.62
237.455	57.62
237.689	66.62
237.922	68.62
238.156	76.62
238.39	85.62
238.624	67.62
238.858	57.62
239.091	71.62
239.325	56.62
239.559	66.62
239.793	73.62
240.027	72.62
240.26	67.62
240.494	67.62
240.728	71.62
240.961	60.62
241.195	83.62
241.429	75.62
241.662	64.62
241.896	69.62
242.13	78.62
242.363	72.62
242.597	75.62
242.83	66.62
243.064	65.62
243.298	75.62
243.531	81.62
243.765	79.62
243.998	93.62
244.232	81.62
244.465	76.62
244.699	81.62
244.932	72.62
245.166	62.62
245.399	77.62
245.633	96.62
245.866	77.62
246.099	67.62
246.333	79.62
246.566	84.62
246.8	72.62
247.033	58.62
247.266	81.62
247.5	78.62
247.733	72.62
247.966	86.62
248.2	79.62
248.433	76.62
248.666	78.62
248.899	71.62
249.133	80.62
249.366	77.62
249.599	82.62
249.832	97.62
250.066	90.62
250.299	69.62
250.532	72.62
250.765	84.62
250.998	74.62
251.231	82.62
251.465	74.62
251.698	72.62
251.931	66.62
252.164	81.62
252.397	66.62
252.63	66.62
252.863	69.62
253.096	70.62
253.329	82.62
253.562	78.62
253.795	79.62
254.028	96.62
254.261	86.62
254.494	81.62
254.727	73.62
254.96	88.62
255.193	77.62
255.426	84.62
255.659	87.62
255.892	73.62
256.124	76.62
256.357	75.62
256.59	79.62
256.823	81.62
257.056	76.62
257.289	66.62
257.521	72.62
257.754	80.62
257.987	83.62
258.22	88.62
258.452	78.62
258.685	70.62
258.918	74.62
259.151	70.62
259.383	76.62
259.616	54.62
259.849	75.62
260.081	85.62
260.314	87.62
260.547	83.62
260.779	70.62
261.012	85.62
261.244	81.62
261.477	89.62
261.71	82.62
261.942	73.62
262.175	85.62
262.407	101.62
262.64	70.62
262.872	81.62
263.105	90.62
263.337	79.62
263.57	75.62
263.802	73.62
264.035	76.62
264.267	65.62
264.499	88.62
264.732	79.62
264.964	93.62
265.197	83.62
265.429	81.62
265.661	77.62
265.894	90.62
266.126	73.62
266.358	79.62
266.591	91.62
266.823	82.62
267.055	88.62
267.287	83.62
267.52	79.62
267.752	58.62
267.984	77.62
268.216	82.62
268.448	84.62
268.681	83.62
268.913	82.62
269.145	80.62
269.377	82.62
269.609	81.62
269.841	74.62
270.073	78.62
270.306	71.62
270.538	86.62
270.77	64.62
271.002	82.62
271.234	87.62
271.466	89.62
271.698	77.62
271.93	72.62
272.162	75.62
272.394	88.62
272.626	71.62
272.858	65.62
273.09	82.62
273.322	86.62
273.553	78.62
273.785	99.62
274.017	76.62
274.249	77.62
274.481	70.62
274.713	97.62
274.945	91.62
275.176	92.62
275.408	72.62
275.64	86.62
275.872	78.62
276.104	74.62
276.335	84.62
276.567	82.62
276.799	98.62
277.031	95.62
277.262	82.62
277.494	81.62
277.726	76.62
277.957	76.62
278.189	80.62
278.421	82.62
278.652	76.62
278.884	86.62
279.115	78.62
279.347	87.62
279.579	82.62
279.81	92.62
280.042	85.62
280.273	80.62
280.505	88.62
280.736	82.62
280.968	75.62
281.199	68.62
281.431	83.62
281.662	81.62
281.894	85.62
282.125	75.62
282.356	82.62
282.588	81.62
282.819	87.62
283.051	89.62
283.282	67.62
283.513	78.62
283.745	87.62
283.976	71.62
284.207	76.62
284.439	83.62
284.67	96.62
284.901	75.62
285.132	78.62
285.364	78.62
285.595	79.62
285.826	103.62
286.057	76.62
286.288	87.62
286.52	85.62
286.751	69.62
286.982	72.62
287.213	85.62
287.444	98.62
287.675	81.62
287.906	84.62
288.138	84.62
288.369	95.62
288.6	83.62
288.831	106.62
289.062	94.62
289.293	82.62
289.524	86.62
289.755	93.62
289.986	84.62
290.217	76.62
290.448	70.62
290.679	88.62
290.91	91.62
291.141	76.62
291.371	81.62
291.602	80.62
291.833	82.62
292.064	84.62
292.295	82.62
292.526	90.62
292.757	83.62
292.987	97.62
293.218	94.62
293.449	88.62
293.68	86.62
293.91	69.62
294.141	70.62
294.372	91.62
294.603	87.62
294.833	80.62
295.064	84.62
295.295	85.62
295.525	93.62
295.756	86.62
295.987	74.62
296.217	73.62
296.448	72.62
296.679	80.62
296.909	87.62
297.14	81.62
297.37	73.62
297.601	85.62
297.831	87.62
298.062	85.62
298.292	83.62
298.523	79.62
298.753	85.62
298.984	93.62
299.214	90.62
299.445	75.62
299.675	90.62
299.905	85.62
300.136	87.62
300.366	72.62
300.597	86.62
300.827	82.62
301.057	81.62
301.288	86.62
301.518	83.62
301.748	101.62
301.979	76.62
302.209	94.62
302.439	92.62
302.669	88.62
302.9	85.62
303.13	83.62
303.36	74.62
303.59	82.62
303.82	74.62
304.051	89.62
304.281	99.62
304.511	89.62
304.741	68.62
304.971	73.62
305.201	89.62
305.431	72.62
305.661	82.62
305.891	97.62
306.121	63.62
306.352	81.62
306.582	74.62
306.812	87.62
307.042	73.62
307.272	85.62
307.502	86.62
307.731	83.62
307.961	87.62
308.191	88.62
308.421	71.62
308.651	74.62
308.881	82.62
309.111	90.62
309.341	93.62
309.571	70.62
309.8	81.62
310.03	67.62
310.26	84.62
310.49	90.62
310.72	73.62
310.949	86.62
311.179	91.62
311.409	80.62
311.639	66.62
311.868	76.62
312.098	75.62
312.328	83.62
312.557	85.62
312.787	78.62
313.017	94.62
313.246	83.62
313.476	71.62
313.706	90.62
313.935	89.62
314.165	93.62
314.394	82.62
314.624	80.62
314.853	89.62
315.083	86.62
315.312	87.62
315.542	95.62
315.771	103.62
316.001	83.62
316.23	87.62
316.46	77.62
316.689	89.62
316.919	84.62
317.148	80.62
317.377	79.62
317.607	82.62
317.836	80.62
318.065	88.62
318.295	93.62
318.524	79.62
318.753	79.62
318.983	81.62
319.212	78.62
319.441	93.62
319.67	77.62
319.9	81.62
320.129	75.62
320.358	85.62
320.587	85.62
320.816	85.62
321.046	82.62
321.275	89.62
321.504	82.62
321.733	83.62
321.962	72.62
322.191	77.62
322.42	85.62
322.649	76.62
322.878	84.62
323.108	81.62
323.337	89.62
323.566	86.62
323.795	80.62
324.024	88.62
324.253	88.62
324.482	82.62
324.71	80.62
324.939	71.62
325.168	83.62
325.397	85.62
325.626	83.62
325.855	98.62
326.084	70.62
326.313	74.62
326.542	91.62
326.77	84.62
326.999	88.62
327.228	81.62
327.457	81.62
327.686	85.62
327.914	73.62
328.143	78.62
328.372	85.62
328.6	77.62
328.829	94.62
329.058	78.62
329.287	88.62
329.515	75.62
329.744	80.62
329.972	91.62
330.201	99.62
330.43	64.62
330.658	87.62
330.887	81.62
331.115	75.62
331.344	74.62
331.572	70.62
331.801	80.62
332.03	79.62
332.258	96.62
332.486	76.62
332.715	70.62
332.943	74.62
333.172	85.62
333.4	94.62
333.629	81.62
333.857	93.62
334.085	97.62
334.314	82.62
334.542	72.62
334.771	77.62
334.999	83.62
335.227	81.62
335.455	71.62
335.684	77.62
335.912	88.62
336.14	79.62
336.369	67.62
336.597	74.62
336.825	81.62
337.053	93.62
337.281	82.62
337.51	84.62
337.738	86.62
337.966	95.62
338.194	79.62
338.422	94.62
338.65	87.62
338.878	88.62
339.106	97.62
339.334	81.62
339.562	71.62
339.79	79.62
340.018	89.62
340.246	77.62
340.474	98.62
340.702	86.62
340.93	92.62
341.158	89.62
341.386	89.62
341.614	91.62
341.842	80.62
342.07	88.62
342.298	97.62
342.526	82.62
342.754	91.62
342.981	93.62
343.209	94.62
343.437	59.62
343.665	80.62
343.893	97.62
344.12	85.62
344.348	96.62
344.576	91.62
344.804	78.62
345.031	83.62
345.259	74.62
345.487	73.62
345.714	79.62
345.942	92.62
346.17	81.62
346.397	80.62
346.625	102.62
346.853	78.62
347.08	76.62
347.308	81.62
347.535	75.62
347.763	77.62
347.99	74.62
348.218	72.62
348.445	82.62
348.673	87.62
348.9	84.62
349.128	70.62
349.355	88.62
349.583	88.62
349.81	88.62
350.037	88.62
350.265	87.62
350.492	80.62
350.72	87.62
350.947	75.62
351.174	74.62
351.402	78.62
351.629	83.62
351.856	78.62
352.083	81.62
352.311	87.62
352.538	83.62
352.765	82.62
352.992	71.62
353.22	79.62
353.447	72.62
353.674	86.62
353.901	95.62
354.128	85.62
354.355	78.62
354.583	79.62
354.81	102.62
355.037	99.62
355.264	92.62
355.491	97.62
355.718	78.62
355.945	86.62
356.172	91.62
356.399	91.62
356.626	80.62
356.853	99.62
357.08	75.62
357.307	87.62
357.534	97.62
357.761	65.62
357.988	88.62
358.215	92.62
358.441	67.62
358.668	85.62
358.895	72.62
359.122	95.62
359.349	87.62
359.576	89.62
359.802	85.62
360.029	84.62
360.256	81.62
360.483	84.62
360.709	87.62
360.936	103.62
361.163	88.62
361.39	74.62
361.616	94.62
361.843	79.62
362.07	88.62
362.296	98.62
362.523	89.62
362.749	79.62
362.976	85.62
363.203	92.62
363.429	86.62
363.656	69.62
363.882	71.62
364.109	84.62
364.335	89.62
364.562	90.62
364.788	87.62
365.015	96.62
365.241	91.62
365.468	88.62
365.694	87.62
365.92	93.62
366.147	83.62
366.373	95.62
366.599	94.62
366.826	72.62
367.052	102.62
367.278	99.62
367.505	93.62
367.731	86.62
367.957	77.62
368.184	88.62
368.41	79.62
368.636	86.62
368.862	86.62
369.089	86.62
369.315	82.62
369.541	91.62
369.767	82.62
369.993	74.62
370.219	72.62
370.445	94.62
370.672	90.62
370.898	83.62
371.124	93.62
371.35	95.62
371.576	83.62
371.802	94.62
372.028	89.62
372.254	85.62
372.48	86.62
372.706	73.62
372.932	93.62
373.158	97.62
373.384	95.62
373.61	62.62
373.835	95.62
374.061	90.62
374.287	94.62
374.513	93.62
374.739	97.62
374.965	81.62
375.191	83.62
375.416	86.62
375.642	91.62
375.868	92.62
376.094	91.62
376.319	90.62
376.545	89.62
376.771	88.62
376.997	95.62
377.222	89.62
377.448	79.62
377.674	86.62
377.899	74.62
378.125	85.62
378.35	86.62
378.576	84.62
378.802	82.62
379.027	95.62
379.253	90.62
379.478	98.62
379.704	89.62
379.929	87.62
380.155	98.62
380.38	96.62
380.606	78.62
380.831	103.62
381.057	102.62
381.282	93.62
381.507	79.62
381.733	89.62
381.958	94.62
382.184	87.62
382.409	97.62
382.634	89.62
382.86	95.62
383.085	89.62
383.31	98.62
383.535	97.62
383.761	96.62
383.986	93.62
384.211	90.62
384.436	95.62
384.662	75.62
384.887	103.62
385.112	85.62
385.337	97.62
385.562	91.62
385.787	78.62
386.013	94.62
386.238	87.62
386.463	91.62
386.688	79.62
386.913	97.62
387.138	99.62
387.363	87.62
387.588	94.62
387.813	84.62
388.038	100.62
388.263	105.62
388.488	84.62
388.713	89.62
388.938	94.62
389.163	88.62
389.387	97.62
389.612	92.62
389.837	88.62
390.062	74.62
390.287	92.62
390.512	87.62
390.736	91.62
390.961	100.62
391.186	87.62
391.411	68.62
391.636	93.62
391.86	92.62
392.085	94.62
392.31	81.62
392.534	106.62
392.759	98.62
392.984	104.62
393.208	95.62
393.433	103.62
393.658	105.62
393.882	104.62
394.107	97.62
394.331	87.62
394.556	111.62
394.78	104.62
395.005	103.62
395.229	91.62
395.454	94.62
395.678	91.62
395.903	106.62
396.127	98.62
396.352	109.62
396.576	97.62
396.801	96.62
397.025	105.62
397.249	116.62
397.474	89.62
397.698	86.62
397.922	101.62
398.147	100.62
398.371	82.62
398.595	85.62
398.82	105.62
399.044	109.62
399.268	117.62
399.492	107.62
399.717	122.62
399.941	116.62
400.165	104.62
400.389	95.62
400.613	102.62
400.837	113.62
401.062	108.62
401.286	104.62
401.51	109.62
401.734	98.62
401.958	99.62
402.182	96.62
402.406	96.62
402.63	108.62
402.854	110.62
403.078	97.62
403.302	121.62
403.526	120.62
403.75	103.62
403.974	114.62
404.198	97.62
404.422	120.62
404.645	115.62
404.869	110.62
405.093	90.62
405.317	99.62
405.541	117.62
405.765	112.62
405.988	104.62
406.212	109.62
406.436	95.62
406.66	116.62
406.883	107.62
407.107	116.62
407.331	113.62
407.555	106.62
407.778	105.62
408.002	109.62
408.226	108.62
408.449	115.62
408.673	125.62
408.896	112.62
409.12	112.62
409.344	118.62
409.567	97.62
409.791	113.62
410.014	112.62
410.238	122.62
410.461	114.62
410.685	114.62
410.908	112.62
411.132	114.62
411.355	99.62
411.578	105.62
411.802	125.62
412.025	102.62
412.249	118.62
412.472	124.62
412.695	95.62
412.919	110.62
413.142	116.62
413.365	98.62
413.589	92.62
413.812	90.62
414.035	112.62
414.258	118.62
414.482	102.62
414.705	110.62
414.928	107.62
415.151	108.62
415.374	105.62
415.597	105.62
415.821	103.62
416.044	115.62
416.267	113.62
416.49	103.62
416.713	121.62
416.936	102.62
417.159	101.62
417.382	118.62
417.605	104.62
417.828	97.62
418.051	106.62
418.274	110.62
418.497	105.62
418.72	106.62
418.943	120.62
419.166	122.62
419.389	106.62
419.611	117.62
419.834	101.62
420.057	106.62
420.28	115.62
420.503	119.62
420.726	100.62
420.948	113.62
421.171	103.62
421.394	100.62
421.617	98.62
421.839	100.62
422.062	120.62
422.285	124.62
422.507	112.62
422.73	121.62
422.953	109.62
423.175	104.62
423.398	103.62
423.621	108.62
423.843	113.62
424.066	119.62
424.288	101.62
424.511	106.62
424.733	120.62
424.956	102.62
425.178	105.62
425.401	114.62
425.623	122.62
425.846	115.62
426.068	111.62
426.291	111.62
426.513	118.62
426.735	119.62
426.958	103.62
427.18	108.62
427.402	111.62
427.625	104.62
427.847	113.62
428.069	111.62
428.292	103.62
428.514	109.62
428.736	117.62
428.958	117.62
429.181	102.62
429.403	97.62
429.625	110.62
429.847	114.62
430.069	90.62
430.292	112.62
430.514	117.62
430.736	101.62
430.958	107.62
431.18	108.62
431.402	112.62
431.624	109.62
431.846	100.62
432.068	105.62
432.29	100.62
432.512	101.62
432.734	114.62
432.956	117.62
433.178	90.62
433.4	106.62
433.622	113.62
433.844	120.62
434.066	119.62
434.287	106.62
434.509	106.62
434.731	100.62
434.953	112.62
435.175	106.62
435.397	118.62
435.618	119.62
435.84	103.62
436.062	109.62
436.284	95.62
436.505	111.62
436.727	106.62
436.949	99.62
437.17	115.62
437.392	97.62
437.614	106.62
437.835	102.62
438.057	116.62
438.278	103.62
438.5	101.62
438.721	109.62
438.943	116.62
439.165	114.62
439.386	98.62
439.608	118.62
439.829	105.62
440.05	102.62
440.272	130.62
440.493	106.62
440.715	111.62
440.936	120.62
441.158	105.62
441.379	117.62
441.6	123.62
441.822	127.62
442.043	132.62
442.264	106.62
442.486	125.62
442.707	127.62
442.928	118.62
443.149	119.62
443.371	114.62
443.592	110.62
443.813	117.62
444.034	115.62
444.255	130.62
444.476	115.62
444.698	115.62
444.919	109.62
445.14	251.62
445.361	176.62
445.582	120.62
445.803	128.62
446.024	123.62
446.245	124.62
446.466	115.62
446.687	105.62
446.908	115.62
447.129	119.62
447.35	110.62
447.571	139.62
447.792	98.62
448.013	103.62
448.234	100.62
448.455	109.62
448.675	119.62
448.896	118.62
449.117	113.62
449.338	115.62
449.559	99.62
449.779	118.62
450	114.62
450.221	102.62
450.442	106.62
450.662	111.62
450.883	109.62
451.104	109.62
451.324	118.62
451.545	117.62
451.766	100.62
451.986	120.62
452.207	116.62
452.428	97.62
452.648	111.62
452.869	109.62
453.089	101.62
453.31	106.62
453.53	100.62
453.751	99.62
453.971	101.62
454.192	114.62
454.412	105.62
454.633	85.62
454.853	99.62
455.073	97.62
455.294	102.62
455.514	102.62
455.734	101.62
455.955	93.62
456.175	107.62
456.395	87.62
456.616	97.62
456.836	98.62
457.056	89.62
457.276	106.62
457.497	104.62
457.717	100.62
457.937	98.62
458.157	101.62
458.377	119.62
458.598	92.62
458.818	98.62
459.038	92.62
459.258	105.62
459.478	89.62
459.698	98.62
459.918	107.62
460.138	112.62
460.358	109.62
460.578	110.62
460.798	126.62
461.018	118.62
461.238	103.62
461.458	118.62
461.678	119.62
461.898	125.62
462.118	103.62
462.338	125.62
462.558	104.62
462.777	127.62
462.997	125.62
463.217	133.62
463.437	128.62
463.657	113.62
463.876	114.62
464.096	109.62
464.316	116.62
464.536	117.62
464.755	127.62
464.975	125.62
465.195	118.62
465.414	122.62
465.634	106.62
465.854	101.62
466.073	121.62
466.293	104.62
466.512	102.62
466.732	105.62
466.951	114.62
467.171	123.62
467.391	135.62
467.61	115.62
467.829	111.62
468.049	115.62
468.268	113.62
468.488	114.62
468.707	104.62
468.927	107.62
469.146	116.62
469.365	121.62
469.585	120.62
469.804	121.62
470.023	131.62
470.243	123.62
470.462	114.62
470.681	110.62
470.901	121.62
471.12	127.62
471.339	118.62
471.558	129.62
471.777	104.62
471.997	123.62
472.216	99.62
472.435	118.62
472.654	98.62
472.873	114.62
473.092	97.62
473.311	106.62
473.53	109.62
473.749	103.62
473.968	116.62
474.187	124.62
474.406	108.62
474.625	120.62
474.844	131.62
475.063	128.62
475.282	118.62
475.501	111.62
475.72	119.62
475.939	117.62
476.158	123.62
476.377	103.62
476.596	120.62
476.814	120.62
477.033	120.62
477.252	125.62
477.471	119.62
477.69	123.62
477.908	125.62
478.127	127.62
478.346	130.62
478.564	117.62
478.783	114.62
479.002	117.62
479.22	121.62
479.439	118.62
479.658	130.62
479.876	121.62
480.095	120.62
480.313	123.62
480.532	119.62
480.751	123.62
480.969	125.62
481.188	111.62
481.406	119.62
481.624	118.62
481.843	114.62
482.061	109.62
482.28	111.62
482.498	117.62
482.717	99.62
482.935	109.62
483.153	118.62
483.372	121.62
483.59	116.62
483.808	104.62
484.027	120.62
484.245	118.62
484.463	112.62
484.681	122.62
484.9	123.62
485.118	122.62
485.336	128.62
485.554	112.62
485.772	104.62
485.99	112.62
486.209	129.62
486.427	111.62
486.645	124.62
486.863	113.62
487.081	126.62
487.299	129.62
487.517	118.62
487.735	156.62
487.953	133.62
488.171	136.62
488.389	140.62
488.607	125.62
488.825	125.62
489.043	114.62
489.261	129.62
489.479	115.62
489.696	137.62
489.914	128.62
490.132	114.62
490.35	125.62
490.568	138.62
490.786	139.62
491.003	139.62
491.221	140.62
491.439	139.62
491.657	147.62
491.874	160.62
492.092	155.62
492.31	159.62
492.527	151.62
492.745	161.62
492.963	150.62
493.18	150.62
493.398	156.62
493.615	135.62
493.833	145.62
494.05	135.62
494.268	162.62
494.485	151.62
494.703	125.62
494.92	137.62
495.138	134.62
495.355	139.62
495.573	127.62
495.79	142.62
496.008	148.62
496.225	158.62
496.442	143.62
496.66	142.62
496.877	146.62
497.094	144.62
497.312	141.62
497.529	150.62
497.746	151.62
497.963	141.62
498.181	148.62
498.398	138.62
498.615	143.62
498.832	132.62
499.049	144.62
499.267	160.62
499.484	154.62
499.701	175.62
499.918	171.62
500.135	205.62
500.352	232.62
500.569	210.62
500.786	209.62
501.003	208.62
501.22	187.62
501.437	169.62
501.654	167.62
501.871	159.62
502.088	164.62
502.305	142.62
502.522	182.62
502.739	154.62
502.956	148.62
503.172	127.62
503.389	132.62
503.606	121.62
503.823	145.62
504.04	123.62
504.256	147.62
504.473	143.62
504.69	137.62
504.907	131.62
505.123	131.62
505.34	123.62
505.557	140.62
505.773	137.62
505.99	113.62
506.207	111.62
506.423	125.62
506.64	117.62
506.856	113.62
507.073	117.62
507.289	137.62
507.506	138.62
507.722	116.62
507.939	127.62
508.155	117.62
508.372	118.62
508.588	112.62
508.805	131.62
509.021	127.62
509.238	94.62
509.454	104.62
509.67	112.62
509.887	121.62
510.103	110.62
510.319	101.62
510.536	98.62
510.752	98.62
510.968	114.62
511.184	109.62
511.401	97.62
511.617	118.62
511.833	107.62
512.049	113.62
