Data from StandardFe(NO3)3.TAE.3%Agarose.FlatLispGreen.Lamp.Energy10.07252019_HRD10591_11-55-52-441.txt Node
Date: Thu Jul 25 11:55:52 EDT 2019
User: cochatt
Spectrometer: HR+D1059
Trigger mode: 1
Integration Time (sec): 1.000000E-1
Scans to average: 1
Electric dark correction enabled: true
Nonlinearity correction enabled: false
Boxcar width: 0
XAxis mode: Wavelengths
Number of Pixels in Spectrum: 2048
>>>>>Begin Spectral Data<<<<<
223.165	-28.44
223.4	-28.44
223.635	-28.44
223.869	-11.44
224.104	2.56
224.338	-9.44
224.573	-26.44
224.808	-12.44
225.042	-16.44
225.277	-3.44
225.511	-2.44
225.746	-0.44
225.98	-5.44
226.215	12.56
226.449	23.56
226.683	14.56
226.918	25.56
227.152	37.56
227.387	39.56
227.621	43.56
227.856	61.56
228.09	44.56
228.324	50.56
228.559	64.56
228.793	57.56
229.027	56.56
229.262	53.56
229.496	54.56
229.73	69.56
229.964	81.56
230.199	72.56
230.433	76.56
230.667	87.56
230.901	89.56
231.136	88.56
231.37	87.56
231.604	80.56
231.838	81.56
232.072	91.56
232.306	82.56
232.541	96.56
232.775	72.56
233.009	73.56
233.243	82.56
233.477	79.56
233.711	85.56
233.945	82.56
234.179	85.56
234.413	87.56
234.647	96.56
234.881	80.56
235.115	73.56
235.349	83.56
235.583	81.56
235.817	79.56
236.051	81.56
236.285	84.56
236.519	86.56
236.753	86.56
236.987	93.56
237.221	91.56
237.455	89.56
237.689	69.56
237.922	77.56
238.156	67.56
238.39	75.56
238.624	80.56
238.858	74.56
239.091	83.56
239.325	88.56
239.559	83.56
239.793	101.56
240.027	72.56
240.26	74.56
240.494	81.56
240.728	88.56
240.961	63.56
241.195	75.56
241.429	72.56
241.662	77.56
241.896	62.56
242.13	67.56
242.363	67.56
242.597	79.56
242.83	85.56
243.064	76.56
243.298	64.56
243.531	83.56
243.765	77.56
243.998	74.56
244.232	78.56
244.465	74.56
244.699	85.56
244.932	79.56
245.166	88.56
245.399	87.56
245.633	74.56
245.866	67.56
246.099	70.56
246.333	84.56
246.566	79.56
246.8	84.56
247.033	75.56
247.266	75.56
247.5	79.56
247.733	85.56
247.966	71.56
248.2	87.56
248.433	79.56
248.666	81.56
248.899	91.56
249.133	80.56
249.366	91.56
249.599	73.56
249.832	82.56
250.066	86.56
250.299	93.56
250.532	81.56
250.765	85.56
250.998	91.56
251.231	60.56
251.465	76.56
251.698	70.56
251.931	77.56
252.164	78.56
252.397	79.56
252.63	78.56
252.863	93.56
253.096	78.56
253.329	87.56
253.562	76.56
253.795	76.56
254.028	79.56
254.261	86.56
254.494	76.56
254.727	90.56
254.96	79.56
255.193	86.56
255.426	82.56
255.659	73.56
255.892	83.56
256.124	75.56
256.357	85.56
256.59	87.56
256.823	90.56
257.056	86.56
257.289	88.56
257.521	87.56
257.754	72.56
257.987	82.56
258.22	90.56
258.452	92.56
258.685	80.56
258.918	75.56
259.151	86.56
259.383	79.56
259.616	73.56
259.849	58.56
260.081	78.56
260.314	93.56
260.547	79.56
260.779	91.56
261.012	86.56
261.244	90.56
261.477	99.56
261.71	97.56
261.942	71.56
262.175	88.56
262.407	89.56
262.64	86.56
262.872	83.56
263.105	99.56
263.337	79.56
263.57	72.56
263.802	86.56
264.035	79.56
264.267	77.56
264.499	82.56
264.732	80.56
264.964	91.56
265.197	75.56
265.429	81.56
265.661	85.56
265.894	91.56
266.126	85.56
266.358	88.56
266.591	92.56
266.823	80.56
267.055	86.56
267.287	90.56
267.52	80.56
267.752	81.56
267.984	91.56
268.216	90.56
268.448	82.56
268.681	81.56
268.913	86.56
269.145	84.56
269.377	83.56
269.609	83.56
269.841	85.56
270.073	75.56
270.306	80.56
270.538	84.56
270.77	91.56
271.002	92.56
271.234	98.56
271.466	86.56
271.698	83.56
271.93	77.56
272.162	75.56
272.394	84.56
272.626	81.56
272.858	85.56
273.09	76.56
273.322	93.56
273.553	78.56
273.785	79.56
274.017	79.56
274.249	95.56
274.481	74.56
274.713	86.56
274.945	86.56
275.176	93.56
275.408	78.56
275.64	84.56
275.872	87.56
276.104	91.56
276.335	90.56
276.567	86.56
276.799	82.56
277.031	78.56
277.262	79.56
277.494	90.56
277.726	94.56
277.957	85.56
278.189	79.56
278.421	84.56
278.652	94.56
278.884	80.56
279.115	101.56
279.347	84.56
279.579	68.56
279.81	88.56
280.042	101.56
280.273	75.56
280.505	76.56
280.736	79.56
280.968	84.56
281.199	82.56
281.431	90.56
281.662	81.56
281.894	93.56
282.125	76.56
282.356	84.56
282.588	80.56
282.819	89.56
283.051	90.56
283.282	90.56
283.513	88.56
283.745	83.56
283.976	90.56
284.207	98.56
284.439	88.56
284.67	85.56
284.901	78.56
285.132	87.56
285.364	101.56
285.595	100.56
285.826	100.56
286.057	101.56
286.288	71.56
286.52	77.56
286.751	85.56
286.982	80.56
287.213	88.56
287.444	93.56
287.675	85.56
287.906	88.56
288.138	89.56
288.369	84.56
288.6	88.56
288.831	69.56
289.062	75.56
289.293	93.56
289.524	98.56
289.755	103.56
289.986	87.56
290.217	86.56
290.448	80.56
290.679	83.56
290.91	91.56
291.141	99.56
291.371	92.56
291.602	80.56
291.833	78.56
292.064	94.56
292.295	98.56
292.526	87.56
292.757	78.56
292.987	92.56
293.218	88.56
293.449	85.56
293.68	82.56
293.91	76.56
294.141	84.56
294.372	83.56
294.603	101.56
294.833	79.56
295.064	79.56
295.295	93.56
295.525	81.56
295.756	79.56
295.987	84.56
296.217	83.56
296.448	89.56
296.679	100.56
296.909	79.56
297.14	96.56
297.37	86.56
297.601	85.56
297.831	88.56
298.062	105.56
298.292	82.56
298.523	90.56
298.753	99.56
298.984	83.56
299.214	81.56
299.445	95.56
299.675	81.56
299.905	97.56
300.136	96.56
300.366	91.56
300.597	91.56
300.827	100.56
301.057	76.56
301.288	95.56
301.518	86.56
301.748	95.56
301.979	72.56
302.209	75.56
302.439	89.56
302.669	83.56
302.9	71.56
303.13	92.56
303.36	80.56
303.59	90.56
303.82	90.56
304.051	86.56
304.281	90.56
304.511	95.56
304.741	95.56
304.971	86.56
305.201	88.56
305.431	95.56
305.661	94.56
305.891	77.56
306.121	84.56
306.352	109.56
306.582	87.56
306.812	81.56
307.042	91.56
307.272	92.56
307.502	86.56
307.731	88.56
307.961	80.56
308.191	86.56
308.421	95.56
308.651	90.56
308.881	88.56
309.111	87.56
309.341	75.56
309.571	87.56
309.8	87.56
310.03	98.56
310.26	94.56
310.49	92.56
310.72	85.56
310.949	103.56
311.179	93.56
311.409	79.56
311.639	94.56
311.868	80.56
312.098	88.56
312.328	86.56
312.557	106.56
312.787	90.56
313.017	96.56
313.246	80.56
313.476	88.56
313.706	89.56
313.935	82.56
314.165	94.56
314.394	87.56
314.624	93.56
314.853	92.56
315.083	82.56
315.312	91.56
315.542	89.56
315.771	84.56
316.001	95.56
316.23	83.56
316.46	84.56
316.689	100.56
316.919	100.56
317.148	88.56
317.377	101.56
317.607	95.56
317.836	84.56
318.065	94.56
318.295	76.56
318.524	93.56
318.753	86.56
318.983	89.56
319.212	100.56
319.441	87.56
319.67	87.56
319.9	87.56
320.129	98.56
320.358	104.56
320.587	86.56
320.816	92.56
321.046	86.56
321.275	87.56
321.504	66.56
321.733	88.56
321.962	103.56
322.191	91.56
322.42	91.56
322.649	90.56
322.878	89.56
323.108	87.56
323.337	81.56
323.566	101.56
323.795	81.56
324.024	77.56
324.253	82.56
324.482	93.56
324.71	111.56
324.939	85.56
325.168	90.56
325.397	62.56
325.626	91.56
325.855	74.56
326.084	85.56
326.313	104.56
326.542	93.56
326.77	90.56
326.999	92.56
327.228	93.56
327.457	102.56
327.686	96.56
327.914	89.56
328.143	92.56
328.372	101.56
328.6	99.56
328.829	103.56
329.058	79.56
329.287	84.56
329.515	96.56
329.744	88.56
329.972	84.56
330.201	89.56
330.43	93.56
330.658	89.56
330.887	76.56
331.115	99.56
331.344	90.56
331.572	80.56
331.801	82.56
332.03	80.56
332.258	93.56
332.486	79.56
332.715	79.56
332.943	93.56
333.172	80.56
333.4	84.56
333.629	72.56
333.857	93.56
334.085	90.56
334.314	84.56
334.542	77.56
334.771	92.56
334.999	101.56
335.227	84.56
335.455	100.56
335.684	90.56
335.912	81.56
336.14	86.56
336.369	88.56
336.597	98.56
336.825	85.56
337.053	85.56
337.281	90.56
337.51	89.56
337.738	102.56
337.966	102.56
338.194	84.56
338.422	84.56
338.65	87.56
338.878	96.56
339.106	81.56
339.334	85.56
339.562	99.56
339.79	87.56
340.018	85.56
340.246	79.56
340.474	87.56
340.702	83.56
340.93	79.56
341.158	95.56
341.386	85.56
341.614	81.56
341.842	91.56
342.07	95.56
342.298	86.56
342.526	90.56
342.754	78.56
342.981	81.56
343.209	93.56
343.437	88.56
343.665	101.56
343.893	104.56
344.12	95.56
344.348	95.56
344.576	89.56
344.804	103.56
345.031	79.56
345.259	88.56
345.487	96.56
345.714	104.56
345.942	88.56
346.17	82.56
346.397	90.56
346.625	98.56
346.853	119.56
347.08	82.56
347.308	86.56
347.535	75.56
347.763	75.56
347.99	95.56
348.218	85.56
348.445	74.56
348.673	90.56
348.9	87.56
349.128	97.56
349.355	95.56
349.583	89.56
349.81	98.56
350.037	84.56
350.265	92.56
350.492	97.56
350.72	78.56
350.947	95.56
351.174	99.56
351.402	100.56
351.629	75.56
351.856	83.56
352.083	75.56
352.311	86.56
352.538	91.56
352.765	84.56
352.992	76.56
353.22	90.56
353.447	97.56
353.674	79.56
353.901	92.56
354.128	83.56
354.355	86.56
354.583	96.56
354.81	100.56
355.037	101.56
355.264	87.56
355.491	97.56
355.718	103.56
355.945	89.56
356.172	88.56
356.399	99.56
356.626	91.56
356.853	101.56
357.08	92.56
357.307	96.56
357.534	79.56
357.761	84.56
357.988	104.56
358.215	87.56
358.441	88.56
358.668	91.56
358.895	98.56
359.122	89.56
359.349	96.56
359.576	98.56
359.802	72.56
360.029	86.56
360.256	101.56
360.483	94.56
360.709	106.56
360.936	89.56
361.163	88.56
361.39	94.56
361.616	113.56
361.843	95.56
362.07	86.56
362.296	91.56
362.523	93.56
362.749	89.56
362.976	96.56
363.203	99.56
363.429	91.56
363.656	92.56
363.882	91.56
364.109	92.56
364.335	95.56
364.562	99.56
364.788	79.56
365.015	94.56
365.241	81.56
365.468	94.56
365.694	81.56
365.92	95.56
366.147	88.56
366.373	95.56
366.599	95.56
366.826	86.56
367.052	102.56
367.278	89.56
367.505	94.56
367.731	83.56
367.957	103.56
368.184	87.56
368.41	88.56
368.636	102.56
368.862	82.56
369.089	92.56
369.315	88.56
369.541	89.56
369.767	86.56
369.993	86.56
370.219	101.56
370.445	88.56
370.672	75.56
370.898	92.56
371.124	99.56
371.35	85.56
371.576	89.56
371.802	86.56
372.028	94.56
372.254	93.56
372.48	99.56
372.706	87.56
372.932	108.56
373.158	106.56
373.384	96.56
373.61	81.56
373.835	87.56
374.061	95.56
374.287	100.56
374.513	95.56
374.739	82.56
374.965	94.56
375.191	108.56
375.416	95.56
375.642	88.56
375.868	88.56
376.094	97.56
376.319	78.56
376.545	98.56
376.771	92.56
376.997	95.56
377.222	99.56
377.448	91.56
377.674	87.56
377.899	91.56
378.125	83.56
378.35	100.56
378.576	92.56
378.802	87.56
379.027	97.56
379.253	107.56
379.478	101.56
379.704	106.56
379.929	98.56
380.155	85.56
380.38	81.56
380.606	100.56
380.831	105.56
381.057	104.56
381.282	88.56
381.507	89.56
381.733	109.56
381.958	98.56
382.184	104.56
382.409	92.56
382.634	101.56
382.86	100.56
383.085	85.56
383.31	88.56
383.535	102.56
383.761	98.56
383.986	101.56
384.211	84.56
384.436	103.56
384.662	105.56
384.887	110.56
385.112	104.56
385.337	81.56
385.562	88.56
385.787	98.56
386.013	98.56
386.238	95.56
386.463	110.56
386.688	100.56
386.913	94.56
387.138	94.56
387.363	98.56
387.588	112.56
387.813	96.56
388.038	98.56
388.263	98.56
388.488	110.56
388.713	100.56
388.938	107.56
389.163	97.56
389.387	104.56
389.612	101.56
389.837	77.56
390.062	96.56
390.287	89.56
390.512	102.56
390.736	107.56
390.961	115.56
391.186	114.56
391.411	114.56
391.636	104.56
391.86	100.56
392.085	88.56
392.31	97.56
392.534	85.56
392.759	101.56
392.984	93.56
393.208	94.56
393.433	103.56
393.658	103.56
393.882	114.56
394.107	101.56
394.331	90.56
394.556	92.56
394.78	103.56
395.005	106.56
395.229	110.56
395.454	104.56
395.678	112.56
395.903	89.56
396.127	101.56
396.352	103.56
396.576	99.56
396.801	91.56
397.025	95.56
397.249	111.56
397.474	107.56
397.698	103.56
397.922	105.56
398.147	105.56
398.371	111.56
398.595	107.56
398.82	108.56
399.044	105.56
399.268	106.56
399.492	128.56
399.717	102.56
399.941	101.56
400.165	104.56
400.389	100.56
400.613	114.56
400.837	95.56
401.062	116.56
401.286	106.56
401.51	107.56
401.734	110.56
401.958	86.56
402.182	123.56
402.406	103.56
402.63	97.56
402.854	104.56
403.078	102.56
403.302	102.56
403.526	91.56
403.75	115.56
403.974	112.56
404.198	98.56
404.422	106.56
404.645	110.56
404.869	106.56
405.093	116.56
405.317	122.56
405.541	124.56
405.765	118.56
405.988	122.56
406.212	116.56
406.436	111.56
406.66	118.56
406.883	116.56
407.107	118.56
407.331	125.56
407.555	111.56
407.778	121.56
408.002	108.56
408.226	116.56
408.449	126.56
408.673	125.56
408.896	93.56
409.12	117.56
409.344	117.56
409.567	103.56
409.791	120.56
410.014	114.56
410.238	108.56
410.461	105.56
410.685	126.56
410.908	101.56
411.132	130.56
411.355	116.56
411.578	120.56
411.802	116.56
412.025	100.56
412.249	115.56
412.472	118.56
412.695	98.56
412.919	105.56
413.142	117.56
413.365	115.56
413.589	104.56
413.812	100.56
414.035	102.56
414.258	104.56
414.482	122.56
414.705	111.56
414.928	98.56
415.151	122.56
415.374	107.56
415.597	112.56
415.821	107.56
416.044	112.56
416.267	122.56
416.49	107.56
416.713	124.56
416.936	116.56
417.159	106.56
417.382	114.56
417.605	98.56
417.828	124.56
418.051	112.56
418.274	110.56
418.497	111.56
418.72	107.56
418.943	118.56
419.166	101.56
419.389	121.56
419.611	118.56
419.834	119.56
420.057	112.56
420.28	118.56
420.503	109.56
420.726	125.56
420.948	127.56
421.171	119.56
421.394	109.56
421.617	117.56
421.839	106.56
422.062	124.56
422.285	118.56
422.507	114.56
422.73	111.56
422.953	128.56
423.175	124.56
423.398	116.56
423.621	116.56
423.843	115.56
424.066	106.56
424.288	111.56
424.511	124.56
424.733	126.56
424.956	130.56
425.178	120.56
425.401	119.56
425.623	123.56
425.846	126.56
426.068	100.56
426.291	120.56
426.513	99.56
426.735	113.56
426.958	111.56
427.18	104.56
427.402	111.56
427.625	107.56
427.847	118.56
428.069	103.56
428.292	105.56
428.514	98.56
428.736	102.56
428.958	111.56
429.181	117.56
429.403	120.56
429.625	126.56
429.847	108.56
430.069	109.56
430.292	123.56
430.514	105.56
430.736	114.56
430.958	114.56
431.18	116.56
431.402	99.56
431.624	120.56
431.846	114.56
432.068	105.56
432.29	107.56
432.512	123.56
432.734	98.56
432.956	114.56
433.178	130.56
433.4	133.56
433.622	110.56
433.844	128.56
434.066	118.56
434.287	104.56
434.509	100.56
434.731	94.56
434.953	106.56
435.175	119.56
435.397	109.56
435.618	119.56
435.84	102.56
436.062	101.56
436.284	107.56
436.505	99.56
436.727	121.56
436.949	107.56
437.17	111.56
437.392	127.56
437.614	97.56
437.835	116.56
438.057	114.56
438.278	101.56
438.5	107.56
438.721	109.56
438.943	112.56
439.165	130.56
439.386	124.56
439.608	126.56
439.829	125.56
440.05	123.56
440.272	108.56
440.493	128.56
440.715	118.56
440.936	108.56
441.158	126.56
441.379	124.56
441.6	119.56
441.822	123.56
442.043	133.56
442.264	117.56
442.486	123.56
442.707	109.56
442.928	132.56
443.149	113.56
443.371	103.56
443.592	116.56
443.813	120.56
444.034	114.56
444.255	123.56
444.476	128.56
444.698	121.56
444.919	137.56
445.14	202.56
445.361	170.56
445.582	117.56
445.803	119.56
446.024	134.56
446.245	103.56
446.466	112.56
446.687	120.56
446.908	128.56
447.129	116.56
447.35	112.56
447.571	111.56
447.792	100.56
448.013	110.56
448.234	130.56
448.455	107.56
448.675	123.56
448.896	108.56
449.117	114.56
449.338	121.56
449.559	115.56
449.779	122.56
450	114.56
450.221	126.56
450.442	117.56
450.662	109.56
450.883	107.56
451.104	116.56
451.324	103.56
451.545	114.56
451.766	122.56
451.986	107.56
452.207	114.56
452.428	123.56
452.648	125.56
452.869	117.56
453.089	113.56
453.31	125.56
453.53	97.56
453.751	112.56
453.971	102.56
454.192	111.56
454.412	109.56
454.633	107.56
454.853	110.56
455.073	101.56
455.294	119.56
455.514	122.56
455.734	103.56
455.955	114.56
456.175	109.56
456.395	110.56
456.616	95.56
456.836	114.56
457.056	113.56
457.276	111.56
457.497	110.56
457.717	111.56
457.937	114.56
458.157	106.56
458.377	106.56
458.598	99.56
458.818	103.56
459.038	92.56
459.258	104.56
459.478	110.56
459.698	106.56
459.918	102.56
460.138	123.56
460.358	108.56
460.578	113.56
460.798	123.56
461.018	120.56
461.238	111.56
461.458	118.56
461.678	120.56
461.898	124.56
462.118	126.56
462.338	122.56
462.558	117.56
462.777	124.56
462.997	132.56
463.217	128.56
463.437	130.56
463.657	126.56
463.876	130.56
464.096	134.56
464.316	125.56
464.536	123.56
464.755	118.56
464.975	126.56
465.195	124.56
465.414	115.56
465.634	118.56
465.854	118.56
466.073	118.56
466.293	111.56
466.512	123.56
466.732	106.56
466.951	108.56
467.171	105.56
467.391	108.56
467.61	112.56
467.829	118.56
468.049	122.56
468.268	127.56
468.488	103.56
468.707	119.56
468.927	118.56
469.146	122.56
469.365	133.56
469.585	114.56
469.804	121.56
470.023	118.56
470.243	128.56
470.462	128.56
470.681	134.56
470.901	122.56
471.12	124.56
471.339	137.56
471.558	124.56
471.777	109.56
471.997	122.56
472.216	104.56
472.435	118.56
472.654	123.56
472.873	103.56
473.092	107.56
473.311	110.56
473.53	105.56
473.749	118.56
473.968	132.56
474.187	111.56
474.406	106.56
474.625	112.56
474.844	112.56
475.063	105.56
475.282	110.56
475.501	116.56
475.72	118.56
475.939	124.56
476.158	122.56
476.377	123.56
476.596	104.56
476.814	118.56
477.033	104.56
477.252	101.56
477.471	121.56
477.69	125.56
477.908	118.56
478.127	135.56
478.346	128.56
478.564	115.56
478.783	112.56
479.002	134.56
479.22	125.56
479.439	123.56
479.658	126.56
479.876	125.56
480.095	110.56
480.313	117.56
480.532	109.56
480.751	126.56
480.969	106.56
481.188	113.56
481.406	117.56
481.624	111.56
481.843	118.56
482.061	114.56
482.28	111.56
482.498	121.56
482.717	122.56
482.935	116.56
483.153	128.56
483.372	129.56
483.59	130.56
483.808	129.56
484.027	116.56
484.245	120.56
484.463	125.56
484.681	119.56
484.9	128.56
485.118	123.56
485.336	119.56
485.554	123.56
485.772	125.56
485.99	125.56
486.209	114.56
486.427	132.56
486.645	118.56
486.863	129.56
487.081	131.56
487.299	128.56
487.517	136.56
487.735	141.56
487.953	143.56
488.171	132.56
488.389	132.56
488.607	118.56
488.825	137.56
489.043	145.56
489.261	126.56
489.479	131.56
489.696	143.56
489.914	128.56
490.132	121.56
490.35	132.56
490.568	122.56
490.786	138.56
491.003	157.56
491.221	170.56
491.439	154.56
491.657	151.56
491.874	147.56
492.092	146.56
492.31	175.56
492.527	170.56
492.745	135.56
492.963	162.56
493.18	144.56
493.398	134.56
493.615	141.56
493.833	141.56
494.05	144.56
494.268	144.56
494.485	142.56
494.703	150.56
494.92	133.56
495.138	153.56
495.355	152.56
495.573	147.56
495.79	141.56
496.008	154.56
496.225	151.56
496.442	147.56
496.66	133.56
496.877	157.56
497.094	149.56
497.312	138.56
497.529	140.56
497.746	139.56
497.963	139.56
498.181	133.56
498.398	142.56
498.615	141.56
498.832	145.56
499.049	140.56
499.267	136.56
499.484	143.56
499.701	164.56
499.918	188.56
500.135	202.56
500.352	218.56
500.569	208.56
500.786	197.56
501.003	196.56
501.22	197.56
501.437	183.56
501.654	175.56
501.871	162.56
502.088	146.56
502.305	167.56
502.522	154.56
502.739	155.56
502.956	134.56
503.172	156.56
503.389	126.56
503.606	130.56
503.823	124.56
504.04	140.56
504.256	148.56
504.473	143.56
504.69	136.56
504.907	136.56
505.123	130.56
505.34	135.56
505.557	138.56
505.773	126.56
505.99	136.56
506.207	123.56
506.423	134.56
506.64	120.56
506.856	125.56
507.073	126.56
507.289	135.56
507.506	126.56
507.722	128.56
507.939	120.56
508.155	144.56
508.372	127.56
508.588	130.56
508.805	125.56
509.021	126.56
509.238	122.56
509.454	110.56
509.67	105.56
509.887	105.56
510.103	108.56
510.319	100.56
510.536	106.56
510.752	102.56
