Data from StandardFe(NO3)3.TAE.3%Agarose.FlatLispGreen.Lamp.Energy10.07252019_HRD10591_11-55-54-441.txt Node
Date: Thu Jul 25 11:55:54 EDT 2019
User: cochatt
Spectrometer: HR+D1059
Trigger mode: 1
Integration Time (sec): 1.000000E-1
Scans to average: 1
Electric dark correction enabled: true
Nonlinearity correction enabled: false
Boxcar width: 0
XAxis mode: Wavelengths
Number of Pixels in Spectrum: 2048
>>>>>Begin Spectral Data<<<<<
223.165	-18.25
223.4	-18.25
223.635	-18.25
223.869	-24.25
224.104	-28.25
224.338	-11.25
224.573	-10.25
224.808	-1.25
225.042	-18.25
225.277	6.75
225.511	-10.25
225.746	2.75
225.98	0.75
226.215	9.75
226.449	10.75
226.683	27.75
226.918	26.75
227.152	36.75
227.387	40.75
227.621	31.75
227.856	40.75
228.09	30.75
228.324	40.75
228.559	41.75
228.793	46.75
229.027	66.75
229.262	64.75
229.496	68.75
229.73	57.75
229.964	62.75
230.199	69.75
230.433	74.75
230.667	76.75
230.901	72.75
231.136	79.75
231.37	75.75
231.604	87.75
231.838	73.75
232.072	78.75
232.306	72.75
232.541	79.75
232.775	78.75
233.009	78.75
233.243	66.75
233.477	77.75
233.711	71.75
233.945	73.75
234.179	72.75
234.413	72.75
234.647	75.75
234.881	64.75
235.115	67.75
235.349	73.75
235.583	77.75
235.817	76.75
236.051	65.75
236.285	69.75
236.519	79.75
236.753	74.75
236.987	84.75
237.221	86.75
237.455	74.75
237.689	74.75
237.922	77.75
238.156	77.75
238.39	81.75
238.624	60.75
238.858	81.75
239.091	81.75
239.325	68.75
239.559	66.75
239.793	67.75
240.027	64.75
240.26	82.75
240.494	72.75
240.728	81.75
240.961	79.75
241.195	75.75
241.429	87.75
241.662	69.75
241.896	69.75
242.13	76.75
242.363	70.75
242.597	74.75
242.83	71.75
243.064	71.75
243.298	68.75
243.531	69.75
243.765	69.75
243.998	77.75
244.232	82.75
244.465	66.75
244.699	74.75
244.932	77.75
245.166	67.75
245.399	71.75
245.633	81.75
245.866	93.75
246.099	65.75
246.333	85.75
246.566	72.75
246.8	63.75
247.033	80.75
247.266	83.75
247.5	70.75
247.733	67.75
247.966	71.75
248.2	59.75
248.433	81.75
248.666	66.75
248.899	76.75
249.133	66.75
249.366	84.75
249.599	77.75
249.832	63.75
250.066	84.75
250.299	76.75
250.532	84.75
250.765	85.75
250.998	61.75
251.231	69.75
251.465	66.75
251.698	54.75
251.931	89.75
252.164	77.75
252.397	87.75
252.63	78.75
252.863	70.75
253.096	82.75
253.329	83.75
253.562	73.75
253.795	87.75
254.028	78.75
254.261	90.75
254.494	77.75
254.727	66.75
254.96	75.75
255.193	85.75
255.426	82.75
255.659	79.75
255.892	89.75
256.124	77.75
256.357	81.75
256.59	69.75
256.823	78.75
257.056	86.75
257.289	83.75
257.521	81.75
257.754	70.75
257.987	74.75
258.22	81.75
258.452	70.75
258.685	66.75
258.918	68.75
259.151	84.75
259.383	77.75
259.616	75.75
259.849	87.75
260.081	79.75
260.314	90.75
260.547	70.75
260.779	81.75
261.012	75.75
261.244	83.75
261.477	67.75
261.71	74.75
261.942	78.75
262.175	84.75
262.407	73.75
262.64	80.75
262.872	83.75
263.105	72.75
263.337	74.75
263.57	73.75
263.802	82.75
264.035	84.75
264.267	80.75
264.499	79.75
264.732	83.75
264.964	86.75
265.197	78.75
265.429	84.75
265.661	81.75
265.894	71.75
266.126	87.75
266.358	73.75
266.591	71.75
266.823	76.75
267.055	82.75
267.287	81.75
267.52	80.75
267.752	81.75
267.984	90.75
268.216	70.75
268.448	79.75
268.681	82.75
268.913	80.75
269.145	94.75
269.377	73.75
269.609	90.75
269.841	99.75
270.073	81.75
270.306	59.75
270.538	84.75
270.77	80.75
271.002	87.75
271.234	82.75
271.466	85.75
271.698	74.75
271.93	85.75
272.162	79.75
272.394	87.75
272.626	96.75
272.858	76.75
273.09	81.75
273.322	78.75
273.553	87.75
273.785	97.75
274.017	90.75
274.249	70.75
274.481	80.75
274.713	96.75
274.945	85.75
275.176	73.75
275.408	68.75
275.64	88.75
275.872	84.75
276.104	85.75
276.335	89.75
276.567	85.75
276.799	82.75
277.031	75.75
277.262	81.75
277.494	82.75
277.726	66.75
277.957	81.75
278.189	86.75
278.421	74.75
278.652	73.75
278.884	87.75
279.115	81.75
279.347	89.75
279.579	83.75
279.81	79.75
280.042	77.75
280.273	92.75
280.505	77.75
280.736	81.75
280.968	83.75
281.199	80.75
281.431	85.75
281.662	89.75
281.894	82.75
282.125	75.75
282.356	71.75
282.588	76.75
282.819	79.75
283.051	80.75
283.282	90.75
283.513	86.75
283.745	67.75
283.976	76.75
284.207	80.75
284.439	83.75
284.67	83.75
284.901	70.75
285.132	88.75
285.364	79.75
285.595	66.75
285.826	87.75
286.057	88.75
286.288	85.75
286.52	82.75
286.751	74.75
286.982	83.75
287.213	71.75
287.444	80.75
287.675	92.75
287.906	82.75
288.138	92.75
288.369	85.75
288.6	77.75
288.831	64.75
289.062	78.75
289.293	81.75
289.524	74.75
289.755	88.75
289.986	96.75
290.217	79.75
290.448	89.75
290.679	93.75
290.91	88.75
291.141	86.75
291.371	77.75
291.602	82.75
291.833	73.75
292.064	86.75
292.295	79.75
292.526	74.75
292.757	71.75
292.987	71.75
293.218	71.75
293.449	80.75
293.68	89.75
293.91	98.75
294.141	82.75
294.372	79.75
294.603	80.75
294.833	93.75
295.064	93.75
295.295	77.75
295.525	73.75
295.756	89.75
295.987	86.75
296.217	71.75
296.448	81.75
296.679	72.75
296.909	60.75
297.14	70.75
297.37	69.75
297.601	73.75
297.831	74.75
298.062	79.75
298.292	87.75
298.523	91.75
298.753	88.75
298.984	71.75
299.214	88.75
299.445	72.75
299.675	84.75
299.905	83.75
300.136	71.75
300.366	75.75
300.597	80.75
300.827	87.75
301.057	79.75
301.288	77.75
301.518	84.75
301.748	91.75
301.979	83.75
302.209	78.75
302.439	74.75
302.669	79.75
302.9	94.75
303.13	74.75
303.36	90.75
303.59	71.75
303.82	71.75
304.051	72.75
304.281	80.75
304.511	85.75
304.741	80.75
304.971	87.75
305.201	85.75
305.431	85.75
305.661	87.75
305.891	85.75
306.121	81.75
306.352	75.75
306.582	85.75
306.812	86.75
307.042	84.75
307.272	90.75
307.502	68.75
307.731	89.75
307.961	77.75
308.191	77.75
308.421	81.75
308.651	91.75
308.881	81.75
309.111	72.75
309.341	85.75
309.571	77.75
309.8	85.75
310.03	74.75
310.26	80.75
310.49	81.75
310.72	79.75
310.949	70.75
311.179	78.75
311.409	76.75
311.639	81.75
311.868	95.75
312.098	72.75
312.328	79.75
312.557	80.75
312.787	73.75
313.017	94.75
313.246	75.75
313.476	86.75
313.706	79.75
313.935	66.75
314.165	91.75
314.394	73.75
314.624	78.75
314.853	90.75
315.083	85.75
315.312	91.75
315.542	84.75
315.771	95.75
316.001	80.75
316.23	78.75
316.46	94.75
316.689	82.75
316.919	78.75
317.148	89.75
317.377	90.75
317.607	88.75
317.836	65.75
318.065	76.75
318.295	88.75
318.524	82.75
318.753	85.75
318.983	84.75
319.212	80.75
319.441	80.75
319.67	76.75
319.9	74.75
320.129	89.75
320.358	74.75
320.587	86.75
320.816	86.75
321.046	96.75
321.275	85.75
321.504	89.75
321.733	87.75
321.962	64.75
322.191	85.75
322.42	92.75
322.649	88.75
322.878	82.75
323.108	79.75
323.337	97.75
323.566	84.75
323.795	82.75
324.024	80.75
324.253	70.75
324.482	84.75
324.71	83.75
324.939	71.75
325.168	72.75
325.397	84.75
325.626	78.75
325.855	64.75
326.084	80.75
326.313	95.75
326.542	79.75
326.77	96.75
326.999	73.75
327.228	87.75
327.457	80.75
327.686	88.75
327.914	81.75
328.143	84.75
328.372	87.75
328.6	76.75
328.829	73.75
329.058	82.75
329.287	75.75
329.515	86.75
329.744	76.75
329.972	87.75
330.201	74.75
330.43	83.75
330.658	91.75
330.887	69.75
331.115	89.75
331.344	73.75
331.572	78.75
331.801	76.75
332.03	77.75
332.258	80.75
332.486	73.75
332.715	89.75
332.943	84.75
333.172	73.75
333.4	81.75
333.629	87.75
333.857	83.75
334.085	72.75
334.314	85.75
334.542	79.75
334.771	70.75
334.999	76.75
335.227	73.75
335.455	71.75
335.684	92.75
335.912	77.75
336.14	95.75
336.369	82.75
336.597	81.75
336.825	81.75
337.053	81.75
337.281	83.75
337.51	82.75
337.738	78.75
337.966	76.75
338.194	84.75
338.422	93.75
338.65	76.75
338.878	79.75
339.106	80.75
339.334	88.75
339.562	78.75
339.79	86.75
340.018	80.75
340.246	74.75
340.474	84.75
340.702	77.75
340.93	73.75
341.158	72.75
341.386	91.75
341.614	77.75
341.842	88.75
342.07	91.75
342.298	82.75
342.526	76.75
342.754	86.75
342.981	74.75
343.209	79.75
343.437	79.75
343.665	79.75
343.893	74.75
344.12	69.75
344.348	87.75
344.576	95.75
344.804	77.75
345.031	96.75
345.259	72.75
345.487	75.75
345.714	74.75
345.942	89.75
346.17	88.75
346.397	92.75
346.625	84.75
346.853	78.75
347.08	87.75
347.308	86.75
347.535	82.75
347.763	80.75
347.99	81.75
348.218	80.75
348.445	81.75
348.673	87.75
348.9	87.75
349.128	85.75
349.355	87.75
349.583	74.75
349.81	75.75
350.037	82.75
350.265	84.75
350.492	84.75
350.72	87.75
350.947	87.75
351.174	81.75
351.402	71.75
351.629	66.75
351.856	82.75
352.083	68.75
352.311	81.75
352.538	97.75
352.765	97.75
352.992	105.75
353.22	88.75
353.447	74.75
353.674	71.75
353.901	86.75
354.128	91.75
354.355	88.75
354.583	77.75
354.81	84.75
355.037	84.75
355.264	79.75
355.491	74.75
355.718	83.75
355.945	77.75
356.172	76.75
356.399	88.75
356.626	73.75
356.853	82.75
357.08	71.75
357.307	86.75
357.534	95.75
357.761	82.75
357.988	84.75
358.215	77.75
358.441	80.75
358.668	83.75
358.895	82.75
359.122	83.75
359.349	80.75
359.576	89.75
359.802	79.75
360.029	98.75
360.256	93.75
360.483	77.75
360.709	82.75
360.936	73.75
361.163	105.75
361.39	82.75
361.616	79.75
361.843	77.75
362.07	77.75
362.296	83.75
362.523	73.75
362.749	83.75
362.976	86.75
363.203	83.75
363.429	89.75
363.656	75.75
363.882	78.75
364.109	92.75
364.335	79.75
364.562	88.75
364.788	88.75
365.015	94.75
365.241	87.75
365.468	91.75
365.694	92.75
365.92	71.75
366.147	80.75
366.373	86.75
366.599	80.75
366.826	93.75
367.052	70.75
367.278	76.75
367.505	81.75
367.731	87.75
367.957	70.75
368.184	84.75
368.41	83.75
368.636	79.75
368.862	94.75
369.089	89.75
369.315	94.75
369.541	80.75
369.767	85.75
369.993	77.75
370.219	93.75
370.445	83.75
370.672	82.75
370.898	98.75
371.124	93.75
371.35	85.75
371.576	92.75
371.802	79.75
372.028	80.75
372.254	89.75
372.48	96.75
372.706	92.75
372.932	94.75
373.158	89.75
373.384	82.75
373.61	87.75
373.835	97.75
374.061	74.75
374.287	90.75
374.513	97.75
374.739	83.75
374.965	90.75
375.191	81.75
375.416	70.75
375.642	85.75
375.868	88.75
376.094	93.75
376.319	84.75
376.545	82.75
376.771	74.75
376.997	83.75
377.222	82.75
377.448	91.75
377.674	98.75
377.899	86.75
378.125	89.75
378.35	90.75
378.576	81.75
378.802	88.75
379.027	93.75
379.253	76.75
379.478	79.75
379.704	80.75
379.929	89.75
380.155	95.75
380.38	87.75
380.606	79.75
380.831	77.75
381.057	97.75
381.282	97.75
381.507	86.75
381.733	97.75
381.958	92.75
382.184	81.75
382.409	79.75
382.634	92.75
382.86	92.75
383.085	77.75
383.31	82.75
383.535	90.75
383.761	89.75
383.986	89.75
384.211	78.75
384.436	92.75
384.662	76.75
384.887	91.75
385.112	87.75
385.337	79.75
385.562	102.75
385.787	77.75
386.013	90.75
386.238	72.75
386.463	92.75
386.688	84.75
386.913	104.75
387.138	87.75
387.363	81.75
387.588	81.75
387.813	85.75
388.038	104.75
388.263	98.75
388.488	94.75
388.713	80.75
388.938	93.75
389.163	79.75
389.387	96.75
389.612	87.75
389.837	87.75
390.062	98.75
390.287	104.75
390.512	92.75
390.736	84.75
390.961	96.75
391.186	87.75
391.411	85.75
391.636	82.75
391.86	86.75
392.085	90.75
392.31	80.75
392.534	93.75
392.759	90.75
392.984	83.75
393.208	90.75
393.433	105.75
393.658	95.75
393.882	81.75
394.107	97.75
394.331	108.75
394.556	106.75
394.78	106.75
395.005	103.75
395.229	101.75
395.454	110.75
395.678	89.75
395.903	94.75
396.127	103.75
396.352	100.75
396.576	95.75
396.801	93.75
397.025	93.75
397.249	90.75
397.474	95.75
397.698	93.75
397.922	89.75
398.147	88.75
398.371	74.75
398.595	89.75
398.82	90.75
399.044	117.75
399.268	112.75
399.492	101.75
399.717	115.75
399.941	92.75
400.165	90.75
400.389	93.75
400.613	94.75
400.837	96.75
401.062	114.75
401.286	86.75
401.51	94.75
401.734	100.75
401.958	111.75
402.182	86.75
402.406	112.75
402.63	109.75
402.854	109.75
403.078	120.75
403.302	89.75
403.526	101.75
403.75	94.75
403.974	96.75
404.198	94.75
404.422	107.75
404.645	103.75
404.869	97.75
405.093	101.75
405.317	106.75
405.541	107.75
405.765	120.75
405.988	98.75
406.212	100.75
406.436	84.75
406.66	105.75
406.883	97.75
407.107	110.75
407.331	114.75
407.555	89.75
407.778	112.75
408.002	105.75
408.226	105.75
408.449	104.75
408.673	106.75
408.896	117.75
409.12	110.75
409.344	86.75
409.567	104.75
409.791	112.75
410.014	108.75
410.238	94.75
410.461	112.75
410.685	106.75
410.908	108.75
411.132	98.75
411.355	106.75
411.578	112.75
411.802	96.75
412.025	98.75
412.249	109.75
412.472	91.75
412.695	104.75
412.919	104.75
413.142	98.75
413.365	104.75
413.589	101.75
413.812	95.75
414.035	111.75
414.258	103.75
414.482	94.75
414.705	115.75
414.928	104.75
415.151	116.75
415.374	105.75
415.597	105.75
415.821	111.75
416.044	102.75
416.267	99.75
416.49	110.75
416.713	108.75
416.936	97.75
417.159	108.75
417.382	99.75
417.605	100.75
417.828	92.75
418.051	111.75
418.274	104.75
418.497	109.75
418.72	95.75
418.943	103.75
419.166	121.75
419.389	119.75
419.611	119.75
419.834	104.75
420.057	110.75
420.28	100.75
420.503	100.75
420.726	111.75
420.948	124.75
421.171	101.75
421.394	110.75
421.617	107.75
421.839	106.75
422.062	114.75
422.285	105.75
422.507	106.75
422.73	100.75
422.953	104.75
423.175	98.75
423.398	102.75
423.621	103.75
423.843	113.75
424.066	108.75
424.288	101.75
424.511	115.75
424.733	104.75
424.956	107.75
425.178	120.75
425.401	114.75
425.623	100.75
425.846	108.75
426.068	112.75
426.291	106.75
426.513	125.75
426.735	112.75
426.958	114.75
427.18	110.75
427.402	98.75
427.625	110.75
427.847	100.75
428.069	114.75
428.292	96.75
428.514	94.75
428.736	116.75
428.958	101.75
429.181	110.75
429.403	121.75
429.625	106.75
429.847	113.75
430.069	124.75
430.292	97.75
430.514	89.75
430.736	108.75
430.958	117.75
431.18	97.75
431.402	114.75
431.624	108.75
431.846	90.75
432.068	110.75
432.29	104.75
432.512	114.75
432.734	114.75
432.956	112.75
433.178	111.75
433.4	111.75
433.622	108.75
433.844	95.75
434.066	101.75
434.287	100.75
434.509	104.75
434.731	97.75
434.953	113.75
435.175	88.75
435.397	113.75
435.618	110.75
435.84	94.75
436.062	106.75
436.284	108.75
436.505	108.75
436.727	99.75
436.949	93.75
437.17	115.75
437.392	112.75
437.614	105.75
437.835	95.75
438.057	98.75
438.278	104.75
438.5	105.75
438.721	122.75
438.943	121.75
439.165	97.75
439.386	114.75
439.608	128.75
439.829	99.75
440.05	121.75
440.272	95.75
440.493	102.75
440.715	118.75
440.936	110.75
441.158	114.75
441.379	121.75
441.6	99.75
441.822	102.75
442.043	118.75
442.264	105.75
442.486	108.75
442.707	119.75
442.928	131.75
443.149	96.75
443.371	116.75
443.592	116.75
443.813	108.75
444.034	115.75
444.255	108.75
444.476	100.75
444.698	121.75
444.919	116.75
445.14	250.75
445.361	195.75
445.582	121.75
445.803	100.75
446.024	116.75
446.245	112.75
446.466	116.75
446.687	116.75
446.908	109.75
447.129	110.75
447.35	114.75
447.571	104.75
447.792	118.75
448.013	134.75
448.234	119.75
448.455	102.75
448.675	104.75
448.896	105.75
449.117	104.75
449.338	104.75
449.559	111.75
449.779	101.75
450	100.75
450.221	102.75
450.442	109.75
450.662	112.75
450.883	110.75
451.104	114.75
451.324	95.75
451.545	105.75
451.766	102.75
451.986	110.75
452.207	106.75
452.428	100.75
452.648	113.75
452.869	103.75
453.089	90.75
453.31	105.75
453.53	112.75
453.751	100.75
453.971	90.75
454.192	95.75
454.412	115.75
454.633	100.75
454.853	106.75
455.073	110.75
455.294	94.75
455.514	104.75
455.734	97.75
455.955	110.75
456.175	112.75
456.395	117.75
456.616	97.75
456.836	100.75
457.056	84.75
457.276	105.75
457.497	98.75
457.717	89.75
457.937	102.75
458.157	97.75
458.377	102.75
458.598	100.75
458.818	95.75
459.038	89.75
459.258	90.75
459.478	102.75
459.698	105.75
459.918	104.75
460.138	103.75
460.358	102.75
460.578	109.75
460.798	114.75
461.018	105.75
461.238	110.75
461.458	103.75
461.678	107.75
461.898	121.75
462.118	116.75
462.338	102.75
462.558	102.75
462.777	125.75
462.997	121.75
463.217	120.75
463.437	117.75
463.657	114.75
463.876	117.75
464.096	105.75
464.316	106.75
464.536	100.75
464.755	112.75
464.975	110.75
465.195	108.75
465.414	109.75
465.634	108.75
465.854	137.75
466.073	105.75
466.293	119.75
466.512	108.75
466.732	124.75
466.951	98.75
467.171	126.75
467.391	120.75
467.61	122.75
467.829	114.75
468.049	114.75
468.268	115.75
468.488	108.75
468.707	109.75
468.927	110.75
469.146	120.75
469.365	129.75
469.585	121.75
469.804	119.75
470.023	116.75
470.243	116.75
470.462	117.75
470.681	118.75
470.901	127.75
471.12	123.75
471.339	111.75
471.558	106.75
471.777	111.75
471.997	114.75
472.216	115.75
472.435	115.75
472.654	113.75
472.873	100.75
473.092	110.75
473.311	95.75
473.53	108.75
473.749	116.75
473.968	100.75
474.187	114.75
474.406	105.75
474.625	120.75
474.844	116.75
475.063	98.75
475.282	105.75
475.501	93.75
475.72	118.75
475.939	112.75
476.158	119.75
476.377	104.75
476.596	100.75
476.814	109.75
477.033	120.75
477.252	121.75
477.471	108.75
477.69	103.75
477.908	121.75
478.127	136.75
478.346	113.75
478.564	114.75
478.783	117.75
479.002	97.75
479.22	121.75
479.439	134.75
479.658	110.75
479.876	106.75
480.095	103.75
480.313	127.75
480.532	124.75
480.751	110.75
480.969	101.75
481.188	103.75
481.406	110.75
481.624	100.75
481.843	102.75
482.061	111.75
482.28	110.75
482.498	111.75
482.717	94.75
482.935	108.75
483.153	125.75
483.372	110.75
483.59	124.75
483.808	112.75
484.027	117.75
484.245	118.75
484.463	126.75
484.681	126.75
484.9	121.75
485.118	135.75
485.336	121.75
485.554	112.75
485.772	106.75
485.99	120.75
486.209	113.75
486.427	119.75
486.645	109.75
486.863	135.75
487.081	132.75
487.299	135.75
487.517	116.75
487.735	132.75
487.953	130.75
488.171	140.75
488.389	124.75
488.607	142.75
488.825	136.75
489.043	118.75
489.261	111.75
489.479	117.75
489.696	111.75
489.914	126.75
490.132	117.75
490.35	130.75
490.568	138.75
490.786	142.75
491.003	139.75
491.221	138.75
491.439	140.75
491.657	150.75
491.874	138.75
492.092	160.75
492.31	158.75
492.527	160.75
492.745	142.75
492.963	158.75
493.18	136.75
493.398	152.75
493.615	128.75
493.833	146.75
494.05	144.75
494.268	133.75
494.485	151.75
494.703	155.75
494.92	144.75
495.138	149.75
495.355	138.75
495.573	117.75
495.79	140.75
496.008	151.75
496.225	150.75
496.442	139.75
496.66	137.75
496.877	138.75
497.094	150.75
497.312	143.75
497.529	146.75
497.746	145.75
497.963	114.75
498.181	153.75
498.398	134.75
498.615	142.75
498.832	135.75
499.049	139.75
499.267	145.75
499.484	151.75
499.701	156.75
499.918	167.75
500.135	194.75
500.352	200.75
500.569	218.75
500.786	209.75
501.003	185.75
501.22	170.75
501.437	160.75
501.654	172.75
501.871	153.75
502.088	152.75
502.305	134.75
502.522	130.75
502.739	142.75
502.956	151.75
503.172	141.75
503.389	145.75
503.606	112.75
503.823	126.75
504.04	133.75
504.256	126.75
504.473	122.75
504.69	136.75
504.907	132.75
505.123	134.75
505.34	114.75
505.557	120.75
505.773	121.75
505.99	137.75
506.207	120.75
506.423	128.75
506.64	119.75
506.856	114.75
507.073	112.75
507.289	118.75
507.506	123.75
507.722	128.75
507.939	131.75
508.155	106.75
508.372	119.75
508.588	107.75
508.805	116.75
509.021	109.75
509.238	129.75
509.454	102.75
509.67	114.75
509.887	112.75
510.103	104.75
510.319	118.75
510.536	104.75
510.752	88.75
510.968	111.75
511.184	93.75
511.401	105.75
511.617	113.75
511.833	113.75
512.049	119.75
512.265	117.75
512.481	104.75
512.698	114.75
