Data from StandardFe(NO3)3.TAE.3%Agarose.FlatLispGreen.Lamp.Energy10.07252019_HRD10591_11-55-40-441.txt Node
Date: Thu Jul 25 11:55:40 EDT 2019
User: cochatt
Spectrometer: HR+D1059
Trigger mode: 1
Integration Time (sec): 1.000000E-1
Scans to average: 1
Electric dark correction enabled: true
Nonlinearity correction enabled: false
Boxcar width: 0
XAxis mode: Wavelengths
Number of Pixels in Spectrum: 2048
>>>>>Begin Spectral Data<<<<<
223.165	-5.81
223.4	-5.81
223.635	-5.81
223.869	-34.81
224.104	-26.81
224.338	-20.81
224.573	-17.81
224.808	-6.81
225.042	-12.81
225.277	3.19
225.511	2.19
225.746	2.19
225.98	7.19
226.215	7.19
226.449	21.19
226.683	34.19
226.918	16.19
227.152	32.19
227.387	40.19
227.621	36.19
227.856	41.19
228.09	44.19
228.324	49.19
228.559	53.19
228.793	64.19
229.027	62.19
229.262	63.19
229.496	57.19
229.73	64.19
229.964	62.19
230.199	74.19
230.433	72.19
230.667	76.19
230.901	79.19
231.136	64.19
231.37	79.19
231.604	73.19
231.838	87.19
232.072	81.19
232.306	88.19
232.541	75.19
232.775	73.19
233.009	81.19
233.243	82.19
233.477	88.19
233.711	78.19
233.945	80.19
234.179	72.19
234.413	80.19
234.647	85.19
234.881	90.19
235.115	84.19
235.349	79.19
235.583	78.19
235.817	84.19
236.051	73.19
236.285	89.19
236.519	74.19
236.753	78.19
236.987	77.19
237.221	66.19
237.455	68.19
237.689	72.19
237.922	83.19
238.156	72.19
238.39	78.19
238.624	68.19
238.858	77.19
239.091	79.19
239.325	72.19
239.559	55.19
239.793	79.19
240.027	78.19
240.26	85.19
240.494	72.19
240.728	77.19
240.961	64.19
241.195	72.19
241.429	74.19
241.662	83.19
241.896	67.19
242.13	69.19
242.363	80.19
242.597	78.19
242.83	71.19
243.064	84.19
243.298	75.19
243.531	73.19
243.765	91.19
243.998	90.19
244.232	91.19
244.465	62.19
244.699	77.19
244.932	87.19
245.166	66.19
245.399	72.19
245.633	77.19
245.866	69.19
246.099	70.19
246.333	72.19
246.566	82.19
246.8	78.19
247.033	83.19
247.266	73.19
247.5	84.19
247.733	83.19
247.966	71.19
248.2	71.19
248.433	75.19
248.666	80.19
248.899	71.19
249.133	80.19
249.366	76.19
249.599	61.19
249.832	81.19
250.066	91.19
250.299	84.19
250.532	77.19
250.765	80.19
250.998	61.19
251.231	72.19
251.465	66.19
251.698	74.19
251.931	83.19
252.164	67.19
252.397	76.19
252.63	80.19
252.863	83.19
253.096	85.19
253.329	66.19
253.562	74.19
253.795	69.19
254.028	78.19
254.261	80.19
254.494	85.19
254.727	75.19
254.96	75.19
255.193	81.19
255.426	74.19
255.659	86.19
255.892	66.19
256.124	91.19
256.357	82.19
256.59	78.19
256.823	71.19
257.056	87.19
257.289	84.19
257.521	81.19
257.754	89.19
257.987	83.19
258.22	86.19
258.452	69.19
258.685	69.19
258.918	86.19
259.151	84.19
259.383	75.19
259.616	73.19
259.849	80.19
260.081	74.19
260.314	78.19
260.547	72.19
260.779	81.19
261.012	86.19
261.244	81.19
261.477	79.19
261.71	71.19
261.942	84.19
262.175	73.19
262.407	69.19
262.64	77.19
262.872	93.19
263.105	90.19
263.337	85.19
263.57	74.19
263.802	86.19
264.035	85.19
264.267	85.19
264.499	85.19
264.732	87.19
264.964	74.19
265.197	79.19
265.429	78.19
265.661	81.19
265.894	86.19
266.126	86.19
266.358	84.19
266.591	82.19
266.823	80.19
267.055	92.19
267.287	67.19
267.52	81.19
267.752	74.19
267.984	78.19
268.216	78.19
268.448	88.19
268.681	83.19
268.913	80.19
269.145	64.19
269.377	80.19
269.609	81.19
269.841	80.19
270.073	87.19
270.306	94.19
270.538	86.19
270.77	69.19
271.002	73.19
271.234	71.19
271.466	74.19
271.698	81.19
271.93	76.19
272.162	80.19
272.394	86.19
272.626	76.19
272.858	77.19
273.09	85.19
273.322	73.19
273.553	81.19
273.785	86.19
274.017	72.19
274.249	79.19
274.481	94.19
274.713	87.19
274.945	74.19
275.176	83.19
275.408	87.19
275.64	89.19
275.872	70.19
276.104	81.19
276.335	76.19
276.567	74.19
276.799	92.19
277.031	66.19
277.262	71.19
277.494	69.19
277.726	79.19
277.957	84.19
278.189	72.19
278.421	72.19
278.652	91.19
278.884	82.19
279.115	76.19
279.347	63.19
279.579	84.19
279.81	80.19
280.042	83.19
280.273	72.19
280.505	81.19
280.736	82.19
280.968	78.19
281.199	83.19
281.431	72.19
281.662	80.19
281.894	79.19
282.125	85.19
282.356	80.19
282.588	80.19
282.819	88.19
283.051	81.19
283.282	72.19
283.513	84.19
283.745	73.19
283.976	72.19
284.207	87.19
284.439	84.19
284.67	79.19
284.901	81.19
285.132	79.19
285.364	76.19
285.595	89.19
285.826	79.19
286.057	94.19
286.288	86.19
286.52	72.19
286.751	94.19
286.982	81.19
287.213	84.19
287.444	78.19
287.675	77.19
287.906	86.19
288.138	88.19
288.369	79.19
288.6	79.19
288.831	77.19
289.062	85.19
289.293	82.19
289.524	92.19
289.755	92.19
289.986	79.19
290.217	78.19
290.448	82.19
290.679	93.19
290.91	78.19
291.141	83.19
291.371	77.19
291.602	87.19
291.833	88.19
292.064	77.19
292.295	89.19
292.526	90.19
292.757	96.19
292.987	80.19
293.218	76.19
293.449	66.19
293.68	88.19
293.91	76.19
294.141	85.19
294.372	73.19
294.603	70.19
294.833	93.19
295.064	87.19
295.295	82.19
295.525	98.19
295.756	83.19
295.987	71.19
296.217	73.19
296.448	78.19
296.679	78.19
296.909	83.19
297.14	84.19
297.37	86.19
297.601	82.19
297.831	75.19
298.062	84.19
298.292	75.19
298.523	82.19
298.753	77.19
298.984	78.19
299.214	85.19
299.445	93.19
299.675	82.19
299.905	90.19
300.136	89.19
300.366	80.19
300.597	82.19
300.827	89.19
301.057	72.19
301.288	87.19
301.518	79.19
301.748	89.19
301.979	89.19
302.209	85.19
302.439	84.19
302.669	78.19
302.9	73.19
303.13	79.19
303.36	86.19
303.59	64.19
303.82	81.19
304.051	76.19
304.281	73.19
304.511	91.19
304.741	90.19
304.971	98.19
305.201	79.19
305.431	74.19
305.661	72.19
305.891	89.19
306.121	84.19
306.352	82.19
306.582	80.19
306.812	87.19
307.042	71.19
307.272	76.19
307.502	84.19
307.731	90.19
307.961	99.19
308.191	86.19
308.421	69.19
308.651	90.19
308.881	91.19
309.111	81.19
309.341	84.19
309.571	102.19
309.8	85.19
310.03	88.19
310.26	91.19
310.49	84.19
310.72	85.19
310.949	83.19
311.179	78.19
311.409	73.19
311.639	84.19
311.868	91.19
312.098	82.19
312.328	93.19
312.557	78.19
312.787	80.19
313.017	81.19
313.246	81.19
313.476	81.19
313.706	77.19
313.935	82.19
314.165	80.19
314.394	99.19
314.624	81.19
314.853	86.19
315.083	84.19
315.312	83.19
315.542	69.19
315.771	77.19
316.001	94.19
316.23	80.19
316.46	81.19
316.689	88.19
316.919	73.19
317.148	81.19
317.377	87.19
317.607	89.19
317.836	88.19
318.065	73.19
318.295	78.19
318.524	77.19
318.753	74.19
318.983	84.19
319.212	81.19
319.441	78.19
319.67	71.19
319.9	69.19
320.129	95.19
320.358	80.19
320.587	70.19
320.816	81.19
321.046	77.19
321.275	88.19
321.504	82.19
321.733	88.19
321.962	92.19
322.191	85.19
322.42	71.19
322.649	71.19
322.878	77.19
323.108	86.19
323.337	95.19
323.566	80.19
323.795	84.19
324.024	92.19
324.253	81.19
324.482	97.19
324.71	85.19
324.939	80.19
325.168	74.19
325.397	82.19
325.626	81.19
325.855	91.19
326.084	86.19
326.313	80.19
326.542	80.19
326.77	88.19
326.999	88.19
327.228	79.19
327.457	79.19
327.686	79.19
327.914	85.19
328.143	77.19
328.372	90.19
328.6	91.19
328.829	83.19
329.058	81.19
329.287	60.19
329.515	76.19
329.744	72.19
329.972	94.19
330.201	88.19
330.43	78.19
330.658	73.19
330.887	79.19
331.115	89.19
331.344	79.19
331.572	85.19
331.801	84.19
332.03	90.19
332.258	73.19
332.486	83.19
332.715	84.19
332.943	84.19
333.172	89.19
333.4	92.19
333.629	94.19
333.857	80.19
334.085	80.19
334.314	89.19
334.542	93.19
334.771	93.19
334.999	91.19
335.227	91.19
335.455	89.19
335.684	93.19
335.912	78.19
336.14	89.19
336.369	79.19
336.597	86.19
336.825	96.19
337.053	80.19
337.281	92.19
337.51	78.19
337.738	94.19
337.966	83.19
338.194	89.19
338.422	91.19
338.65	84.19
338.878	75.19
339.106	77.19
339.334	80.19
339.562	87.19
339.79	91.19
340.018	84.19
340.246	92.19
340.474	68.19
340.702	78.19
340.93	75.19
341.158	80.19
341.386	73.19
341.614	76.19
341.842	80.19
342.07	76.19
342.298	81.19
342.526	89.19
342.754	83.19
342.981	70.19
343.209	76.19
343.437	74.19
343.665	75.19
343.893	88.19
344.12	87.19
344.348	84.19
344.576	81.19
344.804	100.19
345.031	84.19
345.259	87.19
345.487	74.19
345.714	83.19
345.942	74.19
346.17	76.19
346.397	79.19
346.625	88.19
346.853	73.19
347.08	88.19
347.308	88.19
347.535	88.19
347.763	88.19
347.99	82.19
348.218	95.19
348.445	70.19
348.673	76.19
348.9	77.19
349.128	80.19
349.355	80.19
349.583	75.19
349.81	71.19
350.037	86.19
350.265	74.19
350.492	80.19
350.72	69.19
350.947	80.19
351.174	82.19
351.402	61.19
351.629	81.19
351.856	79.19
352.083	80.19
352.311	80.19
352.538	79.19
352.765	85.19
352.992	74.19
353.22	82.19
353.447	84.19
353.674	81.19
353.901	99.19
354.128	87.19
354.355	90.19
354.583	89.19
354.81	82.19
355.037	83.19
355.264	73.19
355.491	65.19
355.718	86.19
355.945	96.19
356.172	88.19
356.399	87.19
356.626	80.19
356.853	72.19
357.08	75.19
357.307	85.19
357.534	88.19
357.761	90.19
357.988	89.19
358.215	79.19
358.441	60.19
358.668	82.19
358.895	93.19
359.122	85.19
359.349	89.19
359.576	95.19
359.802	85.19
360.029	72.19
360.256	82.19
360.483	69.19
360.709	88.19
360.936	77.19
361.163	82.19
361.39	76.19
361.616	76.19
361.843	78.19
362.07	78.19
362.296	95.19
362.523	82.19
362.749	74.19
362.976	76.19
363.203	77.19
363.429	84.19
363.656	62.19
363.882	88.19
364.109	77.19
364.335	91.19
364.562	93.19
364.788	78.19
365.015	90.19
365.241	84.19
365.468	81.19
365.694	97.19
365.92	88.19
366.147	84.19
366.373	95.19
366.599	74.19
366.826	84.19
367.052	88.19
367.278	80.19
367.505	70.19
367.731	90.19
367.957	74.19
368.184	72.19
368.41	78.19
368.636	84.19
368.862	88.19
369.089	81.19
369.315	86.19
369.541	87.19
369.767	79.19
369.993	85.19
370.219	80.19
370.445	65.19
370.672	81.19
370.898	87.19
371.124	66.19
371.35	79.19
371.576	78.19
371.802	87.19
372.028	74.19
372.254	77.19
372.48	69.19
372.706	81.19
372.932	84.19
373.158	97.19
373.384	88.19
373.61	86.19
373.835	90.19
374.061	88.19
374.287	98.19
374.513	82.19
374.739	75.19
374.965	78.19
375.191	84.19
375.416	76.19
375.642	92.19
375.868	77.19
376.094	89.19
376.319	91.19
376.545	81.19
376.771	81.19
376.997	93.19
377.222	96.19
377.448	75.19
377.674	85.19
377.899	72.19
378.125	81.19
378.35	96.19
378.576	81.19
378.802	77.19
379.027	83.19
379.253	90.19
379.478	90.19
379.704	84.19
379.929	94.19
380.155	92.19
380.38	73.19
380.606	72.19
380.831	83.19
381.057	99.19
381.282	85.19
381.507	82.19
381.733	108.19
381.958	70.19
382.184	83.19
382.409	87.19
382.634	77.19
382.86	93.19
383.085	96.19
383.31	83.19
383.535	92.19
383.761	80.19
383.986	97.19
384.211	83.19
384.436	76.19
384.662	77.19
384.887	85.19
385.112	96.19
385.337	78.19
385.562	83.19
385.787	86.19
386.013	100.19
386.238	100.19
386.463	91.19
386.688	103.19
386.913	80.19
387.138	93.19
387.363	96.19
387.588	95.19
387.813	88.19
388.038	95.19
388.263	102.19
388.488	81.19
388.713	89.19
388.938	88.19
389.163	94.19
389.387	81.19
389.612	89.19
389.837	87.19
390.062	83.19
390.287	94.19
390.512	86.19
390.736	98.19
390.961	73.19
391.186	83.19
391.411	84.19
391.636	84.19
391.86	100.19
392.085	104.19
392.31	90.19
392.534	86.19
392.759	93.19
392.984	102.19
393.208	95.19
393.433	97.19
393.658	100.19
393.882	100.19
394.107	96.19
394.331	106.19
394.556	96.19
394.78	97.19
395.005	78.19
395.229	84.19
395.454	88.19
395.678	99.19
395.903	112.19
396.127	80.19
396.352	97.19
396.576	84.19
396.801	104.19
397.025	98.19
397.249	93.19
397.474	109.19
397.698	92.19
397.922	94.19
398.147	97.19
398.371	92.19
398.595	105.19
398.82	89.19
399.044	100.19
399.268	99.19
399.492	111.19
399.717	106.19
399.941	116.19
400.165	100.19
400.389	122.19
400.613	101.19
400.837	108.19
401.062	112.19
401.286	99.19
401.51	95.19
401.734	92.19
401.958	116.19
402.182	110.19
402.406	101.19
402.63	108.19
402.854	103.19
403.078	103.19
403.302	88.19
403.526	91.19
403.75	115.19
403.974	108.19
404.198	122.19
404.422	114.19
404.645	95.19
404.869	108.19
405.093	122.19
405.317	92.19
405.541	97.19
405.765	94.19
405.988	112.19
406.212	104.19
406.436	99.19
406.66	103.19
406.883	99.19
407.107	102.19
407.331	102.19
407.555	107.19
407.778	107.19
408.002	99.19
408.226	122.19
408.449	109.19
408.673	102.19
408.896	113.19
409.12	108.19
409.344	108.19
409.567	97.19
409.791	100.19
410.014	97.19
410.238	106.19
410.461	110.19
410.685	108.19
410.908	113.19
411.132	113.19
411.355	102.19
411.578	94.19
411.802	108.19
412.025	106.19
412.249	114.19
412.472	116.19
412.695	108.19
412.919	103.19
413.142	102.19
413.365	113.19
413.589	114.19
413.812	110.19
414.035	102.19
414.258	100.19
414.482	117.19
414.705	117.19
414.928	100.19
415.151	124.19
415.374	125.19
415.597	100.19
415.821	95.19
416.044	96.19
416.267	103.19
416.49	110.19
416.713	124.19
416.936	117.19
417.159	101.19
417.382	97.19
417.605	105.19
417.828	124.19
418.051	110.19
418.274	97.19
418.497	117.19
418.72	106.19
418.943	113.19
419.166	102.19
419.389	111.19
419.611	100.19
419.834	108.19
420.057	87.19
420.28	122.19
420.503	112.19
420.726	122.19
420.948	95.19
421.171	110.19
421.394	102.19
421.617	113.19
421.839	110.19
422.062	107.19
422.285	100.19
422.507	115.19
422.73	117.19
422.953	117.19
423.175	118.19
423.398	122.19
423.621	114.19
423.843	109.19
424.066	105.19
424.288	104.19
424.511	113.19
424.733	119.19
424.956	129.19
425.178	111.19
425.401	118.19
425.623	120.19
425.846	108.19
426.068	124.19
426.291	108.19
426.513	120.19
426.735	103.19
426.958	104.19
427.18	116.19
427.402	112.19
427.625	89.19
427.847	116.19
428.069	105.19
428.292	115.19
428.514	105.19
428.736	124.19
428.958	94.19
429.181	109.19
429.403	112.19
429.625	115.19
429.847	97.19
430.069	92.19
430.292	116.19
430.514	106.19
430.736	97.19
430.958	114.19
431.18	116.19
431.402	110.19
431.624	113.19
431.846	101.19
432.068	94.19
432.29	91.19
432.512	107.19
432.734	98.19
432.956	115.19
433.178	108.19
433.4	95.19
433.622	116.19
433.844	101.19
434.066	107.19
434.287	105.19
434.509	105.19
434.731	99.19
434.953	111.19
435.175	118.19
435.397	113.19
435.618	112.19
435.84	97.19
436.062	106.19
436.284	117.19
436.505	109.19
436.727	104.19
436.949	112.19
437.17	116.19
437.392	111.19
437.614	93.19
437.835	95.19
438.057	100.19
438.278	112.19
438.5	116.19
438.721	108.19
438.943	121.19
439.165	107.19
439.386	104.19
439.608	125.19
439.829	100.19
440.05	118.19
440.272	99.19
440.493	105.19
440.715	104.19
440.936	116.19
441.158	119.19
441.379	112.19
441.6	118.19
441.822	124.19
442.043	122.19
442.264	109.19
442.486	105.19
442.707	110.19
442.928	113.19
443.149	117.19
443.371	125.19
443.592	119.19
443.813	120.19
444.034	118.19
444.255	116.19
444.476	110.19
444.698	105.19
444.919	113.19
445.14	219.19
445.361	170.19
445.582	131.19
445.803	117.19
446.024	109.19
446.245	113.19
446.466	108.19
446.687	105.19
446.908	104.19
447.129	120.19
447.35	115.19
447.571	135.19
447.792	98.19
448.013	105.19
448.234	112.19
448.455	112.19
448.675	110.19
448.896	122.19
449.117	111.19
449.338	109.19
449.559	117.19
449.779	118.19
450	113.19
450.221	94.19
450.442	112.19
450.662	111.19
450.883	103.19
451.104	114.19
451.324	100.19
451.545	110.19
451.766	106.19
451.986	100.19
452.207	104.19
452.428	99.19
452.648	112.19
452.869	130.19
453.089	95.19
453.31	86.19
453.53	101.19
453.751	97.19
453.971	84.19
454.192	88.19
454.412	101.19
454.633	111.19
454.853	98.19
455.073	118.19
455.294	108.19
455.514	97.19
455.734	110.19
455.955	90.19
456.175	110.19
456.395	96.19
456.616	103.19
456.836	117.19
457.056	97.19
457.276	95.19
457.497	100.19
457.717	105.19
457.937	98.19
458.157	92.19
458.377	102.19
458.598	95.19
458.818	87.19
459.038	112.19
459.258	99.19
459.478	99.19
459.698	97.19
459.918	120.19
460.138	116.19
460.358	108.19
460.578	114.19
460.798	93.19
461.018	114.19
461.238	118.19
461.458	116.19
461.678	104.19
461.898	112.19
462.118	102.19
462.338	112.19
462.558	126.19
462.777	113.19
462.997	115.19
463.217	125.19
463.437	122.19
463.657	118.19
463.876	122.19
464.096	109.19
464.316	98.19
464.536	126.19
464.755	136.19
464.975	124.19
465.195	114.19
465.414	110.19
465.634	100.19
465.854	110.19
466.073	108.19
466.293	116.19
466.512	123.19
466.732	117.19
466.951	103.19
467.171	105.19
467.391	130.19
467.61	111.19
467.829	116.19
468.049	119.19
468.268	102.19
468.488	118.19
468.707	119.19
468.927	96.19
469.146	107.19
469.365	114.19
469.585	106.19
469.804	108.19
470.023	122.19
470.243	129.19
470.462	122.19
470.681	134.19
470.901	122.19
471.12	108.19
471.339	126.19
471.558	109.19
471.777	110.19
471.997	120.19
472.216	108.19
472.435	100.19
472.654	106.19
472.873	103.19
473.092	100.19
473.311	111.19
473.53	105.19
473.749	118.19
473.968	116.19
474.187	115.19
474.406	101.19
474.625	103.19
474.844	110.19
475.063	116.19
475.282	112.19
475.501	101.19
475.72	102.19
475.939	93.19
476.158	120.19
476.377	120.19
476.596	109.19
476.814	117.19
477.033	104.19
477.252	120.19
477.471	115.19
477.69	122.19
477.908	130.19
478.127	128.19
478.346	107.19
478.564	116.19
478.783	134.19
479.002	125.19
479.22	137.19
479.439	122.19
479.658	110.19
479.876	112.19
480.095	98.19
480.313	112.19
480.532	120.19
480.751	113.19
480.969	110.19
481.188	109.19
481.406	116.19
481.624	118.19
481.843	113.19
482.061	118.19
482.28	114.19
482.498	109.19
482.717	117.19
482.935	115.19
483.153	122.19
483.372	121.19
483.59	109.19
483.808	127.19
484.027	132.19
484.245	100.19
484.463	120.19
484.681	132.19
484.9	130.19
485.118	118.19
485.336	116.19
485.554	113.19
485.772	130.19
485.99	114.19
486.209	114.19
486.427	119.19
486.645	113.19
486.863	122.19
487.081	116.19
487.299	135.19
487.517	116.19
487.735	153.19
487.953	152.19
488.171	149.19
488.389	125.19
488.607	131.19
488.825	135.19
489.043	111.19
489.261	117.19
489.479	121.19
489.696	136.19
489.914	132.19
490.132	112.19
490.35	130.19
490.568	120.19
490.786	133.19
491.003	142.19
491.221	154.19
491.439	139.19
491.657	158.19
491.874	146.19
492.092	145.19
492.31	191.19
492.527	162.19
492.745	140.19
492.963	152.19
493.18	148.19
493.398	139.19
493.615	141.19
493.833	145.19
494.05	145.19
494.268	134.19
494.485	152.19
494.703	150.19
494.92	143.19
495.138	152.19
495.355	135.19
495.573	139.19
495.79	145.19
496.008	128.19
496.225	145.19
496.442	134.19
496.66	142.19
496.877	152.19
497.094	159.19
497.312	154.19
497.529	144.19
497.746	133.19
497.963	134.19
498.181	139.19
498.398	126.19
498.615	134.19
498.832	163.19
499.049	160.19
499.267	162.19
499.484	147.19
499.701	172.19
499.918	176.19
500.135	185.19
500.352	209.19
500.569	205.19
500.786	229.19
501.003	198.19
501.22	188.19
501.437	180.19
501.654	159.19
501.871	146.19
502.088	150.19
502.305	153.19
502.522	126.19
502.739	151.19
502.956	137.19
503.172	132.19
503.389	128.19
503.606	133.19
503.823	142.19
504.04	112.19
504.256	128.19
504.473	132.19
504.69	119.19
504.907	132.19
505.123	132.19
505.34	129.19
505.557	119.19
505.773	117.19
505.99	127.19
506.207	111.19
506.423	125.19
506.64	120.19
506.856	118.19
507.073	120.19
507.289	116.19
507.506	128.19
507.722	120.19
507.939	126.19
508.155	122.19
508.372	114.19
508.588	112.19
508.805	120.19
509.021	112.19
509.238	106.19
509.454	108.19
509.67	124.19
509.887	113.19
510.103	116.19
510.319	118.19
510.536	97.19
510.752	120.19
510.968	109.19
511.184	97.19
511.401	132.19
511.617	94.19
511.833	114.19
512.049	110.19
512.265	101.19
512.481	108.19
512.698	99.19
