Data from StandardFe(NO3)3.TAE.3%Agarose.FlatLispGreen.Lamp.Energy10.07252019_HRD10591_11-53-27-440.txt Node
Date: Thu Jul 25 11:53:27 EDT 2019
User: cochatt
Spectrometer: HR+D1059
Trigger mode: 1
Integration Time (sec): 1.000000E-1
Scans to average: 1
Electric dark correction enabled: true
Nonlinearity correction enabled: false
Boxcar width: 0
XAxis mode: Wavelengths
Number of Pixels in Spectrum: 2048
>>>>>Begin Spectral Data<<<<<
223.165	-3.38
223.4	-3.38
223.635	-3.38
223.869	-17.38
224.104	-22.38
224.338	-10.38
224.573	-17.38
224.808	-13.38
225.042	-13.38
225.277	-7.38
225.511	-1.38
225.746	8.62
225.98	8.62
226.215	3.62
226.449	13.62
226.683	16.62
226.918	31.62
227.152	23.62
227.387	32.62
227.621	37.62
227.856	60.62
228.09	56.62
228.324	67.62
228.559	64.62
228.793	50.62
229.027	64.62
229.262	67.62
229.496	58.62
229.73	78.62
229.964	74.62
230.199	64.62
230.433	84.62
230.667	66.62
230.901	84.62
231.136	73.62
231.37	85.62
231.604	87.62
231.838	78.62
232.072	95.62
232.306	83.62
232.541	85.62
232.775	75.62
233.009	75.62
233.243	85.62
233.477	78.62
233.711	90.62
233.945	98.62
234.179	87.62
234.413	86.62
234.647	89.62
234.881	88.62
235.115	72.62
235.349	83.62
235.583	89.62
235.817	81.62
236.051	79.62
236.285	86.62
236.519	98.62
236.753	78.62
236.987	80.62
237.221	79.62
237.455	77.62
237.689	90.62
237.922	79.62
238.156	77.62
238.39	85.62
238.624	71.62
238.858	73.62
239.091	82.62
239.325	81.62
239.559	78.62
239.793	101.62
240.027	86.62
240.26	82.62
240.494	80.62
240.728	71.62
240.961	87.62
241.195	87.62
241.429	72.62
241.662	78.62
241.896	73.62
242.13	80.62
242.363	70.62
242.597	66.62
242.83	86.62
243.064	89.62
243.298	89.62
243.531	60.62
243.765	84.62
243.998	85.62
244.232	68.62
244.465	69.62
244.699	87.62
244.932	99.62
245.166	71.62
245.399	80.62
245.633	78.62
245.866	68.62
246.099	69.62
246.333	80.62
246.566	70.62
246.8	71.62
247.033	70.62
247.266	78.62
247.5	76.62
247.733	84.62
247.966	81.62
248.2	88.62
248.433	75.62
248.666	70.62
248.899	75.62
249.133	79.62
249.366	73.62
249.599	90.62
249.832	86.62
250.066	84.62
250.299	84.62
250.532	91.62
250.765	76.62
250.998	86.62
251.231	77.62
251.465	84.62
251.698	76.62
251.931	77.62
252.164	82.62
252.397	84.62
252.63	81.62
252.863	86.62
253.096	74.62
253.329	79.62
253.562	90.62
253.795	80.62
254.028	79.62
254.261	85.62
254.494	73.62
254.727	84.62
254.96	84.62
255.193	77.62
255.426	75.62
255.659	77.62
255.892	98.62
256.124	82.62
256.357	88.62
256.59	97.62
256.823	74.62
257.056	87.62
257.289	92.62
257.521	79.62
257.754	85.62
257.987	79.62
258.22	78.62
258.452	68.62
258.685	93.62
258.918	85.62
259.151	83.62
259.383	71.62
259.616	83.62
259.849	77.62
260.081	88.62
260.314	85.62
260.547	62.62
260.779	91.62
261.012	87.62
261.244	100.62
261.477	79.62
261.71	85.62
261.942	80.62
262.175	95.62
262.407	98.62
262.64	101.62
262.872	98.62
263.105	84.62
263.337	80.62
263.57	83.62
263.802	86.62
264.035	84.62
264.267	97.62
264.499	97.62
264.732	83.62
264.964	62.62
265.197	77.62
265.429	84.62
265.661	71.62
265.894	83.62
266.126	90.62
266.358	83.62
266.591	79.62
266.823	79.62
267.055	89.62
267.287	101.62
267.52	75.62
267.752	72.62
267.984	86.62
268.216	84.62
268.448	92.62
268.681	75.62
268.913	82.62
269.145	80.62
269.377	95.62
269.609	86.62
269.841	69.62
270.073	79.62
270.306	97.62
270.538	88.62
270.77	87.62
271.002	106.62
271.234	99.62
271.466	86.62
271.698	80.62
271.93	76.62
272.162	83.62
272.394	85.62
272.626	85.62
272.858	92.62
273.09	79.62
273.322	91.62
273.553	84.62
273.785	96.62
274.017	82.62
274.249	77.62
274.481	79.62
274.713	85.62
274.945	78.62
275.176	83.62
275.408	73.62
275.64	80.62
275.872	76.62
276.104	95.62
276.335	84.62
276.567	98.62
276.799	77.62
277.031	92.62
277.262	83.62
277.494	94.62
277.726	87.62
277.957	80.62
278.189	79.62
278.421	87.62
278.652	83.62
278.884	87.62
279.115	93.62
279.347	98.62
279.579	89.62
279.81	82.62
280.042	100.62
280.273	82.62
280.505	68.62
280.736	71.62
280.968	94.62
281.199	82.62
281.431	87.62
281.662	78.62
281.894	94.62
282.125	94.62
282.356	76.62
282.588	91.62
282.819	80.62
283.051	71.62
283.282	84.62
283.513	91.62
283.745	82.62
283.976	79.62
284.207	86.62
284.439	90.62
284.67	96.62
284.901	87.62
285.132	81.62
285.364	89.62
285.595	86.62
285.826	78.62
286.057	83.62
286.288	79.62
286.52	91.62
286.751	88.62
286.982	85.62
287.213	91.62
287.444	96.62
287.675	87.62
287.906	95.62
288.138	89.62
288.369	86.62
288.6	84.62
288.831	85.62
289.062	90.62
289.293	87.62
289.524	96.62
289.755	89.62
289.986	94.62
290.217	85.62
290.448	92.62
290.679	96.62
290.91	97.62
291.141	75.62
291.371	70.62
291.602	83.62
291.833	78.62
292.064	98.62
292.295	82.62
292.526	92.62
292.757	87.62
292.987	86.62
293.218	94.62
293.449	84.62
293.68	83.62
293.91	86.62
294.141	81.62
294.372	85.62
294.603	84.62
294.833	82.62
295.064	87.62
295.295	89.62
295.525	104.62
295.756	81.62
295.987	86.62
296.217	99.62
296.448	93.62
296.679	79.62
296.909	80.62
297.14	92.62
297.37	92.62
297.601	92.62
297.831	100.62
298.062	94.62
298.292	79.62
298.523	93.62
298.753	77.62
298.984	78.62
299.214	70.62
299.445	94.62
299.675	88.62
299.905	83.62
300.136	89.62
300.366	84.62
300.597	87.62
300.827	97.62
301.057	84.62
301.288	88.62
301.518	76.62
301.748	91.62
301.979	90.62
302.209	93.62
302.439	82.62
302.669	82.62
302.9	78.62
303.13	78.62
303.36	95.62
303.59	92.62
303.82	89.62
304.051	94.62
304.281	72.62
304.511	88.62
304.741	87.62
304.971	82.62
305.201	104.62
305.431	80.62
305.661	91.62
305.891	91.62
306.121	101.62
306.352	92.62
306.582	98.62
306.812	83.62
307.042	82.62
307.272	95.62
307.502	90.62
307.731	93.62
307.961	88.62
308.191	96.62
308.421	87.62
308.651	93.62
308.881	96.62
309.111	90.62
309.341	77.62
309.571	83.62
309.8	89.62
310.03	95.62
310.26	99.62
310.49	82.62
310.72	85.62
310.949	91.62
311.179	83.62
311.409	75.62
311.639	96.62
311.868	99.62
312.098	106.62
312.328	99.62
312.557	104.62
312.787	79.62
313.017	94.62
313.246	85.62
313.476	88.62
313.706	93.62
313.935	92.62
314.165	94.62
314.394	106.62
314.624	89.62
314.853	90.62
315.083	92.62
315.312	100.62
315.542	91.62
315.771	88.62
316.001	92.62
316.23	94.62
316.46	76.62
316.689	87.62
316.919	102.62
317.148	88.62
317.377	107.62
317.607	83.62
317.836	80.62
318.065	90.62
318.295	95.62
318.524	77.62
318.753	91.62
318.983	86.62
319.212	91.62
319.441	94.62
319.67	85.62
319.9	79.62
320.129	78.62
320.358	81.62
320.587	79.62
320.816	79.62
321.046	75.62
321.275	84.62
321.504	81.62
321.733	87.62
321.962	81.62
322.191	78.62
322.42	87.62
322.649	88.62
322.878	102.62
323.108	90.62
323.337	99.62
323.566	96.62
323.795	75.62
324.024	85.62
324.253	97.62
324.482	103.62
324.71	82.62
324.939	98.62
325.168	80.62
325.397	86.62
325.626	88.62
325.855	80.62
326.084	79.62
326.313	75.62
326.542	91.62
326.77	95.62
326.999	89.62
327.228	76.62
327.457	98.62
327.686	98.62
327.914	71.62
328.143	93.62
328.372	87.62
328.6	77.62
328.829	85.62
329.058	83.62
329.287	88.62
329.515	96.62
329.744	91.62
329.972	90.62
330.201	98.62
330.43	100.62
330.658	89.62
330.887	96.62
331.115	88.62
331.344	87.62
331.572	82.62
331.801	80.62
332.03	74.62
332.258	87.62
332.486	76.62
332.715	96.62
332.943	106.62
333.172	85.62
333.4	90.62
333.629	90.62
333.857	91.62
334.085	94.62
334.314	91.62
334.542	98.62
334.771	100.62
334.999	100.62
335.227	100.62
335.455	89.62
335.684	85.62
335.912	87.62
336.14	84.62
336.369	98.62
336.597	97.62
336.825	79.62
337.053	84.62
337.281	85.62
337.51	84.62
337.738	80.62
337.966	84.62
338.194	88.62
338.422	88.62
338.65	83.62
338.878	95.62
339.106	91.62
339.334	93.62
339.562	84.62
339.79	73.62
340.018	88.62
340.246	94.62
340.474	92.62
340.702	90.62
340.93	97.62
341.158	92.62
341.386	87.62
341.614	89.62
341.842	99.62
342.07	76.62
342.298	75.62
342.526	87.62
342.754	91.62
342.981	76.62
343.209	86.62
343.437	88.62
343.665	88.62
343.893	93.62
344.12	83.62
344.348	77.62
344.576	95.62
344.804	90.62
345.031	80.62
345.259	89.62
345.487	67.62
345.714	88.62
345.942	85.62
346.17	93.62
346.397	95.62
346.625	92.62
346.853	69.62
347.08	95.62
347.308	90.62
347.535	93.62
347.763	86.62
347.99	99.62
348.218	91.62
348.445	81.62
348.673	90.62
348.9	93.62
349.128	76.62
349.355	80.62
349.583	75.62
349.81	92.62
350.037	95.62
350.265	103.62
350.492	90.62
350.72	92.62
350.947	85.62
351.174	93.62
351.402	86.62
351.629	85.62
351.856	84.62
352.083	81.62
352.311	88.62
352.538	77.62
352.765	92.62
352.992	109.62
353.22	86.62
353.447	92.62
353.674	87.62
353.901	101.62
354.128	84.62
354.355	84.62
354.583	84.62
354.81	97.62
355.037	100.62
355.264	86.62
355.491	95.62
355.718	101.62
355.945	107.62
356.172	96.62
356.399	84.62
356.626	92.62
356.853	92.62
357.08	88.62
357.307	84.62
357.534	87.62
357.761	89.62
357.988	93.62
358.215	104.62
358.441	83.62
358.668	103.62
358.895	93.62
359.122	104.62
359.349	91.62
359.576	87.62
359.802	96.62
360.029	88.62
360.256	104.62
360.483	93.62
360.709	83.62
360.936	97.62
361.163	101.62
361.39	99.62
361.616	97.62
361.843	88.62
362.07	83.62
362.296	98.62
362.523	84.62
362.749	96.62
362.976	96.62
363.203	105.62
363.429	100.62
363.656	95.62
363.882	77.62
364.109	101.62
364.335	84.62
364.562	93.62
364.788	96.62
365.015	101.62
365.241	93.62
365.468	80.62
365.694	94.62
365.92	82.62
366.147	79.62
366.373	94.62
366.599	93.62
366.826	95.62
367.052	94.62
367.278	100.62
367.505	81.62
367.731	88.62
367.957	84.62
368.184	90.62
368.41	98.62
368.636	85.62
368.862	102.62
369.089	96.62
369.315	88.62
369.541	91.62
369.767	78.62
369.993	87.62
370.219	101.62
370.445	93.62
370.672	103.62
370.898	94.62
371.124	93.62
371.35	83.62
371.576	102.62
371.802	89.62
372.028	94.62
372.254	96.62
372.48	89.62
372.706	91.62
372.932	95.62
373.158	97.62
373.384	107.62
373.61	92.62
373.835	100.62
374.061	89.62
374.287	87.62
374.513	87.62
374.739	94.62
374.965	93.62
375.191	101.62
375.416	92.62
375.642	76.62
375.868	90.62
376.094	106.62
376.319	77.62
376.545	102.62
376.771	96.62
376.997	86.62
377.222	105.62
377.448	100.62
377.674	88.62
377.899	96.62
378.125	84.62
378.35	96.62
378.576	89.62
378.802	89.62
379.027	88.62
379.253	99.62
379.478	87.62
379.704	92.62
379.929	85.62
380.155	101.62
380.38	92.62
380.606	105.62
380.831	96.62
381.057	96.62
381.282	88.62
381.507	98.62
381.733	82.62
381.958	99.62
382.184	101.62
382.409	96.62
382.634	99.62
382.86	97.62
383.085	114.62
383.31	101.62
383.535	96.62
383.761	82.62
383.986	101.62
384.211	80.62
384.436	87.62
384.662	102.62
384.887	98.62
385.112	92.62
385.337	102.62
385.562	83.62
385.787	80.62
386.013	107.62
386.238	106.62
386.463	97.62
386.688	108.62
386.913	106.62
387.138	91.62
387.363	88.62
387.588	117.62
387.813	89.62
388.038	107.62
388.263	100.62
388.488	76.62
388.713	101.62
388.938	98.62
389.163	96.62
389.387	98.62
389.612	111.62
389.837	96.62
390.062	100.62
390.287	111.62
390.512	92.62
390.736	98.62
390.961	92.62
391.186	93.62
391.411	102.62
391.636	110.62
391.86	100.62
392.085	100.62
392.31	111.62
392.534	97.62
392.759	110.62
392.984	98.62
393.208	109.62
393.433	92.62
393.658	107.62
393.882	99.62
394.107	93.62
394.331	96.62
394.556	103.62
394.78	109.62
395.005	106.62
395.229	107.62
395.454	96.62
395.678	106.62
395.903	102.62
396.127	104.62
396.352	100.62
396.576	102.62
396.801	106.62
397.025	95.62
397.249	92.62
397.474	94.62
397.698	110.62
397.922	112.62
398.147	89.62
398.371	104.62
398.595	103.62
398.82	104.62
399.044	118.62
399.268	107.62
399.492	134.62
399.717	114.62
399.941	114.62
400.165	103.62
400.389	114.62
400.613	101.62
400.837	128.62
401.062	120.62
401.286	100.62
401.51	111.62
401.734	97.62
401.958	107.62
402.182	98.62
402.406	119.62
402.63	113.62
402.854	111.62
403.078	114.62
403.302	111.62
403.526	111.62
403.75	123.62
403.974	110.62
404.198	130.62
404.422	120.62
404.645	132.62
404.869	110.62
405.093	110.62
405.317	110.62
405.541	101.62
405.765	99.62
405.988	107.62
406.212	115.62
406.436	119.62
406.66	117.62
406.883	110.62
407.107	126.62
407.331	123.62
407.555	112.62
407.778	122.62
408.002	106.62
408.226	111.62
408.449	109.62
408.673	100.62
408.896	123.62
409.12	112.62
409.344	116.62
409.567	108.62
409.791	123.62
410.014	114.62
410.238	114.62
410.461	125.62
410.685	125.62
410.908	102.62
411.132	114.62
411.355	104.62
411.578	122.62
411.802	121.62
412.025	109.62
412.249	120.62
412.472	113.62
412.695	104.62
412.919	111.62
413.142	99.62
413.365	110.62
413.589	97.62
413.812	99.62
414.035	113.62
414.258	109.62
414.482	106.62
414.705	124.62
414.928	119.62
415.151	121.62
415.374	116.62
415.597	110.62
415.821	123.62
416.044	105.62
416.267	108.62
416.49	122.62
416.713	126.62
416.936	124.62
417.159	112.62
417.382	124.62
417.605	98.62
417.828	108.62
418.051	104.62
418.274	128.62
418.497	127.62
418.72	117.62
418.943	112.62
419.166	112.62
419.389	135.62
419.611	120.62
419.834	128.62
420.057	125.62
420.28	130.62
420.503	127.62
420.726	138.62
420.948	123.62
421.171	100.62
421.394	123.62
421.617	112.62
421.839	122.62
422.062	119.62
422.285	114.62
422.507	115.62
422.73	115.62
422.953	119.62
423.175	105.62
423.398	130.62
423.621	122.62
423.843	126.62
424.066	120.62
424.288	119.62
424.511	121.62
424.733	132.62
424.956	124.62
425.178	118.62
425.401	124.62
425.623	135.62
425.846	108.62
426.068	124.62
426.291	116.62
426.513	126.62
426.735	118.62
426.958	127.62
427.18	125.62
427.402	125.62
427.625	123.62
427.847	126.62
428.069	117.62
428.292	127.62
428.514	115.62
428.736	121.62
428.958	115.62
429.181	120.62
429.403	111.62
429.625	110.62
429.847	104.62
430.069	113.62
430.292	127.62
430.514	121.62
430.736	112.62
430.958	115.62
431.18	106.62
431.402	112.62
431.624	119.62
431.846	97.62
432.068	104.62
432.29	106.62
432.512	102.62
432.734	120.62
432.956	124.62
433.178	111.62
433.4	104.62
433.622	121.62
433.844	119.62
434.066	124.62
434.287	114.62
434.509	111.62
434.731	114.62
434.953	106.62
435.175	106.62
435.397	125.62
435.618	111.62
435.84	111.62
436.062	115.62
436.284	128.62
436.505	124.62
436.727	121.62
436.949	110.62
437.17	116.62
437.392	106.62
437.614	117.62
437.835	129.62
438.057	121.62
438.278	118.62
438.5	124.62
438.721	116.62
438.943	122.62
439.165	102.62
439.386	114.62
439.608	128.62
439.829	117.62
440.05	136.62
440.272	118.62
440.493	119.62
440.715	118.62
440.936	132.62
441.158	130.62
441.379	114.62
441.6	107.62
441.822	95.62
442.043	111.62
442.264	125.62
442.486	126.62
442.707	116.62
442.928	143.62
443.149	111.62
443.371	123.62
443.592	115.62
443.813	117.62
444.034	126.62
444.255	130.62
444.476	136.62
444.698	122.62
444.919	132.62
445.14	290.62
445.361	204.62
445.582	144.62
445.803	119.62
446.024	105.62
446.245	126.62
446.466	130.62
446.687	132.62
446.908	121.62
447.129	126.62
447.35	126.62
447.571	118.62
447.792	127.62
448.013	116.62
448.234	118.62
448.455	125.62
448.675	117.62
448.896	127.62
449.117	119.62
449.338	112.62
449.559	123.62
449.779	108.62
450	126.62
450.221	136.62
450.442	120.62
450.662	111.62
450.883	126.62
451.104	124.62
451.324	116.62
451.545	122.62
451.766	114.62
451.986	126.62
452.207	117.62
452.428	119.62
452.648	92.62
452.869	113.62
453.089	122.62
453.31	109.62
453.53	118.62
453.751	100.62
453.971	101.62
454.192	118.62
454.412	117.62
454.633	111.62
454.853	110.62
455.073	121.62
455.294	104.62
455.514	118.62
455.734	110.62
455.955	107.62
456.175	120.62
456.395	114.62
456.616	109.62
456.836	117.62
457.056	114.62
457.276	96.62
457.497	103.62
457.717	107.62
457.937	105.62
458.157	97.62
458.377	105.62
458.598	105.62
458.818	112.62
459.038	103.62
459.258	111.62
459.478	115.62
459.698	108.62
459.918	119.62
460.138	116.62
460.358	126.62
460.578	117.62
460.798	125.62
461.018	125.62
461.238	111.62
461.458	119.62
461.678	108.62
461.898	116.62
462.118	120.62
462.338	127.62
462.558	117.62
462.777	128.62
462.997	130.62
463.217	123.62
463.437	120.62
463.657	126.62
463.876	130.62
464.096	125.62
464.316	122.62
464.536	120.62
464.755	128.62
464.975	116.62
465.195	119.62
465.414	127.62
465.634	106.62
465.854	112.62
466.073	105.62
466.293	129.62
466.512	123.62
466.732	124.62
466.951	135.62
467.171	120.62
467.391	131.62
467.61	122.62
467.829	128.62
468.049	126.62
468.268	108.62
468.488	105.62
468.707	121.62
468.927	132.62
469.146	124.62
469.365	120.62
469.585	126.62
469.804	125.62
470.023	141.62
470.243	126.62
470.462	121.62
470.681	126.62
470.901	137.62
471.12	130.62
471.339	133.62
471.558	128.62
471.777	140.62
471.997	127.62
472.216	113.62
472.435	114.62
472.654	104.62
472.873	116.62
473.092	115.62
473.311	120.62
473.53	108.62
473.749	111.62
473.968	116.62
474.187	110.62
474.406	118.62
474.625	126.62
474.844	132.62
475.063	137.62
475.282	111.62
475.501	109.62
475.72	128.62
475.939	131.62
476.158	128.62
476.377	109.62
476.596	121.62
476.814	106.62
477.033	129.62
477.252	125.62
477.471	124.62
477.69	129.62
477.908	123.62
478.127	139.62
478.346	121.62
478.564	128.62
478.783	133.62
479.002	138.62
479.22	132.62
479.439	134.62
479.658	141.62
479.876	124.62
480.095	126.62
480.313	142.62
480.532	127.62
480.751	124.62
480.969	134.62
481.188	123.62
481.406	116.62
481.624	111.62
481.843	118.62
482.061	119.62
482.28	107.62
482.498	120.62
482.717	110.62
482.935	107.62
483.153	126.62
483.372	134.62
483.59	133.62
483.808	130.62
484.027	112.62
484.245	138.62
484.463	132.62
484.681	129.62
484.9	125.62
485.118	140.62
485.336	127.62
485.554	121.62
485.772	142.62
485.99	122.62
486.209	123.62
486.427	128.62
486.645	123.62
486.863	123.62
487.081	143.62
487.299	132.62
487.517	133.62
487.735	152.62
487.953	139.62
488.171	153.62
488.389	150.62
488.607	148.62
488.825	149.62
489.043	119.62
489.261	134.62
489.479	117.62
489.696	135.62
489.914	125.62
490.132	118.62
490.35	132.62
490.568	140.62
490.786	139.62
491.003	141.62
491.221	184.62
491.439	163.62
491.657	158.62
491.874	156.62
492.092	155.62
492.31	178.62
492.527	172.62
492.745	167.62
492.963	156.62
493.18	156.62
493.398	146.62
493.615	147.62
493.833	150.62
494.05	156.62
494.268	152.62
494.485	156.62
494.703	153.62
494.92	152.62
495.138	155.62
495.355	155.62
495.573	147.62
495.79	157.62
496.008	156.62
496.225	148.62
496.442	144.62
496.66	150.62
496.877	150.62
497.094	165.62
497.312	155.62
497.529	149.62
497.746	151.62
497.963	144.62
498.181	155.62
498.398	144.62
498.615	164.62
498.832	145.62
499.049	169.62
499.267	151.62
499.484	171.62
499.701	186.62
499.918	205.62
500.135	220.62
500.352	221.62
500.569	235.62
500.786	233.62
501.003	218.62
501.22	204.62
501.437	174.62
501.654	183.62
501.871	157.62
502.088	164.62
502.305	149.62
502.522	160.62
502.739	155.62
502.956	143.62
503.172	160.62
503.389	144.62
503.606	148.62
503.823	138.62
504.04	132.62
504.256	141.62
504.473	128.62
504.69	144.62
504.907	134.62
505.123	126.62
505.34	117.62
505.557	134.62
505.773	124.62
505.99	152.62
506.207	143.62
506.423	144.62
506.64	131.62
506.856	135.62
507.073	144.62
507.289	111.62
507.506	131.62
507.722	116.62
507.939	123.62
508.155	126.62
508.372	135.62
508.588	133.62
508.805	130.62
509.021	131.62
509.238	123.62
509.454	104.62
509.67	108.62
509.887	118.62
510.103	117.62
510.319	118.62
510.536	126.62
510.752	118.62
