Data from StandardFe(NO3)3.TAE.3%Agarose.FlatLispGreen.Lamp.Energy10.07252019_HRD10591_11-54-57-440.txt Node
Date: Thu Jul 25 11:54:57 EDT 2019
User: cochatt
Spectrometer: HR+D1059
Trigger mode: 1
Integration Time (sec): 1.000000E-1
Scans to average: 1
Electric dark correction enabled: true
Nonlinearity correction enabled: false
Boxcar width: 0
XAxis mode: Wavelengths
Number of Pixels in Spectrum: 2048
>>>>>Begin Spectral Data<<<<<
223.165	-15.69
223.4	-15.69
223.635	-15.69
223.869	-18.69
224.104	-13.69
224.338	-23.69
224.573	-10.69
224.808	-12.69
225.042	14.31
225.277	-14.69
225.511	-9.69
225.746	1.31
225.98	9.31
226.215	20.31
226.449	2.31
226.683	21.31
226.918	20.31
227.152	30.31
227.387	52.31
227.621	57.31
227.856	51.31
228.09	54.31
228.324	53.31
228.559	46.31
228.793	63.31
229.027	57.31
229.262	61.31
229.496	61.31
229.73	71.31
229.964	82.31
230.199	79.31
230.433	67.31
230.667	83.31
230.901	77.31
231.136	69.31
231.37	86.31
231.604	81.31
231.838	98.31
232.072	81.31
232.306	98.31
232.541	76.31
232.775	85.31
233.009	80.31
233.243	98.31
233.477	86.31
233.711	94.31
233.945	70.31
234.179	75.31
234.413	81.31
234.647	98.31
234.881	79.31
235.115	69.31
235.349	78.31
235.583	84.31
235.817	72.31
236.051	95.31
236.285	76.31
236.519	90.31
236.753	93.31
236.987	71.31
237.221	76.31
237.455	90.31
237.689	78.31
237.922	83.31
238.156	84.31
238.39	78.31
238.624	79.31
238.858	78.31
239.091	74.31
239.325	86.31
239.559	76.31
239.793	81.31
240.027	95.31
240.26	84.31
240.494	71.31
240.728	88.31
240.961	76.31
241.195	78.31
241.429	75.31
241.662	87.31
241.896	76.31
242.13	86.31
242.363	79.31
242.597	76.31
242.83	78.31
243.064	83.31
243.298	78.31
243.531	72.31
243.765	77.31
243.998	86.31
244.232	88.31
244.465	85.31
244.699	85.31
244.932	78.31
245.166	83.31
245.399	81.31
245.633	79.31
245.866	67.31
246.099	75.31
246.333	89.31
246.566	78.31
246.8	72.31
247.033	84.31
247.266	92.31
247.5	76.31
247.733	82.31
247.966	102.31
248.2	76.31
248.433	67.31
248.666	79.31
248.899	86.31
249.133	86.31
249.366	92.31
249.599	94.31
249.832	86.31
250.066	65.31
250.299	78.31
250.532	90.31
250.765	86.31
250.998	81.31
251.231	83.31
251.465	89.31
251.698	76.31
251.931	74.31
252.164	85.31
252.397	71.31
252.63	80.31
252.863	88.31
253.096	79.31
253.329	70.31
253.562	78.31
253.795	81.31
254.028	85.31
254.261	75.31
254.494	65.31
254.727	98.31
254.96	78.31
255.193	67.31
255.426	65.31
255.659	75.31
255.892	82.31
256.124	72.31
256.357	81.31
256.59	74.31
256.823	77.31
257.056	78.31
257.289	76.31
257.521	85.31
257.754	91.31
257.987	89.31
258.22	85.31
258.452	88.31
258.685	83.31
258.918	85.31
259.151	78.31
259.383	76.31
259.616	88.31
259.849	83.31
260.081	76.31
260.314	90.31
260.547	86.31
260.779	98.31
261.012	83.31
261.244	93.31
261.477	93.31
261.71	79.31
261.942	99.31
262.175	101.31
262.407	84.31
262.64	83.31
262.872	100.31
263.105	90.31
263.337	94.31
263.57	79.31
263.802	77.31
264.035	85.31
264.267	96.31
264.499	78.31
264.732	90.31
264.964	98.31
265.197	90.31
265.429	104.31
265.661	95.31
265.894	86.31
266.126	86.31
266.358	89.31
266.591	80.31
266.823	78.31
267.055	100.31
267.287	93.31
267.52	89.31
267.752	75.31
267.984	69.31
268.216	97.31
268.448	76.31
268.681	90.31
268.913	86.31
269.145	87.31
269.377	90.31
269.609	95.31
269.841	98.31
270.073	92.31
270.306	86.31
270.538	97.31
270.77	76.31
271.002	83.31
271.234	80.31
271.466	92.31
271.698	90.31
271.93	99.31
272.162	79.31
272.394	89.31
272.626	79.31
272.858	82.31
273.09	98.31
273.322	99.31
273.553	96.31
273.785	79.31
274.017	78.31
274.249	79.31
274.481	71.31
274.713	77.31
274.945	86.31
275.176	88.31
275.408	84.31
275.64	90.31
275.872	94.31
276.104	97.31
276.335	94.31
276.567	71.31
276.799	91.31
277.031	85.31
277.262	78.31
277.494	92.31
277.726	99.31
277.957	91.31
278.189	90.31
278.421	82.31
278.652	94.31
278.884	79.31
279.115	77.31
279.347	72.31
279.579	86.31
279.81	82.31
280.042	76.31
280.273	88.31
280.505	98.31
280.736	97.31
280.968	94.31
281.199	83.31
281.431	87.31
281.662	98.31
281.894	79.31
282.125	82.31
282.356	83.31
282.588	82.31
282.819	88.31
283.051	97.31
283.282	74.31
283.513	78.31
283.745	98.31
283.976	84.31
284.207	85.31
284.439	79.31
284.67	79.31
284.901	88.31
285.132	95.31
285.364	90.31
285.595	93.31
285.826	82.31
286.057	79.31
286.288	78.31
286.52	98.31
286.751	88.31
286.982	90.31
287.213	93.31
287.444	96.31
287.675	79.31
287.906	88.31
288.138	84.31
288.369	82.31
288.6	93.31
288.831	80.31
289.062	101.31
289.293	96.31
289.524	78.31
289.755	83.31
289.986	84.31
290.217	90.31
290.448	68.31
290.679	91.31
290.91	91.31
291.141	94.31
291.371	88.31
291.602	77.31
291.833	85.31
292.064	81.31
292.295	85.31
292.526	77.31
292.757	78.31
292.987	98.31
293.218	86.31
293.449	95.31
293.68	84.31
293.91	85.31
294.141	81.31
294.372	91.31
294.603	83.31
294.833	78.31
295.064	75.31
295.295	90.31
295.525	85.31
295.756	96.31
295.987	81.31
296.217	86.31
296.448	87.31
296.679	88.31
296.909	82.31
297.14	79.31
297.37	97.31
297.601	86.31
297.831	87.31
298.062	92.31
298.292	75.31
298.523	86.31
298.753	89.31
298.984	92.31
299.214	84.31
299.445	87.31
299.675	85.31
299.905	84.31
300.136	90.31
300.366	79.31
300.597	80.31
300.827	93.31
301.057	93.31
301.288	99.31
301.518	82.31
301.748	76.31
301.979	85.31
302.209	92.31
302.439	91.31
302.669	99.31
302.9	83.31
303.13	77.31
303.36	93.31
303.59	97.31
303.82	97.31
304.051	82.31
304.281	86.31
304.511	84.31
304.741	84.31
304.971	84.31
305.201	91.31
305.431	86.31
305.661	102.31
305.891	93.31
306.121	76.31
306.352	104.31
306.582	90.31
306.812	94.31
307.042	96.31
307.272	92.31
307.502	89.31
307.731	93.31
307.961	76.31
308.191	85.31
308.421	84.31
308.651	71.31
308.881	90.31
309.111	83.31
309.341	79.31
309.571	99.31
309.8	96.31
310.03	95.31
310.26	78.31
310.49	84.31
310.72	87.31
310.949	96.31
311.179	85.31
311.409	75.31
311.639	98.31
311.868	90.31
312.098	85.31
312.328	99.31
312.557	88.31
312.787	77.31
313.017	78.31
313.246	78.31
313.476	100.31
313.706	80.31
313.935	87.31
314.165	92.31
314.394	88.31
314.624	82.31
314.853	92.31
315.083	99.31
315.312	97.31
315.542	77.31
315.771	94.31
316.001	90.31
316.23	87.31
316.46	83.31
316.689	85.31
316.919	80.31
317.148	79.31
317.377	81.31
317.607	92.31
317.836	90.31
318.065	85.31
318.295	87.31
318.524	82.31
318.753	84.31
318.983	93.31
319.212	99.31
319.441	87.31
319.67	89.31
319.9	84.31
320.129	85.31
320.358	69.31
320.587	92.31
320.816	84.31
321.046	91.31
321.275	102.31
321.504	71.31
321.733	82.31
321.962	93.31
322.191	91.31
322.42	81.31
322.649	70.31
322.878	82.31
323.108	87.31
323.337	95.31
323.566	101.31
323.795	79.31
324.024	90.31
324.253	102.31
324.482	80.31
324.71	78.31
324.939	93.31
325.168	92.31
325.397	89.31
325.626	90.31
325.855	98.31
326.084	102.31
326.313	97.31
326.542	84.31
326.77	91.31
326.999	71.31
327.228	75.31
327.457	94.31
327.686	94.31
327.914	88.31
328.143	92.31
328.372	78.31
328.6	91.31
328.829	88.31
329.058	93.31
329.287	91.31
329.515	94.31
329.744	99.31
329.972	81.31
330.201	97.31
330.43	78.31
330.658	92.31
330.887	82.31
331.115	76.31
331.344	93.31
331.572	83.31
331.801	85.31
332.03	78.31
332.258	88.31
332.486	93.31
332.715	94.31
332.943	86.31
333.172	89.31
333.4	78.31
333.629	95.31
333.857	100.31
334.085	93.31
334.314	94.31
334.542	92.31
334.771	79.31
334.999	84.31
335.227	84.31
335.455	99.31
335.684	83.31
335.912	99.31
336.14	80.31
336.369	98.31
336.597	78.31
336.825	85.31
337.053	83.31
337.281	84.31
337.51	89.31
337.738	106.31
337.966	100.31
338.194	95.31
338.422	83.31
338.65	96.31
338.878	89.31
339.106	64.31
339.334	87.31
339.562	81.31
339.79	93.31
340.018	90.31
340.246	72.31
340.474	86.31
340.702	92.31
340.93	93.31
341.158	79.31
341.386	96.31
341.614	100.31
341.842	91.31
342.07	92.31
342.298	91.31
342.526	88.31
342.754	79.31
342.981	93.31
343.209	97.31
343.437	95.31
343.665	78.31
343.893	98.31
344.12	84.31
344.348	77.31
344.576	84.31
344.804	103.31
345.031	97.31
345.259	80.31
345.487	86.31
345.714	89.31
345.942	94.31
346.17	91.31
346.397	83.31
346.625	80.31
346.853	82.31
347.08	95.31
347.308	84.31
347.535	73.31
347.763	79.31
347.99	92.31
348.218	73.31
348.445	97.31
348.673	90.31
348.9	87.31
349.128	86.31
349.355	89.31
349.583	84.31
349.81	98.31
350.037	85.31
350.265	79.31
350.492	68.31
350.72	84.31
350.947	93.31
351.174	93.31
351.402	94.31
351.629	80.31
351.856	93.31
352.083	98.31
352.311	98.31
352.538	84.31
352.765	86.31
352.992	91.31
353.22	97.31
353.447	93.31
353.674	98.31
353.901	92.31
354.128	76.31
354.355	86.31
354.583	82.31
354.81	79.31
355.037	86.31
355.264	98.31
355.491	92.31
355.718	89.31
355.945	91.31
356.172	98.31
356.399	80.31
356.626	88.31
356.853	82.31
357.08	98.31
357.307	96.31
357.534	90.31
357.761	90.31
357.988	99.31
358.215	102.31
358.441	82.31
358.668	93.31
358.895	97.31
359.122	96.31
359.349	88.31
359.576	86.31
359.802	77.31
360.029	89.31
360.256	78.31
360.483	82.31
360.709	91.31
360.936	88.31
361.163	80.31
361.39	90.31
361.616	85.31
361.843	82.31
362.07	93.31
362.296	82.31
362.523	95.31
362.749	94.31
362.976	84.31
363.203	87.31
363.429	92.31
363.656	88.31
363.882	78.31
364.109	77.31
364.335	98.31
364.562	83.31
364.788	99.31
365.015	86.31
365.241	81.31
365.468	103.31
365.694	89.31
365.92	93.31
366.147	89.31
366.373	102.31
366.599	75.31
366.826	79.31
367.052	93.31
367.278	75.31
367.505	100.31
367.731	92.31
367.957	71.31
368.184	83.31
368.41	76.31
368.636	89.31
368.862	98.31
369.089	82.31
369.315	93.31
369.541	85.31
369.767	103.31
369.993	101.31
370.219	88.31
370.445	85.31
370.672	86.31
370.898	89.31
371.124	79.31
371.35	91.31
371.576	88.31
371.802	85.31
372.028	88.31
372.254	82.31
372.48	100.31
372.706	101.31
372.932	84.31
373.158	95.31
373.384	86.31
373.61	96.31
373.835	78.31
374.061	100.31
374.287	97.31
374.513	79.31
374.739	101.31
374.965	82.31
375.191	85.31
375.416	86.31
375.642	96.31
375.868	107.31
376.094	91.31
376.319	94.31
376.545	95.31
376.771	75.31
376.997	81.31
377.222	90.31
377.448	80.31
377.674	98.31
377.899	99.31
378.125	93.31
378.35	97.31
378.576	102.31
378.802	92.31
379.027	95.31
379.253	103.31
379.478	89.31
379.704	92.31
379.929	92.31
380.155	103.31
380.38	87.31
380.606	82.31
380.831	95.31
381.057	92.31
381.282	90.31
381.507	93.31
381.733	91.31
381.958	107.31
382.184	103.31
382.409	90.31
382.634	97.31
382.86	105.31
383.085	92.31
383.31	93.31
383.535	82.31
383.761	97.31
383.986	94.31
384.211	93.31
384.436	90.31
384.662	101.31
384.887	100.31
385.112	99.31
385.337	96.31
385.562	84.31
385.787	89.31
386.013	108.31
386.238	95.31
386.463	91.31
386.688	93.31
386.913	104.31
387.138	89.31
387.363	95.31
387.588	102.31
387.813	97.31
388.038	114.31
388.263	103.31
388.488	93.31
388.713	96.31
388.938	94.31
389.163	97.31
389.387	86.31
389.612	108.31
389.837	93.31
390.062	95.31
390.287	104.31
390.512	112.31
390.736	107.31
390.961	99.31
391.186	97.31
391.411	81.31
391.636	107.31
391.86	110.31
392.085	93.31
392.31	112.31
392.534	109.31
392.759	104.31
392.984	99.31
393.208	103.31
393.433	107.31
393.658	101.31
393.882	93.31
394.107	102.31
394.331	109.31
394.556	101.31
394.78	107.31
395.005	93.31
395.229	98.31
395.454	89.31
395.678	97.31
395.903	103.31
396.127	116.31
396.352	108.31
396.576	94.31
396.801	115.31
397.025	101.31
397.249	97.31
397.474	105.31
397.698	107.31
397.922	90.31
398.147	106.31
398.371	106.31
398.595	104.31
398.82	94.31
399.044	113.31
399.268	91.31
399.492	121.31
399.717	109.31
399.941	119.31
400.165	110.31
400.389	115.31
400.613	107.31
400.837	102.31
401.062	105.31
401.286	98.31
401.51	109.31
401.734	109.31
401.958	117.31
402.182	110.31
402.406	113.31
402.63	104.31
402.854	112.31
403.078	105.31
403.302	101.31
403.526	110.31
403.75	105.31
403.974	109.31
404.198	115.31
404.422	113.31
404.645	105.31
404.869	98.31
405.093	118.31
405.317	108.31
405.541	105.31
405.765	115.31
405.988	111.31
406.212	108.31
406.436	118.31
406.66	110.31
406.883	104.31
407.107	119.31
407.331	93.31
407.555	125.31
407.778	113.31
408.002	123.31
408.226	111.31
408.449	123.31
408.673	110.31
408.896	105.31
409.12	108.31
409.344	110.31
409.567	123.31
409.791	100.31
410.014	96.31
410.238	91.31
410.461	117.31
410.685	113.31
410.908	113.31
411.132	115.31
411.355	115.31
411.578	119.31
411.802	106.31
412.025	123.31
412.249	116.31
412.472	106.31
412.695	108.31
412.919	120.31
413.142	104.31
413.365	115.31
413.589	108.31
413.812	112.31
414.035	105.31
414.258	100.31
414.482	121.31
414.705	117.31
414.928	111.31
415.151	107.31
415.374	108.31
415.597	110.31
415.821	117.31
416.044	121.31
416.267	98.31
416.49	98.31
416.713	100.31
416.936	95.31
417.159	109.31
417.382	106.31
417.605	123.31
417.828	116.31
418.051	114.31
418.274	110.31
418.497	106.31
418.72	104.31
418.943	110.31
419.166	116.31
419.389	107.31
419.611	113.31
419.834	119.31
420.057	106.31
420.28	125.31
420.503	113.31
420.726	108.31
420.948	113.31
421.171	135.31
421.394	114.31
421.617	120.31
421.839	115.31
422.062	120.31
422.285	113.31
422.507	116.31
422.73	119.31
422.953	110.31
423.175	111.31
423.398	103.31
423.621	122.31
423.843	119.31
424.066	119.31
424.288	117.31
424.511	110.31
424.733	117.31
424.956	110.31
425.178	109.31
425.401	120.31
425.623	109.31
425.846	133.31
426.068	107.31
426.291	109.31
426.513	102.31
426.735	99.31
426.958	118.31
427.18	120.31
427.402	112.31
427.625	118.31
427.847	100.31
428.069	123.31
428.292	104.31
428.514	124.31
428.736	108.31
428.958	104.31
429.181	91.31
429.403	97.31
429.625	108.31
429.847	124.31
430.069	113.31
430.292	119.31
430.514	98.31
430.736	111.31
430.958	113.31
431.18	110.31
431.402	108.31
431.624	123.31
431.846	107.31
432.068	102.31
432.29	95.31
432.512	108.31
432.734	113.31
432.956	118.31
433.178	118.31
433.4	115.31
433.622	114.31
433.844	97.31
434.066	120.31
434.287	102.31
434.509	119.31
434.731	101.31
434.953	104.31
435.175	121.31
435.397	117.31
435.618	119.31
435.84	101.31
436.062	99.31
436.284	123.31
436.505	116.31
436.727	111.31
436.949	101.31
437.17	100.31
437.392	119.31
437.614	113.31
437.835	116.31
438.057	113.31
438.278	113.31
438.5	105.31
438.721	110.31
438.943	106.31
439.165	117.31
439.386	125.31
439.608	108.31
439.829	101.31
440.05	108.31
440.272	118.31
440.493	116.31
440.715	122.31
440.936	121.31
441.158	110.31
441.379	127.31
441.6	112.31
441.822	124.31
442.043	111.31
442.264	124.31
442.486	120.31
442.707	116.31
442.928	129.31
443.149	117.31
443.371	128.31
443.592	122.31
443.813	133.31
444.034	122.31
444.255	117.31
444.476	120.31
444.698	121.31
444.919	121.31
445.14	237.31
445.361	159.31
445.582	121.31
445.803	106.31
446.024	117.31
446.245	122.31
446.466	132.31
446.687	124.31
446.908	125.31
447.129	129.31
447.35	121.31
447.571	108.31
447.792	121.31
448.013	105.31
448.234	102.31
448.455	118.31
448.675	119.31
448.896	127.31
449.117	126.31
449.338	102.31
449.559	126.31
449.779	119.31
450	110.31
450.221	117.31
450.442	109.31
450.662	105.31
450.883	127.31
451.104	125.31
451.324	116.31
451.545	105.31
451.766	126.31
451.986	105.31
452.207	110.31
452.428	120.31
452.648	97.31
452.869	115.31
453.089	122.31
453.31	104.31
453.53	101.31
453.751	100.31
453.971	96.31
454.192	100.31
454.412	116.31
454.633	106.31
454.853	105.31
455.073	102.31
455.294	118.31
455.514	111.31
455.734	124.31
455.955	101.31
456.175	95.31
456.395	97.31
456.616	109.31
456.836	108.31
457.056	92.31
457.276	109.31
457.497	93.31
457.717	121.31
457.937	93.31
458.157	102.31
458.377	104.31
458.598	99.31
458.818	109.31
459.038	104.31
459.258	108.31
459.478	84.31
459.698	93.31
459.918	95.31
460.138	118.31
460.358	114.31
460.578	120.31
460.798	117.31
461.018	109.31
461.238	115.31
461.458	118.31
461.678	109.31
461.898	119.31
462.118	110.31
462.338	117.31
462.558	125.31
462.777	122.31
462.997	132.31
463.217	124.31
463.437	138.31
463.657	123.31
463.876	107.31
464.096	113.31
464.316	126.31
464.536	115.31
464.755	119.31
464.975	124.31
465.195	113.31
465.414	117.31
465.634	124.31
465.854	119.31
466.073	107.31
466.293	110.31
466.512	117.31
466.732	108.31
466.951	112.31
467.171	119.31
467.391	108.31
467.61	112.31
467.829	121.31
468.049	117.31
468.268	124.31
468.488	127.31
468.707	122.31
468.927	124.31
469.146	121.31
469.365	106.31
469.585	119.31
469.804	129.31
470.023	123.31
470.243	118.31
470.462	140.31
470.681	127.31
470.901	125.31
471.12	123.31
471.339	119.31
471.558	104.31
471.777	119.31
471.997	136.31
472.216	127.31
472.435	112.31
472.654	97.31
472.873	101.31
473.092	104.31
473.311	99.31
473.53	105.31
473.749	110.31
473.968	122.31
474.187	110.31
474.406	118.31
474.625	117.31
474.844	109.31
475.063	109.31
475.282	111.31
475.501	116.31
475.72	113.31
475.939	114.31
476.158	108.31
476.377	139.31
476.596	119.31
476.814	130.31
477.033	115.31
477.252	118.31
477.471	110.31
477.69	109.31
477.908	120.31
478.127	131.31
478.346	131.31
478.564	119.31
478.783	124.31
479.002	127.31
479.22	126.31
479.439	125.31
479.658	131.31
479.876	126.31
480.095	118.31
480.313	119.31
480.532	119.31
480.751	132.31
480.969	115.31
481.188	106.31
481.406	95.31
481.624	115.31
481.843	108.31
482.061	113.31
482.28	118.31
482.498	110.31
482.717	113.31
482.935	116.31
483.153	120.31
483.372	135.31
483.59	134.31
483.808	115.31
484.027	138.31
484.245	134.31
484.463	123.31
484.681	135.31
484.9	130.31
485.118	118.31
485.336	131.31
485.554	128.31
485.772	115.31
485.99	109.31
486.209	115.31
486.427	129.31
486.645	131.31
486.863	140.31
487.081	114.31
487.299	118.31
487.517	137.31
487.735	134.31
487.953	138.31
488.171	151.31
488.389	130.31
488.607	126.31
488.825	138.31
489.043	128.31
489.261	123.31
489.479	114.31
489.696	130.31
489.914	116.31
490.132	127.31
490.35	125.31
490.568	127.31
490.786	126.31
491.003	136.31
491.221	128.31
491.439	149.31
491.657	138.31
491.874	169.31
492.092	175.31
492.31	162.31
492.527	165.31
492.745	149.31
492.963	173.31
493.18	154.31
493.398	170.31
493.615	142.31
493.833	159.31
494.05	145.31
494.268	149.31
494.485	134.31
494.703	155.31
494.92	141.31
495.138	137.31
495.355	151.31
495.573	146.31
495.79	155.31
496.008	155.31
496.225	135.31
496.442	133.31
496.66	125.31
496.877	149.31
497.094	167.31
497.312	152.31
497.529	143.31
497.746	149.31
497.963	143.31
498.181	148.31
498.398	145.31
498.615	145.31
498.832	149.31
499.049	158.31
499.267	159.31
499.484	167.31
499.701	185.31
499.918	189.31
500.135	197.31
500.352	224.31
500.569	218.31
500.786	228.31
501.003	203.31
501.22	198.31
501.437	172.31
501.654	178.31
501.871	147.31
502.088	155.31
502.305	153.31
502.522	134.31
502.739	133.31
502.956	153.31
503.172	131.31
503.389	139.31
503.606	132.31
503.823	132.31
504.04	134.31
504.256	130.31
504.473	137.31
504.69	128.31
504.907	142.31
505.123	141.31
505.34	137.31
505.557	143.31
505.773	129.31
505.99	132.31
506.207	117.31
506.423	116.31
506.64	123.31
506.856	123.31
507.073	124.31
507.289	127.31
507.506	133.31
507.722	134.31
507.939	134.31
508.155	125.31
508.372	124.31
508.588	132.31
508.805	115.31
509.021	121.31
509.238	122.31
509.454	117.31
509.67	108.31
509.887	102.31
510.103	120.31
510.319	107.31
510.536	117.31
510.752	116.31
510.968	109.31
511.184	116.31
511.401	122.31
