Data from StandardFe(NO3)3.TAE.3%Agarose.FlatLispGreen.Lamp.Energy10.07252019_HRD10591_11-55-56-442.txt Node
Date: Thu Jul 25 11:55:56 EDT 2019
User: cochatt
Spectrometer: HR+D1059
Trigger mode: 1
Integration Time (sec): 1.000000E-1
Scans to average: 1
Electric dark correction enabled: true
Nonlinearity correction enabled: false
Boxcar width: 0
XAxis mode: Wavelengths
Number of Pixels in Spectrum: 2048
>>>>>Begin Spectral Data<<<<<
223.165	-18.12
223.4	-18.12
223.635	-18.12
223.869	-15.12
224.104	-13.12
224.338	-16.12
224.573	-24.12
224.808	-23.12
225.042	-2.12
225.277	-7.12
225.511	-14.12
225.746	4.88
225.98	8.88
226.215	6.88
226.449	34.88
226.683	16.88
226.918	22.88
227.152	37.88
227.387	35.88
227.621	34.88
227.856	40.88
228.09	49.88
228.324	48.88
228.559	58.88
228.793	71.88
229.027	60.88
229.262	66.88
229.496	78.88
229.73	70.88
229.964	74.88
230.199	74.88
230.433	76.88
230.667	76.88
230.901	84.88
231.136	87.88
231.37	74.88
231.604	65.88
231.838	79.88
232.072	75.88
232.306	93.88
232.541	84.88
232.775	81.88
233.009	79.88
233.243	80.88
233.477	86.88
233.711	64.88
233.945	94.88
234.179	86.88
234.413	75.88
234.647	80.88
234.881	74.88
235.115	82.88
235.349	88.88
235.583	86.88
235.817	81.88
236.051	75.88
236.285	87.88
236.519	72.88
236.753	69.88
236.987	84.88
237.221	77.88
237.455	82.88
237.689	82.88
237.922	73.88
238.156	89.88
238.39	67.88
238.624	80.88
238.858	90.88
239.091	84.88
239.325	85.88
239.559	77.88
239.793	87.88
240.027	82.88
240.26	79.88
240.494	88.88
240.728	74.88
240.961	89.88
241.195	91.88
241.429	88.88
241.662	84.88
241.896	65.88
242.13	90.88
242.363	84.88
242.597	85.88
242.83	73.88
243.064	84.88
243.298	74.88
243.531	84.88
243.765	80.88
243.998	75.88
244.232	79.88
244.465	68.88
244.699	66.88
244.932	76.88
245.166	77.88
245.399	76.88
245.633	80.88
245.866	76.88
246.099	84.88
246.333	78.88
246.566	68.88
246.8	93.88
247.033	79.88
247.266	82.88
247.5	79.88
247.733	72.88
247.966	67.88
248.2	72.88
248.433	80.88
248.666	76.88
248.899	89.88
249.133	88.88
249.366	73.88
249.599	77.88
249.832	73.88
250.066	81.88
250.299	88.88
250.532	86.88
250.765	76.88
250.998	91.88
251.231	74.88
251.465	79.88
251.698	74.88
251.931	83.88
252.164	85.88
252.397	79.88
252.63	84.88
252.863	80.88
253.096	91.88
253.329	77.88
253.562	78.88
253.795	85.88
254.028	75.88
254.261	97.88
254.494	66.88
254.727	77.88
254.96	77.88
255.193	70.88
255.426	70.88
255.659	82.88
255.892	92.88
256.124	92.88
256.357	89.88
256.59	76.88
256.823	80.88
257.056	85.88
257.289	84.88
257.521	70.88
257.754	67.88
257.987	70.88
258.22	79.88
258.452	92.88
258.685	86.88
258.918	89.88
259.151	88.88
259.383	88.88
259.616	68.88
259.849	83.88
260.081	67.88
260.314	81.88
260.547	79.88
260.779	75.88
261.012	82.88
261.244	84.88
261.477	78.88
261.71	82.88
261.942	85.88
262.175	91.88
262.407	78.88
262.64	88.88
262.872	98.88
263.105	84.88
263.337	78.88
263.57	84.88
263.802	81.88
264.035	84.88
264.267	84.88
264.499	87.88
264.732	89.88
264.964	78.88
265.197	77.88
265.429	83.88
265.661	79.88
265.894	89.88
266.126	86.88
266.358	86.88
266.591	80.88
266.823	81.88
267.055	88.88
267.287	75.88
267.52	86.88
267.752	88.88
267.984	73.88
268.216	82.88
268.448	76.88
268.681	90.88
268.913	96.88
269.145	81.88
269.377	76.88
269.609	78.88
269.841	93.88
270.073	77.88
270.306	81.88
270.538	85.88
270.77	82.88
271.002	91.88
271.234	82.88
271.466	84.88
271.698	95.88
271.93	83.88
272.162	89.88
272.394	82.88
272.626	85.88
272.858	95.88
273.09	97.88
273.322	79.88
273.553	78.88
273.785	82.88
274.017	88.88
274.249	82.88
274.481	77.88
274.713	79.88
274.945	88.88
275.176	106.88
275.408	75.88
275.64	90.88
275.872	82.88
276.104	74.88
276.335	84.88
276.567	87.88
276.799	71.88
277.031	86.88
277.262	83.88
277.494	98.88
277.726	93.88
277.957	84.88
278.189	69.88
278.421	73.88
278.652	85.88
278.884	90.88
279.115	77.88
279.347	80.88
279.579	89.88
279.81	74.88
280.042	80.88
280.273	85.88
280.505	89.88
280.736	85.88
280.968	82.88
281.199	87.88
281.431	80.88
281.662	90.88
281.894	94.88
282.125	81.88
282.356	83.88
282.588	78.88
282.819	67.88
283.051	91.88
283.282	93.88
283.513	94.88
283.745	86.88
283.976	81.88
284.207	106.88
284.439	91.88
284.67	68.88
284.901	82.88
285.132	89.88
285.364	77.88
285.595	77.88
285.826	85.88
286.057	77.88
286.288	89.88
286.52	84.88
286.751	79.88
286.982	79.88
287.213	89.88
287.444	82.88
287.675	88.88
287.906	96.88
288.138	84.88
288.369	95.88
288.6	90.88
288.831	93.88
289.062	84.88
289.293	91.88
289.524	86.88
289.755	89.88
289.986	78.88
290.217	96.88
290.448	89.88
290.679	88.88
290.91	83.88
291.141	92.88
291.371	96.88
291.602	91.88
291.833	91.88
292.064	92.88
292.295	89.88
292.526	78.88
292.757	83.88
292.987	82.88
293.218	81.88
293.449	89.88
293.68	91.88
293.91	82.88
294.141	78.88
294.372	84.88
294.603	69.88
294.833	73.88
295.064	90.88
295.295	88.88
295.525	82.88
295.756	95.88
295.987	86.88
296.217	104.88
296.448	76.88
296.679	87.88
296.909	75.88
297.14	96.88
297.37	80.88
297.601	91.88
297.831	83.88
298.062	82.88
298.292	99.88
298.523	91.88
298.753	72.88
298.984	81.88
299.214	75.88
299.445	87.88
299.675	101.88
299.905	86.88
300.136	75.88
300.366	78.88
300.597	87.88
300.827	90.88
301.057	85.88
301.288	91.88
301.518	84.88
301.748	80.88
301.979	92.88
302.209	78.88
302.439	73.88
302.669	85.88
302.9	87.88
303.13	82.88
303.36	90.88
303.59	80.88
303.82	84.88
304.051	92.88
304.281	78.88
304.511	92.88
304.741	76.88
304.971	85.88
305.201	89.88
305.431	84.88
305.661	85.88
305.891	84.88
306.121	94.88
306.352	83.88
306.582	88.88
306.812	81.88
307.042	87.88
307.272	80.88
307.502	82.88
307.731	95.88
307.961	102.88
308.191	91.88
308.421	82.88
308.651	80.88
308.881	81.88
309.111	76.88
309.341	99.88
309.571	83.88
309.8	87.88
310.03	83.88
310.26	84.88
310.49	76.88
310.72	89.88
310.949	98.88
311.179	78.88
311.409	83.88
311.639	82.88
311.868	90.88
312.098	80.88
312.328	85.88
312.557	83.88
312.787	88.88
313.017	71.88
313.246	83.88
313.476	88.88
313.706	92.88
313.935	78.88
314.165	79.88
314.394	77.88
314.624	95.88
314.853	93.88
315.083	98.88
315.312	71.88
315.542	88.88
315.771	82.88
316.001	77.88
316.23	97.88
316.46	82.88
316.689	83.88
316.919	74.88
317.148	94.88
317.377	97.88
317.607	90.88
317.836	101.88
318.065	89.88
318.295	75.88
318.524	81.88
318.753	86.88
318.983	92.88
319.212	93.88
319.441	75.88
319.67	90.88
319.9	84.88
320.129	91.88
320.358	89.88
320.587	96.88
320.816	86.88
321.046	85.88
321.275	91.88
321.504	87.88
321.733	85.88
321.962	89.88
322.191	88.88
322.42	86.88
322.649	83.88
322.878	75.88
323.108	82.88
323.337	92.88
323.566	91.88
323.795	81.88
324.024	90.88
324.253	85.88
324.482	78.88
324.71	73.88
324.939	90.88
325.168	74.88
325.397	94.88
325.626	102.88
325.855	69.88
326.084	100.88
326.313	98.88
326.542	89.88
326.77	81.88
326.999	84.88
327.228	79.88
327.457	82.88
327.686	90.88
327.914	85.88
328.143	86.88
328.372	90.88
328.6	87.88
328.829	98.88
329.058	74.88
329.287	77.88
329.515	86.88
329.744	80.88
329.972	83.88
330.201	100.88
330.43	88.88
330.658	77.88
330.887	86.88
331.115	93.88
331.344	90.88
331.572	101.88
331.801	93.88
332.03	95.88
332.258	96.88
332.486	88.88
332.715	89.88
332.943	79.88
333.172	81.88
333.4	79.88
333.629	91.88
333.857	90.88
334.085	86.88
334.314	92.88
334.542	88.88
334.771	82.88
334.999	70.88
335.227	81.88
335.455	89.88
335.684	85.88
335.912	95.88
336.14	88.88
336.369	90.88
336.597	81.88
336.825	85.88
337.053	91.88
337.281	82.88
337.51	75.88
337.738	93.88
337.966	97.88
338.194	82.88
338.422	98.88
338.65	86.88
338.878	74.88
339.106	97.88
339.334	96.88
339.562	86.88
339.79	100.88
340.018	91.88
340.246	98.88
340.474	85.88
340.702	89.88
340.93	86.88
341.158	69.88
341.386	95.88
341.614	77.88
341.842	89.88
342.07	97.88
342.298	94.88
342.526	76.88
342.754	88.88
342.981	84.88
343.209	88.88
343.437	86.88
343.665	85.88
343.893	83.88
344.12	93.88
344.348	91.88
344.576	87.88
344.804	86.88
345.031	84.88
345.259	85.88
345.487	81.88
345.714	91.88
345.942	83.88
346.17	81.88
346.397	80.88
346.625	77.88
346.853	82.88
347.08	91.88
347.308	83.88
347.535	78.88
347.763	98.88
347.99	81.88
348.218	89.88
348.445	78.88
348.673	82.88
348.9	83.88
349.128	84.88
349.355	80.88
349.583	87.88
349.81	83.88
350.037	84.88
350.265	99.88
350.492	92.88
350.72	87.88
350.947	101.88
351.174	75.88
351.402	80.88
351.629	79.88
351.856	90.88
352.083	102.88
352.311	81.88
352.538	84.88
352.765	78.88
352.992	98.88
353.22	82.88
353.447	82.88
353.674	84.88
353.901	85.88
354.128	88.88
354.355	93.88
354.583	91.88
354.81	78.88
355.037	85.88
355.264	89.88
355.491	76.88
355.718	73.88
355.945	86.88
356.172	98.88
356.399	82.88
356.626	81.88
356.853	97.88
357.08	88.88
357.307	85.88
357.534	89.88
357.761	91.88
357.988	88.88
358.215	80.88
358.441	84.88
358.668	91.88
358.895	73.88
359.122	89.88
359.349	93.88
359.576	86.88
359.802	89.88
360.029	88.88
360.256	87.88
360.483	77.88
360.709	93.88
360.936	78.88
361.163	84.88
361.39	98.88
361.616	80.88
361.843	72.88
362.07	91.88
362.296	99.88
362.523	90.88
362.749	85.88
362.976	99.88
363.203	75.88
363.429	64.88
363.656	74.88
363.882	82.88
364.109	86.88
364.335	94.88
364.562	88.88
364.788	70.88
365.015	82.88
365.241	85.88
365.468	81.88
365.694	97.88
365.92	86.88
366.147	81.88
366.373	78.88
366.599	93.88
366.826	81.88
367.052	75.88
367.278	96.88
367.505	91.88
367.731	78.88
367.957	89.88
368.184	81.88
368.41	84.88
368.636	69.88
368.862	83.88
369.089	85.88
369.315	91.88
369.541	80.88
369.767	77.88
369.993	92.88
370.219	77.88
370.445	86.88
370.672	91.88
370.898	87.88
371.124	86.88
371.35	92.88
371.576	93.88
371.802	99.88
372.028	84.88
372.254	89.88
372.48	82.88
372.706	89.88
372.932	98.88
373.158	81.88
373.384	88.88
373.61	94.88
373.835	92.88
374.061	94.88
374.287	94.88
374.513	87.88
374.739	85.88
374.965	98.88
375.191	78.88
375.416	89.88
375.642	89.88
375.868	99.88
376.094	82.88
376.319	89.88
376.545	79.88
376.771	103.88
376.997	100.88
377.222	92.88
377.448	97.88
377.674	86.88
377.899	105.88
378.125	81.88
378.35	91.88
378.576	96.88
378.802	86.88
379.027	90.88
379.253	97.88
379.478	104.88
379.704	97.88
379.929	88.88
380.155	89.88
380.38	78.88
380.606	92.88
380.831	87.88
381.057	91.88
381.282	86.88
381.507	86.88
381.733	84.88
381.958	92.88
382.184	82.88
382.409	76.88
382.634	91.88
382.86	89.88
383.085	83.88
383.31	86.88
383.535	91.88
383.761	92.88
383.986	91.88
384.211	88.88
384.436	88.88
384.662	100.88
384.887	78.88
385.112	85.88
385.337	100.88
385.562	91.88
385.787	99.88
386.013	93.88
386.238	84.88
386.463	85.88
386.688	85.88
386.913	73.88
387.138	77.88
387.363	89.88
387.588	93.88
387.813	84.88
388.038	80.88
388.263	85.88
388.488	105.88
388.713	100.88
388.938	89.88
389.163	83.88
389.387	100.88
389.612	90.88
389.837	88.88
390.062	89.88
390.287	85.88
390.512	88.88
390.736	98.88
390.961	98.88
391.186	114.88
391.411	100.88
391.636	92.88
391.86	92.88
392.085	95.88
392.31	105.88
392.534	100.88
392.759	101.88
392.984	100.88
393.208	96.88
393.433	107.88
393.658	77.88
393.882	93.88
394.107	88.88
394.331	105.88
394.556	89.88
394.78	105.88
395.005	93.88
395.229	94.88
395.454	85.88
395.678	104.88
395.903	91.88
396.127	92.88
396.352	92.88
396.576	94.88
396.801	87.88
397.025	92.88
397.249	101.88
397.474	105.88
397.698	101.88
397.922	112.88
398.147	93.88
398.371	99.88
398.595	120.88
398.82	101.88
399.044	91.88
399.268	95.88
399.492	111.88
399.717	108.88
399.941	106.88
400.165	112.88
400.389	97.88
400.613	106.88
400.837	94.88
401.062	108.88
401.286	115.88
401.51	109.88
401.734	119.88
401.958	109.88
402.182	112.88
402.406	108.88
402.63	88.88
402.854	115.88
403.078	96.88
403.302	116.88
403.526	109.88
403.75	116.88
403.974	102.88
404.198	123.88
404.422	102.88
404.645	103.88
404.869	118.88
405.093	102.88
405.317	104.88
405.541	98.88
405.765	115.88
405.988	107.88
406.212	106.88
406.436	103.88
406.66	104.88
406.883	106.88
407.107	102.88
407.331	101.88
407.555	107.88
407.778	101.88
408.002	120.88
408.226	124.88
408.449	117.88
408.673	100.88
408.896	112.88
409.12	94.88
409.344	113.88
409.567	88.88
409.791	109.88
410.014	106.88
410.238	120.88
410.461	112.88
410.685	103.88
410.908	108.88
411.132	94.88
411.355	101.88
411.578	106.88
411.802	98.88
412.025	113.88
412.249	113.88
412.472	105.88
412.695	100.88
412.919	83.88
413.142	119.88
413.365	94.88
413.589	103.88
413.812	93.88
414.035	100.88
414.258	109.88
414.482	123.88
414.705	128.88
414.928	116.88
415.151	103.88
415.374	115.88
415.597	103.88
415.821	115.88
416.044	109.88
416.267	100.88
416.49	106.88
416.713	121.88
416.936	100.88
417.159	116.88
417.382	109.88
417.605	126.88
417.828	118.88
418.051	119.88
418.274	106.88
418.497	95.88
418.72	119.88
418.943	116.88
419.166	111.88
419.389	97.88
419.611	104.88
419.834	101.88
420.057	110.88
420.28	112.88
420.503	106.88
420.726	114.88
420.948	121.88
421.171	104.88
421.394	117.88
421.617	107.88
421.839	118.88
422.062	118.88
422.285	112.88
422.507	117.88
422.73	122.88
422.953	124.88
423.175	112.88
423.398	97.88
423.621	115.88
423.843	103.88
424.066	122.88
424.288	119.88
424.511	124.88
424.733	125.88
424.956	115.88
425.178	113.88
425.401	122.88
425.623	112.88
425.846	113.88
426.068	108.88
426.291	114.88
426.513	108.88
426.735	119.88
426.958	108.88
427.18	118.88
427.402	106.88
427.625	102.88
427.847	113.88
428.069	120.88
428.292	119.88
428.514	115.88
428.736	119.88
428.958	102.88
429.181	114.88
429.403	110.88
429.625	108.88
429.847	112.88
430.069	113.88
430.292	94.88
430.514	119.88
430.736	118.88
430.958	114.88
431.18	107.88
431.402	103.88
431.624	95.88
431.846	102.88
432.068	115.88
432.29	110.88
432.512	94.88
432.734	102.88
432.956	112.88
433.178	125.88
433.4	104.88
433.622	121.88
433.844	110.88
434.066	112.88
434.287	103.88
434.509	115.88
434.731	110.88
434.953	119.88
435.175	126.88
435.397	115.88
435.618	109.88
435.84	100.88
436.062	116.88
436.284	119.88
436.505	124.88
436.727	105.88
436.949	109.88
437.17	117.88
437.392	115.88
437.614	109.88
437.835	109.88
438.057	96.88
438.278	96.88
438.5	100.88
438.721	114.88
438.943	117.88
439.165	105.88
439.386	108.88
439.608	120.88
439.829	115.88
440.05	115.88
440.272	123.88
440.493	115.88
440.715	101.88
440.936	126.88
441.158	116.88
441.379	114.88
441.6	122.88
441.822	112.88
442.043	127.88
442.264	100.88
442.486	107.88
442.707	113.88
442.928	122.88
443.149	103.88
443.371	115.88
443.592	114.88
443.813	121.88
444.034	104.88
444.255	114.88
444.476	115.88
444.698	97.88
444.919	126.88
445.14	243.88
445.361	183.88
445.582	123.88
445.803	125.88
446.024	125.88
446.245	125.88
446.466	117.88
446.687	105.88
446.908	130.88
447.129	123.88
447.35	122.88
447.571	116.88
447.792	110.88
448.013	109.88
448.234	112.88
448.455	110.88
448.675	118.88
448.896	109.88
449.117	112.88
449.338	112.88
449.559	118.88
449.779	105.88
450	103.88
450.221	116.88
450.442	96.88
450.662	101.88
450.883	116.88
451.104	107.88
451.324	112.88
451.545	119.88
451.766	120.88
451.986	109.88
452.207	112.88
452.428	112.88
452.648	102.88
452.869	114.88
453.089	110.88
453.31	117.88
453.53	106.88
453.751	98.88
453.971	109.88
454.192	86.88
454.412	93.88
454.633	94.88
454.853	99.88
455.073	101.88
455.294	102.88
455.514	100.88
455.734	116.88
455.955	123.88
456.175	105.88
456.395	99.88
456.616	116.88
456.836	94.88
457.056	98.88
457.276	117.88
457.497	98.88
457.717	97.88
457.937	106.88
458.157	93.88
458.377	94.88
458.598	87.88
458.818	97.88
459.038	101.88
459.258	104.88
459.478	90.88
459.698	112.88
459.918	116.88
460.138	102.88
460.358	102.88
460.578	125.88
460.798	112.88
461.018	110.88
461.238	108.88
461.458	123.88
461.678	113.88
461.898	114.88
462.118	113.88
462.338	118.88
462.558	121.88
462.777	120.88
462.997	132.88
463.217	132.88
463.437	137.88
463.657	123.88
463.876	118.88
464.096	114.88
464.316	118.88
464.536	122.88
464.755	120.88
464.975	116.88
465.195	115.88
465.414	121.88
465.634	122.88
465.854	120.88
466.073	114.88
466.293	114.88
466.512	114.88
466.732	108.88
466.951	109.88
467.171	122.88
467.391	104.88
467.61	118.88
467.829	120.88
468.049	113.88
468.268	125.88
468.488	107.88
468.707	108.88
468.927	103.88
469.146	125.88
469.365	126.88
469.585	137.88
469.804	123.88
470.023	118.88
470.243	108.88
470.462	122.88
470.681	112.88
470.901	120.88
471.12	121.88
471.339	128.88
471.558	129.88
471.777	108.88
471.997	107.88
472.216	135.88
472.435	100.88
472.654	100.88
472.873	118.88
473.092	110.88
473.311	127.88
473.53	106.88
473.749	116.88
473.968	107.88
474.187	117.88
474.406	120.88
474.625	116.88
474.844	104.88
475.063	116.88
475.282	119.88
475.501	112.88
475.72	124.88
475.939	108.88
476.158	106.88
476.377	107.88
476.596	118.88
476.814	114.88
477.033	120.88
477.252	128.88
477.471	122.88
477.69	109.88
477.908	122.88
478.127	140.88
478.346	126.88
478.564	117.88
478.783	128.88
479.002	134.88
479.22	126.88
479.439	119.88
479.658	112.88
479.876	120.88
480.095	116.88
480.313	119.88
480.532	125.88
480.751	123.88
480.969	114.88
481.188	121.88
481.406	108.88
481.624	120.88
481.843	116.88
482.061	103.88
482.28	124.88
482.498	100.88
482.717	106.88
482.935	127.88
483.153	130.88
483.372	128.88
483.59	140.88
483.808	132.88
484.027	123.88
484.245	123.88
484.463	117.88
484.681	130.88
484.9	122.88
485.118	121.88
485.336	126.88
485.554	121.88
485.772	126.88
485.99	113.88
486.209	111.88
486.427	119.88
486.645	118.88
486.863	117.88
487.081	140.88
487.299	125.88
487.517	128.88
487.735	132.88
487.953	146.88
488.171	143.88
488.389	139.88
488.607	125.88
488.825	134.88
489.043	120.88
489.261	137.88
489.479	117.88
489.696	124.88
489.914	110.88
490.132	142.88
490.35	136.88
490.568	132.88
490.786	148.88
491.003	153.88
491.221	147.88
491.439	152.88
491.657	142.88
491.874	163.88
492.092	142.88
492.31	157.88
492.527	163.88
492.745	166.88
492.963	164.88
493.18	146.88
493.398	157.88
493.615	156.88
493.833	160.88
494.05	153.88
494.268	141.88
494.485	146.88
494.703	136.88
494.92	139.88
495.138	154.88
495.355	150.88
495.573	140.88
495.79	122.88
496.008	144.88
496.225	154.88
496.442	135.88
496.66	153.88
496.877	148.88
497.094	137.88
497.312	147.88
497.529	133.88
497.746	129.88
497.963	135.88
498.181	139.88
498.398	140.88
498.615	143.88
498.832	152.88
499.049	134.88
499.267	156.88
499.484	149.88
499.701	176.88
499.918	179.88
500.135	194.88
500.352	208.88
500.569	211.88
500.786	211.88
501.003	211.88
501.22	176.88
501.437	176.88
501.654	158.88
501.871	154.88
502.088	153.88
502.305	144.88
502.522	153.88
502.739	139.88
502.956	140.88
503.172	136.88
503.389	130.88
503.606	140.88
503.823	131.88
504.04	126.88
504.256	136.88
504.473	137.88
504.69	157.88
504.907	140.88
505.123	125.88
505.34	132.88
505.557	122.88
505.773	130.88
505.99	124.88
506.207	114.88
506.423	136.88
506.64	122.88
506.856	120.88
507.073	125.88
507.289	128.88
507.506	128.88
507.722	108.88
507.939	118.88
508.155	120.88
508.372	120.88
508.588	138.88
508.805	122.88
509.021	117.88
509.238	120.88
509.454	107.88
509.67	122.88
509.887	109.88
510.103	105.88
510.319	98.88
510.536	112.88
510.752	110.88
510.968	100.88
511.184	113.88
511.401	114.88
511.617	99.88
511.833	118.88
