Data from StandardFe(NO3)3.TAE.3%Agarose.FlatLispGreen.Lamp.Energy10.07252019_HRD10591_11-55-27-441.txt Node
Date: Thu Jul 25 11:55:27 EDT 2019
User: cochatt
Spectrometer: HR+D1059
Trigger mode: 1
Integration Time (sec): 1.000000E-1
Scans to average: 1
Electric dark correction enabled: true
Nonlinearity correction enabled: false
Boxcar width: 0
XAxis mode: Wavelengths
Number of Pixels in Spectrum: 2048
>>>>>Begin Spectral Data<<<<<
223.165	-13.69
223.4	-13.69
223.635	-13.69
223.869	-22.69
224.104	-23.69
224.338	-16.69
224.573	-18.69
224.808	-10.69
225.042	2.31
225.277	-9.69
225.511	-7.69
225.746	8.31
225.98	3.31
226.215	16.31
226.449	23.31
226.683	23.31
226.918	16.31
227.152	30.31
227.387	23.31
227.621	28.31
227.856	52.31
228.09	43.31
228.324	41.31
228.559	49.31
228.793	49.31
229.027	54.31
229.262	70.31
229.496	67.31
229.73	75.31
229.964	80.31
230.199	69.31
230.433	80.31
230.667	80.31
230.901	74.31
231.136	73.31
231.37	73.31
231.604	72.31
231.838	80.31
232.072	80.31
232.306	83.31
232.541	80.31
232.775	83.31
233.009	87.31
233.243	81.31
233.477	86.31
233.711	83.31
233.945	78.31
234.179	72.31
234.413	85.31
234.647	90.31
234.881	72.31
235.115	72.31
235.349	78.31
235.583	71.31
235.817	70.31
236.051	76.31
236.285	86.31
236.519	68.31
236.753	75.31
236.987	86.31
237.221	99.31
237.455	84.31
237.689	92.31
237.922	71.31
238.156	91.31
238.39	69.31
238.624	83.31
238.858	88.31
239.091	67.31
239.325	74.31
239.559	74.31
239.793	83.31
240.027	78.31
240.26	71.31
240.494	74.31
240.728	66.31
240.961	60.31
241.195	84.31
241.429	68.31
241.662	80.31
241.896	67.31
242.13	85.31
242.363	86.31
242.597	66.31
242.83	82.31
243.064	84.31
243.298	88.31
243.531	72.31
243.765	75.31
243.998	76.31
244.232	70.31
244.465	92.31
244.699	71.31
244.932	79.31
245.166	80.31
245.399	79.31
245.633	60.31
245.866	74.31
246.099	82.31
246.333	68.31
246.566	72.31
246.8	90.31
247.033	76.31
247.266	69.31
247.5	81.31
247.733	77.31
247.966	74.31
248.2	79.31
248.433	87.31
248.666	77.31
248.899	80.31
249.133	80.31
249.366	83.31
249.599	75.31
249.832	73.31
250.066	73.31
250.299	79.31
250.532	83.31
250.765	73.31
250.998	88.31
251.231	82.31
251.465	81.31
251.698	61.31
251.931	79.31
252.164	68.31
252.397	75.31
252.63	81.31
252.863	80.31
253.096	75.31
253.329	72.31
253.562	84.31
253.795	76.31
254.028	80.31
254.261	83.31
254.494	77.31
254.727	85.31
254.96	67.31
255.193	78.31
255.426	63.31
255.659	67.31
255.892	87.31
256.124	74.31
256.357	67.31
256.59	66.31
256.823	79.31
257.056	83.31
257.289	71.31
257.521	78.31
257.754	69.31
257.987	79.31
258.22	86.31
258.452	82.31
258.685	79.31
258.918	81.31
259.151	77.31
259.383	75.31
259.616	88.31
259.849	80.31
260.081	93.31
260.314	75.31
260.547	75.31
260.779	93.31
261.012	74.31
261.244	79.31
261.477	78.31
261.71	81.31
261.942	64.31
262.175	79.31
262.407	85.31
262.64	77.31
262.872	81.31
263.105	70.31
263.337	89.31
263.57	87.31
263.802	94.31
264.035	70.31
264.267	70.31
264.499	73.31
264.732	85.31
264.964	69.31
265.197	98.31
265.429	71.31
265.661	74.31
265.894	88.31
266.126	90.31
266.358	79.31
266.591	80.31
266.823	74.31
267.055	93.31
267.287	83.31
267.52	88.31
267.752	90.31
267.984	87.31
268.216	75.31
268.448	76.31
268.681	82.31
268.913	81.31
269.145	85.31
269.377	83.31
269.609	76.31
269.841	56.31
270.073	90.31
270.306	89.31
270.538	75.31
270.77	83.31
271.002	79.31
271.234	81.31
271.466	97.31
271.698	82.31
271.93	82.31
272.162	76.31
272.394	85.31
272.626	74.31
272.858	78.31
273.09	86.31
273.322	81.31
273.553	77.31
273.785	79.31
274.017	87.31
274.249	71.31
274.481	76.31
274.713	80.31
274.945	78.31
275.176	86.31
275.408	83.31
275.64	87.31
275.872	84.31
276.104	74.31
276.335	87.31
276.567	75.31
276.799	78.31
277.031	76.31
277.262	98.31
277.494	93.31
277.726	71.31
277.957	104.31
278.189	70.31
278.421	78.31
278.652	79.31
278.884	73.31
279.115	90.31
279.347	77.31
279.579	75.31
279.81	85.31
280.042	90.31
280.273	84.31
280.505	81.31
280.736	80.31
280.968	76.31
281.199	79.31
281.431	79.31
281.662	83.31
281.894	72.31
282.125	77.31
282.356	87.31
282.588	87.31
282.819	83.31
283.051	85.31
283.282	89.31
283.513	68.31
283.745	90.31
283.976	78.31
284.207	72.31
284.439	85.31
284.67	81.31
284.901	79.31
285.132	75.31
285.364	76.31
285.595	93.31
285.826	69.31
286.057	80.31
286.288	86.31
286.52	67.31
286.751	81.31
286.982	77.31
287.213	79.31
287.444	83.31
287.675	88.31
287.906	85.31
288.138	85.31
288.369	70.31
288.6	83.31
288.831	79.31
289.062	90.31
289.293	95.31
289.524	88.31
289.755	84.31
289.986	97.31
290.217	75.31
290.448	81.31
290.679	68.31
290.91	87.31
291.141	91.31
291.371	72.31
291.602	91.31
291.833	93.31
292.064	77.31
292.295	83.31
292.526	83.31
292.757	81.31
292.987	78.31
293.218	89.31
293.449	93.31
293.68	87.31
293.91	92.31
294.141	78.31
294.372	76.31
294.603	79.31
294.833	76.31
295.064	90.31
295.295	75.31
295.525	65.31
295.756	92.31
295.987	79.31
296.217	88.31
296.448	93.31
296.679	81.31
296.909	79.31
297.14	81.31
297.37	75.31
297.601	76.31
297.831	81.31
298.062	84.31
298.292	76.31
298.523	88.31
298.753	90.31
298.984	85.31
299.214	73.31
299.445	89.31
299.675	90.31
299.905	70.31
300.136	78.31
300.366	77.31
300.597	87.31
300.827	76.31
301.057	90.31
301.288	81.31
301.518	89.31
301.748	82.31
301.979	83.31
302.209	82.31
302.439	79.31
302.669	84.31
302.9	77.31
303.13	91.31
303.36	83.31
303.59	76.31
303.82	87.31
304.051	83.31
304.281	83.31
304.511	76.31
304.741	82.31
304.971	73.31
305.201	78.31
305.431	82.31
305.661	88.31
305.891	80.31
306.121	84.31
306.352	84.31
306.582	88.31
306.812	84.31
307.042	86.31
307.272	83.31
307.502	77.31
307.731	89.31
307.961	86.31
308.191	69.31
308.421	102.31
308.651	97.31
308.881	99.31
309.111	87.31
309.341	97.31
309.571	73.31
309.8	90.31
310.03	90.31
310.26	79.31
310.49	94.31
310.72	81.31
310.949	79.31
311.179	77.31
311.409	80.31
311.639	86.31
311.868	82.31
312.098	81.31
312.328	85.31
312.557	78.31
312.787	83.31
313.017	93.31
313.246	86.31
313.476	79.31
313.706	81.31
313.935	75.31
314.165	88.31
314.394	85.31
314.624	76.31
314.853	85.31
315.083	80.31
315.312	85.31
315.542	84.31
315.771	84.31
316.001	105.31
316.23	81.31
316.46	79.31
316.689	72.31
316.919	83.31
317.148	101.31
317.377	85.31
317.607	95.31
317.836	90.31
318.065	82.31
318.295	75.31
318.524	88.31
318.753	88.31
318.983	83.31
319.212	86.31
319.441	66.31
319.67	87.31
319.9	90.31
320.129	87.31
320.358	81.31
320.587	87.31
320.816	74.31
321.046	98.31
321.275	103.31
321.504	80.31
321.733	87.31
321.962	72.31
322.191	97.31
322.42	80.31
322.649	95.31
322.878	76.31
323.108	95.31
323.337	85.31
323.566	69.31
323.795	88.31
324.024	94.31
324.253	92.31
324.482	75.31
324.71	86.31
324.939	73.31
325.168	89.31
325.397	76.31
325.626	72.31
325.855	85.31
326.084	85.31
326.313	82.31
326.542	85.31
326.77	95.31
326.999	70.31
327.228	80.31
327.457	84.31
327.686	81.31
327.914	86.31
328.143	82.31
328.372	85.31
328.6	85.31
328.829	75.31
329.058	95.31
329.287	93.31
329.515	80.31
329.744	90.31
329.972	84.31
330.201	96.31
330.43	89.31
330.658	91.31
330.887	85.31
331.115	90.31
331.344	92.31
331.572	83.31
331.801	88.31
332.03	94.31
332.258	81.31
332.486	102.31
332.715	86.31
332.943	81.31
333.172	79.31
333.4	83.31
333.629	81.31
333.857	85.31
334.085	78.31
334.314	94.31
334.542	69.31
334.771	70.31
334.999	74.31
335.227	67.31
335.455	80.31
335.684	89.31
335.912	89.31
336.14	80.31
336.369	87.31
336.597	105.31
336.825	89.31
337.053	78.31
337.281	79.31
337.51	75.31
337.738	93.31
337.966	89.31
338.194	81.31
338.422	90.31
338.65	98.31
338.878	96.31
339.106	81.31
339.334	99.31
339.562	99.31
339.79	90.31
340.018	78.31
340.246	75.31
340.474	85.31
340.702	97.31
340.93	87.31
341.158	79.31
341.386	81.31
341.614	83.31
341.842	75.31
342.07	89.31
342.298	81.31
342.526	80.31
342.754	73.31
342.981	79.31
343.209	72.31
343.437	94.31
343.665	72.31
343.893	74.31
344.12	79.31
344.348	71.31
344.576	104.31
344.804	93.31
345.031	88.31
345.259	74.31
345.487	86.31
345.714	76.31
345.942	88.31
346.17	81.31
346.397	85.31
346.625	77.31
346.853	75.31
347.08	80.31
347.308	75.31
347.535	89.31
347.763	72.31
347.99	88.31
348.218	87.31
348.445	99.31
348.673	90.31
348.9	87.31
349.128	90.31
349.355	72.31
349.583	72.31
349.81	88.31
350.037	84.31
350.265	90.31
350.492	89.31
350.72	81.31
350.947	79.31
351.174	85.31
351.402	82.31
351.629	80.31
351.856	97.31
352.083	83.31
352.311	79.31
352.538	88.31
352.765	84.31
352.992	70.31
353.22	74.31
353.447	85.31
353.674	92.31
353.901	79.31
354.128	94.31
354.355	72.31
354.583	89.31
354.81	88.31
355.037	98.31
355.264	87.31
355.491	82.31
355.718	83.31
355.945	77.31
356.172	71.31
356.399	95.31
356.626	94.31
356.853	89.31
357.08	86.31
357.307	83.31
357.534	85.31
357.761	82.31
357.988	89.31
358.215	87.31
358.441	80.31
358.668	77.31
358.895	69.31
359.122	81.31
359.349	77.31
359.576	80.31
359.802	84.31
360.029	90.31
360.256	93.31
360.483	90.31
360.709	77.31
360.936	82.31
361.163	79.31
361.39	85.31
361.616	87.31
361.843	73.31
362.07	82.31
362.296	81.31
362.523	86.31
362.749	86.31
362.976	82.31
363.203	94.31
363.429	85.31
363.656	83.31
363.882	97.31
364.109	76.31
364.335	83.31
364.562	89.31
364.788	85.31
365.015	81.31
365.241	80.31
365.468	72.31
365.694	90.31
365.92	75.31
366.147	78.31
366.373	61.31
366.599	78.31
366.826	83.31
367.052	80.31
367.278	76.31
367.505	77.31
367.731	68.31
367.957	81.31
368.184	82.31
368.41	88.31
368.636	104.31
368.862	91.31
369.089	75.31
369.315	83.31
369.541	77.31
369.767	86.31
369.993	79.31
370.219	80.31
370.445	76.31
370.672	81.31
370.898	94.31
371.124	83.31
371.35	97.31
371.576	85.31
371.802	74.31
372.028	76.31
372.254	68.31
372.48	75.31
372.706	94.31
372.932	99.31
373.158	74.31
373.384	96.31
373.61	76.31
373.835	90.31
374.061	92.31
374.287	93.31
374.513	93.31
374.739	96.31
374.965	82.31
375.191	104.31
375.416	74.31
375.642	86.31
375.868	79.31
376.094	92.31
376.319	87.31
376.545	91.31
376.771	87.31
376.997	91.31
377.222	85.31
377.448	90.31
377.674	85.31
377.899	85.31
378.125	82.31
378.35	85.31
378.576	69.31
378.802	80.31
379.027	96.31
379.253	83.31
379.478	72.31
379.704	88.31
379.929	84.31
380.155	92.31
380.38	81.31
380.606	92.31
380.831	87.31
381.057	93.31
381.282	94.31
381.507	83.31
381.733	93.31
381.958	89.31
382.184	78.31
382.409	96.31
382.634	84.31
382.86	80.31
383.085	81.31
383.31	81.31
383.535	89.31
383.761	90.31
383.986	85.31
384.211	85.31
384.436	83.31
384.662	74.31
384.887	82.31
385.112	103.31
385.337	97.31
385.562	100.31
385.787	100.31
386.013	95.31
386.238	87.31
386.463	91.31
386.688	95.31
386.913	99.31
387.138	91.31
387.363	98.31
387.588	96.31
387.813	101.31
388.038	94.31
388.263	86.31
388.488	91.31
388.713	83.31
388.938	92.31
389.163	90.31
389.387	99.31
389.612	85.31
389.837	84.31
390.062	88.31
390.287	83.31
390.512	95.31
390.736	89.31
390.961	101.31
391.186	99.31
391.411	90.31
391.636	91.31
391.86	96.31
392.085	102.31
392.31	102.31
392.534	101.31
392.759	100.31
392.984	98.31
393.208	106.31
393.433	93.31
393.658	79.31
393.882	93.31
394.107	88.31
394.331	100.31
394.556	90.31
394.78	96.31
395.005	99.31
395.229	89.31
395.454	112.31
395.678	94.31
395.903	92.31
396.127	103.31
396.352	82.31
396.576	98.31
396.801	99.31
397.025	101.31
397.249	101.31
397.474	102.31
397.698	93.31
397.922	87.31
398.147	99.31
398.371	100.31
398.595	106.31
398.82	94.31
399.044	116.31
399.268	115.31
399.492	95.31
399.717	111.31
399.941	107.31
400.165	114.31
400.389	92.31
400.613	106.31
400.837	110.31
401.062	101.31
401.286	84.31
401.51	88.31
401.734	106.31
401.958	112.31
402.182	92.31
402.406	102.31
402.63	100.31
402.854	96.31
403.078	102.31
403.302	89.31
403.526	113.31
403.75	97.31
403.974	103.31
404.198	114.31
404.422	111.31
404.645	104.31
404.869	119.31
405.093	117.31
405.317	117.31
405.541	116.31
405.765	106.31
405.988	109.31
406.212	108.31
406.436	112.31
406.66	101.31
406.883	106.31
407.107	107.31
407.331	105.31
407.555	129.31
407.778	103.31
408.002	110.31
408.226	113.31
408.449	120.31
408.673	102.31
408.896	117.31
409.12	97.31
409.344	114.31
409.567	111.31
409.791	91.31
410.014	111.31
410.238	113.31
410.461	103.31
410.685	104.31
410.908	117.31
411.132	98.31
411.355	117.31
411.578	103.31
411.802	92.31
412.025	103.31
412.249	105.31
412.472	105.31
412.695	93.31
412.919	105.31
413.142	110.31
413.365	99.31
413.589	93.31
413.812	105.31
414.035	99.31
414.258	112.31
414.482	99.31
414.705	119.31
414.928	89.31
415.151	116.31
415.374	113.31
415.597	117.31
415.821	86.31
416.044	119.31
416.267	113.31
416.49	101.31
416.713	118.31
416.936	111.31
417.159	106.31
417.382	102.31
417.605	97.31
417.828	93.31
418.051	112.31
418.274	101.31
418.497	106.31
418.72	116.31
418.943	114.31
419.166	121.31
419.389	99.31
419.611	126.31
419.834	93.31
420.057	105.31
420.28	108.31
420.503	117.31
420.726	104.31
420.948	123.31
421.171	124.31
421.394	107.31
421.617	124.31
421.839	121.31
422.062	105.31
422.285	114.31
422.507	113.31
422.73	117.31
422.953	116.31
423.175	101.31
423.398	109.31
423.621	98.31
423.843	127.31
424.066	111.31
424.288	114.31
424.511	126.31
424.733	119.31
424.956	112.31
425.178	130.31
425.401	118.31
425.623	111.31
425.846	105.31
426.068	104.31
426.291	113.31
426.513	116.31
426.735	117.31
426.958	113.31
427.18	106.31
427.402	106.31
427.625	96.31
427.847	111.31
428.069	101.31
428.292	111.31
428.514	111.31
428.736	102.31
428.958	108.31
429.181	119.31
429.403	105.31
429.625	87.31
429.847	109.31
430.069	110.31
430.292	106.31
430.514	105.31
430.736	94.31
430.958	117.31
431.18	93.31
431.402	104.31
431.624	95.31
431.846	111.31
432.068	95.31
432.29	95.31
432.512	102.31
432.734	110.31
432.956	117.31
433.178	127.31
433.4	117.31
433.622	110.31
433.844	104.31
434.066	117.31
434.287	103.31
434.509	101.31
434.731	96.31
434.953	105.31
435.175	90.31
435.397	114.31
435.618	119.31
435.84	109.31
436.062	113.31
436.284	105.31
436.505	117.31
436.727	119.31
436.949	123.31
437.17	90.31
437.392	99.31
437.614	100.31
437.835	115.31
438.057	108.31
438.278	91.31
438.5	114.31
438.721	121.31
438.943	100.31
439.165	103.31
439.386	105.31
439.608	103.31
439.829	115.31
440.05	113.31
440.272	107.31
440.493	119.31
440.715	130.31
440.936	100.31
441.158	117.31
441.379	116.31
441.6	118.31
441.822	120.31
442.043	122.31
442.264	96.31
442.486	125.31
442.707	115.31
442.928	130.31
443.149	124.31
443.371	99.31
443.592	113.31
443.813	115.31
444.034	111.31
444.255	125.31
444.476	102.31
444.698	112.31
444.919	121.31
445.14	245.31
445.361	159.31
445.582	117.31
445.803	110.31
446.024	110.31
446.245	117.31
446.466	103.31
446.687	119.31
446.908	107.31
447.129	119.31
447.35	125.31
447.571	123.31
447.792	109.31
448.013	102.31
448.234	103.31
448.455	93.31
448.675	117.31
448.896	117.31
449.117	101.31
449.338	105.31
449.559	114.31
449.779	106.31
450	104.31
450.221	110.31
450.442	101.31
450.662	97.31
450.883	93.31
451.104	103.31
451.324	112.31
451.545	104.31
451.766	107.31
451.986	98.31
452.207	115.31
452.428	104.31
452.648	104.31
452.869	100.31
453.089	99.31
453.31	117.31
453.53	102.31
453.751	94.31
453.971	96.31
454.192	97.31
454.412	108.31
454.633	117.31
454.853	107.31
455.073	106.31
455.294	94.31
455.514	96.31
455.734	99.31
455.955	107.31
456.175	91.31
456.395	105.31
456.616	94.31
456.836	88.31
457.056	112.31
457.276	100.31
457.497	109.31
457.717	107.31
457.937	84.31
458.157	90.31
458.377	101.31
458.598	104.31
458.818	107.31
459.038	103.31
459.258	89.31
459.478	96.31
459.698	101.31
459.918	102.31
460.138	118.31
460.358	112.31
460.578	92.31
460.798	107.31
461.018	110.31
461.238	109.31
461.458	102.31
461.678	115.31
461.898	121.31
462.118	116.31
462.338	102.31
462.558	116.31
462.777	114.31
462.997	134.31
463.217	115.31
463.437	135.31
463.657	117.31
463.876	118.31
464.096	101.31
464.316	121.31
464.536	94.31
464.755	112.31
464.975	109.31
465.195	132.31
465.414	116.31
465.634	120.31
465.854	111.31
466.073	110.31
466.293	92.31
466.512	107.31
466.732	118.31
466.951	119.31
467.171	107.31
467.391	108.31
467.61	105.31
467.829	111.31
468.049	103.31
468.268	102.31
468.488	115.31
468.707	106.31
468.927	110.31
469.146	110.31
469.365	116.31
469.585	117.31
469.804	106.31
470.023	121.31
470.243	115.31
470.462	121.31
470.681	104.31
470.901	103.31
471.12	110.31
471.339	121.31
471.558	110.31
471.777	115.31
471.997	119.31
472.216	112.31
472.435	103.31
472.654	85.31
472.873	107.31
473.092	113.31
473.311	131.31
473.53	115.31
473.749	113.31
473.968	116.31
474.187	106.31
474.406	107.31
474.625	121.31
474.844	106.31
475.063	114.31
475.282	100.31
475.501	109.31
475.72	101.31
475.939	101.31
476.158	103.31
476.377	118.31
476.596	119.31
476.814	113.31
477.033	111.31
477.252	113.31
477.471	110.31
477.69	129.31
477.908	121.31
478.127	115.31
478.346	133.31
478.564	130.31
478.783	102.31
479.002	112.31
479.22	126.31
479.439	126.31
479.658	112.31
479.876	120.31
480.095	110.31
480.313	115.31
480.532	123.31
480.751	120.31
480.969	112.31
481.188	120.31
481.406	99.31
481.624	113.31
481.843	103.31
482.061	109.31
482.28	117.31
482.498	119.31
482.717	124.31
482.935	111.31
483.153	128.31
483.372	118.31
483.59	118.31
483.808	115.31
484.027	118.31
484.245	108.31
484.463	118.31
484.681	127.31
484.9	118.31
485.118	129.31
485.336	109.31
485.554	110.31
485.772	112.31
485.99	119.31
486.209	104.31
486.427	107.31
486.645	119.31
486.863	119.31
487.081	123.31
487.299	119.31
487.517	113.31
487.735	113.31
487.953	135.31
488.171	129.31
488.389	133.31
488.607	131.31
488.825	119.31
489.043	121.31
489.261	122.31
489.479	122.31
489.696	128.31
489.914	126.31
490.132	120.31
490.35	132.31
490.568	135.31
490.786	122.31
491.003	139.31
491.221	150.31
491.439	115.31
491.657	147.31
491.874	157.31
492.092	157.31
492.31	155.31
492.527	149.31
492.745	143.31
492.963	139.31
493.18	145.31
493.398	132.31
493.615	147.31
493.833	149.31
494.05	138.31
494.268	164.31
494.485	137.31
494.703	149.31
494.92	137.31
495.138	139.31
495.355	142.31
495.573	153.31
495.79	131.31
496.008	160.31
496.225	135.31
496.442	131.31
496.66	139.31
496.877	132.31
497.094	131.31
497.312	135.31
497.529	143.31
497.746	140.31
497.963	125.31
498.181	136.31
498.398	129.31
498.615	138.31
498.832	130.31
499.049	141.31
499.267	142.31
499.484	151.31
499.701	161.31
499.918	171.31
500.135	180.31
500.352	207.31
500.569	203.31
500.786	202.31
501.003	198.31
501.22	186.31
501.437	165.31
501.654	153.31
501.871	152.31
502.088	144.31
502.305	140.31
502.522	145.31
502.739	143.31
502.956	134.31
503.172	122.31
503.389	128.31
503.606	130.31
503.823	126.31
504.04	130.31
504.256	126.31
504.473	122.31
504.69	125.31
504.907	135.31
505.123	123.31
505.34	130.31
505.557	135.31
505.773	121.31
505.99	114.31
506.207	120.31
506.423	121.31
506.64	121.31
506.856	111.31
507.073	120.31
507.289	121.31
507.506	115.31
507.722	128.31
507.939	123.31
508.155	118.31
508.372	119.31
508.588	123.31
508.805	123.31
509.021	126.31
509.238	117.31
509.454	98.31
509.67	103.31
509.887	109.31
510.103	119.31
510.319	127.31
510.536	111.31
510.752	100.31
510.968	97.31
511.184	102.31
511.401	127.31
511.617	114.31
511.833	99.31
512.049	121.31
512.265	113.31
