Data from StandardFe(NO3)3.TAE.3%Agarose.FlatLispGreen.Lamp.Energy10.07252019_HRD10591_11-56-09-442.txt Node
Date: Thu Jul 25 11:56:09 EDT 2019
User: cochatt
Spectrometer: HR+D1059
Trigger mode: 1
Integration Time (sec): 1.000000E-1
Scans to average: 1
Electric dark correction enabled: true
Nonlinearity correction enabled: false
Boxcar width: 0
XAxis mode: Wavelengths
Number of Pixels in Spectrum: 2048
>>>>>Begin Spectral Data<<<<<
223.165	-4.5
223.4	-4.5
223.635	-4.5
223.869	-10.5
224.104	-21.5
224.338	-18.5
224.573	-21.5
224.808	-29.5
225.042	-2.5
225.277	-13.5
225.511	3.5
225.746	4.5
225.98	0.5
226.215	2.5
226.449	22.5
226.683	31.5
226.918	28.5
227.152	28.5
227.387	34.5
227.621	31.5
227.856	33.5
228.09	47.5
228.324	53.5
228.559	55.5
228.793	59.5
229.027	43.5
229.262	67.5
229.496	62.5
229.73	63.5
229.964	78.5
230.199	78.5
230.433	76.5
230.667	78.5
230.901	65.5
231.136	74.5
231.37	79.5
231.604	87.5
231.838	81.5
232.072	77.5
232.306	78.5
232.541	88.5
232.775	78.5
233.009	89.5
233.243	83.5
233.477	77.5
233.711	65.5
233.945	83.5
234.179	88.5
234.413	89.5
234.647	88.5
234.881	70.5
235.115	81.5
235.349	78.5
235.583	81.5
235.817	72.5
236.051	72.5
236.285	75.5
236.519	77.5
236.753	69.5
236.987	66.5
237.221	79.5
237.455	78.5
237.689	80.5
237.922	72.5
238.156	68.5
238.39	71.5
238.624	69.5
238.858	62.5
239.091	73.5
239.325	66.5
239.559	66.5
239.793	80.5
240.027	72.5
240.26	77.5
240.494	72.5
240.728	68.5
240.961	97.5
241.195	80.5
241.429	77.5
241.662	61.5
241.896	72.5
242.13	72.5
242.363	73.5
242.597	72.5
242.83	64.5
243.064	70.5
243.298	82.5
243.531	83.5
243.765	72.5
243.998	77.5
244.232	77.5
244.465	78.5
244.699	67.5
244.932	86.5
245.166	77.5
245.399	87.5
245.633	73.5
245.866	93.5
246.099	78.5
246.333	71.5
246.566	78.5
246.8	74.5
247.033	70.5
247.266	69.5
247.5	77.5
247.733	80.5
247.966	81.5
248.2	72.5
248.433	77.5
248.666	83.5
248.899	88.5
249.133	90.5
249.366	95.5
249.599	85.5
249.832	83.5
250.066	77.5
250.299	71.5
250.532	86.5
250.765	88.5
250.998	61.5
251.231	79.5
251.465	73.5
251.698	79.5
251.931	69.5
252.164	74.5
252.397	65.5
252.63	79.5
252.863	80.5
253.096	76.5
253.329	78.5
253.562	72.5
253.795	89.5
254.028	61.5
254.261	61.5
254.494	73.5
254.727	82.5
254.96	76.5
255.193	79.5
255.426	80.5
255.659	82.5
255.892	81.5
256.124	86.5
256.357	90.5
256.59	91.5
256.823	89.5
257.056	78.5
257.289	71.5
257.521	84.5
257.754	96.5
257.987	64.5
258.22	70.5
258.452	99.5
258.685	90.5
258.918	99.5
259.151	72.5
259.383	80.5
259.616	88.5
259.849	73.5
260.081	80.5
260.314	83.5
260.547	71.5
260.779	91.5
261.012	75.5
261.244	85.5
261.477	82.5
261.71	79.5
261.942	71.5
262.175	84.5
262.407	82.5
262.64	90.5
262.872	81.5
263.105	76.5
263.337	73.5
263.57	101.5
263.802	78.5
264.035	86.5
264.267	72.5
264.499	63.5
264.732	89.5
264.964	90.5
265.197	77.5
265.429	78.5
265.661	73.5
265.894	66.5
266.126	77.5
266.358	64.5
266.591	67.5
266.823	85.5
267.055	73.5
267.287	74.5
267.52	79.5
267.752	72.5
267.984	72.5
268.216	83.5
268.448	94.5
268.681	76.5
268.913	62.5
269.145	77.5
269.377	88.5
269.609	88.5
269.841	83.5
270.073	88.5
270.306	81.5
270.538	88.5
270.77	83.5
271.002	86.5
271.234	93.5
271.466	65.5
271.698	72.5
271.93	81.5
272.162	84.5
272.394	89.5
272.626	71.5
272.858	89.5
273.09	94.5
273.322	85.5
273.553	75.5
273.785	72.5
274.017	75.5
274.249	74.5
274.481	78.5
274.713	82.5
274.945	84.5
275.176	77.5
275.408	82.5
275.64	75.5
275.872	74.5
276.104	75.5
276.335	81.5
276.567	84.5
276.799	82.5
277.031	75.5
277.262	90.5
277.494	87.5
277.726	86.5
277.957	85.5
278.189	74.5
278.421	63.5
278.652	83.5
278.884	68.5
279.115	73.5
279.347	86.5
279.579	84.5
279.81	92.5
280.042	86.5
280.273	92.5
280.505	95.5
280.736	90.5
280.968	85.5
281.199	74.5
281.431	81.5
281.662	88.5
281.894	86.5
282.125	90.5
282.356	97.5
282.588	84.5
282.819	89.5
283.051	84.5
283.282	85.5
283.513	74.5
283.745	85.5
283.976	82.5
284.207	76.5
284.439	74.5
284.67	91.5
284.901	91.5
285.132	89.5
285.364	81.5
285.595	85.5
285.826	77.5
286.057	79.5
286.288	91.5
286.52	83.5
286.751	98.5
286.982	76.5
287.213	67.5
287.444	94.5
287.675	90.5
287.906	97.5
288.138	72.5
288.369	70.5
288.6	79.5
288.831	84.5
289.062	81.5
289.293	90.5
289.524	91.5
289.755	78.5
289.986	87.5
290.217	95.5
290.448	82.5
290.679	77.5
290.91	89.5
291.141	75.5
291.371	86.5
291.602	83.5
291.833	85.5
292.064	86.5
292.295	81.5
292.526	87.5
292.757	95.5
292.987	74.5
293.218	93.5
293.449	81.5
293.68	95.5
293.91	94.5
294.141	82.5
294.372	89.5
294.603	82.5
294.833	85.5
295.064	69.5
295.295	87.5
295.525	90.5
295.756	81.5
295.987	98.5
296.217	102.5
296.448	84.5
296.679	83.5
296.909	85.5
297.14	74.5
297.37	83.5
297.601	83.5
297.831	84.5
298.062	85.5
298.292	86.5
298.523	80.5
298.753	88.5
298.984	92.5
299.214	88.5
299.445	75.5
299.675	94.5
299.905	74.5
300.136	83.5
300.366	86.5
300.597	91.5
300.827	81.5
301.057	72.5
301.288	72.5
301.518	75.5
301.748	83.5
301.979	90.5
302.209	84.5
302.439	82.5
302.669	70.5
302.9	72.5
303.13	81.5
303.36	79.5
303.59	82.5
303.82	91.5
304.051	82.5
304.281	86.5
304.511	86.5
304.741	87.5
304.971	80.5
305.201	89.5
305.431	79.5
305.661	89.5
305.891	83.5
306.121	101.5
306.352	83.5
306.582	79.5
306.812	81.5
307.042	88.5
307.272	79.5
307.502	87.5
307.731	90.5
307.961	80.5
308.191	72.5
308.421	89.5
308.651	84.5
308.881	92.5
309.111	79.5
309.341	81.5
309.571	81.5
309.8	90.5
310.03	95.5
310.26	78.5
310.49	79.5
310.72	89.5
310.949	81.5
311.179	79.5
311.409	82.5
311.639	95.5
311.868	88.5
312.098	87.5
312.328	85.5
312.557	90.5
312.787	85.5
313.017	78.5
313.246	94.5
313.476	86.5
313.706	86.5
313.935	75.5
314.165	79.5
314.394	82.5
314.624	70.5
314.853	87.5
315.083	87.5
315.312	76.5
315.542	82.5
315.771	79.5
316.001	84.5
316.23	86.5
316.46	87.5
316.689	75.5
316.919	82.5
317.148	86.5
317.377	70.5
317.607	80.5
317.836	76.5
318.065	92.5
318.295	90.5
318.524	81.5
318.753	89.5
318.983	86.5
319.212	97.5
319.441	91.5
319.67	85.5
319.9	87.5
320.129	66.5
320.358	79.5
320.587	84.5
320.816	84.5
321.046	68.5
321.275	81.5
321.504	81.5
321.733	86.5
321.962	89.5
322.191	87.5
322.42	93.5
322.649	84.5
322.878	78.5
323.108	76.5
323.337	85.5
323.566	97.5
323.795	80.5
324.024	87.5
324.253	87.5
324.482	81.5
324.71	84.5
324.939	72.5
325.168	81.5
325.397	82.5
325.626	88.5
325.855	72.5
326.084	83.5
326.313	83.5
326.542	84.5
326.77	85.5
326.999	88.5
327.228	86.5
327.457	70.5
327.686	64.5
327.914	82.5
328.143	83.5
328.372	72.5
328.6	82.5
328.829	75.5
329.058	93.5
329.287	91.5
329.515	67.5
329.744	69.5
329.972	94.5
330.201	74.5
330.43	80.5
330.658	81.5
330.887	85.5
331.115	76.5
331.344	76.5
331.572	87.5
331.801	72.5
332.03	80.5
332.258	72.5
332.486	89.5
332.715	97.5
332.943	73.5
333.172	77.5
333.4	74.5
333.629	74.5
333.857	84.5
334.085	75.5
334.314	84.5
334.542	77.5
334.771	87.5
334.999	84.5
335.227	76.5
335.455	80.5
335.684	96.5
335.912	98.5
336.14	78.5
336.369	70.5
336.597	81.5
336.825	85.5
337.053	77.5
337.281	84.5
337.51	80.5
337.738	80.5
337.966	86.5
338.194	74.5
338.422	79.5
338.65	81.5
338.878	93.5
339.106	77.5
339.334	73.5
339.562	85.5
339.79	71.5
340.018	82.5
340.246	108.5
340.474	78.5
340.702	85.5
340.93	76.5
341.158	73.5
341.386	68.5
341.614	86.5
341.842	85.5
342.07	82.5
342.298	99.5
342.526	80.5
342.754	90.5
342.981	87.5
343.209	81.5
343.437	89.5
343.665	71.5
343.893	79.5
344.12	88.5
344.348	81.5
344.576	82.5
344.804	77.5
345.031	86.5
345.259	74.5
345.487	79.5
345.714	91.5
345.942	86.5
346.17	93.5
346.397	87.5
346.625	86.5
346.853	84.5
347.08	90.5
347.308	83.5
347.535	96.5
347.763	86.5
347.99	83.5
348.218	82.5
348.445	77.5
348.673	80.5
348.9	84.5
349.128	83.5
349.355	82.5
349.583	73.5
349.81	85.5
350.037	82.5
350.265	100.5
350.492	73.5
350.72	83.5
350.947	88.5
351.174	83.5
351.402	82.5
351.629	83.5
351.856	85.5
352.083	80.5
352.311	88.5
352.538	69.5
352.765	83.5
352.992	90.5
353.22	88.5
353.447	73.5
353.674	82.5
353.901	92.5
354.128	91.5
354.355	78.5
354.583	80.5
354.81	74.5
355.037	89.5
355.264	88.5
355.491	80.5
355.718	81.5
355.945	89.5
356.172	82.5
356.399	78.5
356.626	90.5
356.853	86.5
357.08	88.5
357.307	85.5
357.534	72.5
357.761	89.5
357.988	87.5
358.215	89.5
358.441	78.5
358.668	84.5
358.895	86.5
359.122	84.5
359.349	77.5
359.576	80.5
359.802	85.5
360.029	86.5
360.256	75.5
360.483	84.5
360.709	85.5
360.936	81.5
361.163	84.5
361.39	83.5
361.616	87.5
361.843	75.5
362.07	82.5
362.296	61.5
362.523	86.5
362.749	87.5
362.976	104.5
363.203	76.5
363.429	85.5
363.656	90.5
363.882	83.5
364.109	74.5
364.335	81.5
364.562	66.5
364.788	102.5
365.015	97.5
365.241	71.5
365.468	78.5
365.694	86.5
365.92	65.5
366.147	80.5
366.373	80.5
366.599	82.5
366.826	92.5
367.052	68.5
367.278	75.5
367.505	76.5
367.731	83.5
367.957	87.5
368.184	80.5
368.41	91.5
368.636	98.5
368.862	81.5
369.089	83.5
369.315	90.5
369.541	89.5
369.767	84.5
369.993	85.5
370.219	71.5
370.445	76.5
370.672	98.5
370.898	75.5
371.124	97.5
371.35	90.5
371.576	81.5
371.802	78.5
372.028	73.5
372.254	86.5
372.48	98.5
372.706	96.5
372.932	96.5
373.158	82.5
373.384	81.5
373.61	85.5
373.835	74.5
374.061	87.5
374.287	91.5
374.513	89.5
374.739	82.5
374.965	92.5
375.191	82.5
375.416	85.5
375.642	91.5
375.868	74.5
376.094	69.5
376.319	92.5
376.545	85.5
376.771	89.5
376.997	71.5
377.222	92.5
377.448	99.5
377.674	83.5
377.899	81.5
378.125	93.5
378.35	98.5
378.576	98.5
378.802	95.5
379.027	68.5
379.253	88.5
379.478	80.5
379.704	95.5
379.929	78.5
380.155	98.5
380.38	85.5
380.606	82.5
380.831	91.5
381.057	85.5
381.282	90.5
381.507	87.5
381.733	94.5
381.958	100.5
382.184	89.5
382.409	91.5
382.634	71.5
382.86	86.5
383.085	81.5
383.31	74.5
383.535	67.5
383.761	95.5
383.986	93.5
384.211	69.5
384.436	95.5
384.662	91.5
384.887	77.5
385.112	88.5
385.337	96.5
385.562	83.5
385.787	80.5
386.013	91.5
386.238	110.5
386.463	88.5
386.688	94.5
386.913	89.5
387.138	87.5
387.363	84.5
387.588	98.5
387.813	97.5
388.038	84.5
388.263	96.5
388.488	89.5
388.713	90.5
388.938	85.5
389.163	98.5
389.387	91.5
389.612	103.5
389.837	93.5
390.062	89.5
390.287	89.5
390.512	93.5
390.736	95.5
390.961	85.5
391.186	88.5
391.411	97.5
391.636	86.5
391.86	90.5
392.085	105.5
392.31	89.5
392.534	93.5
392.759	88.5
392.984	95.5
393.208	89.5
393.433	82.5
393.658	84.5
393.882	94.5
394.107	93.5
394.331	102.5
394.556	88.5
394.78	78.5
395.005	87.5
395.229	88.5
395.454	97.5
395.678	98.5
395.903	90.5
396.127	105.5
396.352	102.5
396.576	115.5
396.801	100.5
397.025	90.5
397.249	96.5
397.474	112.5
397.698	105.5
397.922	96.5
398.147	106.5
398.371	90.5
398.595	89.5
398.82	94.5
399.044	99.5
399.268	107.5
399.492	116.5
399.717	89.5
399.941	92.5
400.165	110.5
400.389	102.5
400.613	86.5
400.837	95.5
401.062	113.5
401.286	107.5
401.51	104.5
401.734	92.5
401.958	95.5
402.182	111.5
402.406	107.5
402.63	99.5
402.854	98.5
403.078	103.5
403.302	107.5
403.526	94.5
403.75	106.5
403.974	100.5
404.198	114.5
404.422	101.5
404.645	105.5
404.869	94.5
405.093	102.5
405.317	104.5
405.541	97.5
405.765	110.5
405.988	97.5
406.212	108.5
406.436	102.5
406.66	109.5
406.883	109.5
407.107	111.5
407.331	121.5
407.555	103.5
407.778	110.5
408.002	103.5
408.226	116.5
408.449	101.5
408.673	119.5
408.896	116.5
409.12	96.5
409.344	97.5
409.567	101.5
409.791	105.5
410.014	109.5
410.238	128.5
410.461	113.5
410.685	101.5
410.908	91.5
411.132	100.5
411.355	97.5
411.578	107.5
411.802	110.5
412.025	122.5
412.249	107.5
412.472	115.5
412.695	118.5
412.919	105.5
413.142	105.5
413.365	121.5
413.589	117.5
413.812	101.5
414.035	112.5
414.258	113.5
414.482	102.5
414.705	109.5
414.928	93.5
415.151	95.5
415.374	119.5
415.597	111.5
415.821	110.5
416.044	111.5
416.267	107.5
416.49	118.5
416.713	118.5
416.936	97.5
417.159	104.5
417.382	102.5
417.605	101.5
417.828	122.5
418.051	113.5
418.274	117.5
418.497	106.5
418.72	102.5
418.943	109.5
419.166	113.5
419.389	116.5
419.611	111.5
419.834	114.5
420.057	113.5
420.28	121.5
420.503	121.5
420.726	128.5
420.948	97.5
421.171	93.5
421.394	110.5
421.617	119.5
421.839	113.5
422.062	109.5
422.285	111.5
422.507	102.5
422.73	109.5
422.953	97.5
423.175	111.5
423.398	116.5
423.621	110.5
423.843	106.5
424.066	115.5
424.288	114.5
424.511	118.5
424.733	95.5
424.956	110.5
425.178	115.5
425.401	104.5
425.623	109.5
425.846	115.5
426.068	109.5
426.291	103.5
426.513	95.5
426.735	98.5
426.958	111.5
427.18	100.5
427.402	100.5
427.625	102.5
427.847	111.5
428.069	109.5
428.292	119.5
428.514	104.5
428.736	88.5
428.958	98.5
429.181	114.5
429.403	101.5
429.625	96.5
429.847	119.5
430.069	103.5
430.292	110.5
430.514	113.5
430.736	105.5
430.958	113.5
431.18	119.5
431.402	97.5
431.624	111.5
431.846	111.5
432.068	100.5
432.29	97.5
432.512	104.5
432.734	105.5
432.956	94.5
433.178	99.5
433.4	116.5
433.622	120.5
433.844	100.5
434.066	121.5
434.287	89.5
434.509	85.5
434.731	114.5
434.953	97.5
435.175	119.5
435.397	121.5
435.618	99.5
435.84	105.5
436.062	109.5
436.284	113.5
436.505	101.5
436.727	102.5
436.949	109.5
437.17	111.5
437.392	126.5
437.614	114.5
437.835	99.5
438.057	107.5
438.278	114.5
438.5	87.5
438.721	99.5
438.943	109.5
439.165	104.5
439.386	113.5
439.608	108.5
439.829	116.5
440.05	130.5
440.272	111.5
440.493	128.5
440.715	117.5
440.936	103.5
441.158	114.5
441.379	106.5
441.6	113.5
441.822	107.5
442.043	123.5
442.264	113.5
442.486	116.5
442.707	104.5
442.928	107.5
443.149	118.5
443.371	111.5
443.592	106.5
443.813	117.5
444.034	110.5
444.255	118.5
444.476	111.5
444.698	115.5
444.919	119.5
445.14	242.5
445.361	181.5
445.582	114.5
445.803	113.5
446.024	120.5
446.245	111.5
446.466	131.5
446.687	115.5
446.908	123.5
447.129	101.5
447.35	111.5
447.571	107.5
447.792	106.5
448.013	105.5
448.234	119.5
448.455	98.5
448.675	103.5
448.896	118.5
449.117	104.5
449.338	103.5
449.559	101.5
449.779	114.5
450	106.5
450.221	121.5
450.442	107.5
450.662	114.5
450.883	105.5
451.104	122.5
451.324	121.5
451.545	95.5
451.766	109.5
451.986	109.5
452.207	110.5
452.428	105.5
452.648	111.5
452.869	109.5
453.089	111.5
453.31	111.5
453.53	102.5
453.751	112.5
453.971	92.5
454.192	101.5
454.412	103.5
454.633	93.5
454.853	111.5
455.073	91.5
455.294	93.5
455.514	103.5
455.734	101.5
455.955	91.5
456.175	99.5
456.395	91.5
456.616	98.5
456.836	101.5
457.056	108.5
457.276	101.5
457.497	100.5
457.717	102.5
457.937	97.5
458.157	92.5
458.377	101.5
458.598	100.5
458.818	105.5
459.038	93.5
459.258	98.5
459.478	100.5
459.698	117.5
459.918	102.5
460.138	114.5
460.358	108.5
460.578	96.5
460.798	109.5
461.018	101.5
461.238	118.5
461.458	94.5
461.678	100.5
461.898	105.5
462.118	97.5
462.338	117.5
462.558	113.5
462.777	113.5
462.997	117.5
463.217	100.5
463.437	122.5
463.657	119.5
463.876	110.5
464.096	109.5
464.316	117.5
464.536	112.5
464.755	111.5
464.975	98.5
465.195	117.5
465.414	106.5
465.634	101.5
465.854	106.5
466.073	121.5
466.293	104.5
466.512	104.5
466.732	111.5
466.951	118.5
467.171	112.5
467.391	114.5
467.61	115.5
467.829	116.5
468.049	101.5
468.268	105.5
468.488	109.5
468.707	110.5
468.927	109.5
469.146	113.5
469.365	141.5
469.585	122.5
469.804	121.5
470.023	117.5
470.243	118.5
470.462	111.5
470.681	121.5
470.901	104.5
471.12	103.5
471.339	113.5
471.558	129.5
471.777	126.5
471.997	120.5
472.216	112.5
472.435	109.5
472.654	107.5
472.873	119.5
473.092	103.5
473.311	122.5
473.53	121.5
473.749	120.5
473.968	106.5
474.187	117.5
474.406	117.5
474.625	125.5
474.844	110.5
475.063	106.5
475.282	116.5
475.501	112.5
475.72	110.5
475.939	113.5
476.158	94.5
476.377	141.5
476.596	113.5
476.814	119.5
477.033	113.5
477.252	107.5
477.471	119.5
477.69	111.5
477.908	108.5
478.127	114.5
478.346	121.5
478.564	125.5
478.783	123.5
479.002	128.5
479.22	131.5
479.439	117.5
479.658	113.5
479.876	121.5
480.095	107.5
480.313	105.5
480.532	130.5
480.751	114.5
480.969	99.5
481.188	106.5
481.406	116.5
481.624	93.5
481.843	115.5
482.061	119.5
482.28	114.5
482.498	122.5
482.717	110.5
482.935	127.5
483.153	131.5
483.372	118.5
483.59	126.5
483.808	129.5
484.027	112.5
484.245	120.5
484.463	129.5
484.681	139.5
484.9	121.5
485.118	125.5
485.336	104.5
485.554	112.5
485.772	97.5
485.99	131.5
486.209	120.5
486.427	113.5
486.645	115.5
486.863	115.5
487.081	116.5
487.299	125.5
487.517	127.5
487.735	121.5
487.953	135.5
488.171	141.5
488.389	132.5
488.607	119.5
488.825	129.5
489.043	125.5
489.261	110.5
489.479	123.5
489.696	142.5
489.914	117.5
490.132	118.5
490.35	130.5
490.568	133.5
490.786	136.5
491.003	140.5
491.221	152.5
491.439	135.5
491.657	147.5
491.874	150.5
492.092	154.5
492.31	160.5
492.527	165.5
492.745	145.5
492.963	147.5
493.18	158.5
493.398	149.5
493.615	136.5
493.833	122.5
494.05	148.5
494.268	155.5
494.485	150.5
494.703	140.5
494.92	142.5
495.138	133.5
495.355	137.5
495.573	144.5
495.79	133.5
496.008	143.5
496.225	142.5
496.442	151.5
496.66	128.5
496.877	135.5
497.094	135.5
497.312	138.5
497.529	136.5
497.746	140.5
497.963	131.5
498.181	139.5
498.398	129.5
498.615	132.5
498.832	145.5
499.049	135.5
499.267	143.5
499.484	136.5
499.701	185.5
499.918	161.5
500.135	193.5
500.352	190.5
500.569	222.5
500.786	205.5
501.003	184.5
501.22	186.5
501.437	168.5
501.654	180.5
501.871	175.5
502.088	162.5
502.305	155.5
502.522	139.5
502.739	133.5
502.956	142.5
503.172	130.5
503.389	135.5
503.606	124.5
503.823	144.5
504.04	120.5
504.256	141.5
504.473	136.5
504.69	141.5
504.907	138.5
505.123	143.5
505.34	121.5
505.557	127.5
505.773	133.5
505.99	136.5
506.207	138.5
506.423	117.5
506.64	97.5
506.856	118.5
507.073	114.5
507.289	118.5
507.506	125.5
507.722	129.5
507.939	120.5
508.155	119.5
508.372	114.5
508.588	116.5
508.805	116.5
509.021	132.5
509.238	123.5
509.454	114.5
509.67	104.5
509.887	125.5
510.103	100.5
510.319	112.5
510.536	97.5
510.752	109.5
510.968	114.5
511.184	105.5
511.401	118.5
511.617	129.5
511.833	109.5
512.049	106.5
512.265	116.5
512.481	97.5
512.698	117.5
512.914	113.5
513.13	120.5
513.346	106.5
513.562	101.5
513.778	125.5
513.994	96.5
514.21	116.5
514.426	116.5
514.642	111.5
514.858	116.5
515.074	118.5
515.29	114.5
515.506	121.5
515.721	115.5
515.937	119.5
516.153	111.5
516.369	123.5
516.585	101.5
516.801	120.5
517.016	122.5
517.232	116.5
517.448	121.5
517.664	126.5
517.879	123.5
518.095	130.5
518.311	123.5
518.527	118.5
518.742	119.5
518.958	130.5
519.173	123.5
519.389	113.5
519.605	129.5
519.82	94.5
520.036	116.5
520.251	115.5
520.467	127.5
520.682	128.5
520.898	111.5
521.113	101.5
521.329	114.5
521.544	101.5
521.76	113.5
521.975	124.5
522.19	113.5
522.406	110.5
522.621	115.5
522.836	110.5
523.052	127.5
523.267	115.5
523.482	118.5
523.698	106.5
523.913	122.5
524.128	117.5
524.343	103.5
524.559	123.5
524.774	111.5
524.989	111.5
525.204	110.5
525.419	113.5
525.634	103.5
525.849	113.5
526.064	102.5
526.28	109.5
526.495	115.5
526.71	107.5
526.925	110.5
527.14	102.5
527.355	116.5
527.57	90.5
527.785	109.5
527.999	99.5
528.214	122.5
528.429	101.5
528.644	106.5
528.859	128.5
529.074	129.5
529.289	123.5
529.503	120.5
529.718	123.5
529.933	123.5
530.148	110.5
530.363	99.5
530.577	106.5
530.792	101.5
531.007	110.5
531.221	117.5
