Data from StandardFe(NO3)3.TAE.3%Agarose.FlatLispGreen.Lamp.Energy10.07252019_HRD10591_11-54-44-440.txt Node
Date: Thu Jul 25 11:54:44 EDT 2019
User: cochatt
Spectrometer: HR+D1059
Trigger mode: 1
Integration Time (sec): 1.000000E-1
Scans to average: 1
Electric dark correction enabled: true
Nonlinearity correction enabled: false
Boxcar width: 0
XAxis mode: Wavelengths
Number of Pixels in Spectrum: 2048
>>>>>Begin Spectral Data<<<<<
223.165	-17.88
223.4	-17.88
223.635	-17.88
223.869	-18.88
224.104	-17.88
224.338	-25.88
224.573	-3.88
224.808	-13.88
225.042	-18.88
225.277	-6.88
225.511	-1.88
225.746	7.12
225.98	11.12
226.215	15.12
226.449	20.12
226.683	23.12
226.918	15.12
227.152	34.12
227.387	39.12
227.621	41.12
227.856	35.12
228.09	43.12
228.324	41.12
228.559	55.12
228.793	53.12
229.027	60.12
229.262	68.12
229.496	71.12
229.73	70.12
229.964	74.12
230.199	71.12
230.433	76.12
230.667	78.12
230.901	63.12
231.136	73.12
231.37	84.12
231.604	78.12
231.838	83.12
232.072	75.12
232.306	75.12
232.541	80.12
232.775	85.12
233.009	83.12
233.243	77.12
233.477	70.12
233.711	87.12
233.945	92.12
234.179	84.12
234.413	82.12
234.647	77.12
234.881	81.12
235.115	87.12
235.349	71.12
235.583	84.12
235.817	70.12
236.051	79.12
236.285	79.12
236.519	68.12
236.753	77.12
236.987	78.12
237.221	79.12
237.455	85.12
237.689	79.12
237.922	75.12
238.156	86.12
238.39	85.12
238.624	74.12
238.858	65.12
239.091	75.12
239.325	80.12
239.559	87.12
239.793	79.12
240.027	77.12
240.26	82.12
240.494	76.12
240.728	71.12
240.961	75.12
241.195	64.12
241.429	85.12
241.662	76.12
241.896	80.12
242.13	72.12
242.363	87.12
242.597	74.12
242.83	74.12
243.064	82.12
243.298	73.12
243.531	64.12
243.765	87.12
243.998	77.12
244.232	95.12
244.465	70.12
244.699	75.12
244.932	77.12
245.166	74.12
245.399	79.12
245.633	81.12
245.866	84.12
246.099	85.12
246.333	74.12
246.566	85.12
246.8	74.12
247.033	73.12
247.266	74.12
247.5	71.12
247.733	84.12
247.966	93.12
248.2	84.12
248.433	74.12
248.666	83.12
248.899	79.12
249.133	77.12
249.366	90.12
249.599	75.12
249.832	77.12
250.066	62.12
250.299	82.12
250.532	73.12
250.765	83.12
250.998	83.12
251.231	84.12
251.465	71.12
251.698	78.12
251.931	75.12
252.164	85.12
252.397	83.12
252.63	78.12
252.863	78.12
253.096	77.12
253.329	67.12
253.562	70.12
253.795	77.12
254.028	77.12
254.261	78.12
254.494	75.12
254.727	98.12
254.96	79.12
255.193	82.12
255.426	90.12
255.659	90.12
255.892	84.12
256.124	70.12
256.357	83.12
256.59	83.12
256.823	76.12
257.056	84.12
257.289	84.12
257.521	88.12
257.754	85.12
257.987	74.12
258.22	67.12
258.452	81.12
258.685	87.12
258.918	69.12
259.151	77.12
259.383	78.12
259.616	79.12
259.849	77.12
260.081	74.12
260.314	78.12
260.547	71.12
260.779	83.12
261.012	67.12
261.244	85.12
261.477	87.12
261.71	80.12
261.942	87.12
262.175	98.12
262.407	80.12
262.64	84.12
262.872	81.12
263.105	86.12
263.337	82.12
263.57	87.12
263.802	83.12
264.035	99.12
264.267	80.12
264.499	76.12
264.732	82.12
264.964	72.12
265.197	86.12
265.429	68.12
265.661	75.12
265.894	86.12
266.126	68.12
266.358	103.12
266.591	84.12
266.823	79.12
267.055	82.12
267.287	88.12
267.52	81.12
267.752	78.12
267.984	74.12
268.216	82.12
268.448	77.12
268.681	80.12
268.913	89.12
269.145	84.12
269.377	79.12
269.609	73.12
269.841	90.12
270.073	77.12
270.306	79.12
270.538	86.12
270.77	74.12
271.002	83.12
271.234	84.12
271.466	81.12
271.698	92.12
271.93	89.12
272.162	73.12
272.394	80.12
272.626	86.12
272.858	81.12
273.09	94.12
273.322	91.12
273.553	77.12
273.785	77.12
274.017	75.12
274.249	78.12
274.481	85.12
274.713	87.12
274.945	80.12
275.176	87.12
275.408	85.12
275.64	80.12
275.872	87.12
276.104	82.12
276.335	74.12
276.567	83.12
276.799	84.12
277.031	76.12
277.262	78.12
277.494	93.12
277.726	65.12
277.957	85.12
278.189	81.12
278.421	89.12
278.652	80.12
278.884	74.12
279.115	84.12
279.347	71.12
279.579	95.12
279.81	75.12
280.042	89.12
280.273	84.12
280.505	97.12
280.736	89.12
280.968	79.12
281.199	84.12
281.431	65.12
281.662	82.12
281.894	88.12
282.125	75.12
282.356	88.12
282.588	88.12
282.819	82.12
283.051	88.12
283.282	94.12
283.513	84.12
283.745	71.12
283.976	85.12
284.207	92.12
284.439	95.12
284.67	88.12
284.901	91.12
285.132	71.12
285.364	79.12
285.595	85.12
285.826	79.12
286.057	89.12
286.288	77.12
286.52	89.12
286.751	90.12
286.982	78.12
287.213	91.12
287.444	91.12
287.675	78.12
287.906	83.12
288.138	76.12
288.369	81.12
288.6	73.12
288.831	81.12
289.062	86.12
289.293	79.12
289.524	101.12
289.755	74.12
289.986	79.12
290.217	81.12
290.448	71.12
290.679	83.12
290.91	93.12
291.141	73.12
291.371	75.12
291.602	75.12
291.833	86.12
292.064	82.12
292.295	77.12
292.526	78.12
292.757	84.12
292.987	83.12
293.218	86.12
293.449	78.12
293.68	87.12
293.91	80.12
294.141	92.12
294.372	95.12
294.603	77.12
294.833	82.12
295.064	73.12
295.295	97.12
295.525	72.12
295.756	93.12
295.987	83.12
296.217	74.12
296.448	97.12
296.679	93.12
296.909	85.12
297.14	89.12
297.37	91.12
297.601	78.12
297.831	83.12
298.062	75.12
298.292	88.12
298.523	80.12
298.753	85.12
298.984	73.12
299.214	85.12
299.445	92.12
299.675	78.12
299.905	96.12
300.136	75.12
300.366	88.12
300.597	94.12
300.827	73.12
301.057	77.12
301.288	79.12
301.518	82.12
301.748	66.12
301.979	77.12
302.209	85.12
302.439	78.12
302.669	86.12
302.9	80.12
303.13	83.12
303.36	81.12
303.59	84.12
303.82	98.12
304.051	80.12
304.281	86.12
304.511	78.12
304.741	62.12
304.971	86.12
305.201	68.12
305.431	85.12
305.661	92.12
305.891	86.12
306.121	90.12
306.352	93.12
306.582	97.12
306.812	93.12
307.042	87.12
307.272	95.12
307.502	82.12
307.731	81.12
307.961	88.12
308.191	77.12
308.421	85.12
308.651	78.12
308.881	93.12
309.111	86.12
309.341	97.12
309.571	84.12
309.8	92.12
310.03	77.12
310.26	86.12
310.49	72.12
310.72	82.12
310.949	102.12
311.179	86.12
311.409	75.12
311.639	76.12
311.868	77.12
312.098	78.12
312.328	82.12
312.557	83.12
312.787	72.12
313.017	76.12
313.246	70.12
313.476	77.12
313.706	83.12
313.935	95.12
314.165	88.12
314.394	85.12
314.624	68.12
314.853	83.12
315.083	101.12
315.312	101.12
315.542	85.12
315.771	91.12
316.001	90.12
316.23	88.12
316.46	93.12
316.689	80.12
316.919	81.12
317.148	86.12
317.377	69.12
317.607	78.12
317.836	84.12
318.065	83.12
318.295	85.12
318.524	88.12
318.753	82.12
318.983	88.12
319.212	96.12
319.441	94.12
319.67	89.12
319.9	89.12
320.129	74.12
320.358	88.12
320.587	69.12
320.816	77.12
321.046	78.12
321.275	82.12
321.504	70.12
321.733	81.12
321.962	91.12
322.191	100.12
322.42	85.12
322.649	89.12
322.878	99.12
323.108	91.12
323.337	98.12
323.566	75.12
323.795	82.12
324.024	82.12
324.253	74.12
324.482	81.12
324.71	76.12
324.939	90.12
325.168	70.12
325.397	88.12
325.626	82.12
325.855	83.12
326.084	81.12
326.313	75.12
326.542	88.12
326.77	82.12
326.999	75.12
327.228	83.12
327.457	82.12
327.686	80.12
327.914	80.12
328.143	85.12
328.372	91.12
328.6	84.12
328.829	88.12
329.058	78.12
329.287	84.12
329.515	82.12
329.744	86.12
329.972	78.12
330.201	84.12
330.43	82.12
330.658	90.12
330.887	70.12
331.115	89.12
331.344	97.12
331.572	82.12
331.801	85.12
332.03	86.12
332.258	79.12
332.486	90.12
332.715	90.12
332.943	85.12
333.172	96.12
333.4	89.12
333.629	79.12
333.857	83.12
334.085	89.12
334.314	79.12
334.542	73.12
334.771	80.12
334.999	83.12
335.227	77.12
335.455	79.12
335.684	79.12
335.912	79.12
336.14	97.12
336.369	77.12
336.597	79.12
336.825	85.12
337.053	89.12
337.281	84.12
337.51	78.12
337.738	78.12
337.966	82.12
338.194	93.12
338.422	83.12
338.65	83.12
338.878	92.12
339.106	87.12
339.334	90.12
339.562	79.12
339.79	76.12
340.018	78.12
340.246	84.12
340.474	81.12
340.702	86.12
340.93	88.12
341.158	86.12
341.386	80.12
341.614	85.12
341.842	86.12
342.07	69.12
342.298	86.12
342.526	86.12
342.754	84.12
342.981	93.12
343.209	94.12
343.437	79.12
343.665	84.12
343.893	98.12
344.12	96.12
344.348	87.12
344.576	90.12
344.804	86.12
345.031	82.12
345.259	92.12
345.487	81.12
345.714	81.12
345.942	82.12
346.17	90.12
346.397	82.12
346.625	86.12
346.853	80.12
347.08	82.12
347.308	86.12
347.535	78.12
347.763	91.12
347.99	89.12
348.218	82.12
348.445	74.12
348.673	91.12
348.9	76.12
349.128	83.12
349.355	75.12
349.583	89.12
349.81	85.12
350.037	71.12
350.265	72.12
350.492	83.12
350.72	92.12
350.947	82.12
351.174	93.12
351.402	73.12
351.629	90.12
351.856	83.12
352.083	72.12
352.311	83.12
352.538	85.12
352.765	94.12
352.992	76.12
353.22	81.12
353.447	87.12
353.674	81.12
353.901	92.12
354.128	93.12
354.355	85.12
354.583	77.12
354.81	92.12
355.037	87.12
355.264	83.12
355.491	93.12
355.718	86.12
355.945	108.12
356.172	95.12
356.399	79.12
356.626	75.12
356.853	78.12
357.08	72.12
357.307	87.12
357.534	97.12
357.761	70.12
357.988	83.12
358.215	87.12
358.441	77.12
358.668	78.12
358.895	95.12
359.122	84.12
359.349	82.12
359.576	101.12
359.802	80.12
360.029	83.12
360.256	75.12
360.483	84.12
360.709	91.12
360.936	90.12
361.163	88.12
361.39	86.12
361.616	103.12
361.843	87.12
362.07	86.12
362.296	98.12
362.523	92.12
362.749	89.12
362.976	79.12
363.203	89.12
363.429	86.12
363.656	65.12
363.882	79.12
364.109	91.12
364.335	69.12
364.562	84.12
364.788	78.12
365.015	94.12
365.241	78.12
365.468	87.12
365.694	83.12
365.92	85.12
366.147	67.12
366.373	91.12
366.599	88.12
366.826	74.12
367.052	69.12
367.278	89.12
367.505	85.12
367.731	85.12
367.957	91.12
368.184	75.12
368.41	98.12
368.636	83.12
368.862	69.12
369.089	90.12
369.315	63.12
369.541	83.12
369.767	84.12
369.993	90.12
370.219	96.12
370.445	94.12
370.672	79.12
370.898	88.12
371.124	87.12
371.35	90.12
371.576	78.12
371.802	89.12
372.028	84.12
372.254	91.12
372.48	91.12
372.706	90.12
372.932	83.12
373.158	99.12
373.384	83.12
373.61	104.12
373.835	93.12
374.061	88.12
374.287	95.12
374.513	98.12
374.739	95.12
374.965	97.12
375.191	91.12
375.416	85.12
375.642	91.12
375.868	102.12
376.094	79.12
376.319	87.12
376.545	92.12
376.771	76.12
376.997	83.12
377.222	85.12
377.448	93.12
377.674	86.12
377.899	92.12
378.125	95.12
378.35	103.12
378.576	95.12
378.802	71.12
379.027	79.12
379.253	86.12
379.478	88.12
379.704	90.12
379.929	84.12
380.155	95.12
380.38	92.12
380.606	95.12
380.831	93.12
381.057	101.12
381.282	93.12
381.507	105.12
381.733	81.12
381.958	93.12
382.184	88.12
382.409	98.12
382.634	93.12
382.86	98.12
383.085	87.12
383.31	87.12
383.535	97.12
383.761	97.12
383.986	100.12
384.211	96.12
384.436	88.12
384.662	90.12
384.887	80.12
385.112	85.12
385.337	95.12
385.562	92.12
385.787	102.12
386.013	106.12
386.238	115.12
386.463	109.12
386.688	100.12
386.913	89.12
387.138	83.12
387.363	88.12
387.588	99.12
387.813	95.12
388.038	83.12
388.263	105.12
388.488	92.12
388.713	78.12
388.938	96.12
389.163	96.12
389.387	99.12
389.612	102.12
389.837	107.12
390.062	101.12
390.287	112.12
390.512	94.12
390.736	79.12
390.961	93.12
391.186	98.12
391.411	100.12
391.636	99.12
391.86	101.12
392.085	99.12
392.31	99.12
392.534	115.12
392.759	113.12
392.984	92.12
393.208	107.12
393.433	106.12
393.658	101.12
393.882	97.12
394.107	101.12
394.331	97.12
394.556	97.12
394.78	102.12
395.005	102.12
395.229	111.12
395.454	93.12
395.678	109.12
395.903	109.12
396.127	92.12
396.352	102.12
396.576	99.12
396.801	78.12
397.025	93.12
397.249	102.12
397.474	106.12
397.698	99.12
397.922	111.12
398.147	102.12
398.371	89.12
398.595	113.12
398.82	97.12
399.044	108.12
399.268	98.12
399.492	126.12
399.717	125.12
399.941	104.12
400.165	114.12
400.389	111.12
400.613	111.12
400.837	102.12
401.062	94.12
401.286	105.12
401.51	110.12
401.734	112.12
401.958	89.12
402.182	87.12
402.406	108.12
402.63	122.12
402.854	107.12
403.078	113.12
403.302	109.12
403.526	109.12
403.75	114.12
403.974	98.12
404.198	101.12
404.422	120.12
404.645	92.12
404.869	97.12
405.093	118.12
405.317	109.12
405.541	106.12
405.765	106.12
405.988	98.12
406.212	104.12
406.436	104.12
406.66	114.12
406.883	115.12
407.107	111.12
407.331	107.12
407.555	119.12
407.778	115.12
408.002	110.12
408.226	113.12
408.449	120.12
408.673	116.12
408.896	113.12
409.12	106.12
409.344	125.12
409.567	114.12
409.791	103.12
410.014	103.12
410.238	123.12
410.461	117.12
410.685	106.12
410.908	108.12
411.132	111.12
411.355	111.12
411.578	111.12
411.802	119.12
412.025	101.12
412.249	108.12
412.472	106.12
412.695	105.12
412.919	110.12
413.142	118.12
413.365	107.12
413.589	113.12
413.812	127.12
414.035	116.12
414.258	119.12
414.482	91.12
414.705	103.12
414.928	103.12
415.151	107.12
415.374	99.12
415.597	111.12
415.821	107.12
416.044	116.12
416.267	89.12
416.49	117.12
416.713	114.12
416.936	98.12
417.159	111.12
417.382	108.12
417.605	101.12
417.828	121.12
418.051	116.12
418.274	124.12
418.497	118.12
418.72	113.12
418.943	118.12
419.166	122.12
419.389	119.12
419.611	110.12
419.834	109.12
420.057	109.12
420.28	100.12
420.503	115.12
420.726	109.12
420.948	102.12
421.171	110.12
421.394	108.12
421.617	117.12
421.839	109.12
422.062	121.12
422.285	121.12
422.507	110.12
422.73	101.12
422.953	121.12
423.175	117.12
423.398	124.12
423.621	121.12
423.843	101.12
424.066	106.12
424.288	109.12
424.511	106.12
424.733	133.12
424.956	120.12
425.178	94.12
425.401	103.12
425.623	110.12
425.846	115.12
426.068	129.12
426.291	118.12
426.513	118.12
426.735	90.12
426.958	112.12
427.18	101.12
427.402	114.12
427.625	108.12
427.847	93.12
428.069	90.12
428.292	105.12
428.514	123.12
428.736	119.12
428.958	102.12
429.181	110.12
429.403	110.12
429.625	109.12
429.847	100.12
430.069	101.12
430.292	122.12
430.514	129.12
430.736	113.12
430.958	110.12
431.18	134.12
431.402	104.12
431.624	109.12
431.846	104.12
432.068	116.12
432.29	107.12
432.512	109.12
432.734	111.12
432.956	114.12
433.178	110.12
433.4	114.12
433.622	107.12
433.844	106.12
434.066	110.12
434.287	119.12
434.509	97.12
434.731	104.12
434.953	110.12
435.175	118.12
435.397	125.12
435.618	111.12
435.84	103.12
436.062	103.12
436.284	105.12
436.505	125.12
436.727	108.12
436.949	109.12
437.17	116.12
437.392	119.12
437.614	108.12
437.835	102.12
438.057	110.12
438.278	114.12
438.5	133.12
438.721	114.12
438.943	105.12
439.165	121.12
439.386	124.12
439.608	124.12
439.829	119.12
440.05	120.12
440.272	106.12
440.493	120.12
440.715	115.12
440.936	101.12
441.158	125.12
441.379	116.12
441.6	124.12
441.822	117.12
442.043	127.12
442.264	117.12
442.486	119.12
442.707	123.12
442.928	127.12
443.149	123.12
443.371	133.12
443.592	129.12
443.813	115.12
444.034	122.12
444.255	107.12
444.476	131.12
444.698	135.12
444.919	119.12
445.14	253.12
445.361	181.12
445.582	125.12
445.803	118.12
446.024	117.12
446.245	134.12
446.466	115.12
446.687	116.12
446.908	105.12
447.129	109.12
447.35	118.12
447.571	118.12
447.792	121.12
448.013	95.12
448.234	114.12
448.455	125.12
448.675	121.12
448.896	117.12
449.117	119.12
449.338	110.12
449.559	119.12
449.779	110.12
450	120.12
450.221	119.12
450.442	122.12
450.662	107.12
450.883	105.12
451.104	122.12
451.324	119.12
451.545	100.12
451.766	123.12
451.986	109.12
452.207	113.12
452.428	100.12
452.648	108.12
452.869	124.12
453.089	113.12
453.31	101.12
453.53	111.12
453.751	111.12
453.971	92.12
454.192	99.12
454.412	102.12
454.633	105.12
454.853	115.12
455.073	115.12
455.294	100.12
455.514	119.12
455.734	105.12
455.955	99.12
456.175	112.12
456.395	110.12
456.616	108.12
456.836	114.12
457.056	114.12
457.276	108.12
457.497	104.12
457.717	114.12
457.937	105.12
458.157	99.12
458.377	109.12
458.598	100.12
458.818	88.12
459.038	107.12
459.258	104.12
459.478	109.12
459.698	107.12
459.918	98.12
460.138	110.12
460.358	124.12
460.578	114.12
460.798	116.12
461.018	125.12
461.238	113.12
461.458	113.12
461.678	104.12
461.898	125.12
462.118	115.12
462.338	127.12
462.558	113.12
462.777	111.12
462.997	127.12
463.217	125.12
463.437	134.12
463.657	110.12
463.876	114.12
464.096	127.12
464.316	127.12
464.536	117.12
464.755	123.12
464.975	109.12
465.195	114.12
465.414	95.12
465.634	101.12
465.854	107.12
466.073	114.12
466.293	125.12
466.512	107.12
466.732	121.12
466.951	125.12
467.171	123.12
467.391	123.12
467.61	117.12
467.829	117.12
468.049	105.12
468.268	115.12
468.488	126.12
468.707	122.12
468.927	109.12
469.146	119.12
469.365	127.12
469.585	133.12
469.804	146.12
470.023	135.12
470.243	110.12
470.462	131.12
470.681	125.12
470.901	108.12
471.12	121.12
471.339	124.12
471.558	118.12
471.777	117.12
471.997	120.12
472.216	108.12
472.435	114.12
472.654	107.12
472.873	110.12
473.092	114.12
473.311	123.12
473.53	120.12
473.749	109.12
473.968	112.12
474.187	110.12
474.406	109.12
474.625	107.12
474.844	118.12
475.063	106.12
475.282	124.12
475.501	115.12
475.72	114.12
475.939	124.12
476.158	114.12
476.377	121.12
476.596	114.12
476.814	107.12
477.033	119.12
477.252	117.12
477.471	117.12
477.69	126.12
477.908	125.12
478.127	142.12
478.346	125.12
478.564	125.12
478.783	125.12
479.002	125.12
479.22	137.12
479.439	123.12
479.658	125.12
479.876	120.12
480.095	115.12
480.313	119.12
480.532	131.12
480.751	124.12
480.969	118.12
481.188	119.12
481.406	118.12
481.624	125.12
481.843	113.12
482.061	114.12
482.28	124.12
482.498	127.12
482.717	101.12
482.935	135.12
483.153	109.12
483.372	125.12
483.59	145.12
483.808	135.12
484.027	129.12
484.245	129.12
484.463	129.12
484.681	127.12
484.9	130.12
485.118	129.12
485.336	121.12
485.554	123.12
485.772	110.12
485.99	125.12
486.209	125.12
486.427	119.12
486.645	118.12
486.863	129.12
487.081	121.12
487.299	117.12
487.517	133.12
487.735	135.12
487.953	153.12
488.171	143.12
488.389	138.12
488.607	146.12
488.825	117.12
489.043	113.12
489.261	140.12
489.479	129.12
489.696	128.12
489.914	135.12
490.132	133.12
490.35	136.12
490.568	136.12
490.786	143.12
491.003	141.12
491.221	144.12
491.439	160.12
491.657	150.12
491.874	152.12
492.092	149.12
492.31	167.12
492.527	158.12
492.745	167.12
492.963	173.12
493.18	141.12
493.398	140.12
493.615	149.12
493.833	147.12
494.05	152.12
494.268	153.12
494.485	147.12
494.703	137.12
494.92	149.12
495.138	142.12
495.355	160.12
495.573	157.12
495.79	143.12
496.008	138.12
496.225	155.12
496.442	154.12
496.66	170.12
496.877	151.12
497.094	140.12
497.312	143.12
497.529	144.12
497.746	145.12
497.963	151.12
498.181	143.12
498.398	138.12
498.615	139.12
498.832	149.12
499.049	163.12
499.267	164.12
499.484	171.12
499.701	179.12
499.918	175.12
500.135	209.12
500.352	206.12
500.569	219.12
500.786	221.12
501.003	197.12
501.22	189.12
501.437	188.12
501.654	182.12
501.871	151.12
502.088	157.12
502.305	153.12
502.522	140.12
502.739	139.12
502.956	153.12
503.172	133.12
503.389	156.12
503.606	149.12
503.823	133.12
504.04	136.12
504.256	142.12
504.473	145.12
504.69	151.12
504.907	153.12
505.123	137.12
505.34	145.12
505.557	133.12
505.773	125.12
505.99	130.12
506.207	128.12
506.423	117.12
506.64	123.12
506.856	123.12
507.073	132.12
507.289	133.12
507.506	121.12
507.722	111.12
507.939	133.12
508.155	118.12
508.372	117.12
508.588	113.12
508.805	114.12
509.021	115.12
509.238	115.12
509.454	114.12
509.67	131.12
509.887	101.12
510.103	113.12
510.319	116.12
510.536	124.12
510.752	119.12
510.968	111.12
511.184	110.12
511.401	119.12
511.617	97.12
