Data from StandardFe(NO3)3.TAE.3%Agarose.FlatLispGreen.Lamp.Energy10.07252019_HRD10591_11-53-28-439.txt Node
Date: Thu Jul 25 11:53:28 EDT 2019
User: cochatt
Spectrometer: HR+D1059
Trigger mode: 1
Integration Time (sec): 1.000000E-1
Scans to average: 1
Electric dark correction enabled: true
Nonlinearity correction enabled: false
Boxcar width: 0
XAxis mode: Wavelengths
Number of Pixels in Spectrum: 2048
>>>>>Begin Spectral Data<<<<<
223.165	-11.44
223.4	-11.44
223.635	-11.44
223.869	-11.44
224.104	-18.44
224.338	-18.44
224.573	-10.44
224.808	-11.44
225.042	-0.44
225.277	-16.44
225.511	-7.44
225.746	4.56
225.98	5.56
226.215	2.56
226.449	30.56
226.683	14.56
226.918	19.56
227.152	28.56
227.387	13.56
227.621	40.56
227.856	50.56
228.09	53.56
228.324	51.56
228.559	54.56
228.793	65.56
229.027	74.56
229.262	62.56
229.496	65.56
229.73	61.56
229.964	60.56
230.199	72.56
230.433	76.56
230.667	72.56
230.901	100.56
231.136	75.56
231.37	79.56
231.604	95.56
231.838	96.56
232.072	87.56
232.306	78.56
232.541	72.56
232.775	79.56
233.009	86.56
233.243	81.56
233.477	85.56
233.711	74.56
233.945	89.56
234.179	86.56
234.413	89.56
234.647	87.56
234.881	88.56
235.115	84.56
235.349	83.56
235.583	91.56
235.817	80.56
236.051	86.56
236.285	79.56
236.519	86.56
236.753	95.56
236.987	79.56
237.221	100.56
237.455	71.56
237.689	83.56
237.922	68.56
238.156	86.56
238.39	80.56
238.624	77.56
238.858	78.56
239.091	88.56
239.325	87.56
239.559	87.56
239.793	89.56
240.027	90.56
240.26	78.56
240.494	86.56
240.728	79.56
240.961	93.56
241.195	80.56
241.429	94.56
241.662	71.56
241.896	72.56
242.13	70.56
242.363	71.56
242.597	91.56
242.83	77.56
243.064	66.56
243.298	73.56
243.531	71.56
243.765	70.56
243.998	73.56
244.232	82.56
244.465	77.56
244.699	88.56
244.932	75.56
245.166	69.56
245.399	79.56
245.633	83.56
245.866	64.56
246.099	79.56
246.333	75.56
246.566	80.56
246.8	88.56
247.033	82.56
247.266	61.56
247.5	83.56
247.733	87.56
247.966	77.56
248.2	83.56
248.433	87.56
248.666	80.56
248.899	85.56
249.133	73.56
249.366	100.56
249.599	83.56
249.832	73.56
250.066	80.56
250.299	70.56
250.532	68.56
250.765	93.56
250.998	85.56
251.231	72.56
251.465	88.56
251.698	80.56
251.931	87.56
252.164	80.56
252.397	93.56
252.63	91.56
252.863	83.56
253.096	88.56
253.329	72.56
253.562	86.56
253.795	88.56
254.028	91.56
254.261	89.56
254.494	80.56
254.727	81.56
254.96	84.56
255.193	80.56
255.426	89.56
255.659	93.56
255.892	89.56
256.124	79.56
256.357	89.56
256.59	100.56
256.823	90.56
257.056	76.56
257.289	87.56
257.521	79.56
257.754	88.56
257.987	81.56
258.22	84.56
258.452	75.56
258.685	83.56
258.918	84.56
259.151	71.56
259.383	97.56
259.616	89.56
259.849	96.56
260.081	101.56
260.314	87.56
260.547	76.56
260.779	80.56
261.012	92.56
261.244	75.56
261.477	76.56
261.71	83.56
261.942	82.56
262.175	90.56
262.407	83.56
262.64	89.56
262.872	79.56
263.105	88.56
263.337	92.56
263.57	99.56
263.802	71.56
264.035	70.56
264.267	80.56
264.499	73.56
264.732	79.56
264.964	88.56
265.197	95.56
265.429	90.56
265.661	79.56
265.894	88.56
266.126	86.56
266.358	82.56
266.591	103.56
266.823	81.56
267.055	87.56
267.287	94.56
267.52	75.56
267.752	80.56
267.984	105.56
268.216	87.56
268.448	86.56
268.681	94.56
268.913	85.56
269.145	96.56
269.377	64.56
269.609	87.56
269.841	86.56
270.073	91.56
270.306	84.56
270.538	78.56
270.77	87.56
271.002	83.56
271.234	81.56
271.466	86.56
271.698	86.56
271.93	94.56
272.162	81.56
272.394	85.56
272.626	88.56
272.858	77.56
273.09	86.56
273.322	80.56
273.553	78.56
273.785	76.56
274.017	82.56
274.249	73.56
274.481	73.56
274.713	94.56
274.945	81.56
275.176	91.56
275.408	87.56
275.64	87.56
275.872	85.56
276.104	73.56
276.335	77.56
276.567	80.56
276.799	82.56
277.031	78.56
277.262	80.56
277.494	83.56
277.726	78.56
277.957	87.56
278.189	86.56
278.421	84.56
278.652	90.56
278.884	75.56
279.115	80.56
279.347	77.56
279.579	86.56
279.81	90.56
280.042	81.56
280.273	92.56
280.505	100.56
280.736	90.56
280.968	94.56
281.199	88.56
281.431	79.56
281.662	80.56
281.894	79.56
282.125	78.56
282.356	80.56
282.588	91.56
282.819	100.56
283.051	97.56
283.282	80.56
283.513	89.56
283.745	88.56
283.976	93.56
284.207	88.56
284.439	77.56
284.67	88.56
284.901	90.56
285.132	79.56
285.364	80.56
285.595	101.56
285.826	84.56
286.057	90.56
286.288	89.56
286.52	100.56
286.751	76.56
286.982	89.56
287.213	73.56
287.444	92.56
287.675	85.56
287.906	83.56
288.138	99.56
288.369	81.56
288.6	92.56
288.831	87.56
289.062	80.56
289.293	93.56
289.524	94.56
289.755	85.56
289.986	70.56
290.217	91.56
290.448	92.56
290.679	81.56
290.91	82.56
291.141	84.56
291.371	107.56
291.602	86.56
291.833	85.56
292.064	82.56
292.295	75.56
292.526	83.56
292.757	93.56
292.987	93.56
293.218	96.56
293.449	76.56
293.68	83.56
293.91	96.56
294.141	79.56
294.372	79.56
294.603	94.56
294.833	103.56
295.064	86.56
295.295	78.56
295.525	80.56
295.756	95.56
295.987	79.56
296.217	82.56
296.448	88.56
296.679	97.56
296.909	78.56
297.14	90.56
297.37	87.56
297.601	87.56
297.831	89.56
298.062	86.56
298.292	85.56
298.523	79.56
298.753	93.56
298.984	85.56
299.214	83.56
299.445	93.56
299.675	96.56
299.905	78.56
300.136	93.56
300.366	80.56
300.597	90.56
300.827	83.56
301.057	81.56
301.288	88.56
301.518	87.56
301.748	83.56
301.979	91.56
302.209	84.56
302.439	91.56
302.669	88.56
302.9	103.56
303.13	86.56
303.36	99.56
303.59	102.56
303.82	93.56
304.051	86.56
304.281	75.56
304.511	82.56
304.741	85.56
304.971	83.56
305.201	88.56
305.431	84.56
305.661	92.56
305.891	88.56
306.121	82.56
306.352	80.56
306.582	77.56
306.812	82.56
307.042	86.56
307.272	78.56
307.502	83.56
307.731	92.56
307.961	86.56
308.191	74.56
308.421	84.56
308.651	81.56
308.881	93.56
309.111	89.56
309.341	82.56
309.571	83.56
309.8	80.56
310.03	88.56
310.26	105.56
310.49	91.56
310.72	70.56
310.949	88.56
311.179	86.56
311.409	99.56
311.639	78.56
311.868	76.56
312.098	85.56
312.328	81.56
312.557	84.56
312.787	90.56
313.017	100.56
313.246	87.56
313.476	87.56
313.706	79.56
313.935	86.56
314.165	92.56
314.394	96.56
314.624	87.56
314.853	83.56
315.083	81.56
315.312	85.56
315.542	88.56
315.771	93.56
316.001	84.56
316.23	69.56
316.46	90.56
316.689	82.56
316.919	87.56
317.148	83.56
317.377	88.56
317.607	92.56
317.836	82.56
318.065	105.56
318.295	86.56
318.524	96.56
318.753	77.56
318.983	95.56
319.212	84.56
319.441	104.56
319.67	89.56
319.9	91.56
320.129	89.56
320.358	86.56
320.587	104.56
320.816	84.56
321.046	82.56
321.275	94.56
321.504	82.56
321.733	79.56
321.962	80.56
322.191	77.56
322.42	77.56
322.649	93.56
322.878	103.56
323.108	96.56
323.337	99.56
323.566	89.56
323.795	96.56
324.024	85.56
324.253	93.56
324.482	86.56
324.71	69.56
324.939	84.56
325.168	85.56
325.397	69.56
325.626	80.56
325.855	78.56
326.084	83.56
326.313	75.56
326.542	92.56
326.77	80.56
326.999	95.56
327.228	82.56
327.457	82.56
327.686	87.56
327.914	100.56
328.143	86.56
328.372	82.56
328.6	78.56
328.829	89.56
329.058	85.56
329.287	90.56
329.515	96.56
329.744	91.56
329.972	95.56
330.201	84.56
330.43	91.56
330.658	85.56
330.887	93.56
331.115	94.56
331.344	93.56
331.572	95.56
331.801	91.56
332.03	80.56
332.258	93.56
332.486	76.56
332.715	93.56
332.943	80.56
333.172	71.56
333.4	87.56
333.629	98.56
333.857	100.56
334.085	95.56
334.314	74.56
334.542	84.56
334.771	77.56
334.999	86.56
335.227	88.56
335.455	95.56
335.684	90.56
335.912	96.56
336.14	92.56
336.369	99.56
336.597	73.56
336.825	78.56
337.053	78.56
337.281	86.56
337.51	84.56
337.738	89.56
337.966	83.56
338.194	83.56
338.422	75.56
338.65	70.56
338.878	77.56
339.106	89.56
339.334	80.56
339.562	96.56
339.79	85.56
340.018	82.56
340.246	86.56
340.474	97.56
340.702	86.56
340.93	91.56
341.158	90.56
341.386	82.56
341.614	90.56
341.842	76.56
342.07	86.56
342.298	96.56
342.526	86.56
342.754	79.56
342.981	76.56
343.209	76.56
343.437	90.56
343.665	95.56
343.893	95.56
344.12	86.56
344.348	102.56
344.576	84.56
344.804	78.56
345.031	85.56
345.259	86.56
345.487	88.56
345.714	83.56
345.942	86.56
346.17	86.56
346.397	104.56
346.625	98.56
346.853	87.56
347.08	91.56
347.308	93.56
347.535	84.56
347.763	84.56
347.99	84.56
348.218	84.56
348.445	95.56
348.673	86.56
348.9	97.56
349.128	91.56
349.355	79.56
349.583	87.56
349.81	80.56
350.037	82.56
350.265	86.56
350.492	93.56
350.72	91.56
350.947	83.56
351.174	88.56
351.402	71.56
351.629	88.56
351.856	84.56
352.083	80.56
352.311	80.56
352.538	80.56
352.765	84.56
352.992	99.56
353.22	87.56
353.447	97.56
353.674	77.56
353.901	90.56
354.128	85.56
354.355	95.56
354.583	79.56
354.81	98.56
355.037	94.56
355.264	91.56
355.491	98.56
355.718	95.56
355.945	88.56
356.172	98.56
356.399	89.56
356.626	97.56
356.853	89.56
357.08	89.56
357.307	101.56
357.534	78.56
357.761	91.56
357.988	87.56
358.215	98.56
358.441	83.56
358.668	83.56
358.895	87.56
359.122	84.56
359.349	98.56
359.576	84.56
359.802	83.56
360.029	84.56
360.256	96.56
360.483	79.56
360.709	87.56
360.936	92.56
361.163	85.56
361.39	86.56
361.616	93.56
361.843	98.56
362.07	79.56
362.296	85.56
362.523	96.56
362.749	87.56
362.976	83.56
363.203	80.56
363.429	84.56
363.656	82.56
363.882	87.56
364.109	75.56
364.335	82.56
364.562	85.56
364.788	86.56
365.015	94.56
365.241	84.56
365.468	94.56
365.694	94.56
365.92	86.56
366.147	83.56
366.373	76.56
366.599	87.56
366.826	92.56
367.052	99.56
367.278	95.56
367.505	78.56
367.731	94.56
367.957	92.56
368.184	90.56
368.41	81.56
368.636	87.56
368.862	74.56
369.089	89.56
369.315	101.56
369.541	107.56
369.767	84.56
369.993	88.56
370.219	76.56
370.445	80.56
370.672	77.56
370.898	92.56
371.124	88.56
371.35	101.56
371.576	97.56
371.802	95.56
372.028	79.56
372.254	95.56
372.48	95.56
372.706	83.56
372.932	82.56
373.158	95.56
373.384	79.56
373.61	82.56
373.835	80.56
374.061	91.56
374.287	92.56
374.513	86.56
374.739	90.56
374.965	93.56
375.191	111.56
375.416	82.56
375.642	88.56
375.868	92.56
376.094	99.56
376.319	92.56
376.545	105.56
376.771	86.56
376.997	81.56
377.222	91.56
377.448	88.56
377.674	78.56
377.899	96.56
378.125	93.56
378.35	105.56
378.576	91.56
378.802	94.56
379.027	85.56
379.253	99.56
379.478	71.56
379.704	92.56
379.929	109.56
380.155	94.56
380.38	107.56
380.606	101.56
380.831	98.56
381.057	95.56
381.282	80.56
381.507	82.56
381.733	94.56
381.958	112.56
382.184	99.56
382.409	86.56
382.634	93.56
382.86	91.56
383.085	88.56
383.31	99.56
383.535	101.56
383.761	97.56
383.986	95.56
384.211	93.56
384.436	110.56
384.662	112.56
384.887	94.56
385.112	72.56
385.337	106.56
385.562	111.56
385.787	93.56
386.013	105.56
386.238	102.56
386.463	83.56
386.688	87.56
386.913	92.56
387.138	101.56
387.363	104.56
387.588	95.56
387.813	104.56
388.038	118.56
388.263	118.56
388.488	102.56
388.713	104.56
388.938	86.56
389.163	91.56
389.387	98.56
389.612	90.56
389.837	93.56
390.062	111.56
390.287	104.56
390.512	103.56
390.736	93.56
390.961	96.56
391.186	100.56
391.411	98.56
391.636	97.56
391.86	94.56
392.085	119.56
392.31	98.56
392.534	111.56
392.759	102.56
392.984	99.56
393.208	80.56
393.433	98.56
393.658	102.56
393.882	99.56
394.107	98.56
394.331	97.56
394.556	98.56
394.78	110.56
395.005	103.56
395.229	99.56
395.454	99.56
395.678	107.56
395.903	96.56
396.127	109.56
396.352	104.56
396.576	115.56
396.801	88.56
397.025	93.56
397.249	110.56
397.474	119.56
397.698	88.56
397.922	89.56
398.147	97.56
398.371	106.56
398.595	110.56
398.82	108.56
399.044	107.56
399.268	112.56
399.492	102.56
399.717	103.56
399.941	123.56
400.165	104.56
400.389	103.56
400.613	110.56
400.837	108.56
401.062	120.56
401.286	110.56
401.51	116.56
401.734	119.56
401.958	117.56
402.182	107.56
402.406	107.56
402.63	121.56
402.854	110.56
403.078	108.56
403.302	95.56
403.526	107.56
403.75	111.56
403.974	121.56
404.198	108.56
404.422	124.56
404.645	103.56
404.869	104.56
405.093	109.56
405.317	119.56
405.541	117.56
405.765	115.56
405.988	120.56
406.212	103.56
406.436	109.56
406.66	110.56
406.883	107.56
407.107	102.56
407.331	101.56
407.555	116.56
407.778	118.56
408.002	116.56
408.226	118.56
408.449	112.56
408.673	124.56
408.896	118.56
409.12	112.56
409.344	117.56
409.567	122.56
409.791	112.56
410.014	111.56
410.238	105.56
410.461	117.56
410.685	115.56
410.908	124.56
411.132	123.56
411.355	104.56
411.578	102.56
411.802	105.56
412.025	109.56
412.249	108.56
412.472	123.56
412.695	111.56
412.919	113.56
413.142	121.56
413.365	117.56
413.589	124.56
413.812	116.56
414.035	123.56
414.258	114.56
414.482	106.56
414.705	118.56
414.928	111.56
415.151	102.56
415.374	117.56
415.597	116.56
415.821	110.56
416.044	104.56
416.267	119.56
416.49	117.56
416.713	110.56
416.936	125.56
417.159	122.56
417.382	130.56
417.605	118.56
417.828	120.56
418.051	122.56
418.274	134.56
418.497	126.56
418.72	108.56
418.943	111.56
419.166	118.56
419.389	108.56
419.611	128.56
419.834	127.56
420.057	126.56
420.28	125.56
420.503	120.56
420.726	106.56
420.948	121.56
421.171	107.56
421.394	113.56
421.617	126.56
421.839	138.56
422.062	134.56
422.285	125.56
422.507	132.56
422.73	120.56
422.953	113.56
423.175	124.56
423.398	130.56
423.621	124.56
423.843	137.56
424.066	120.56
424.288	137.56
424.511	119.56
424.733	137.56
424.956	121.56
425.178	131.56
425.401	126.56
425.623	107.56
425.846	127.56
426.068	111.56
426.291	115.56
426.513	111.56
426.735	120.56
426.958	106.56
427.18	115.56
427.402	121.56
427.625	109.56
427.847	120.56
428.069	125.56
428.292	103.56
428.514	124.56
428.736	120.56
428.958	99.56
429.181	113.56
429.403	103.56
429.625	109.56
429.847	108.56
430.069	117.56
430.292	130.56
430.514	120.56
430.736	118.56
430.958	115.56
431.18	123.56
431.402	124.56
431.624	120.56
431.846	109.56
432.068	104.56
432.29	98.56
432.512	123.56
432.734	124.56
432.956	122.56
433.178	110.56
433.4	118.56
433.622	111.56
433.844	107.56
434.066	119.56
434.287	120.56
434.509	96.56
434.731	110.56
434.953	115.56
435.175	119.56
435.397	123.56
435.618	109.56
435.84	116.56
436.062	124.56
436.284	119.56
436.505	116.56
436.727	120.56
436.949	117.56
437.17	117.56
437.392	126.56
437.614	111.56
437.835	114.56
438.057	93.56
438.278	110.56
438.5	105.56
438.721	106.56
438.943	119.56
439.165	112.56
439.386	99.56
439.608	127.56
439.829	110.56
440.05	125.56
440.272	120.56
440.493	119.56
440.715	102.56
440.936	121.56
441.158	124.56
441.379	126.56
441.6	114.56
441.822	128.56
442.043	133.56
442.264	126.56
442.486	125.56
442.707	122.56
442.928	119.56
443.149	128.56
443.371	135.56
443.592	123.56
443.813	124.56
444.034	123.56
444.255	119.56
444.476	131.56
444.698	135.56
444.919	132.56
445.14	251.56
445.361	183.56
445.582	138.56
445.803	126.56
446.024	109.56
446.245	124.56
446.466	125.56
446.687	118.56
446.908	127.56
447.129	129.56
447.35	129.56
447.571	110.56
447.792	122.56
448.013	130.56
448.234	116.56
448.455	123.56
448.675	109.56
448.896	130.56
449.117	125.56
449.338	131.56
449.559	104.56
449.779	112.56
450	122.56
450.221	111.56
450.442	116.56
450.662	115.56
450.883	104.56
451.104	106.56
451.324	116.56
451.545	94.56
451.766	132.56
451.986	110.56
452.207	123.56
452.428	120.56
452.648	115.56
452.869	107.56
453.089	120.56
453.31	103.56
453.53	118.56
453.751	97.56
453.971	106.56
454.192	103.56
454.412	100.56
454.633	122.56
454.853	113.56
455.073	110.56
455.294	128.56
455.514	114.56
455.734	120.56
455.955	100.56
456.175	123.56
456.395	103.56
456.616	91.56
456.836	106.56
457.056	120.56
457.276	104.56
457.497	100.56
457.717	114.56
457.937	107.56
458.157	125.56
458.377	107.56
458.598	106.56
458.818	119.56
459.038	121.56
459.258	109.56
459.478	107.56
459.698	106.56
459.918	108.56
460.138	118.56
460.358	122.56
460.578	118.56
460.798	119.56
461.018	117.56
461.238	115.56
461.458	122.56
461.678	129.56
461.898	117.56
462.118	122.56
462.338	140.56
462.558	131.56
462.777	119.56
462.997	129.56
463.217	126.56
463.437	142.56
463.657	131.56
463.876	133.56
464.096	127.56
464.316	124.56
464.536	132.56
464.755	131.56
464.975	131.56
465.195	115.56
465.414	129.56
465.634	124.56
465.854	107.56
466.073	119.56
466.293	107.56
466.512	109.56
466.732	111.56
466.951	132.56
467.171	130.56
467.391	129.56
467.61	119.56
467.829	120.56
468.049	121.56
468.268	128.56
468.488	125.56
468.707	130.56
468.927	109.56
469.146	133.56
469.365	128.56
469.585	129.56
469.804	116.56
470.023	119.56
470.243	116.56
470.462	138.56
470.681	127.56
470.901	125.56
471.12	128.56
471.339	124.56
471.558	136.56
471.777	116.56
471.997	104.56
472.216	110.56
472.435	116.56
472.654	103.56
472.873	100.56
473.092	119.56
473.311	132.56
473.53	124.56
473.749	131.56
473.968	117.56
474.187	127.56
474.406	117.56
474.625	107.56
474.844	131.56
475.063	128.56
475.282	130.56
475.501	103.56
475.72	129.56
475.939	122.56
476.158	118.56
476.377	118.56
476.596	114.56
476.814	120.56
477.033	113.56
477.252	111.56
477.471	120.56
477.69	124.56
477.908	127.56
478.127	142.56
478.346	126.56
478.564	136.56
478.783	136.56
479.002	116.56
479.22	142.56
479.439	135.56
479.658	126.56
479.876	121.56
480.095	140.56
480.313	125.56
480.532	133.56
480.751	132.56
480.969	132.56
481.188	118.56
481.406	108.56
481.624	118.56
481.843	121.56
482.061	123.56
482.28	123.56
482.498	111.56
482.717	124.56
482.935	124.56
483.153	116.56
483.372	125.56
483.59	119.56
483.808	127.56
484.027	127.56
484.245	106.56
484.463	130.56
484.681	144.56
484.9	149.56
485.118	119.56
485.336	129.56
485.554	116.56
485.772	132.56
485.99	109.56
486.209	129.56
486.427	134.56
486.645	134.56
486.863	132.56
487.081	124.56
487.299	130.56
487.517	132.56
487.735	151.56
487.953	130.56
488.171	136.56
488.389	135.56
488.607	129.56
488.825	137.56
489.043	123.56
489.261	141.56
489.479	127.56
489.696	129.56
489.914	132.56
490.132	132.56
490.35	150.56
490.568	148.56
490.786	146.56
491.003	138.56
491.221	154.56
491.439	156.56
491.657	152.56
491.874	154.56
492.092	163.56
492.31	156.56
492.527	159.56
492.745	155.56
492.963	139.56
493.18	158.56
493.398	162.56
493.615	163.56
493.833	152.56
494.05	164.56
494.268	150.56
494.485	151.56
494.703	135.56
494.92	142.56
495.138	144.56
495.355	148.56
495.573	143.56
495.79	136.56
496.008	150.56
496.225	140.56
496.442	149.56
496.66	144.56
496.877	150.56
497.094	144.56
497.312	128.56
497.529	147.56
497.746	135.56
497.963	154.56
498.181	150.56
498.398	142.56
498.615	150.56
498.832	137.56
499.049	156.56
499.267	162.56
499.484	175.56
499.701	185.56
499.918	174.56
500.135	201.56
500.352	236.56
500.569	230.56
500.786	228.56
501.003	229.56
501.22	216.56
501.437	186.56
501.654	178.56
501.871	159.56
502.088	162.56
502.305	148.56
502.522	160.56
502.739	139.56
502.956	137.56
503.172	150.56
503.389	157.56
503.606	133.56
503.823	138.56
504.04	136.56
504.256	136.56
504.473	129.56
504.69	132.56
504.907	151.56
505.123	141.56
505.34	138.56
505.557	143.56
505.773	136.56
505.99	141.56
506.207	127.56
506.423	127.56
506.64	128.56
506.856	117.56
507.073	132.56
507.289	119.56
507.506	119.56
507.722	134.56
507.939	124.56
508.155	126.56
508.372	135.56
508.588	120.56
508.805	122.56
509.021	124.56
509.238	126.56
509.454	116.56
509.67	123.56
509.887	127.56
510.103	119.56
510.319	118.56
510.536	116.56
510.752	126.56
510.968	107.56
