Data from StandardFe(NO3)3.TAE.3%Agarose.FlatLispGreen.Lamp.Energy10.07252019_HRD10591_11-53-46-440.txt Node
Date: Thu Jul 25 11:53:46 EDT 2019
User: cochatt
Spectrometer: HR+D1059
Trigger mode: 1
Integration Time (sec): 1.000000E-1
Scans to average: 1
Electric dark correction enabled: true
Nonlinearity correction enabled: false
Boxcar width: 0
XAxis mode: Wavelengths
Number of Pixels in Spectrum: 2048
>>>>>Begin Spectral Data<<<<<
223.165	-14.75
223.4	-14.75
223.635	-14.75
223.869	-24.75
224.104	-24.75
224.338	-13.75
224.573	-6.75
224.808	-8.75
225.042	-7.75
225.277	-3.75
225.511	-4.75
225.746	3.25
225.98	8.25
226.215	-6.75
226.449	17.25
226.683	27.25
226.918	31.25
227.152	29.25
227.387	32.25
227.621	46.25
227.856	47.25
228.09	54.25
228.324	50.25
228.559	52.25
228.793	60.25
229.027	60.25
229.262	59.25
229.496	74.25
229.73	69.25
229.964	69.25
230.199	58.25
230.433	77.25
230.667	60.25
230.901	72.25
231.136	83.25
231.37	82.25
231.604	82.25
231.838	91.25
232.072	79.25
232.306	92.25
232.541	83.25
232.775	98.25
233.009	81.25
233.243	82.25
233.477	57.25
233.711	76.25
233.945	86.25
234.179	85.25
234.413	88.25
234.647	89.25
234.881	69.25
235.115	80.25
235.349	78.25
235.583	86.25
235.817	82.25
236.051	76.25
236.285	75.25
236.519	92.25
236.753	76.25
236.987	73.25
237.221	89.25
237.455	77.25
237.689	63.25
237.922	82.25
238.156	84.25
238.39	80.25
238.624	87.25
238.858	69.25
239.091	84.25
239.325	88.25
239.559	77.25
239.793	76.25
240.027	92.25
240.26	77.25
240.494	82.25
240.728	87.25
240.961	69.25
241.195	84.25
241.429	72.25
241.662	75.25
241.896	65.25
242.13	80.25
242.363	76.25
242.597	71.25
242.83	72.25
243.064	80.25
243.298	81.25
243.531	69.25
243.765	86.25
243.998	74.25
244.232	95.25
244.465	69.25
244.699	75.25
244.932	98.25
245.166	81.25
245.399	75.25
245.633	85.25
245.866	81.25
246.099	72.25
246.333	77.25
246.566	90.25
246.8	76.25
247.033	86.25
247.266	92.25
247.5	86.25
247.733	84.25
247.966	73.25
248.2	67.25
248.433	83.25
248.666	68.25
248.899	80.25
249.133	66.25
249.366	91.25
249.599	84.25
249.832	86.25
250.066	81.25
250.299	66.25
250.532	88.25
250.765	86.25
250.998	80.25
251.231	73.25
251.465	88.25
251.698	82.25
251.931	83.25
252.164	85.25
252.397	93.25
252.63	77.25
252.863	78.25
253.096	88.25
253.329	82.25
253.562	84.25
253.795	68.25
254.028	85.25
254.261	87.25
254.494	72.25
254.727	87.25
254.96	74.25
255.193	88.25
255.426	80.25
255.659	80.25
255.892	77.25
256.124	82.25
256.357	91.25
256.59	82.25
256.823	90.25
257.056	86.25
257.289	90.25
257.521	93.25
257.754	77.25
257.987	85.25
258.22	96.25
258.452	82.25
258.685	79.25
258.918	83.25
259.151	73.25
259.383	83.25
259.616	79.25
259.849	80.25
260.081	85.25
260.314	88.25
260.547	79.25
260.779	75.25
261.012	83.25
261.244	80.25
261.477	68.25
261.71	85.25
261.942	86.25
262.175	78.25
262.407	78.25
262.64	77.25
262.872	57.25
263.105	88.25
263.337	74.25
263.57	82.25
263.802	83.25
264.035	73.25
264.267	89.25
264.499	90.25
264.732	96.25
264.964	87.25
265.197	92.25
265.429	77.25
265.661	78.25
265.894	84.25
266.126	72.25
266.358	84.25
266.591	82.25
266.823	92.25
267.055	77.25
267.287	77.25
267.52	71.25
267.752	78.25
267.984	81.25
268.216	84.25
268.448	79.25
268.681	77.25
268.913	84.25
269.145	92.25
269.377	87.25
269.609	96.25
269.841	77.25
270.073	67.25
270.306	86.25
270.538	89.25
270.77	87.25
271.002	83.25
271.234	84.25
271.466	80.25
271.698	85.25
271.93	94.25
272.162	89.25
272.394	83.25
272.626	93.25
272.858	82.25
273.09	83.25
273.322	85.25
273.553	82.25
273.785	75.25
274.017	81.25
274.249	94.25
274.481	96.25
274.713	75.25
274.945	87.25
275.176	78.25
275.408	88.25
275.64	84.25
275.872	89.25
276.104	80.25
276.335	86.25
276.567	88.25
276.799	96.25
277.031	53.25
277.262	81.25
277.494	87.25
277.726	105.25
277.957	82.25
278.189	77.25
278.421	76.25
278.652	103.25
278.884	87.25
279.115	90.25
279.347	90.25
279.579	84.25
279.81	68.25
280.042	98.25
280.273	94.25
280.505	82.25
280.736	82.25
280.968	80.25
281.199	83.25
281.431	77.25
281.662	88.25
281.894	80.25
282.125	90.25
282.356	100.25
282.588	81.25
282.819	84.25
283.051	77.25
283.282	75.25
283.513	71.25
283.745	98.25
283.976	95.25
284.207	73.25
284.439	76.25
284.67	73.25
284.901	83.25
285.132	98.25
285.364	80.25
285.595	79.25
285.826	85.25
286.057	84.25
286.288	88.25
286.52	103.25
286.751	76.25
286.982	89.25
287.213	85.25
287.444	90.25
287.675	78.25
287.906	92.25
288.138	85.25
288.369	66.25
288.6	80.25
288.831	95.25
289.062	94.25
289.293	88.25
289.524	86.25
289.755	88.25
289.986	94.25
290.217	99.25
290.448	77.25
290.679	70.25
290.91	101.25
291.141	78.25
291.371	78.25
291.602	85.25
291.833	82.25
292.064	84.25
292.295	73.25
292.526	89.25
292.757	92.25
292.987	87.25
293.218	76.25
293.449	91.25
293.68	86.25
293.91	77.25
294.141	82.25
294.372	101.25
294.603	88.25
294.833	104.25
295.064	93.25
295.295	87.25
295.525	82.25
295.756	77.25
295.987	97.25
296.217	76.25
296.448	87.25
296.679	93.25
296.909	81.25
297.14	93.25
297.37	78.25
297.601	97.25
297.831	80.25
298.062	82.25
298.292	87.25
298.523	93.25
298.753	86.25
298.984	93.25
299.214	84.25
299.445	79.25
299.675	94.25
299.905	92.25
300.136	89.25
300.366	86.25
300.597	84.25
300.827	89.25
301.057	85.25
301.288	78.25
301.518	91.25
301.748	90.25
301.979	84.25
302.209	83.25
302.439	84.25
302.669	76.25
302.9	100.25
303.13	91.25
303.36	83.25
303.59	84.25
303.82	91.25
304.051	93.25
304.281	93.25
304.511	77.25
304.741	90.25
304.971	104.25
305.201	92.25
305.431	113.25
305.661	83.25
305.891	101.25
306.121	91.25
306.352	85.25
306.582	93.25
306.812	70.25
307.042	84.25
307.272	84.25
307.502	84.25
307.731	76.25
307.961	72.25
308.191	80.25
308.421	79.25
308.651	84.25
308.881	86.25
309.111	79.25
309.341	68.25
309.571	86.25
309.8	76.25
310.03	70.25
310.26	95.25
310.49	90.25
310.72	97.25
310.949	94.25
311.179	95.25
311.409	77.25
311.639	83.25
311.868	76.25
312.098	75.25
312.328	94.25
312.557	87.25
312.787	92.25
313.017	90.25
313.246	88.25
313.476	94.25
313.706	80.25
313.935	88.25
314.165	84.25
314.394	84.25
314.624	81.25
314.853	89.25
315.083	75.25
315.312	88.25
315.542	85.25
315.771	86.25
316.001	89.25
316.23	93.25
316.46	74.25
316.689	78.25
316.919	85.25
317.148	79.25
317.377	76.25
317.607	93.25
317.836	93.25
318.065	92.25
318.295	88.25
318.524	92.25
318.753	81.25
318.983	84.25
319.212	92.25
319.441	80.25
319.67	75.25
319.9	92.25
320.129	82.25
320.358	84.25
320.587	98.25
320.816	89.25
321.046	81.25
321.275	110.25
321.504	67.25
321.733	89.25
321.962	86.25
322.191	80.25
322.42	92.25
322.649	98.25
322.878	82.25
323.108	100.25
323.337	92.25
323.566	93.25
323.795	94.25
324.024	93.25
324.253	86.25
324.482	88.25
324.71	75.25
324.939	89.25
325.168	87.25
325.397	88.25
325.626	98.25
325.855	95.25
326.084	75.25
326.313	75.25
326.542	76.25
326.77	89.25
326.999	83.25
327.228	97.25
327.457	91.25
327.686	91.25
327.914	84.25
328.143	92.25
328.372	71.25
328.6	92.25
328.829	89.25
329.058	81.25
329.287	82.25
329.515	85.25
329.744	86.25
329.972	91.25
330.201	96.25
330.43	88.25
330.658	85.25
330.887	72.25
331.115	85.25
331.344	69.25
331.572	82.25
331.801	94.25
332.03	84.25
332.258	74.25
332.486	79.25
332.715	77.25
332.943	89.25
333.172	88.25
333.4	84.25
333.629	78.25
333.857	82.25
334.085	83.25
334.314	89.25
334.542	89.25
334.771	89.25
334.999	82.25
335.227	79.25
335.455	84.25
335.684	81.25
335.912	85.25
336.14	72.25
336.369	92.25
336.597	82.25
336.825	92.25
337.053	103.25
337.281	89.25
337.51	82.25
337.738	87.25
337.966	82.25
338.194	76.25
338.422	79.25
338.65	93.25
338.878	86.25
339.106	79.25
339.334	92.25
339.562	83.25
339.79	90.25
340.018	85.25
340.246	85.25
340.474	97.25
340.702	85.25
340.93	89.25
341.158	91.25
341.386	88.25
341.614	77.25
341.842	93.25
342.07	84.25
342.298	88.25
342.526	92.25
342.754	85.25
342.981	94.25
343.209	85.25
343.437	85.25
343.665	89.25
343.893	73.25
344.12	84.25
344.348	100.25
344.576	90.25
344.804	90.25
345.031	83.25
345.259	89.25
345.487	84.25
345.714	89.25
345.942	90.25
346.17	104.25
346.397	78.25
346.625	90.25
346.853	83.25
347.08	96.25
347.308	95.25
347.535	88.25
347.763	92.25
347.99	90.25
348.218	79.25
348.445	93.25
348.673	84.25
348.9	92.25
349.128	83.25
349.355	71.25
349.583	92.25
349.81	93.25
350.037	91.25
350.265	80.25
350.492	89.25
350.72	108.25
350.947	87.25
351.174	83.25
351.402	89.25
351.629	79.25
351.856	94.25
352.083	108.25
352.311	79.25
352.538	98.25
352.765	109.25
352.992	88.25
353.22	94.25
353.447	91.25
353.674	76.25
353.901	80.25
354.128	76.25
354.355	86.25
354.583	85.25
354.81	98.25
355.037	85.25
355.264	99.25
355.491	82.25
355.718	86.25
355.945	79.25
356.172	87.25
356.399	83.25
356.626	88.25
356.853	95.25
357.08	80.25
357.307	74.25
357.534	89.25
357.761	90.25
357.988	85.25
358.215	89.25
358.441	82.25
358.668	92.25
358.895	84.25
359.122	74.25
359.349	91.25
359.576	94.25
359.802	81.25
360.029	73.25
360.256	76.25
360.483	83.25
360.709	88.25
360.936	95.25
361.163	89.25
361.39	85.25
361.616	77.25
361.843	82.25
362.07	91.25
362.296	98.25
362.523	99.25
362.749	87.25
362.976	85.25
363.203	88.25
363.429	87.25
363.656	82.25
363.882	98.25
364.109	95.25
364.335	91.25
364.562	93.25
364.788	83.25
365.015	86.25
365.241	91.25
365.468	88.25
365.694	93.25
365.92	92.25
366.147	91.25
366.373	97.25
366.599	86.25
366.826	82.25
367.052	83.25
367.278	92.25
367.505	90.25
367.731	95.25
367.957	104.25
368.184	96.25
368.41	76.25
368.636	81.25
368.862	86.25
369.089	88.25
369.315	88.25
369.541	92.25
369.767	94.25
369.993	96.25
370.219	92.25
370.445	88.25
370.672	81.25
370.898	86.25
371.124	81.25
371.35	91.25
371.576	96.25
371.802	96.25
372.028	100.25
372.254	98.25
372.48	78.25
372.706	86.25
372.932	90.25
373.158	86.25
373.384	92.25
373.61	86.25
373.835	75.25
374.061	89.25
374.287	98.25
374.513	80.25
374.739	91.25
374.965	90.25
375.191	81.25
375.416	90.25
375.642	87.25
375.868	91.25
376.094	92.25
376.319	92.25
376.545	90.25
376.771	108.25
376.997	104.25
377.222	87.25
377.448	88.25
377.674	81.25
377.899	89.25
378.125	85.25
378.35	86.25
378.576	98.25
378.802	70.25
379.027	97.25
379.253	100.25
379.478	93.25
379.704	91.25
379.929	73.25
380.155	92.25
380.38	92.25
380.606	84.25
380.831	98.25
381.057	96.25
381.282	104.25
381.507	102.25
381.733	108.25
381.958	83.25
382.184	93.25
382.409	106.25
382.634	97.25
382.86	93.25
383.085	84.25
383.31	96.25
383.535	100.25
383.761	93.25
383.986	92.25
384.211	93.25
384.436	89.25
384.662	88.25
384.887	93.25
385.112	98.25
385.337	97.25
385.562	92.25
385.787	115.25
386.013	99.25
386.238	85.25
386.463	92.25
386.688	98.25
386.913	108.25
387.138	98.25
387.363	82.25
387.588	86.25
387.813	94.25
388.038	95.25
388.263	87.25
388.488	100.25
388.713	80.25
388.938	105.25
389.163	98.25
389.387	101.25
389.612	94.25
389.837	92.25
390.062	104.25
390.287	91.25
390.512	93.25
390.736	84.25
390.961	97.25
391.186	87.25
391.411	95.25
391.636	96.25
391.86	101.25
392.085	101.25
392.31	107.25
392.534	102.25
392.759	98.25
392.984	90.25
393.208	100.25
393.433	101.25
393.658	97.25
393.882	100.25
394.107	95.25
394.331	91.25
394.556	111.25
394.78	107.25
395.005	103.25
395.229	94.25
395.454	100.25
395.678	93.25
395.903	104.25
396.127	102.25
396.352	101.25
396.576	106.25
396.801	93.25
397.025	78.25
397.249	91.25
397.474	106.25
397.698	101.25
397.922	96.25
398.147	106.25
398.371	95.25
398.595	107.25
398.82	111.25
399.044	99.25
399.268	101.25
399.492	115.25
399.717	120.25
399.941	115.25
400.165	115.25
400.389	117.25
400.613	118.25
400.837	99.25
401.062	122.25
401.286	106.25
401.51	107.25
401.734	96.25
401.958	126.25
402.182	104.25
402.406	121.25
402.63	100.25
402.854	93.25
403.078	115.25
403.302	106.25
403.526	108.25
403.75	101.25
403.974	115.25
404.198	109.25
404.422	111.25
404.645	108.25
404.869	104.25
405.093	104.25
405.317	120.25
405.541	114.25
405.765	114.25
405.988	100.25
406.212	118.25
406.436	95.25
406.66	124.25
406.883	120.25
407.107	121.25
407.331	129.25
407.555	106.25
407.778	111.25
408.002	116.25
408.226	124.25
408.449	120.25
408.673	116.25
408.896	115.25
409.12	117.25
409.344	132.25
409.567	127.25
409.791	101.25
410.014	120.25
410.238	114.25
410.461	113.25
410.685	120.25
410.908	115.25
411.132	103.25
411.355	118.25
411.578	126.25
411.802	131.25
412.025	122.25
412.249	104.25
412.472	108.25
412.695	110.25
412.919	128.25
413.142	104.25
413.365	110.25
413.589	105.25
413.812	114.25
414.035	122.25
414.258	110.25
414.482	109.25
414.705	116.25
414.928	93.25
415.151	107.25
415.374	109.25
415.597	123.25
415.821	102.25
416.044	128.25
416.267	117.25
416.49	105.25
416.713	108.25
416.936	127.25
417.159	125.25
417.382	112.25
417.605	118.25
417.828	122.25
418.051	113.25
418.274	121.25
418.497	108.25
418.72	106.25
418.943	105.25
419.166	118.25
419.389	130.25
419.611	129.25
419.834	125.25
420.057	113.25
420.28	114.25
420.503	125.25
420.726	120.25
420.948	121.25
421.171	123.25
421.394	119.25
421.617	117.25
421.839	114.25
422.062	114.25
422.285	121.25
422.507	106.25
422.73	119.25
422.953	120.25
423.175	117.25
423.398	131.25
423.621	116.25
423.843	120.25
424.066	130.25
424.288	118.25
424.511	122.25
424.733	126.25
424.956	123.25
425.178	123.25
425.401	109.25
425.623	107.25
425.846	116.25
426.068	106.25
426.291	122.25
426.513	112.25
426.735	122.25
426.958	114.25
427.18	104.25
427.402	136.25
427.625	112.25
427.847	97.25
428.069	114.25
428.292	107.25
428.514	122.25
428.736	103.25
428.958	116.25
429.181	116.25
429.403	115.25
429.625	109.25
429.847	112.25
430.069	110.25
430.292	130.25
430.514	115.25
430.736	106.25
430.958	107.25
431.18	112.25
431.402	119.25
431.624	109.25
431.846	110.25
432.068	107.25
432.29	115.25
432.512	105.25
432.734	118.25
432.956	123.25
433.178	112.25
433.4	114.25
433.622	118.25
433.844	121.25
434.066	118.25
434.287	104.25
434.509	112.25
434.731	105.25
434.953	109.25
435.175	120.25
435.397	128.25
435.618	109.25
435.84	112.25
436.062	101.25
436.284	114.25
436.505	101.25
436.727	120.25
436.949	129.25
437.17	117.25
437.392	117.25
437.614	120.25
437.835	113.25
438.057	114.25
438.278	121.25
438.5	103.25
438.721	132.25
438.943	138.25
439.165	119.25
439.386	126.25
439.608	114.25
439.829	121.25
440.05	130.25
440.272	128.25
440.493	118.25
440.715	120.25
440.936	122.25
441.158	112.25
441.379	122.25
441.6	119.25
441.822	130.25
442.043	107.25
442.264	115.25
442.486	123.25
442.707	133.25
442.928	135.25
443.149	128.25
443.371	132.25
443.592	116.25
443.813	114.25
444.034	113.25
444.255	127.25
444.476	118.25
444.698	119.25
444.919	132.25
445.14	241.25
445.361	169.25
445.582	130.25
445.803	120.25
446.024	123.25
446.245	121.25
446.466	128.25
446.687	119.25
446.908	141.25
447.129	139.25
447.35	115.25
447.571	112.25
447.792	125.25
448.013	103.25
448.234	106.25
448.455	102.25
448.675	120.25
448.896	128.25
449.117	118.25
449.338	104.25
449.559	117.25
449.779	130.25
450	100.25
450.221	111.25
450.442	118.25
450.662	106.25
450.883	107.25
451.104	117.25
451.324	113.25
451.545	101.25
451.766	110.25
451.986	120.25
452.207	108.25
452.428	111.25
452.648	108.25
452.869	106.25
453.089	98.25
453.31	119.25
453.53	99.25
453.751	118.25
453.971	122.25
454.192	103.25
454.412	109.25
454.633	104.25
454.853	98.25
455.073	106.25
455.294	116.25
455.514	112.25
455.734	97.25
455.955	108.25
456.175	107.25
456.395	101.25
456.616	99.25
456.836	115.25
457.056	109.25
457.276	120.25
457.497	106.25
457.717	98.25
457.937	97.25
458.157	114.25
458.377	106.25
458.598	116.25
458.818	104.25
459.038	115.25
459.258	110.25
459.478	88.25
459.698	96.25
459.918	91.25
460.138	90.25
460.358	108.25
460.578	113.25
460.798	120.25
461.018	122.25
461.238	137.25
461.458	121.25
461.678	105.25
461.898	129.25
462.118	110.25
462.338	115.25
462.558	122.25
462.777	117.25
462.997	131.25
463.217	122.25
463.437	116.25
463.657	128.25
463.876	126.25
464.096	124.25
464.316	114.25
464.536	121.25
464.755	121.25
464.975	131.25
465.195	127.25
465.414	88.25
465.634	118.25
465.854	108.25
466.073	116.25
466.293	108.25
466.512	114.25
466.732	115.25
466.951	113.25
467.171	132.25
467.391	108.25
467.61	121.25
467.829	120.25
468.049	117.25
468.268	123.25
468.488	113.25
468.707	118.25
468.927	132.25
469.146	119.25
469.365	129.25
469.585	113.25
469.804	108.25
470.023	134.25
470.243	136.25
470.462	122.25
470.681	130.25
470.901	135.25
471.12	128.25
471.339	126.25
471.558	113.25
471.777	116.25
471.997	105.25
472.216	124.25
472.435	115.25
472.654	120.25
472.873	104.25
473.092	115.25
473.311	128.25
473.53	106.25
473.749	110.25
473.968	119.25
474.187	108.25
474.406	112.25
474.625	112.25
474.844	123.25
475.063	105.25
475.282	124.25
475.501	123.25
475.72	106.25
475.939	119.25
476.158	121.25
476.377	117.25
476.596	118.25
476.814	112.25
477.033	119.25
477.252	104.25
477.471	132.25
477.69	125.25
477.908	123.25
478.127	125.25
478.346	143.25
478.564	121.25
478.783	132.25
479.002	120.25
479.22	131.25
479.439	124.25
479.658	109.25
479.876	120.25
480.095	117.25
480.313	122.25
480.532	124.25
480.751	124.25
480.969	120.25
481.188	109.25
481.406	120.25
481.624	108.25
481.843	100.25
482.061	112.25
482.28	115.25
482.498	117.25
482.717	130.25
482.935	137.25
483.153	133.25
483.372	132.25
483.59	114.25
483.808	138.25
484.027	126.25
484.245	128.25
484.463	132.25
484.681	122.25
484.9	124.25
485.118	126.25
485.336	117.25
485.554	115.25
485.772	107.25
485.99	125.25
486.209	128.25
486.427	112.25
486.645	114.25
486.863	132.25
487.081	140.25
487.299	127.25
487.517	126.25
487.735	138.25
487.953	145.25
488.171	145.25
488.389	146.25
488.607	133.25
488.825	130.25
489.043	122.25
489.261	126.25
489.479	132.25
489.696	128.25
489.914	125.25
490.132	133.25
490.35	135.25
490.568	134.25
490.786	141.25
491.003	160.25
491.221	144.25
491.439	147.25
491.657	152.25
491.874	156.25
492.092	156.25
492.31	169.25
492.527	166.25
492.745	157.25
492.963	165.25
493.18	167.25
493.398	158.25
493.615	138.25
493.833	150.25
494.05	148.25
494.268	152.25
494.485	149.25
494.703	161.25
494.92	168.25
495.138	159.25
495.355	143.25
495.573	159.25
495.79	155.25
496.008	140.25
496.225	134.25
496.442	139.25
496.66	137.25
496.877	146.25
497.094	144.25
497.312	153.25
497.529	155.25
497.746	164.25
497.963	142.25
498.181	143.25
498.398	152.25
498.615	141.25
498.832	139.25
499.049	143.25
499.267	172.25
499.484	157.25
499.701	178.25
499.918	182.25
500.135	202.25
500.352	209.25
500.569	227.25
500.786	219.25
501.003	204.25
501.22	190.25
501.437	185.25
501.654	184.25
501.871	161.25
502.088	165.25
502.305	151.25
502.522	146.25
502.739	154.25
502.956	147.25
503.172	144.25
503.389	140.25
503.606	136.25
503.823	125.25
504.04	129.25
504.256	132.25
504.473	132.25
504.69	123.25
504.907	124.25
505.123	139.25
505.34	141.25
505.557	129.25
505.773	133.25
505.99	118.25
506.207	129.25
506.423	128.25
506.64	117.25
506.856	120.25
507.073	118.25
507.289	126.25
507.506	132.25
507.722	138.25
507.939	140.25
508.155	129.25
508.372	123.25
508.588	128.25
508.805	126.25
509.021	129.25
509.238	118.25
509.454	117.25
509.67	109.25
509.887	103.25
510.103	109.25
510.319	113.25
510.536	109.25
510.752	101.25
510.968	107.25
511.184	117.25
511.401	106.25
