Data from StandardFe(NO3)3.TAE.3%Agarose.FlatLispGreen.Lamp.Energy10.07252019_HRD10591_11-55-25-441.txt Node
Date: Thu Jul 25 11:55:25 EDT 2019
User: cochatt
Spectrometer: HR+D1059
Trigger mode: 1
Integration Time (sec): 1.000000E-1
Scans to average: 1
Electric dark correction enabled: true
Nonlinearity correction enabled: false
Boxcar width: 0
XAxis mode: Wavelengths
Number of Pixels in Spectrum: 2048
>>>>>Begin Spectral Data<<<<<
223.165	-12.62
223.4	-12.62
223.635	-12.62
223.869	-32.62
224.104	-15.62
224.338	-14.62
224.573	-12.62
224.808	-14.62
225.042	-14.62
225.277	-10.62
225.511	9.38
225.746	6.38
225.98	8.38
226.215	19.38
226.449	9.38
226.683	3.38
226.918	32.38
227.152	39.38
227.387	46.38
227.621	40.38
227.856	36.38
228.09	51.38
228.324	47.38
228.559	47.38
228.793	45.38
229.027	60.38
229.262	67.38
229.496	64.38
229.73	67.38
229.964	71.38
230.199	74.38
230.433	61.38
230.667	68.38
230.901	86.38
231.136	81.38
231.37	87.38
231.604	81.38
231.838	92.38
232.072	83.38
232.306	87.38
232.541	88.38
232.775	83.38
233.009	81.38
233.243	77.38
233.477	86.38
233.711	82.38
233.945	74.38
234.179	73.38
234.413	71.38
234.647	90.38
234.881	90.38
235.115	87.38
235.349	74.38
235.583	83.38
235.817	71.38
236.051	90.38
236.285	87.38
236.519	75.38
236.753	66.38
236.987	56.38
237.221	78.38
237.455	97.38
237.689	83.38
237.922	73.38
238.156	71.38
238.39	78.38
238.624	76.38
238.858	73.38
239.091	71.38
239.325	74.38
239.559	84.38
239.793	75.38
240.027	73.38
240.26	75.38
240.494	85.38
240.728	73.38
240.961	78.38
241.195	67.38
241.429	73.38
241.662	77.38
241.896	65.38
242.13	91.38
242.363	72.38
242.597	81.38
242.83	72.38
243.064	79.38
243.298	75.38
243.531	89.38
243.765	69.38
243.998	74.38
244.232	81.38
244.465	81.38
244.699	81.38
244.932	64.38
245.166	77.38
245.399	79.38
245.633	76.38
245.866	64.38
246.099	68.38
246.333	77.38
246.566	83.38
246.8	81.38
247.033	71.38
247.266	84.38
247.5	78.38
247.733	76.38
247.966	72.38
248.2	91.38
248.433	85.38
248.666	97.38
248.899	64.38
249.133	75.38
249.366	75.38
249.599	81.38
249.832	59.38
250.066	76.38
250.299	79.38
250.532	62.38
250.765	84.38
250.998	103.38
251.231	86.38
251.465	81.38
251.698	77.38
251.931	87.38
252.164	84.38
252.397	86.38
252.63	82.38
252.863	82.38
253.096	78.38
253.329	86.38
253.562	76.38
253.795	69.38
254.028	60.38
254.261	84.38
254.494	74.38
254.727	80.38
254.96	88.38
255.193	93.38
255.426	74.38
255.659	76.38
255.892	80.38
256.124	67.38
256.357	77.38
256.59	84.38
256.823	77.38
257.056	78.38
257.289	84.38
257.521	86.38
257.754	76.38
257.987	81.38
258.22	85.38
258.452	82.38
258.685	74.38
258.918	85.38
259.151	81.38
259.383	74.38
259.616	75.38
259.849	80.38
260.081	84.38
260.314	75.38
260.547	85.38
260.779	67.38
261.012	89.38
261.244	73.38
261.477	72.38
261.71	67.38
261.942	75.38
262.175	82.38
262.407	80.38
262.64	83.38
262.872	79.38
263.105	83.38
263.337	89.38
263.57	91.38
263.802	74.38
264.035	83.38
264.267	81.38
264.499	82.38
264.732	95.38
264.964	88.38
265.197	86.38
265.429	77.38
265.661	70.38
265.894	69.38
266.126	89.38
266.358	84.38
266.591	95.38
266.823	87.38
267.055	82.38
267.287	68.38
267.52	85.38
267.752	72.38
267.984	86.38
268.216	86.38
268.448	106.38
268.681	67.38
268.913	75.38
269.145	72.38
269.377	86.38
269.609	76.38
269.841	80.38
270.073	75.38
270.306	76.38
270.538	91.38
270.77	86.38
271.002	83.38
271.234	91.38
271.466	88.38
271.698	71.38
271.93	80.38
272.162	84.38
272.394	88.38
272.626	81.38
272.858	71.38
273.09	75.38
273.322	80.38
273.553	91.38
273.785	83.38
274.017	75.38
274.249	91.38
274.481	80.38
274.713	85.38
274.945	98.38
275.176	83.38
275.408	79.38
275.64	85.38
275.872	80.38
276.104	84.38
276.335	82.38
276.567	88.38
276.799	97.38
277.031	79.38
277.262	88.38
277.494	97.38
277.726	104.38
277.957	84.38
278.189	75.38
278.421	99.38
278.652	75.38
278.884	82.38
279.115	89.38
279.347	98.38
279.579	88.38
279.81	81.38
280.042	75.38
280.273	91.38
280.505	80.38
280.736	87.38
280.968	96.38
281.199	92.38
281.431	80.38
281.662	84.38
281.894	82.38
282.125	85.38
282.356	84.38
282.588	89.38
282.819	79.38
283.051	86.38
283.282	68.38
283.513	89.38
283.745	96.38
283.976	81.38
284.207	69.38
284.439	79.38
284.67	79.38
284.901	88.38
285.132	93.38
285.364	85.38
285.595	83.38
285.826	83.38
286.057	99.38
286.288	76.38
286.52	91.38
286.751	70.38
286.982	76.38
287.213	84.38
287.444	90.38
287.675	67.38
287.906	76.38
288.138	76.38
288.369	84.38
288.6	87.38
288.831	74.38
289.062	91.38
289.293	91.38
289.524	92.38
289.755	87.38
289.986	74.38
290.217	73.38
290.448	80.38
290.679	87.38
290.91	87.38
291.141	84.38
291.371	93.38
291.602	85.38
291.833	80.38
292.064	88.38
292.295	74.38
292.526	84.38
292.757	73.38
292.987	78.38
293.218	90.38
293.449	83.38
293.68	103.38
293.91	103.38
294.141	87.38
294.372	91.38
294.603	88.38
294.833	91.38
295.064	85.38
295.295	84.38
295.525	90.38
295.756	97.38
295.987	88.38
296.217	74.38
296.448	84.38
296.679	71.38
296.909	82.38
297.14	91.38
297.37	80.38
297.601	89.38
297.831	80.38
298.062	79.38
298.292	93.38
298.523	86.38
298.753	85.38
298.984	93.38
299.214	73.38
299.445	89.38
299.675	88.38
299.905	100.38
300.136	89.38
300.366	73.38
300.597	92.38
300.827	91.38
301.057	82.38
301.288	79.38
301.518	105.38
301.748	79.38
301.979	81.38
302.209	87.38
302.439	86.38
302.669	77.38
302.9	85.38
303.13	87.38
303.36	77.38
303.59	84.38
303.82	79.38
304.051	96.38
304.281	84.38
304.511	95.38
304.741	93.38
304.971	73.38
305.201	93.38
305.431	83.38
305.661	65.38
305.891	73.38
306.121	81.38
306.352	77.38
306.582	69.38
306.812	79.38
307.042	85.38
307.272	66.38
307.502	84.38
307.731	88.38
307.961	80.38
308.191	92.38
308.421	76.38
308.651	78.38
308.881	90.38
309.111	70.38
309.341	85.38
309.571	89.38
309.8	88.38
310.03	90.38
310.26	88.38
310.49	90.38
310.72	92.38
310.949	96.38
311.179	85.38
311.409	83.38
311.639	80.38
311.868	83.38
312.098	69.38
312.328	96.38
312.557	82.38
312.787	79.38
313.017	83.38
313.246	92.38
313.476	97.38
313.706	80.38
313.935	92.38
314.165	86.38
314.394	89.38
314.624	85.38
314.853	81.38
315.083	92.38
315.312	77.38
315.542	81.38
315.771	101.38
316.001	76.38
316.23	86.38
316.46	92.38
316.689	86.38
316.919	76.38
317.148	74.38
317.377	73.38
317.607	84.38
317.836	96.38
318.065	97.38
318.295	86.38
318.524	77.38
318.753	90.38
318.983	94.38
319.212	78.38
319.441	90.38
319.67	95.38
319.9	76.38
320.129	91.38
320.358	79.38
320.587	79.38
320.816	87.38
321.046	92.38
321.275	83.38
321.504	83.38
321.733	91.38
321.962	81.38
322.191	94.38
322.42	95.38
322.649	65.38
322.878	82.38
323.108	73.38
323.337	92.38
323.566	83.38
323.795	90.38
324.024	85.38
324.253	90.38
324.482	76.38
324.71	83.38
324.939	85.38
325.168	74.38
325.397	95.38
325.626	81.38
325.855	84.38
326.084	94.38
326.313	76.38
326.542	84.38
326.77	102.38
326.999	91.38
327.228	76.38
327.457	85.38
327.686	94.38
327.914	88.38
328.143	96.38
328.372	81.38
328.6	77.38
328.829	79.38
329.058	82.38
329.287	113.38
329.515	84.38
329.744	88.38
329.972	92.38
330.201	78.38
330.43	80.38
330.658	80.38
330.887	79.38
331.115	91.38
331.344	86.38
331.572	84.38
331.801	75.38
332.03	81.38
332.258	89.38
332.486	85.38
332.715	81.38
332.943	73.38
333.172	75.38
333.4	73.38
333.629	90.38
333.857	77.38
334.085	86.38
334.314	113.38
334.542	84.38
334.771	96.38
334.999	85.38
335.227	72.38
335.455	75.38
335.684	86.38
335.912	79.38
336.14	76.38
336.369	92.38
336.597	91.38
336.825	95.38
337.053	96.38
337.281	77.38
337.51	71.38
337.738	93.38
337.966	88.38
338.194	83.38
338.422	80.38
338.65	77.38
338.878	92.38
339.106	83.38
339.334	89.38
339.562	97.38
339.79	82.38
340.018	88.38
340.246	85.38
340.474	97.38
340.702	90.38
340.93	86.38
341.158	81.38
341.386	83.38
341.614	87.38
341.842	79.38
342.07	75.38
342.298	88.38
342.526	72.38
342.754	76.38
342.981	75.38
343.209	86.38
343.437	91.38
343.665	86.38
343.893	80.38
344.12	99.38
344.348	92.38
344.576	86.38
344.804	91.38
345.031	72.38
345.259	92.38
345.487	83.38
345.714	78.38
345.942	67.38
346.17	84.38
346.397	83.38
346.625	87.38
346.853	81.38
347.08	82.38
347.308	76.38
347.535	92.38
347.763	91.38
347.99	85.38
348.218	86.38
348.445	72.38
348.673	82.38
348.9	88.38
349.128	92.38
349.355	93.38
349.583	88.38
349.81	82.38
350.037	90.38
350.265	86.38
350.492	87.38
350.72	85.38
350.947	85.38
351.174	84.38
351.402	84.38
351.629	82.38
351.856	99.38
352.083	88.38
352.311	88.38
352.538	84.38
352.765	98.38
352.992	86.38
353.22	82.38
353.447	91.38
353.674	76.38
353.901	86.38
354.128	102.38
354.355	81.38
354.583	72.38
354.81	96.38
355.037	82.38
355.264	102.38
355.491	76.38
355.718	67.38
355.945	94.38
356.172	76.38
356.399	88.38
356.626	85.38
356.853	95.38
357.08	83.38
357.307	82.38
357.534	76.38
357.761	79.38
357.988	85.38
358.215	89.38
358.441	83.38
358.668	66.38
358.895	81.38
359.122	99.38
359.349	86.38
359.576	84.38
359.802	97.38
360.029	92.38
360.256	75.38
360.483	98.38
360.709	99.38
360.936	96.38
361.163	68.38
361.39	76.38
361.616	84.38
361.843	81.38
362.07	105.38
362.296	75.38
362.523	85.38
362.749	82.38
362.976	83.38
363.203	78.38
363.429	81.38
363.656	79.38
363.882	83.38
364.109	80.38
364.335	91.38
364.562	84.38
364.788	76.38
365.015	94.38
365.241	92.38
365.468	89.38
365.694	86.38
365.92	82.38
366.147	77.38
366.373	76.38
366.599	83.38
366.826	82.38
367.052	87.38
367.278	89.38
367.505	84.38
367.731	87.38
367.957	93.38
368.184	75.38
368.41	83.38
368.636	85.38
368.862	88.38
369.089	89.38
369.315	74.38
369.541	86.38
369.767	80.38
369.993	114.38
370.219	89.38
370.445	83.38
370.672	97.38
370.898	78.38
371.124	84.38
371.35	88.38
371.576	86.38
371.802	81.38
372.028	96.38
372.254	82.38
372.48	83.38
372.706	91.38
372.932	97.38
373.158	82.38
373.384	92.38
373.61	90.38
373.835	73.38
374.061	89.38
374.287	88.38
374.513	96.38
374.739	101.38
374.965	81.38
375.191	95.38
375.416	81.38
375.642	70.38
375.868	92.38
376.094	92.38
376.319	94.38
376.545	83.38
376.771	95.38
376.997	90.38
377.222	91.38
377.448	95.38
377.674	81.38
377.899	87.38
378.125	73.38
378.35	75.38
378.576	84.38
378.802	86.38
379.027	81.38
379.253	90.38
379.478	95.38
379.704	87.38
379.929	83.38
380.155	94.38
380.38	96.38
380.606	82.38
380.831	97.38
381.057	111.38
381.282	83.38
381.507	90.38
381.733	95.38
381.958	82.38
382.184	102.38
382.409	81.38
382.634	96.38
382.86	87.38
383.085	100.38
383.31	85.38
383.535	87.38
383.761	81.38
383.986	88.38
384.211	84.38
384.436	83.38
384.662	73.38
384.887	96.38
385.112	83.38
385.337	92.38
385.562	86.38
385.787	87.38
386.013	95.38
386.238	94.38
386.463	90.38
386.688	92.38
386.913	95.38
387.138	89.38
387.363	99.38
387.588	108.38
387.813	105.38
388.038	82.38
388.263	101.38
388.488	102.38
388.713	92.38
388.938	91.38
389.163	103.38
389.387	100.38
389.612	100.38
389.837	109.38
390.062	94.38
390.287	89.38
390.512	97.38
390.736	100.38
390.961	93.38
391.186	101.38
391.411	97.38
391.636	73.38
391.86	107.38
392.085	96.38
392.31	111.38
392.534	104.38
392.759	113.38
392.984	92.38
393.208	79.38
393.433	90.38
393.658	92.38
393.882	96.38
394.107	96.38
394.331	87.38
394.556	96.38
394.78	95.38
395.005	97.38
395.229	99.38
395.454	96.38
395.678	104.38
395.903	98.38
396.127	98.38
396.352	104.38
396.576	101.38
396.801	88.38
397.025	97.38
397.249	101.38
397.474	111.38
397.698	96.38
397.922	113.38
398.147	103.38
398.371	100.38
398.595	97.38
398.82	98.38
399.044	89.38
399.268	108.38
399.492	96.38
399.717	122.38
399.941	104.38
400.165	104.38
400.389	120.38
400.613	94.38
400.837	111.38
401.062	106.38
401.286	103.38
401.51	105.38
401.734	94.38
401.958	104.38
402.182	104.38
402.406	87.38
402.63	91.38
402.854	102.38
403.078	111.38
403.302	100.38
403.526	94.38
403.75	99.38
403.974	104.38
404.198	96.38
404.422	114.38
404.645	109.38
404.869	113.38
405.093	120.38
405.317	107.38
405.541	100.38
405.765	114.38
405.988	103.38
406.212	123.38
406.436	107.38
406.66	95.38
406.883	113.38
407.107	109.38
407.331	101.38
407.555	103.38
407.778	102.38
408.002	125.38
408.226	103.38
408.449	98.38
408.673	100.38
408.896	116.38
409.12	107.38
409.344	110.38
409.567	111.38
409.791	105.38
410.014	116.38
410.238	97.38
410.461	118.38
410.685	100.38
410.908	115.38
411.132	106.38
411.355	109.38
411.578	121.38
411.802	103.38
412.025	108.38
412.249	88.38
412.472	100.38
412.695	105.38
412.919	99.38
413.142	116.38
413.365	106.38
413.589	113.38
413.812	111.38
414.035	111.38
414.258	122.38
414.482	115.38
414.705	120.38
414.928	126.38
415.151	119.38
415.374	109.38
415.597	113.38
415.821	115.38
416.044	105.38
416.267	99.38
416.49	124.38
416.713	113.38
416.936	116.38
417.159	103.38
417.382	113.38
417.605	115.38
417.828	98.38
418.051	101.38
418.274	111.38
418.497	104.38
418.72	100.38
418.943	99.38
419.166	116.38
419.389	102.38
419.611	106.38
419.834	98.38
420.057	110.38
420.28	101.38
420.503	108.38
420.726	109.38
420.948	120.38
421.171	117.38
421.394	113.38
421.617	112.38
421.839	116.38
422.062	118.38
422.285	97.38
422.507	113.38
422.73	93.38
422.953	115.38
423.175	112.38
423.398	114.38
423.621	123.38
423.843	120.38
424.066	120.38
424.288	121.38
424.511	110.38
424.733	123.38
424.956	114.38
425.178	102.38
425.401	107.38
425.623	115.38
425.846	111.38
426.068	119.38
426.291	124.38
426.513	102.38
426.735	92.38
426.958	120.38
427.18	116.38
427.402	121.38
427.625	102.38
427.847	117.38
428.069	121.38
428.292	121.38
428.514	109.38
428.736	107.38
428.958	108.38
429.181	106.38
429.403	100.38
429.625	104.38
429.847	96.38
430.069	113.38
430.292	111.38
430.514	121.38
430.736	106.38
430.958	111.38
431.18	116.38
431.402	102.38
431.624	98.38
431.846	104.38
432.068	117.38
432.29	107.38
432.512	102.38
432.734	106.38
432.956	89.38
433.178	114.38
433.4	91.38
433.622	101.38
433.844	113.38
434.066	102.38
434.287	111.38
434.509	114.38
434.731	104.38
434.953	91.38
435.175	108.38
435.397	104.38
435.618	109.38
435.84	93.38
436.062	107.38
436.284	108.38
436.505	122.38
436.727	103.38
436.949	111.38
437.17	109.38
437.392	111.38
437.614	128.38
437.835	120.38
438.057	116.38
438.278	110.38
438.5	116.38
438.721	118.38
438.943	115.38
439.165	117.38
439.386	115.38
439.608	123.38
439.829	116.38
440.05	114.38
440.272	124.38
440.493	97.38
440.715	106.38
440.936	127.38
441.158	111.38
441.379	116.38
441.6	121.38
441.822	101.38
442.043	105.38
442.264	113.38
442.486	114.38
442.707	100.38
442.928	123.38
443.149	120.38
443.371	116.38
443.592	119.38
443.813	122.38
444.034	100.38
444.255	129.38
444.476	124.38
444.698	115.38
444.919	122.38
445.14	251.38
445.361	183.38
445.582	112.38
445.803	120.38
446.024	118.38
446.245	118.38
446.466	129.38
446.687	117.38
446.908	117.38
447.129	123.38
447.35	116.38
447.571	119.38
447.792	117.38
448.013	103.38
448.234	120.38
448.455	106.38
448.675	103.38
448.896	100.38
449.117	115.38
449.338	113.38
449.559	120.38
449.779	116.38
450	121.38
450.221	120.38
450.442	115.38
450.662	117.38
450.883	100.38
451.104	111.38
451.324	105.38
451.545	116.38
451.766	102.38
451.986	100.38
452.207	88.38
452.428	109.38
452.648	116.38
452.869	102.38
453.089	95.38
453.31	91.38
453.53	90.38
453.751	108.38
453.971	109.38
454.192	106.38
454.412	111.38
454.633	115.38
454.853	115.38
455.073	107.38
455.294	112.38
455.514	104.38
455.734	102.38
455.955	110.38
456.175	106.38
456.395	106.38
456.616	114.38
456.836	103.38
457.056	99.38
457.276	100.38
457.497	101.38
457.717	116.38
457.937	96.38
458.157	103.38
458.377	111.38
458.598	110.38
458.818	98.38
459.038	99.38
459.258	97.38
459.478	100.38
459.698	102.38
459.918	114.38
460.138	100.38
460.358	115.38
460.578	107.38
460.798	103.38
461.018	116.38
461.238	114.38
461.458	96.38
461.678	99.38
461.898	108.38
462.118	111.38
462.338	124.38
462.558	119.38
462.777	94.38
462.997	119.38
463.217	129.38
463.437	117.38
463.657	111.38
463.876	131.38
464.096	131.38
464.316	129.38
464.536	127.38
464.755	120.38
464.975	118.38
465.195	104.38
465.414	113.38
465.634	119.38
465.854	123.38
466.073	114.38
466.293	111.38
466.512	103.38
466.732	101.38
466.951	97.38
467.171	115.38
467.391	114.38
467.61	122.38
467.829	112.38
468.049	119.38
468.268	117.38
468.488	120.38
468.707	104.38
468.927	121.38
469.146	124.38
469.365	119.38
469.585	119.38
469.804	121.38
470.023	106.38
470.243	108.38
470.462	121.38
470.681	125.38
470.901	119.38
471.12	118.38
471.339	120.38
471.558	130.38
471.777	107.38
471.997	108.38
472.216	109.38
472.435	104.38
472.654	95.38
472.873	115.38
473.092	122.38
473.311	115.38
473.53	123.38
473.749	116.38
473.968	116.38
474.187	115.38
474.406	107.38
474.625	119.38
474.844	109.38
475.063	110.38
475.282	103.38
475.501	108.38
475.72	135.38
475.939	113.38
476.158	117.38
476.377	122.38
476.596	103.38
476.814	113.38
477.033	108.38
477.252	115.38
477.471	125.38
477.69	123.38
477.908	133.38
478.127	139.38
478.346	129.38
478.564	133.38
478.783	133.38
479.002	125.38
479.22	116.38
479.439	123.38
479.658	125.38
479.876	121.38
480.095	110.38
480.313	120.38
480.532	123.38
480.751	118.38
480.969	120.38
481.188	109.38
481.406	107.38
481.624	130.38
481.843	109.38
482.061	117.38
482.28	109.38
482.498	123.38
482.717	109.38
482.935	109.38
483.153	128.38
483.372	125.38
483.59	132.38
483.808	127.38
484.027	133.38
484.245	121.38
484.463	124.38
484.681	113.38
484.9	117.38
485.118	121.38
485.336	134.38
485.554	118.38
485.772	108.38
485.99	109.38
486.209	109.38
486.427	123.38
486.645	120.38
486.863	127.38
487.081	121.38
487.299	124.38
487.517	125.38
487.735	132.38
487.953	145.38
488.171	132.38
488.389	147.38
488.607	134.38
488.825	130.38
489.043	130.38
489.261	116.38
489.479	132.38
489.696	133.38
489.914	148.38
490.132	133.38
490.35	120.38
490.568	138.38
490.786	155.38
491.003	141.38
491.221	141.38
491.439	158.38
491.657	161.38
491.874	150.38
492.092	163.38
492.31	153.38
492.527	157.38
492.745	154.38
492.963	162.38
493.18	149.38
493.398	136.38
493.615	153.38
493.833	141.38
494.05	139.38
494.268	149.38
494.485	133.38
494.703	144.38
494.92	171.38
495.138	141.38
495.355	138.38
495.573	147.38
495.79	145.38
496.008	131.38
496.225	159.38
496.442	159.38
496.66	161.38
496.877	159.38
497.094	130.38
497.312	147.38
497.529	139.38
497.746	139.38
497.963	138.38
498.181	154.38
498.398	115.38
498.615	136.38
498.832	141.38
499.049	164.38
499.267	155.38
499.484	159.38
499.701	157.38
499.918	187.38
500.135	192.38
500.352	219.38
500.569	217.38
500.786	206.38
501.003	195.38
501.22	187.38
501.437	170.38
501.654	157.38
501.871	151.38
502.088	162.38
502.305	136.38
502.522	151.38
502.739	147.38
502.956	148.38
503.172	142.38
503.389	131.38
503.606	132.38
503.823	138.38
504.04	145.38
504.256	133.38
504.473	145.38
504.69	139.38
504.907	135.38
505.123	135.38
505.34	131.38
505.557	127.38
505.773	126.38
505.99	131.38
506.207	122.38
506.423	121.38
506.64	131.38
506.856	131.38
507.073	125.38
507.289	117.38
507.506	108.38
507.722	122.38
507.939	138.38
508.155	118.38
508.372	129.38
508.588	107.38
508.805	111.38
509.021	122.38
509.238	112.38
509.454	129.38
509.67	122.38
509.887	114.38
510.103	111.38
510.319	106.38
510.536	116.38
510.752	127.38
510.968	117.38
511.184	112.38
511.401	114.38
511.617	116.38
511.833	119.38
