Data from StandardFe(NO3)3.TAE.3%Agarose.FlatLispGreen.Lamp.Energy10.07252019_HRD10591_11-56-13-441.txt Node
Date: Thu Jul 25 11:56:13 EDT 2019
User: cochatt
Spectrometer: HR+D1059
Trigger mode: 1
Integration Time (sec): 1.000000E-1
Scans to average: 1
Electric dark correction enabled: true
Nonlinearity correction enabled: false
Boxcar width: 0
XAxis mode: Wavelengths
Number of Pixels in Spectrum: 2048
>>>>>Begin Spectral Data<<<<<
223.165	-9.81
223.4	-9.81
223.635	-9.81
223.869	-7.81
224.104	-20.81
224.338	-12.81
224.573	-15.81
224.808	-10.81
225.042	-8.81
225.277	2.19
225.511	-10.81
225.746	11.19
225.98	0.19
226.215	11.19
226.449	7.19
226.683	16.19
226.918	19.19
227.152	30.19
227.387	26.19
227.621	36.19
227.856	37.19
228.09	34.19
228.324	48.19
228.559	53.19
228.793	53.19
229.027	72.19
229.262	72.19
229.496	65.19
229.73	70.19
229.964	75.19
230.199	61.19
230.433	60.19
230.667	65.19
230.901	78.19
231.136	70.19
231.37	72.19
231.604	74.19
231.838	76.19
232.072	69.19
232.306	80.19
232.541	86.19
232.775	94.19
233.009	84.19
233.243	78.19
233.477	84.19
233.711	80.19
233.945	75.19
234.179	91.19
234.413	73.19
234.647	74.19
234.881	62.19
235.115	75.19
235.349	72.19
235.583	84.19
235.817	73.19
236.051	74.19
236.285	72.19
236.519	59.19
236.753	63.19
236.987	72.19
237.221	65.19
237.455	76.19
237.689	71.19
237.922	75.19
238.156	64.19
238.39	71.19
238.624	72.19
238.858	66.19
239.091	72.19
239.325	66.19
239.559	84.19
239.793	75.19
240.027	75.19
240.26	66.19
240.494	58.19
240.728	77.19
240.961	66.19
241.195	69.19
241.429	73.19
241.662	79.19
241.896	68.19
242.13	74.19
242.363	57.19
242.597	66.19
242.83	60.19
243.064	74.19
243.298	66.19
243.531	74.19
243.765	65.19
243.998	76.19
244.232	72.19
244.465	75.19
244.699	77.19
244.932	70.19
245.166	89.19
245.399	73.19
245.633	71.19
245.866	80.19
246.099	71.19
246.333	59.19
246.566	62.19
246.8	69.19
247.033	76.19
247.266	73.19
247.5	71.19
247.733	66.19
247.966	80.19
248.2	86.19
248.433	75.19
248.666	75.19
248.899	69.19
249.133	78.19
249.366	73.19
249.599	72.19
249.832	70.19
250.066	76.19
250.299	80.19
250.532	74.19
250.765	73.19
250.998	67.19
251.231	73.19
251.465	81.19
251.698	73.19
251.931	89.19
252.164	71.19
252.397	89.19
252.63	83.19
252.863	81.19
253.096	72.19
253.329	71.19
253.562	73.19
253.795	83.19
254.028	83.19
254.261	87.19
254.494	86.19
254.727	78.19
254.96	78.19
255.193	71.19
255.426	63.19
255.659	70.19
255.892	75.19
256.124	83.19
256.357	80.19
256.59	91.19
256.823	71.19
257.056	73.19
257.289	80.19
257.521	78.19
257.754	74.19
257.987	82.19
258.22	74.19
258.452	84.19
258.685	80.19
258.918	79.19
259.151	70.19
259.383	83.19
259.616	89.19
259.849	75.19
260.081	86.19
260.314	73.19
260.547	93.19
260.779	62.19
261.012	60.19
261.244	68.19
261.477	85.19
261.71	73.19
261.942	83.19
262.175	88.19
262.407	81.19
262.64	81.19
262.872	88.19
263.105	85.19
263.337	83.19
263.57	93.19
263.802	78.19
264.035	84.19
264.267	78.19
264.499	74.19
264.732	80.19
264.964	87.19
265.197	69.19
265.429	69.19
265.661	71.19
265.894	71.19
266.126	80.19
266.358	82.19
266.591	80.19
266.823	73.19
267.055	88.19
267.287	81.19
267.52	74.19
267.752	75.19
267.984	82.19
268.216	79.19
268.448	72.19
268.681	93.19
268.913	88.19
269.145	78.19
269.377	90.19
269.609	75.19
269.841	84.19
270.073	72.19
270.306	85.19
270.538	83.19
270.77	80.19
271.002	84.19
271.234	77.19
271.466	80.19
271.698	80.19
271.93	78.19
272.162	88.19
272.394	74.19
272.626	91.19
272.858	80.19
273.09	67.19
273.322	83.19
273.553	76.19
273.785	82.19
274.017	74.19
274.249	83.19
274.481	89.19
274.713	69.19
274.945	91.19
275.176	87.19
275.408	78.19
275.64	85.19
275.872	75.19
276.104	81.19
276.335	75.19
276.567	78.19
276.799	89.19
277.031	85.19
277.262	80.19
277.494	83.19
277.726	87.19
277.957	85.19
278.189	78.19
278.421	76.19
278.652	83.19
278.884	80.19
279.115	77.19
279.347	64.19
279.579	74.19
279.81	86.19
280.042	81.19
280.273	79.19
280.505	90.19
280.736	82.19
280.968	79.19
281.199	75.19
281.431	71.19
281.662	74.19
281.894	93.19
282.125	82.19
282.356	77.19
282.588	74.19
282.819	73.19
283.051	72.19
283.282	86.19
283.513	79.19
283.745	73.19
283.976	80.19
284.207	77.19
284.439	82.19
284.67	88.19
284.901	91.19
285.132	74.19
285.364	75.19
285.595	80.19
285.826	73.19
286.057	88.19
286.288	76.19
286.52	87.19
286.751	80.19
286.982	81.19
287.213	77.19
287.444	96.19
287.675	77.19
287.906	101.19
288.138	85.19
288.369	74.19
288.6	84.19
288.831	90.19
289.062	86.19
289.293	68.19
289.524	92.19
289.755	80.19
289.986	87.19
290.217	81.19
290.448	78.19
290.679	73.19
290.91	93.19
291.141	86.19
291.371	96.19
291.602	93.19
291.833	95.19
292.064	93.19
292.295	84.19
292.526	70.19
292.757	79.19
292.987	89.19
293.218	86.19
293.449	78.19
293.68	85.19
293.91	85.19
294.141	73.19
294.372	81.19
294.603	89.19
294.833	81.19
295.064	88.19
295.295	77.19
295.525	95.19
295.756	92.19
295.987	89.19
296.217	77.19
296.448	83.19
296.679	79.19
296.909	99.19
297.14	85.19
297.37	82.19
297.601	82.19
297.831	75.19
298.062	79.19
298.292	85.19
298.523	83.19
298.753	89.19
298.984	83.19
299.214	78.19
299.445	76.19
299.675	101.19
299.905	79.19
300.136	89.19
300.366	72.19
300.597	87.19
300.827	80.19
301.057	84.19
301.288	80.19
301.518	83.19
301.748	80.19
301.979	70.19
302.209	92.19
302.439	80.19
302.669	76.19
302.9	94.19
303.13	78.19
303.36	69.19
303.59	83.19
303.82	85.19
304.051	91.19
304.281	97.19
304.511	86.19
304.741	74.19
304.971	78.19
305.201	79.19
305.431	85.19
305.661	94.19
305.891	78.19
306.121	91.19
306.352	90.19
306.582	91.19
306.812	71.19
307.042	75.19
307.272	80.19
307.502	90.19
307.731	90.19
307.961	81.19
308.191	93.19
308.421	78.19
308.651	85.19
308.881	79.19
309.111	81.19
309.341	75.19
309.571	96.19
309.8	85.19
310.03	86.19
310.26	82.19
310.49	96.19
310.72	82.19
310.949	92.19
311.179	82.19
311.409	88.19
311.639	89.19
311.868	88.19
312.098	87.19
312.328	80.19
312.557	100.19
312.787	73.19
313.017	76.19
313.246	84.19
313.476	82.19
313.706	78.19
313.935	82.19
314.165	83.19
314.394	90.19
314.624	84.19
314.853	95.19
315.083	79.19
315.312	91.19
315.542	84.19
315.771	79.19
316.001	78.19
316.23	74.19
316.46	80.19
316.689	96.19
316.919	88.19
317.148	79.19
317.377	88.19
317.607	82.19
317.836	88.19
318.065	87.19
318.295	75.19
318.524	76.19
318.753	89.19
318.983	83.19
319.212	91.19
319.441	82.19
319.67	79.19
319.9	80.19
320.129	77.19
320.358	102.19
320.587	80.19
320.816	89.19
321.046	84.19
321.275	86.19
321.504	80.19
321.733	72.19
321.962	75.19
322.191	93.19
322.42	89.19
322.649	93.19
322.878	77.19
323.108	77.19
323.337	91.19
323.566	77.19
323.795	84.19
324.024	75.19
324.253	93.19
324.482	78.19
324.71	85.19
324.939	81.19
325.168	79.19
325.397	69.19
325.626	98.19
325.855	81.19
326.084	98.19
326.313	90.19
326.542	84.19
326.77	71.19
326.999	75.19
327.228	85.19
327.457	78.19
327.686	87.19
327.914	99.19
328.143	80.19
328.372	97.19
328.6	82.19
328.829	86.19
329.058	79.19
329.287	65.19
329.515	69.19
329.744	86.19
329.972	90.19
330.201	86.19
330.43	78.19
330.658	91.19
330.887	60.19
331.115	81.19
331.344	79.19
331.572	99.19
331.801	78.19
332.03	88.19
332.258	76.19
332.486	85.19
332.715	70.19
332.943	96.19
333.172	88.19
333.4	90.19
333.629	82.19
333.857	95.19
334.085	72.19
334.314	91.19
334.542	93.19
334.771	83.19
334.999	75.19
335.227	84.19
335.455	81.19
335.684	93.19
335.912	79.19
336.14	87.19
336.369	74.19
336.597	100.19
336.825	97.19
337.053	92.19
337.281	69.19
337.51	93.19
337.738	98.19
337.966	97.19
338.194	88.19
338.422	91.19
338.65	84.19
338.878	78.19
339.106	71.19
339.334	88.19
339.562	91.19
339.79	94.19
340.018	70.19
340.246	77.19
340.474	98.19
340.702	78.19
340.93	83.19
341.158	84.19
341.386	80.19
341.614	79.19
341.842	81.19
342.07	75.19
342.298	98.19
342.526	80.19
342.754	80.19
342.981	83.19
343.209	84.19
343.437	66.19
343.665	88.19
343.893	79.19
344.12	80.19
344.348	84.19
344.576	81.19
344.804	99.19
345.031	84.19
345.259	81.19
345.487	88.19
345.714	90.19
345.942	95.19
346.17	79.19
346.397	97.19
346.625	77.19
346.853	73.19
347.08	95.19
347.308	79.19
347.535	99.19
347.763	96.19
347.99	89.19
348.218	66.19
348.445	80.19
348.673	91.19
348.9	85.19
349.128	89.19
349.355	87.19
349.583	84.19
349.81	71.19
350.037	75.19
350.265	85.19
350.492	74.19
350.72	86.19
350.947	85.19
351.174	93.19
351.402	80.19
351.629	83.19
351.856	75.19
352.083	89.19
352.311	78.19
352.538	91.19
352.765	68.19
352.992	69.19
353.22	82.19
353.447	71.19
353.674	97.19
353.901	90.19
354.128	83.19
354.355	83.19
354.583	88.19
354.81	95.19
355.037	78.19
355.264	80.19
355.491	83.19
355.718	82.19
355.945	94.19
356.172	73.19
356.399	88.19
356.626	86.19
356.853	91.19
357.08	97.19
357.307	74.19
357.534	93.19
357.761	94.19
357.988	83.19
358.215	89.19
358.441	73.19
358.668	98.19
358.895	93.19
359.122	97.19
359.349	93.19
359.576	72.19
359.802	90.19
360.029	81.19
360.256	72.19
360.483	78.19
360.709	97.19
360.936	87.19
361.163	80.19
361.39	88.19
361.616	76.19
361.843	81.19
362.07	96.19
362.296	101.19
362.523	74.19
362.749	88.19
362.976	84.19
363.203	86.19
363.429	83.19
363.656	91.19
363.882	81.19
364.109	85.19
364.335	81.19
364.562	95.19
364.788	80.19
365.015	77.19
365.241	70.19
365.468	95.19
365.694	86.19
365.92	87.19
366.147	90.19
366.373	81.19
366.599	85.19
366.826	101.19
367.052	68.19
367.278	89.19
367.505	93.19
367.731	96.19
367.957	95.19
368.184	75.19
368.41	61.19
368.636	95.19
368.862	87.19
369.089	83.19
369.315	86.19
369.541	89.19
369.767	90.19
369.993	92.19
370.219	97.19
370.445	88.19
370.672	86.19
370.898	90.19
371.124	90.19
371.35	89.19
371.576	92.19
371.802	86.19
372.028	90.19
372.254	75.19
372.48	87.19
372.706	85.19
372.932	81.19
373.158	86.19
373.384	78.19
373.61	91.19
373.835	89.19
374.061	83.19
374.287	97.19
374.513	84.19
374.739	80.19
374.965	66.19
375.191	87.19
375.416	100.19
375.642	92.19
375.868	95.19
376.094	82.19
376.319	97.19
376.545	95.19
376.771	77.19
376.997	82.19
377.222	83.19
377.448	86.19
377.674	65.19
377.899	77.19
378.125	81.19
378.35	79.19
378.576	81.19
378.802	85.19
379.027	77.19
379.253	85.19
379.478	100.19
379.704	87.19
379.929	83.19
380.155	83.19
380.38	86.19
380.606	91.19
380.831	93.19
381.057	88.19
381.282	93.19
381.507	80.19
381.733	103.19
381.958	87.19
382.184	90.19
382.409	100.19
382.634	98.19
382.86	87.19
383.085	83.19
383.31	81.19
383.535	81.19
383.761	83.19
383.986	88.19
384.211	85.19
384.436	90.19
384.662	105.19
384.887	91.19
385.112	93.19
385.337	94.19
385.562	97.19
385.787	92.19
386.013	123.19
386.238	105.19
386.463	102.19
386.688	107.19
386.913	83.19
387.138	96.19
387.363	93.19
387.588	111.19
387.813	83.19
388.038	79.19
388.263	99.19
388.488	88.19
388.713	98.19
388.938	83.19
389.163	90.19
389.387	94.19
389.612	88.19
389.837	83.19
390.062	97.19
390.287	112.19
390.512	91.19
390.736	85.19
390.961	90.19
391.186	84.19
391.411	83.19
391.636	101.19
391.86	92.19
392.085	98.19
392.31	92.19
392.534	90.19
392.759	101.19
392.984	98.19
393.208	101.19
393.433	98.19
393.658	109.19
393.882	96.19
394.107	94.19
394.331	90.19
394.556	101.19
394.78	98.19
395.005	98.19
395.229	87.19
395.454	96.19
395.678	82.19
395.903	80.19
396.127	103.19
396.352	93.19
396.576	82.19
396.801	96.19
397.025	87.19
397.249	99.19
397.474	101.19
397.698	94.19
397.922	98.19
398.147	117.19
398.371	106.19
398.595	92.19
398.82	81.19
399.044	93.19
399.268	96.19
399.492	99.19
399.717	109.19
399.941	96.19
400.165	112.19
400.389	91.19
400.613	90.19
400.837	107.19
401.062	116.19
401.286	101.19
401.51	102.19
401.734	93.19
401.958	102.19
402.182	93.19
402.406	111.19
402.63	93.19
402.854	98.19
403.078	111.19
403.302	117.19
403.526	100.19
403.75	103.19
403.974	99.19
404.198	109.19
404.422	121.19
404.645	94.19
404.869	104.19
405.093	108.19
405.317	113.19
405.541	102.19
405.765	103.19
405.988	88.19
406.212	92.19
406.436	106.19
406.66	93.19
406.883	104.19
407.107	119.19
407.331	113.19
407.555	113.19
407.778	97.19
408.002	107.19
408.226	106.19
408.449	105.19
408.673	118.19
408.896	103.19
409.12	111.19
409.344	116.19
409.567	102.19
409.791	96.19
410.014	109.19
410.238	110.19
410.461	110.19
410.685	107.19
410.908	93.19
411.132	94.19
411.355	102.19
411.578	114.19
411.802	105.19
412.025	116.19
412.249	92.19
412.472	105.19
412.695	106.19
412.919	100.19
413.142	98.19
413.365	111.19
413.589	107.19
413.812	105.19
414.035	103.19
414.258	111.19
414.482	96.19
414.705	97.19
414.928	105.19
415.151	104.19
415.374	109.19
415.597	109.19
415.821	115.19
416.044	106.19
416.267	111.19
416.49	97.19
416.713	117.19
416.936	102.19
417.159	107.19
417.382	100.19
417.605	109.19
417.828	115.19
418.051	119.19
418.274	118.19
418.497	105.19
418.72	112.19
418.943	105.19
419.166	111.19
419.389	119.19
419.611	105.19
419.834	114.19
420.057	114.19
420.28	112.19
420.503	117.19
420.726	93.19
420.948	102.19
421.171	102.19
421.394	117.19
421.617	117.19
421.839	111.19
422.062	124.19
422.285	105.19
422.507	106.19
422.73	117.19
422.953	116.19
423.175	120.19
423.398	110.19
423.621	101.19
423.843	117.19
424.066	112.19
424.288	122.19
424.511	119.19
424.733	103.19
424.956	102.19
425.178	122.19
425.401	113.19
425.623	106.19
425.846	96.19
426.068	90.19
426.291	102.19
426.513	99.19
426.735	104.19
426.958	115.19
427.18	113.19
427.402	105.19
427.625	107.19
427.847	98.19
428.069	106.19
428.292	122.19
428.514	98.19
428.736	101.19
428.958	110.19
429.181	105.19
429.403	103.19
429.625	109.19
429.847	118.19
430.069	119.19
430.292	115.19
430.514	103.19
430.736	119.19
430.958	117.19
431.18	113.19
431.402	101.19
431.624	105.19
431.846	96.19
432.068	94.19
432.29	99.19
432.512	99.19
432.734	119.19
432.956	113.19
433.178	110.19
433.4	106.19
433.622	114.19
433.844	109.19
434.066	105.19
434.287	115.19
434.509	119.19
434.731	97.19
434.953	99.19
435.175	121.19
435.397	115.19
435.618	121.19
435.84	105.19
436.062	110.19
436.284	122.19
436.505	109.19
436.727	98.19
436.949	94.19
437.17	98.19
437.392	101.19
437.614	114.19
437.835	116.19
438.057	111.19
438.278	98.19
438.5	98.19
438.721	92.19
438.943	109.19
439.165	95.19
439.386	113.19
439.608	95.19
439.829	109.19
440.05	106.19
440.272	95.19
440.493	98.19
440.715	127.19
440.936	109.19
441.158	117.19
441.379	96.19
441.6	123.19
441.822	106.19
442.043	101.19
442.264	114.19
442.486	125.19
442.707	116.19
442.928	115.19
443.149	115.19
443.371	120.19
443.592	120.19
443.813	116.19
444.034	115.19
444.255	109.19
444.476	115.19
444.698	130.19
444.919	114.19
445.14	237.19
445.361	177.19
445.582	109.19
445.803	111.19
446.024	121.19
446.245	118.19
446.466	113.19
446.687	114.19
446.908	106.19
447.129	106.19
447.35	115.19
447.571	113.19
447.792	121.19
448.013	103.19
448.234	124.19
448.455	115.19
448.675	104.19
448.896	97.19
449.117	103.19
449.338	121.19
449.559	109.19
449.779	101.19
450	117.19
450.221	108.19
450.442	112.19
450.662	110.19
450.883	121.19
451.104	125.19
451.324	113.19
451.545	104.19
451.766	102.19
451.986	97.19
452.207	116.19
452.428	92.19
452.648	111.19
452.869	109.19
453.089	87.19
453.31	107.19
453.53	112.19
453.751	101.19
453.971	99.19
454.192	97.19
454.412	101.19
454.633	111.19
454.853	97.19
455.073	113.19
455.294	97.19
455.514	114.19
455.734	93.19
455.955	98.19
456.175	100.19
456.395	109.19
456.616	101.19
456.836	111.19
457.056	107.19
457.276	96.19
457.497	100.19
457.717	95.19
457.937	88.19
458.157	110.19
458.377	83.19
458.598	91.19
458.818	110.19
459.038	100.19
459.258	98.19
459.478	91.19
459.698	86.19
459.918	110.19
460.138	94.19
460.358	105.19
460.578	112.19
460.798	100.19
461.018	109.19
461.238	120.19
461.458	100.19
461.678	113.19
461.898	117.19
462.118	112.19
462.338	115.19
462.558	113.19
462.777	111.19
462.997	126.19
463.217	118.19
463.437	116.19
463.657	121.19
463.876	114.19
464.096	109.19
464.316	113.19
464.536	114.19
464.755	108.19
464.975	115.19
465.195	109.19
465.414	105.19
465.634	117.19
465.854	105.19
466.073	111.19
466.293	111.19
466.512	100.19
466.732	113.19
466.951	115.19
467.171	110.19
467.391	110.19
467.61	114.19
467.829	111.19
468.049	103.19
468.268	109.19
468.488	103.19
468.707	108.19
468.927	121.19
469.146	123.19
469.365	130.19
469.585	119.19
469.804	123.19
470.023	116.19
470.243	121.19
470.462	123.19
470.681	115.19
470.901	121.19
471.12	120.19
471.339	109.19
471.558	111.19
471.777	123.19
471.997	117.19
472.216	103.19
472.435	109.19
472.654	112.19
472.873	116.19
473.092	95.19
473.311	104.19
473.53	106.19
473.749	113.19
473.968	109.19
474.187	114.19
474.406	94.19
474.625	106.19
474.844	112.19
475.063	103.19
475.282	107.19
475.501	122.19
475.72	101.19
475.939	125.19
476.158	122.19
476.377	122.19
476.596	113.19
476.814	111.19
477.033	104.19
477.252	119.19
477.471	115.19
477.69	128.19
477.908	119.19
478.127	119.19
478.346	130.19
478.564	119.19
478.783	120.19
479.002	125.19
479.22	112.19
479.439	117.19
479.658	113.19
479.876	120.19
480.095	117.19
480.313	113.19
480.532	117.19
480.751	113.19
480.969	101.19
481.188	111.19
481.406	113.19
481.624	116.19
481.843	110.19
482.061	98.19
482.28	114.19
482.498	114.19
482.717	103.19
482.935	120.19
483.153	120.19
483.372	110.19
483.59	119.19
483.808	106.19
484.027	110.19
484.245	125.19
484.463	120.19
484.681	120.19
484.9	129.19
485.118	138.19
485.336	120.19
485.554	97.19
485.772	101.19
485.99	112.19
486.209	114.19
486.427	123.19
486.645	117.19
486.863	137.19
487.081	120.19
487.299	127.19
487.517	130.19
487.735	137.19
487.953	155.19
488.171	136.19
488.389	133.19
488.607	147.19
488.825	106.19
489.043	119.19
489.261	125.19
489.479	133.19
489.696	118.19
489.914	138.19
490.132	123.19
490.35	134.19
490.568	135.19
490.786	153.19
491.003	137.19
491.221	145.19
491.439	138.19
491.657	147.19
491.874	147.19
492.092	173.19
492.31	157.19
492.527	153.19
492.745	157.19
492.963	138.19
493.18	155.19
493.398	166.19
493.615	147.19
493.833	140.19
494.05	135.19
494.268	150.19
494.485	137.19
494.703	135.19
494.92	134.19
495.138	135.19
495.355	134.19
495.573	121.19
495.79	134.19
496.008	140.19
496.225	145.19
496.442	140.19
496.66	136.19
496.877	135.19
497.094	151.19
497.312	137.19
497.529	151.19
497.746	142.19
497.963	152.19
498.181	142.19
498.398	130.19
498.615	138.19
498.832	136.19
499.049	145.19
499.267	140.19
499.484	164.19
499.701	168.19
499.918	199.19
500.135	195.19
500.352	209.19
500.569	207.19
500.786	207.19
501.003	199.19
501.22	199.19
501.437	187.19
501.654	156.19
501.871	153.19
502.088	146.19
502.305	158.19
502.522	138.19
502.739	130.19
502.956	149.19
503.172	139.19
503.389	139.19
503.606	133.19
503.823	133.19
504.04	124.19
504.256	147.19
504.473	133.19
504.69	128.19
504.907	132.19
505.123	122.19
505.34	131.19
505.557	119.19
505.773	127.19
505.99	121.19
506.207	117.19
506.423	107.19
506.64	113.19
506.856	131.19
507.073	110.19
507.289	113.19
507.506	118.19
507.722	129.19
507.939	124.19
508.155	123.19
508.372	118.19
508.588	126.19
508.805	109.19
509.021	118.19
509.238	116.19
509.454	123.19
509.67	105.19
509.887	112.19
510.103	111.19
510.319	117.19
510.536	133.19
510.752	101.19
510.968	112.19
511.184	95.19
511.401	93.19
511.617	106.19
511.833	110.19
512.049	102.19
512.265	99.19
512.481	121.19
