Data from StandardFe(NO3)3.TAE.3%Agarose.FlatLispGreen.Lamp.Energy10.07252019_HRD10591_11-54-37-441.txt Node
Date: Thu Jul 25 11:54:37 EDT 2019
User: cochatt
Spectrometer: HR+D1059
Trigger mode: 1
Integration Time (sec): 1.000000E-1
Scans to average: 1
Electric dark correction enabled: true
Nonlinearity correction enabled: false
Boxcar width: 0
XAxis mode: Wavelengths
Number of Pixels in Spectrum: 2048
>>>>>Begin Spectral Data<<<<<
223.165	-27.25
223.4	-27.25
223.635	-27.25
223.869	-26.25
224.104	-26.25
224.338	-16.25
224.573	-18.25
224.808	-4.25
225.042	-2.25
225.277	-7.25
225.511	-3.25
225.746	7.75
225.98	-0.25
226.215	6.75
226.449	14.75
226.683	41.75
226.918	23.75
227.152	36.75
227.387	43.75
227.621	42.75
227.856	39.75
228.09	43.75
228.324	58.75
228.559	59.75
228.793	57.75
229.027	63.75
229.262	75.75
229.496	70.75
229.73	56.75
229.964	65.75
230.199	68.75
230.433	67.75
230.667	92.75
230.901	86.75
231.136	73.75
231.37	81.75
231.604	84.75
231.838	78.75
232.072	82.75
232.306	77.75
232.541	71.75
232.775	87.75
233.009	88.75
233.243	93.75
233.477	89.75
233.711	83.75
233.945	75.75
234.179	85.75
234.413	99.75
234.647	88.75
234.881	80.75
235.115	88.75
235.349	80.75
235.583	77.75
235.817	75.75
236.051	75.75
236.285	77.75
236.519	74.75
236.753	77.75
236.987	77.75
237.221	87.75
237.455	82.75
237.689	80.75
237.922	83.75
238.156	74.75
238.39	87.75
238.624	78.75
238.858	57.75
239.091	81.75
239.325	85.75
239.559	79.75
239.793	82.75
240.027	77.75
240.26	73.75
240.494	72.75
240.728	87.75
240.961	76.75
241.195	76.75
241.429	80.75
241.662	90.75
241.896	76.75
242.13	86.75
242.363	75.75
242.597	89.75
242.83	73.75
243.064	84.75
243.298	86.75
243.531	83.75
243.765	87.75
243.998	96.75
244.232	88.75
244.465	74.75
244.699	77.75
244.932	79.75
245.166	77.75
245.399	86.75
245.633	76.75
245.866	69.75
246.099	80.75
246.333	75.75
246.566	74.75
246.8	79.75
247.033	77.75
247.266	75.75
247.5	72.75
247.733	66.75
247.966	93.75
248.2	83.75
248.433	71.75
248.666	85.75
248.899	85.75
249.133	87.75
249.366	95.75
249.599	79.75
249.832	75.75
250.066	88.75
250.299	69.75
250.532	89.75
250.765	81.75
250.998	89.75
251.231	65.75
251.465	72.75
251.698	78.75
251.931	85.75
252.164	83.75
252.397	77.75
252.63	85.75
252.863	79.75
253.096	71.75
253.329	84.75
253.562	87.75
253.795	74.75
254.028	82.75
254.261	77.75
254.494	80.75
254.727	94.75
254.96	64.75
255.193	73.75
255.426	82.75
255.659	83.75
255.892	91.75
256.124	81.75
256.357	85.75
256.59	71.75
256.823	82.75
257.056	84.75
257.289	87.75
257.521	100.75
257.754	82.75
257.987	65.75
258.22	80.75
258.452	90.75
258.685	96.75
258.918	80.75
259.151	77.75
259.383	78.75
259.616	86.75
259.849	80.75
260.081	78.75
260.314	83.75
260.547	93.75
260.779	87.75
261.012	78.75
261.244	73.75
261.477	75.75
261.71	80.75
261.942	82.75
262.175	69.75
262.407	66.75
262.64	86.75
262.872	83.75
263.105	88.75
263.337	85.75
263.57	90.75
263.802	89.75
264.035	85.75
264.267	90.75
264.499	106.75
264.732	83.75
264.964	69.75
265.197	83.75
265.429	87.75
265.661	75.75
265.894	83.75
266.126	85.75
266.358	87.75
266.591	84.75
266.823	87.75
267.055	81.75
267.287	89.75
267.52	79.75
267.752	80.75
267.984	71.75
268.216	92.75
268.448	88.75
268.681	80.75
268.913	90.75
269.145	74.75
269.377	91.75
269.609	78.75
269.841	73.75
270.073	89.75
270.306	90.75
270.538	82.75
270.77	87.75
271.002	95.75
271.234	90.75
271.466	86.75
271.698	78.75
271.93	90.75
272.162	87.75
272.394	92.75
272.626	90.75
272.858	85.75
273.09	92.75
273.322	83.75
273.553	86.75
273.785	98.75
274.017	82.75
274.249	79.75
274.481	71.75
274.713	84.75
274.945	93.75
275.176	86.75
275.408	89.75
275.64	92.75
275.872	82.75
276.104	92.75
276.335	87.75
276.567	91.75
276.799	92.75
277.031	91.75
277.262	77.75
277.494	77.75
277.726	92.75
277.957	80.75
278.189	89.75
278.421	90.75
278.652	76.75
278.884	84.75
279.115	84.75
279.347	89.75
279.579	60.75
279.81	81.75
280.042	87.75
280.273	91.75
280.505	86.75
280.736	96.75
280.968	91.75
281.199	93.75
281.431	89.75
281.662	78.75
281.894	80.75
282.125	78.75
282.356	100.75
282.588	83.75
282.819	91.75
283.051	93.75
283.282	84.75
283.513	87.75
283.745	89.75
283.976	82.75
284.207	78.75
284.439	97.75
284.67	87.75
284.901	99.75
285.132	79.75
285.364	80.75
285.595	98.75
285.826	89.75
286.057	86.75
286.288	87.75
286.52	89.75
286.751	94.75
286.982	97.75
287.213	91.75
287.444	73.75
287.675	87.75
287.906	65.75
288.138	77.75
288.369	84.75
288.6	79.75
288.831	69.75
289.062	83.75
289.293	89.75
289.524	93.75
289.755	83.75
289.986	96.75
290.217	86.75
290.448	85.75
290.679	84.75
290.91	90.75
291.141	93.75
291.371	96.75
291.602	86.75
291.833	88.75
292.064	86.75
292.295	83.75
292.526	93.75
292.757	86.75
292.987	88.75
293.218	98.75
293.449	97.75
293.68	88.75
293.91	88.75
294.141	92.75
294.372	93.75
294.603	94.75
294.833	82.75
295.064	91.75
295.295	81.75
295.525	76.75
295.756	91.75
295.987	89.75
296.217	90.75
296.448	93.75
296.679	99.75
296.909	87.75
297.14	88.75
297.37	86.75
297.601	94.75
297.831	96.75
298.062	94.75
298.292	81.75
298.523	104.75
298.753	78.75
298.984	98.75
299.214	99.75
299.445	101.75
299.675	77.75
299.905	75.75
300.136	107.75
300.366	98.75
300.597	90.75
300.827	84.75
301.057	84.75
301.288	99.75
301.518	84.75
301.748	62.75
301.979	87.75
302.209	79.75
302.439	76.75
302.669	76.75
302.9	91.75
303.13	76.75
303.36	83.75
303.59	89.75
303.82	83.75
304.051	97.75
304.281	84.75
304.511	97.75
304.741	75.75
304.971	90.75
305.201	87.75
305.431	84.75
305.661	91.75
305.891	87.75
306.121	83.75
306.352	76.75
306.582	82.75
306.812	87.75
307.042	98.75
307.272	95.75
307.502	79.75
307.731	80.75
307.961	80.75
308.191	80.75
308.421	77.75
308.651	85.75
308.881	84.75
309.111	91.75
309.341	79.75
309.571	91.75
309.8	100.75
310.03	93.75
310.26	89.75
310.49	98.75
310.72	94.75
310.949	81.75
311.179	97.75
311.409	106.75
311.639	75.75
311.868	78.75
312.098	96.75
312.328	89.75
312.557	85.75
312.787	83.75
313.017	82.75
313.246	75.75
313.476	78.75
313.706	86.75
313.935	86.75
314.165	95.75
314.394	85.75
314.624	79.75
314.853	79.75
315.083	91.75
315.312	89.75
315.542	84.75
315.771	82.75
316.001	90.75
316.23	83.75
316.46	90.75
316.689	104.75
316.919	90.75
317.148	74.75
317.377	100.75
317.607	94.75
317.836	74.75
318.065	91.75
318.295	85.75
318.524	88.75
318.753	83.75
318.983	89.75
319.212	94.75
319.441	83.75
319.67	81.75
319.9	73.75
320.129	89.75
320.358	89.75
320.587	86.75
320.816	72.75
321.046	82.75
321.275	94.75
321.504	91.75
321.733	94.75
321.962	95.75
322.191	101.75
322.42	100.75
322.649	85.75
322.878	95.75
323.108	85.75
323.337	91.75
323.566	84.75
323.795	90.75
324.024	90.75
324.253	95.75
324.482	91.75
324.71	90.75
324.939	81.75
325.168	88.75
325.397	93.75
325.626	102.75
325.855	84.75
326.084	76.75
326.313	83.75
326.542	75.75
326.77	89.75
326.999	88.75
327.228	86.75
327.457	85.75
327.686	82.75
327.914	74.75
328.143	89.75
328.372	73.75
328.6	97.75
328.829	88.75
329.058	79.75
329.287	84.75
329.515	82.75
329.744	101.75
329.972	100.75
330.201	86.75
330.43	89.75
330.658	91.75
330.887	99.75
331.115	105.75
331.344	98.75
331.572	81.75
331.801	79.75
332.03	92.75
332.258	87.75
332.486	95.75
332.715	78.75
332.943	93.75
333.172	90.75
333.4	90.75
333.629	88.75
333.857	94.75
334.085	81.75
334.314	86.75
334.542	88.75
334.771	85.75
334.999	85.75
335.227	93.75
335.455	80.75
335.684	94.75
335.912	99.75
336.14	106.75
336.369	83.75
336.597	90.75
336.825	89.75
337.053	102.75
337.281	88.75
337.51	87.75
337.738	98.75
337.966	86.75
338.194	91.75
338.422	85.75
338.65	75.75
338.878	82.75
339.106	89.75
339.334	101.75
339.562	86.75
339.79	86.75
340.018	74.75
340.246	88.75
340.474	92.75
340.702	86.75
340.93	91.75
341.158	83.75
341.386	93.75
341.614	99.75
341.842	96.75
342.07	91.75
342.298	93.75
342.526	88.75
342.754	82.75
342.981	94.75
343.209	76.75
343.437	90.75
343.665	89.75
343.893	79.75
344.12	97.75
344.348	89.75
344.576	78.75
344.804	80.75
345.031	79.75
345.259	106.75
345.487	77.75
345.714	87.75
345.942	84.75
346.17	85.75
346.397	91.75
346.625	83.75
346.853	83.75
347.08	90.75
347.308	102.75
347.535	85.75
347.763	81.75
347.99	92.75
348.218	86.75
348.445	91.75
348.673	90.75
348.9	88.75
349.128	85.75
349.355	83.75
349.583	89.75
349.81	93.75
350.037	100.75
350.265	92.75
350.492	86.75
350.72	96.75
350.947	87.75
351.174	99.75
351.402	97.75
351.629	74.75
351.856	84.75
352.083	84.75
352.311	75.75
352.538	101.75
352.765	101.75
352.992	98.75
353.22	81.75
353.447	102.75
353.674	93.75
353.901	83.75
354.128	101.75
354.355	92.75
354.583	79.75
354.81	88.75
355.037	90.75
355.264	99.75
355.491	98.75
355.718	89.75
355.945	85.75
356.172	81.75
356.399	93.75
356.626	85.75
356.853	94.75
357.08	95.75
357.307	94.75
357.534	95.75
357.761	91.75
357.988	91.75
358.215	90.75
358.441	95.75
358.668	85.75
358.895	80.75
359.122	91.75
359.349	89.75
359.576	85.75
359.802	86.75
360.029	86.75
360.256	90.75
360.483	87.75
360.709	79.75
360.936	79.75
361.163	87.75
361.39	94.75
361.616	91.75
361.843	92.75
362.07	89.75
362.296	88.75
362.523	86.75
362.749	85.75
362.976	101.75
363.203	102.75
363.429	82.75
363.656	95.75
363.882	90.75
364.109	93.75
364.335	86.75
364.562	92.75
364.788	93.75
365.015	92.75
365.241	81.75
365.468	80.75
365.694	89.75
365.92	104.75
366.147	92.75
366.373	73.75
366.599	71.75
366.826	87.75
367.052	99.75
367.278	88.75
367.505	84.75
367.731	95.75
367.957	90.75
368.184	98.75
368.41	80.75
368.636	92.75
368.862	101.75
369.089	73.75
369.315	83.75
369.541	99.75
369.767	79.75
369.993	100.75
370.219	90.75
370.445	90.75
370.672	84.75
370.898	85.75
371.124	86.75
371.35	81.75
371.576	85.75
371.802	93.75
372.028	93.75
372.254	88.75
372.48	101.75
372.706	92.75
372.932	91.75
373.158	87.75
373.384	102.75
373.61	99.75
373.835	84.75
374.061	89.75
374.287	97.75
374.513	97.75
374.739	91.75
374.965	89.75
375.191	92.75
375.416	101.75
375.642	81.75
375.868	91.75
376.094	106.75
376.319	92.75
376.545	83.75
376.771	80.75
376.997	83.75
377.222	100.75
377.448	91.75
377.674	86.75
377.899	85.75
378.125	96.75
378.35	83.75
378.576	93.75
378.802	85.75
379.027	92.75
379.253	87.75
379.478	97.75
379.704	85.75
379.929	88.75
380.155	95.75
380.38	100.75
380.606	89.75
380.831	96.75
381.057	106.75
381.282	93.75
381.507	93.75
381.733	89.75
381.958	87.75
382.184	93.75
382.409	99.75
382.634	88.75
382.86	85.75
383.085	92.75
383.31	94.75
383.535	95.75
383.761	92.75
383.986	90.75
384.211	87.75
384.436	85.75
384.662	99.75
384.887	87.75
385.112	97.75
385.337	83.75
385.562	97.75
385.787	102.75
386.013	103.75
386.238	95.75
386.463	106.75
386.688	90.75
386.913	100.75
387.138	96.75
387.363	106.75
387.588	86.75
387.813	102.75
388.038	93.75
388.263	92.75
388.488	87.75
388.713	87.75
388.938	96.75
389.163	109.75
389.387	99.75
389.612	94.75
389.837	83.75
390.062	103.75
390.287	99.75
390.512	105.75
390.736	83.75
390.961	92.75
391.186	94.75
391.411	99.75
391.636	120.75
391.86	97.75
392.085	101.75
392.31	97.75
392.534	109.75
392.759	114.75
392.984	106.75
393.208	104.75
393.433	104.75
393.658	93.75
393.882	94.75
394.107	80.75
394.331	92.75
394.556	91.75
394.78	90.75
395.005	91.75
395.229	104.75
395.454	99.75
395.678	97.75
395.903	93.75
396.127	95.75
396.352	107.75
396.576	99.75
396.801	114.75
397.025	97.75
397.249	111.75
397.474	96.75
397.698	92.75
397.922	97.75
398.147	90.75
398.371	95.75
398.595	111.75
398.82	104.75
399.044	97.75
399.268	100.75
399.492	116.75
399.717	108.75
399.941	107.75
400.165	103.75
400.389	125.75
400.613	124.75
400.837	105.75
401.062	115.75
401.286	99.75
401.51	109.75
401.734	98.75
401.958	97.75
402.182	101.75
402.406	99.75
402.63	108.75
402.854	107.75
403.078	97.75
403.302	116.75
403.526	110.75
403.75	105.75
403.974	114.75
404.198	121.75
404.422	108.75
404.645	112.75
404.869	103.75
405.093	116.75
405.317	117.75
405.541	114.75
405.765	99.75
405.988	111.75
406.212	117.75
406.436	104.75
406.66	129.75
406.883	124.75
407.107	110.75
407.331	95.75
407.555	116.75
407.778	107.75
408.002	116.75
408.226	119.75
408.449	121.75
408.673	129.75
408.896	111.75
409.12	106.75
409.344	113.75
409.567	125.75
409.791	131.75
410.014	116.75
410.238	109.75
410.461	121.75
410.685	118.75
410.908	97.75
411.132	103.75
411.355	129.75
411.578	114.75
411.802	134.75
412.025	117.75
412.249	120.75
412.472	95.75
412.695	108.75
412.919	101.75
413.142	118.75
413.365	129.75
413.589	107.75
413.812	98.75
414.035	115.75
414.258	111.75
414.482	118.75
414.705	110.75
414.928	109.75
415.151	103.75
415.374	101.75
415.597	127.75
415.821	104.75
416.044	121.75
416.267	107.75
416.49	107.75
416.713	121.75
416.936	118.75
417.159	124.75
417.382	113.75
417.605	109.75
417.828	122.75
418.051	117.75
418.274	122.75
418.497	127.75
418.72	110.75
418.943	118.75
419.166	114.75
419.389	109.75
419.611	136.75
419.834	120.75
420.057	117.75
420.28	99.75
420.503	114.75
420.726	115.75
420.948	114.75
421.171	121.75
421.394	105.75
421.617	121.75
421.839	98.75
422.062	99.75
422.285	113.75
422.507	111.75
422.73	119.75
422.953	105.75
423.175	108.75
423.398	127.75
423.621	121.75
423.843	126.75
424.066	113.75
424.288	113.75
424.511	105.75
424.733	122.75
424.956	114.75
425.178	108.75
425.401	112.75
425.623	115.75
425.846	110.75
426.068	124.75
426.291	120.75
426.513	115.75
426.735	119.75
426.958	118.75
427.18	107.75
427.402	131.75
427.625	105.75
427.847	104.75
428.069	116.75
428.292	121.75
428.514	93.75
428.736	117.75
428.958	108.75
429.181	105.75
429.403	102.75
429.625	112.75
429.847	121.75
430.069	106.75
430.292	102.75
430.514	110.75
430.736	104.75
430.958	118.75
431.18	121.75
431.402	123.75
431.624	109.75
431.846	106.75
432.068	111.75
432.29	118.75
432.512	109.75
432.734	113.75
432.956	121.75
433.178	110.75
433.4	113.75
433.622	113.75
433.844	100.75
434.066	114.75
434.287	113.75
434.509	105.75
434.731	102.75
434.953	107.75
435.175	101.75
435.397	114.75
435.618	120.75
435.84	99.75
436.062	99.75
436.284	105.75
436.505	116.75
436.727	121.75
436.949	109.75
437.17	123.75
437.392	125.75
437.614	117.75
437.835	104.75
438.057	124.75
438.278	103.75
438.5	116.75
438.721	110.75
438.943	106.75
439.165	114.75
439.386	123.75
439.608	117.75
439.829	113.75
440.05	125.75
440.272	127.75
440.493	135.75
440.715	117.75
440.936	117.75
441.158	124.75
441.379	124.75
441.6	123.75
441.822	129.75
442.043	126.75
442.264	113.75
442.486	122.75
442.707	125.75
442.928	121.75
443.149	129.75
443.371	128.75
443.592	118.75
443.813	119.75
444.034	127.75
444.255	133.75
444.476	117.75
444.698	122.75
444.919	131.75
445.14	267.75
445.361	170.75
445.582	109.75
445.803	107.75
446.024	121.75
446.245	125.75
446.466	120.75
446.687	116.75
446.908	119.75
447.129	120.75
447.35	116.75
447.571	116.75
447.792	121.75
448.013	132.75
448.234	121.75
448.455	119.75
448.675	119.75
448.896	120.75
449.117	116.75
449.338	114.75
449.559	125.75
449.779	110.75
450	105.75
450.221	120.75
450.442	106.75
450.662	109.75
450.883	100.75
451.104	102.75
451.324	128.75
451.545	115.75
451.766	134.75
451.986	106.75
452.207	108.75
452.428	109.75
452.648	121.75
452.869	113.75
453.089	101.75
453.31	115.75
453.53	113.75
453.751	100.75
453.971	102.75
454.192	102.75
454.412	90.75
454.633	106.75
454.853	115.75
455.073	113.75
455.294	111.75
455.514	101.75
455.734	119.75
455.955	106.75
456.175	111.75
456.395	103.75
456.616	101.75
456.836	100.75
457.056	129.75
457.276	106.75
457.497	124.75
457.717	102.75
457.937	95.75
458.157	105.75
458.377	103.75
458.598	117.75
458.818	111.75
459.038	98.75
459.258	98.75
459.478	105.75
459.698	106.75
459.918	102.75
460.138	121.75
460.358	126.75
460.578	121.75
460.798	120.75
461.018	113.75
461.238	116.75
461.458	107.75
461.678	108.75
461.898	110.75
462.118	98.75
462.338	118.75
462.558	132.75
462.777	118.75
462.997	123.75
463.217	130.75
463.437	144.75
463.657	119.75
463.876	116.75
464.096	119.75
464.316	124.75
464.536	119.75
464.755	119.75
464.975	128.75
465.195	113.75
465.414	108.75
465.634	125.75
465.854	103.75
466.073	94.75
466.293	115.75
466.512	115.75
466.732	124.75
466.951	113.75
467.171	121.75
467.391	122.75
467.61	112.75
467.829	118.75
468.049	116.75
468.268	120.75
468.488	118.75
468.707	126.75
468.927	105.75
469.146	123.75
469.365	101.75
469.585	116.75
469.804	126.75
470.023	138.75
470.243	123.75
470.462	126.75
470.681	133.75
470.901	132.75
471.12	133.75
471.339	116.75
471.558	124.75
471.777	114.75
471.997	117.75
472.216	94.75
472.435	115.75
472.654	103.75
472.873	111.75
473.092	110.75
473.311	133.75
473.53	121.75
473.749	111.75
473.968	107.75
474.187	114.75
474.406	107.75
474.625	113.75
474.844	137.75
475.063	114.75
475.282	125.75
475.501	121.75
475.72	125.75
475.939	109.75
476.158	101.75
476.377	100.75
476.596	113.75
476.814	114.75
477.033	113.75
477.252	113.75
477.471	117.75
477.69	135.75
477.908	135.75
478.127	131.75
478.346	135.75
478.564	128.75
478.783	124.75
479.002	142.75
479.22	130.75
479.439	120.75
479.658	113.75
479.876	117.75
480.095	124.75
480.313	127.75
480.532	123.75
480.751	123.75
480.969	127.75
481.188	117.75
481.406	115.75
481.624	126.75
481.843	110.75
482.061	116.75
482.28	124.75
482.498	133.75
482.717	123.75
482.935	137.75
483.153	131.75
483.372	133.75
483.59	127.75
483.808	141.75
484.027	135.75
484.245	122.75
484.463	123.75
484.681	141.75
484.9	130.75
485.118	126.75
485.336	132.75
485.554	105.75
485.772	111.75
485.99	130.75
486.209	110.75
486.427	122.75
486.645	103.75
486.863	133.75
487.081	122.75
487.299	129.75
487.517	139.75
487.735	140.75
487.953	121.75
488.171	154.75
488.389	147.75
488.607	127.75
488.825	128.75
489.043	128.75
489.261	146.75
489.479	128.75
489.696	144.75
489.914	125.75
490.132	150.75
490.35	138.75
490.568	127.75
490.786	134.75
491.003	139.75
491.221	151.75
491.439	138.75
491.657	163.75
491.874	161.75
492.092	163.75
492.31	165.75
492.527	171.75
492.745	170.75
492.963	150.75
493.18	152.75
493.398	144.75
493.615	157.75
493.833	151.75
494.05	153.75
494.268	130.75
494.485	154.75
494.703	151.75
494.92	155.75
495.138	165.75
495.355	129.75
495.573	154.75
495.79	145.75
496.008	157.75
496.225	155.75
496.442	134.75
496.66	153.75
496.877	133.75
497.094	138.75
497.312	159.75
497.529	148.75
497.746	139.75
497.963	141.75
498.181	134.75
498.398	134.75
498.615	146.75
498.832	158.75
499.049	147.75
499.267	154.75
499.484	163.75
499.701	182.75
499.918	193.75
500.135	203.75
500.352	210.75
500.569	221.75
500.786	224.75
501.003	218.75
501.22	209.75
501.437	168.75
501.654	163.75
501.871	172.75
502.088	159.75
502.305	158.75
502.522	160.75
502.739	143.75
502.956	145.75
503.172	132.75
503.389	132.75
503.606	133.75
503.823	143.75
504.04	127.75
504.256	152.75
504.473	141.75
504.69	139.75
504.907	144.75
505.123	137.75
505.34	137.75
505.557	139.75
505.773	136.75
505.99	130.75
506.207	131.75
506.423	125.75
506.64	132.75
506.856	129.75
507.073	108.75
507.289	117.75
507.506	141.75
507.722	131.75
507.939	133.75
508.155	113.75
508.372	125.75
508.588	117.75
508.805	126.75
509.021	120.75
509.238	124.75
509.454	121.75
509.67	109.75
509.887	122.75
510.103	100.75
510.319	99.75
510.536	116.75
510.752	121.75
510.968	117.75
511.184	133.75
511.401	100.75
