Data from StandardFe(NO3)3.TAE.3%Agarose.FlatLispGreen.Lamp.Energy10.07252019_HRD10591_11-56-28-443.txt Node
Date: Thu Jul 25 11:56:28 EDT 2019
User: cochatt
Spectrometer: HR+D1059
Trigger mode: 1
Integration Time (sec): 1.000000E-1
Scans to average: 1
Electric dark correction enabled: true
Nonlinearity correction enabled: false
Boxcar width: 0
XAxis mode: Wavelengths
Number of Pixels in Spectrum: 2048
>>>>>Begin Spectral Data<<<<<
223.165	-23.06
223.4	-23.06
223.635	-23.06
223.869	-24.06
224.104	-16.06
224.338	-8.06
224.573	-20.06
224.808	-14.06
225.042	-0.06
225.277	-10.06
225.511	-4.06
225.746	-1.06
225.98	7.94
226.215	9.94
226.449	13.94
226.683	10.94
226.918	21.94
227.152	55.94
227.387	38.94
227.621	27.94
227.856	47.94
228.09	40.94
228.324	58.94
228.559	65.94
228.793	52.94
229.027	39.94
229.262	54.94
229.496	70.94
229.73	69.94
229.964	72.94
230.199	82.94
230.433	76.94
230.667	79.94
230.901	63.94
231.136	76.94
231.37	76.94
231.604	83.94
231.838	75.94
232.072	82.94
232.306	69.94
232.541	79.94
232.775	83.94
233.009	84.94
233.243	87.94
233.477	91.94
233.711	77.94
233.945	84.94
234.179	74.94
234.413	76.94
234.647	66.94
234.881	82.94
235.115	89.94
235.349	84.94
235.583	68.94
235.817	85.94
236.051	95.94
236.285	76.94
236.519	75.94
236.753	62.94
236.987	72.94
237.221	85.94
237.455	75.94
237.689	78.94
237.922	75.94
238.156	57.94
238.39	72.94
238.624	81.94
238.858	78.94
239.091	80.94
239.325	66.94
239.559	83.94
239.793	75.94
240.027	98.94
240.26	81.94
240.494	68.94
240.728	63.94
240.961	81.94
241.195	73.94
241.429	70.94
241.662	79.94
241.896	66.94
242.13	69.94
242.363	81.94
242.597	64.94
242.83	72.94
243.064	69.94
243.298	72.94
243.531	79.94
243.765	83.94
243.998	79.94
244.232	76.94
244.465	72.94
244.699	87.94
244.932	76.94
245.166	71.94
245.399	75.94
245.633	63.94
245.866	68.94
246.099	80.94
246.333	82.94
246.566	62.94
246.8	78.94
247.033	71.94
247.266	74.94
247.5	68.94
247.733	76.94
247.966	87.94
248.2	72.94
248.433	78.94
248.666	78.94
248.899	78.94
249.133	78.94
249.366	90.94
249.599	74.94
249.832	82.94
250.066	80.94
250.299	85.94
250.532	92.94
250.765	92.94
250.998	72.94
251.231	63.94
251.465	81.94
251.698	75.94
251.931	75.94
252.164	84.94
252.397	79.94
252.63	70.94
252.863	83.94
253.096	90.94
253.329	68.94
253.562	80.94
253.795	74.94
254.028	66.94
254.261	97.94
254.494	88.94
254.727	75.94
254.96	70.94
255.193	83.94
255.426	65.94
255.659	81.94
255.892	89.94
256.124	85.94
256.357	76.94
256.59	76.94
256.823	74.94
257.056	77.94
257.289	88.94
257.521	84.94
257.754	62.94
257.987	98.94
258.22	82.94
258.452	78.94
258.685	95.94
258.918	82.94
259.151	89.94
259.383	90.94
259.616	85.94
259.849	80.94
260.081	75.94
260.314	75.94
260.547	76.94
260.779	88.94
261.012	81.94
261.244	99.94
261.477	89.94
261.71	74.94
261.942	79.94
262.175	75.94
262.407	78.94
262.64	78.94
262.872	84.94
263.105	71.94
263.337	97.94
263.57	79.94
263.802	80.94
264.035	77.94
264.267	88.94
264.499	79.94
264.732	94.94
264.964	81.94
265.197	73.94
265.429	78.94
265.661	70.94
265.894	79.94
266.126	76.94
266.358	85.94
266.591	77.94
266.823	72.94
267.055	80.94
267.287	84.94
267.52	82.94
267.752	83.94
267.984	90.94
268.216	66.94
268.448	80.94
268.681	86.94
268.913	80.94
269.145	76.94
269.377	97.94
269.609	86.94
269.841	82.94
270.073	84.94
270.306	76.94
270.538	74.94
270.77	64.94
271.002	89.94
271.234	82.94
271.466	87.94
271.698	79.94
271.93	79.94
272.162	72.94
272.394	84.94
272.626	76.94
272.858	87.94
273.09	75.94
273.322	74.94
273.553	84.94
273.785	68.94
274.017	77.94
274.249	82.94
274.481	78.94
274.713	83.94
274.945	86.94
275.176	78.94
275.408	79.94
275.64	80.94
275.872	90.94
276.104	70.94
276.335	80.94
276.567	79.94
276.799	81.94
277.031	82.94
277.262	80.94
277.494	94.94
277.726	97.94
277.957	85.94
278.189	86.94
278.421	91.94
278.652	85.94
278.884	76.94
279.115	82.94
279.347	84.94
279.579	75.94
279.81	92.94
280.042	82.94
280.273	87.94
280.505	80.94
280.736	88.94
280.968	91.94
281.199	75.94
281.431	76.94
281.662	77.94
281.894	66.94
282.125	72.94
282.356	94.94
282.588	79.94
282.819	80.94
283.051	86.94
283.282	83.94
283.513	78.94
283.745	81.94
283.976	79.94
284.207	76.94
284.439	78.94
284.67	87.94
284.901	81.94
285.132	84.94
285.364	86.94
285.595	94.94
285.826	83.94
286.057	71.94
286.288	91.94
286.52	69.94
286.751	82.94
286.982	87.94
287.213	83.94
287.444	76.94
287.675	102.94
287.906	92.94
288.138	87.94
288.369	82.94
288.6	76.94
288.831	87.94
289.062	99.94
289.293	77.94
289.524	90.94
289.755	86.94
289.986	81.94
290.217	69.94
290.448	89.94
290.679	98.94
290.91	96.94
291.141	72.94
291.371	85.94
291.602	91.94
291.833	84.94
292.064	74.94
292.295	68.94
292.526	88.94
292.757	100.94
292.987	72.94
293.218	83.94
293.449	97.94
293.68	74.94
293.91	75.94
294.141	89.94
294.372	90.94
294.603	92.94
294.833	93.94
295.064	82.94
295.295	79.94
295.525	95.94
295.756	86.94
295.987	87.94
296.217	84.94
296.448	77.94
296.679	70.94
296.909	86.94
297.14	94.94
297.37	82.94
297.601	91.94
297.831	78.94
298.062	93.94
298.292	94.94
298.523	79.94
298.753	81.94
298.984	81.94
299.214	90.94
299.445	98.94
299.675	87.94
299.905	74.94
300.136	86.94
300.366	90.94
300.597	74.94
300.827	95.94
301.057	79.94
301.288	82.94
301.518	79.94
301.748	103.94
301.979	90.94
302.209	76.94
302.439	87.94
302.669	76.94
302.9	71.94
303.13	68.94
303.36	74.94
303.59	71.94
303.82	80.94
304.051	83.94
304.281	100.94
304.511	87.94
304.741	83.94
304.971	73.94
305.201	84.94
305.431	85.94
305.661	90.94
305.891	81.94
306.121	80.94
306.352	84.94
306.582	79.94
306.812	86.94
307.042	88.94
307.272	77.94
307.502	77.94
307.731	90.94
307.961	83.94
308.191	75.94
308.421	88.94
308.651	75.94
308.881	85.94
309.111	83.94
309.341	90.94
309.571	88.94
309.8	91.94
310.03	78.94
310.26	79.94
310.49	82.94
310.72	73.94
310.949	88.94
311.179	82.94
311.409	86.94
311.639	74.94
311.868	97.94
312.098	100.94
312.328	83.94
312.557	88.94
312.787	73.94
313.017	66.94
313.246	71.94
313.476	83.94
313.706	80.94
313.935	86.94
314.165	73.94
314.394	74.94
314.624	77.94
314.853	94.94
315.083	71.94
315.312	71.94
315.542	74.94
315.771	81.94
316.001	83.94
316.23	80.94
316.46	83.94
316.689	69.94
316.919	84.94
317.148	79.94
317.377	89.94
317.607	80.94
317.836	84.94
318.065	89.94
318.295	87.94
318.524	82.94
318.753	92.94
318.983	76.94
319.212	88.94
319.441	97.94
319.67	101.94
319.9	75.94
320.129	74.94
320.358	82.94
320.587	92.94
320.816	71.94
321.046	71.94
321.275	79.94
321.504	86.94
321.733	73.94
321.962	82.94
322.191	84.94
322.42	87.94
322.649	78.94
322.878	79.94
323.108	93.94
323.337	87.94
323.566	77.94
323.795	91.94
324.024	88.94
324.253	94.94
324.482	85.94
324.71	77.94
324.939	62.94
325.168	93.94
325.397	81.94
325.626	82.94
325.855	92.94
326.084	86.94
326.313	83.94
326.542	77.94
326.77	78.94
326.999	71.94
327.228	86.94
327.457	88.94
327.686	90.94
327.914	93.94
328.143	90.94
328.372	87.94
328.6	89.94
328.829	83.94
329.058	76.94
329.287	82.94
329.515	83.94
329.744	75.94
329.972	81.94
330.201	91.94
330.43	71.94
330.658	94.94
330.887	79.94
331.115	70.94
331.344	90.94
331.572	89.94
331.801	75.94
332.03	84.94
332.258	74.94
332.486	101.94
332.715	79.94
332.943	87.94
333.172	77.94
333.4	67.94
333.629	78.94
333.857	73.94
334.085	94.94
334.314	88.94
334.542	74.94
334.771	78.94
334.999	90.94
335.227	82.94
335.455	78.94
335.684	86.94
335.912	73.94
336.14	65.94
336.369	87.94
336.597	83.94
336.825	89.94
337.053	78.94
337.281	84.94
337.51	81.94
337.738	79.94
337.966	94.94
338.194	93.94
338.422	82.94
338.65	90.94
338.878	82.94
339.106	87.94
339.334	74.94
339.562	76.94
339.79	76.94
340.018	77.94
340.246	74.94
340.474	76.94
340.702	83.94
340.93	85.94
341.158	83.94
341.386	82.94
341.614	80.94
341.842	87.94
342.07	70.94
342.298	87.94
342.526	86.94
342.754	75.94
342.981	92.94
343.209	79.94
343.437	76.94
343.665	85.94
343.893	69.94
344.12	97.94
344.348	75.94
344.576	78.94
344.804	89.94
345.031	84.94
345.259	85.94
345.487	83.94
345.714	66.94
345.942	94.94
346.17	90.94
346.397	89.94
346.625	87.94
346.853	83.94
347.08	82.94
347.308	79.94
347.535	85.94
347.763	82.94
347.99	78.94
348.218	81.94
348.445	74.94
348.673	102.94
348.9	73.94
349.128	81.94
349.355	77.94
349.583	84.94
349.81	80.94
350.037	81.94
350.265	96.94
350.492	88.94
350.72	88.94
350.947	93.94
351.174	76.94
351.402	95.94
351.629	80.94
351.856	81.94
352.083	80.94
352.311	83.94
352.538	84.94
352.765	85.94
352.992	75.94
353.22	81.94
353.447	75.94
353.674	88.94
353.901	78.94
354.128	86.94
354.355	76.94
354.583	86.94
354.81	96.94
355.037	89.94
355.264	71.94
355.491	75.94
355.718	86.94
355.945	95.94
356.172	89.94
356.399	91.94
356.626	90.94
356.853	85.94
357.08	83.94
357.307	86.94
357.534	80.94
357.761	67.94
357.988	92.94
358.215	93.94
358.441	90.94
358.668	97.94
358.895	76.94
359.122	86.94
359.349	72.94
359.576	84.94
359.802	88.94
360.029	94.94
360.256	92.94
360.483	91.94
360.709	90.94
360.936	86.94
361.163	84.94
361.39	88.94
361.616	89.94
361.843	89.94
362.07	86.94
362.296	92.94
362.523	82.94
362.749	96.94
362.976	88.94
363.203	81.94
363.429	73.94
363.656	103.94
363.882	83.94
364.109	77.94
364.335	76.94
364.562	86.94
364.788	72.94
365.015	77.94
365.241	84.94
365.468	76.94
365.694	78.94
365.92	85.94
366.147	79.94
366.373	89.94
366.599	81.94
366.826	67.94
367.052	69.94
367.278	78.94
367.505	85.94
367.731	83.94
367.957	88.94
368.184	74.94
368.41	101.94
368.636	97.94
368.862	92.94
369.089	76.94
369.315	98.94
369.541	86.94
369.767	99.94
369.993	94.94
370.219	87.94
370.445	64.94
370.672	79.94
370.898	91.94
371.124	73.94
371.35	83.94
371.576	81.94
371.802	92.94
372.028	83.94
372.254	85.94
372.48	88.94
372.706	90.94
372.932	88.94
373.158	75.94
373.384	95.94
373.61	75.94
373.835	82.94
374.061	81.94
374.287	82.94
374.513	86.94
374.739	85.94
374.965	89.94
375.191	90.94
375.416	96.94
375.642	89.94
375.868	83.94
376.094	76.94
376.319	79.94
376.545	84.94
376.771	85.94
376.997	90.94
377.222	99.94
377.448	89.94
377.674	82.94
377.899	90.94
378.125	97.94
378.35	98.94
378.576	94.94
378.802	94.94
379.027	82.94
379.253	92.94
379.478	88.94
379.704	81.94
379.929	79.94
380.155	91.94
380.38	78.94
380.606	94.94
380.831	85.94
381.057	96.94
381.282	90.94
381.507	95.94
381.733	76.94
381.958	85.94
382.184	85.94
382.409	83.94
382.634	84.94
382.86	96.94
383.085	100.94
383.31	78.94
383.535	81.94
383.761	93.94
383.986	91.94
384.211	86.94
384.436	92.94
384.662	76.94
384.887	102.94
385.112	89.94
385.337	82.94
385.562	95.94
385.787	94.94
386.013	103.94
386.238	80.94
386.463	88.94
386.688	87.94
386.913	87.94
387.138	97.94
387.363	92.94
387.588	94.94
387.813	96.94
388.038	84.94
388.263	97.94
388.488	103.94
388.713	97.94
388.938	91.94
389.163	79.94
389.387	84.94
389.612	86.94
389.837	93.94
390.062	92.94
390.287	98.94
390.512	88.94
390.736	96.94
390.961	97.94
391.186	84.94
391.411	89.94
391.636	91.94
391.86	101.94
392.085	94.94
392.31	94.94
392.534	95.94
392.759	97.94
392.984	112.94
393.208	102.94
393.433	100.94
393.658	95.94
393.882	94.94
394.107	100.94
394.331	94.94
394.556	89.94
394.78	105.94
395.005	81.94
395.229	101.94
395.454	100.94
395.678	91.94
395.903	98.94
396.127	103.94
396.352	106.94
396.576	103.94
396.801	104.94
397.025	104.94
397.249	99.94
397.474	97.94
397.698	107.94
397.922	109.94
398.147	94.94
398.371	94.94
398.595	107.94
398.82	96.94
399.044	96.94
399.268	104.94
399.492	102.94
399.717	110.94
399.941	112.94
400.165	97.94
400.389	104.94
400.613	113.94
400.837	110.94
401.062	98.94
401.286	107.94
401.51	94.94
401.734	96.94
401.958	102.94
402.182	100.94
402.406	98.94
402.63	110.94
402.854	103.94
403.078	116.94
403.302	89.94
403.526	107.94
403.75	119.94
403.974	107.94
404.198	94.94
404.422	112.94
404.645	108.94
404.869	119.94
405.093	120.94
405.317	106.94
405.541	104.94
405.765	95.94
405.988	100.94
406.212	110.94
406.436	106.94
406.66	116.94
406.883	105.94
407.107	101.94
407.331	111.94
407.555	119.94
407.778	119.94
408.002	113.94
408.226	107.94
408.449	125.94
408.673	104.94
408.896	102.94
409.12	96.94
409.344	98.94
409.567	101.94
409.791	107.94
410.014	103.94
410.238	112.94
410.461	107.94
410.685	100.94
410.908	102.94
411.132	99.94
411.355	108.94
411.578	111.94
411.802	112.94
412.025	97.94
412.249	104.94
412.472	107.94
412.695	106.94
412.919	113.94
413.142	102.94
413.365	97.94
413.589	108.94
413.812	108.94
414.035	114.94
414.258	96.94
414.482	102.94
414.705	110.94
414.928	112.94
415.151	101.94
415.374	103.94
415.597	119.94
415.821	107.94
416.044	106.94
416.267	109.94
416.49	90.94
416.713	120.94
416.936	108.94
417.159	94.94
417.382	107.94
417.605	123.94
417.828	115.94
418.051	109.94
418.274	118.94
418.497	100.94
418.72	108.94
418.943	107.94
419.166	131.94
419.389	115.94
419.611	111.94
419.834	107.94
420.057	113.94
420.28	102.94
420.503	94.94
420.726	118.94
420.948	114.94
421.171	106.94
421.394	100.94
421.617	105.94
421.839	123.94
422.062	117.94
422.285	114.94
422.507	104.94
422.73	113.94
422.953	118.94
423.175	102.94
423.398	96.94
423.621	105.94
423.843	129.94
424.066	107.94
424.288	123.94
424.511	118.94
424.733	118.94
424.956	103.94
425.178	110.94
425.401	98.94
425.623	118.94
425.846	106.94
426.068	114.94
426.291	103.94
426.513	98.94
426.735	107.94
426.958	116.94
427.18	96.94
427.402	118.94
427.625	120.94
427.847	114.94
428.069	105.94
428.292	103.94
428.514	114.94
428.736	110.94
428.958	110.94
429.181	91.94
429.403	104.94
429.625	104.94
429.847	107.94
430.069	106.94
430.292	115.94
430.514	101.94
430.736	114.94
430.958	114.94
431.18	116.94
431.402	118.94
431.624	82.94
431.846	95.94
432.068	112.94
432.29	98.94
432.512	99.94
432.734	99.94
432.956	102.94
433.178	106.94
433.4	108.94
433.622	99.94
433.844	116.94
434.066	91.94
434.287	115.94
434.509	104.94
434.731	110.94
434.953	114.94
435.175	104.94
435.397	104.94
435.618	100.94
435.84	89.94
436.062	98.94
436.284	110.94
436.505	86.94
436.727	100.94
436.949	105.94
437.17	102.94
437.392	90.94
437.614	95.94
437.835	113.94
438.057	106.94
438.278	103.94
438.5	113.94
438.721	102.94
438.943	102.94
439.165	114.94
439.386	103.94
439.608	114.94
439.829	110.94
440.05	116.94
440.272	108.94
440.493	108.94
440.715	105.94
440.936	112.94
441.158	120.94
441.379	110.94
441.6	111.94
441.822	126.94
442.043	118.94
442.264	107.94
442.486	122.94
442.707	120.94
442.928	119.94
443.149	120.94
443.371	123.94
443.592	107.94
443.813	97.94
444.034	116.94
444.255	122.94
444.476	116.94
444.698	123.94
444.919	115.94
445.14	243.94
445.361	172.94
445.582	106.94
445.803	106.94
446.024	105.94
446.245	107.94
446.466	111.94
446.687	101.94
446.908	106.94
447.129	120.94
447.35	114.94
447.571	98.94
447.792	95.94
448.013	121.94
448.234	104.94
448.455	120.94
448.675	95.94
448.896	113.94
449.117	103.94
449.338	103.94
449.559	112.94
449.779	112.94
450	118.94
450.221	117.94
450.442	100.94
450.662	118.94
450.883	114.94
451.104	114.94
451.324	111.94
451.545	97.94
451.766	91.94
451.986	90.94
452.207	107.94
452.428	106.94
452.648	95.94
452.869	107.94
453.089	115.94
453.31	103.94
453.53	90.94
453.751	98.94
453.971	99.94
454.192	87.94
454.412	97.94
454.633	110.94
454.853	107.94
455.073	103.94
455.294	89.94
455.514	119.94
455.734	103.94
455.955	94.94
456.175	100.94
456.395	92.94
456.616	92.94
456.836	97.94
457.056	107.94
457.276	103.94
457.497	107.94
457.717	96.94
457.937	99.94
458.157	116.94
458.377	93.94
458.598	101.94
458.818	96.94
459.038	102.94
459.258	111.94
459.478	113.94
459.698	111.94
459.918	107.94
460.138	116.94
460.358	102.94
460.578	100.94
460.798	104.94
461.018	114.94
461.238	118.94
461.458	122.94
461.678	102.94
461.898	102.94
462.118	112.94
462.338	127.94
462.558	115.94
462.777	107.94
462.997	110.94
463.217	121.94
463.437	114.94
463.657	114.94
463.876	108.94
464.096	108.94
464.316	110.94
464.536	116.94
464.755	126.94
464.975	118.94
465.195	122.94
465.414	123.94
465.634	122.94
465.854	99.94
466.073	116.94
466.293	106.94
466.512	122.94
466.732	126.94
466.951	127.94
467.171	114.94
467.391	100.94
467.61	126.94
467.829	105.94
468.049	105.94
468.268	96.94
468.488	90.94
468.707	114.94
468.927	114.94
469.146	122.94
469.365	112.94
469.585	126.94
469.804	118.94
470.023	115.94
470.243	123.94
470.462	100.94
470.681	125.94
470.901	124.94
471.12	110.94
471.339	120.94
471.558	125.94
471.777	115.94
471.997	125.94
472.216	110.94
472.435	116.94
472.654	104.94
472.873	106.94
473.092	114.94
473.311	111.94
473.53	124.94
473.749	120.94
473.968	124.94
474.187	101.94
474.406	114.94
474.625	100.94
474.844	102.94
475.063	123.94
475.282	106.94
475.501	94.94
475.72	111.94
475.939	123.94
476.158	105.94
476.377	98.94
476.596	114.94
476.814	113.94
477.033	105.94
477.252	107.94
477.471	116.94
477.69	106.94
477.908	107.94
478.127	107.94
478.346	115.94
478.564	119.94
478.783	121.94
479.002	124.94
479.22	94.94
479.439	120.94
479.658	110.94
479.876	114.94
480.095	110.94
480.313	120.94
480.532	112.94
480.751	114.94
480.969	107.94
481.188	101.94
481.406	91.94
481.624	107.94
481.843	102.94
482.061	116.94
482.28	118.94
482.498	114.94
482.717	105.94
482.935	119.94
483.153	110.94
483.372	130.94
483.59	108.94
483.808	120.94
484.027	114.94
484.245	116.94
484.463	116.94
484.681	126.94
484.9	122.94
485.118	108.94
485.336	106.94
485.554	119.94
485.772	96.94
485.99	124.94
486.209	120.94
486.427	119.94
486.645	110.94
486.863	130.94
487.081	127.94
487.299	128.94
487.517	132.94
487.735	125.94
487.953	136.94
488.171	134.94
488.389	143.94
488.607	136.94
488.825	130.94
489.043	118.94
489.261	123.94
489.479	132.94
489.696	127.94
489.914	130.94
490.132	142.94
490.35	131.94
490.568	119.94
490.786	144.94
491.003	146.94
491.221	156.94
491.439	134.94
491.657	138.94
491.874	155.94
492.092	159.94
492.31	161.94
492.527	158.94
492.745	141.94
492.963	157.94
493.18	155.94
493.398	147.94
493.615	136.94
493.833	148.94
494.05	139.94
494.268	135.94
494.485	142.94
494.703	145.94
494.92	152.94
495.138	135.94
495.355	154.94
495.573	134.94
495.79	133.94
496.008	147.94
496.225	147.94
496.442	139.94
496.66	151.94
496.877	146.94
497.094	142.94
497.312	151.94
497.529	147.94
497.746	142.94
497.963	139.94
498.181	118.94
498.398	136.94
498.615	139.94
498.832	145.94
499.049	143.94
499.267	162.94
499.484	163.94
499.701	172.94
499.918	192.94
500.135	186.94
500.352	201.94
500.569	210.94
500.786	230.94
501.003	199.94
501.22	174.94
501.437	171.94
501.654	178.94
501.871	165.94
502.088	138.94
502.305	148.94
502.522	162.94
502.739	147.94
502.956	140.94
503.172	134.94
503.389	117.94
503.606	132.94
503.823	148.94
504.04	133.94
504.256	136.94
504.473	133.94
504.69	138.94
504.907	123.94
505.123	137.94
505.34	131.94
505.557	125.94
505.773	128.94
505.99	122.94
506.207	126.94
506.423	122.94
506.64	126.94
506.856	121.94
507.073	123.94
507.289	113.94
507.506	106.94
507.722	115.94
507.939	112.94
508.155	124.94
508.372	127.94
508.588	117.94
508.805	127.94
509.021	120.94
509.238	122.94
509.454	115.94
509.67	112.94
509.887	122.94
510.103	107.94
510.319	117.94
510.536	122.94
510.752	100.94
510.968	113.94
511.184	101.94
511.401	105.94
511.617	114.94
511.833	130.94
512.049	103.94
512.265	103.94
