Data from StandardFe(NO3)3.TAE.3%Agarose.FlatLispGreen.Lamp.Energy10.07252019_HRD10591_11-53-50-439.txt Node
Date: Thu Jul 25 11:53:50 EDT 2019
User: cochatt
Spectrometer: HR+D1059
Trigger mode: 1
Integration Time (sec): 1.000000E-1
Scans to average: 1
Electric dark correction enabled: true
Nonlinearity correction enabled: false
Boxcar width: 0
XAxis mode: Wavelengths
Number of Pixels in Spectrum: 2048
>>>>>Begin Spectral Data<<<<<
223.165	-22.38
223.4	-22.38
223.635	-22.38
223.869	-20.38
224.104	-12.38
224.338	-27.38
224.573	-27.38
224.808	-12.38
225.042	-8.38
225.277	-4.38
225.511	12.62
225.746	14.62
225.98	17.62
226.215	9.62
226.449	21.62
226.683	26.62
226.918	18.62
227.152	13.62
227.387	33.62
227.621	31.62
227.856	46.62
228.09	49.62
228.324	49.62
228.559	55.62
228.793	61.62
229.027	71.62
229.262	69.62
229.496	63.62
229.73	63.62
229.964	69.62
230.199	75.62
230.433	68.62
230.667	76.62
230.901	86.62
231.136	79.62
231.37	69.62
231.604	75.62
231.838	65.62
232.072	91.62
232.306	75.62
232.541	91.62
232.775	82.62
233.009	83.62
233.243	71.62
233.477	81.62
233.711	79.62
233.945	87.62
234.179	89.62
234.413	75.62
234.647	83.62
234.881	83.62
235.115	88.62
235.349	77.62
235.583	79.62
235.817	76.62
236.051	79.62
236.285	84.62
236.519	83.62
236.753	85.62
236.987	82.62
237.221	89.62
237.455	75.62
237.689	74.62
237.922	82.62
238.156	80.62
238.39	87.62
238.624	87.62
238.858	70.62
239.091	89.62
239.325	72.62
239.559	72.62
239.793	77.62
240.027	66.62
240.26	87.62
240.494	70.62
240.728	78.62
240.961	78.62
241.195	83.62
241.429	77.62
241.662	87.62
241.896	61.62
242.13	69.62
242.363	86.62
242.597	84.62
242.83	72.62
243.064	77.62
243.298	68.62
243.531	76.62
243.765	77.62
243.998	75.62
244.232	79.62
244.465	83.62
244.699	84.62
244.932	83.62
245.166	66.62
245.399	88.62
245.633	91.62
245.866	72.62
246.099	80.62
246.333	79.62
246.566	72.62
246.8	88.62
247.033	81.62
247.266	86.62
247.5	76.62
247.733	73.62
247.966	69.62
248.2	76.62
248.433	81.62
248.666	89.62
248.899	77.62
249.133	60.62
249.366	72.62
249.599	80.62
249.832	80.62
250.066	93.62
250.299	81.62
250.532	77.62
250.765	85.62
250.998	87.62
251.231	80.62
251.465	76.62
251.698	84.62
251.931	70.62
252.164	91.62
252.397	84.62
252.63	72.62
252.863	90.62
253.096	80.62
253.329	87.62
253.562	82.62
253.795	80.62
254.028	84.62
254.261	64.62
254.494	88.62
254.727	69.62
254.96	83.62
255.193	83.62
255.426	94.62
255.659	88.62
255.892	70.62
256.124	75.62
256.357	81.62
256.59	80.62
256.823	81.62
257.056	81.62
257.289	65.62
257.521	79.62
257.754	69.62
257.987	80.62
258.22	77.62
258.452	83.62
258.685	88.62
258.918	92.62
259.151	70.62
259.383	84.62
259.616	81.62
259.849	76.62
260.081	89.62
260.314	76.62
260.547	81.62
260.779	75.62
261.012	79.62
261.244	86.62
261.477	97.62
261.71	82.62
261.942	66.62
262.175	83.62
262.407	76.62
262.64	86.62
262.872	77.62
263.105	72.62
263.337	79.62
263.57	81.62
263.802	82.62
264.035	76.62
264.267	78.62
264.499	72.62
264.732	86.62
264.964	85.62
265.197	88.62
265.429	98.62
265.661	79.62
265.894	81.62
266.126	91.62
266.358	80.62
266.591	81.62
266.823	73.62
267.055	93.62
267.287	82.62
267.52	89.62
267.752	85.62
267.984	71.62
268.216	71.62
268.448	99.62
268.681	83.62
268.913	84.62
269.145	79.62
269.377	89.62
269.609	95.62
269.841	67.62
270.073	81.62
270.306	90.62
270.538	85.62
270.77	83.62
271.002	85.62
271.234	70.62
271.466	80.62
271.698	80.62
271.93	84.62
272.162	89.62
272.394	92.62
272.626	88.62
272.858	90.62
273.09	92.62
273.322	85.62
273.553	81.62
273.785	88.62
274.017	87.62
274.249	80.62
274.481	85.62
274.713	80.62
274.945	71.62
275.176	83.62
275.408	73.62
275.64	87.62
275.872	70.62
276.104	75.62
276.335	75.62
276.567	81.62
276.799	68.62
277.031	74.62
277.262	80.62
277.494	83.62
277.726	83.62
277.957	80.62
278.189	83.62
278.421	84.62
278.652	90.62
278.884	82.62
279.115	89.62
279.347	89.62
279.579	76.62
279.81	89.62
280.042	84.62
280.273	67.62
280.505	77.62
280.736	87.62
280.968	96.62
281.199	87.62
281.431	91.62
281.662	77.62
281.894	75.62
282.125	72.62
282.356	80.62
282.588	82.62
282.819	87.62
283.051	83.62
283.282	70.62
283.513	80.62
283.745	91.62
283.976	91.62
284.207	89.62
284.439	84.62
284.67	90.62
284.901	82.62
285.132	91.62
285.364	85.62
285.595	77.62
285.826	63.62
286.057	86.62
286.288	91.62
286.52	78.62
286.751	85.62
286.982	76.62
287.213	71.62
287.444	86.62
287.675	79.62
287.906	87.62
288.138	82.62
288.369	92.62
288.6	68.62
288.831	76.62
289.062	93.62
289.293	93.62
289.524	96.62
289.755	88.62
289.986	86.62
290.217	77.62
290.448	81.62
290.679	86.62
290.91	94.62
291.141	88.62
291.371	96.62
291.602	75.62
291.833	88.62
292.064	77.62
292.295	84.62
292.526	79.62
292.757	91.62
292.987	89.62
293.218	87.62
293.449	96.62
293.68	74.62
293.91	90.62
294.141	83.62
294.372	63.62
294.603	89.62
294.833	85.62
295.064	74.62
295.295	83.62
295.525	84.62
295.756	78.62
295.987	86.62
296.217	96.62
296.448	91.62
296.679	77.62
296.909	80.62
297.14	100.62
297.37	87.62
297.601	82.62
297.831	87.62
298.062	75.62
298.292	69.62
298.523	75.62
298.753	86.62
298.984	80.62
299.214	76.62
299.445	108.62
299.675	87.62
299.905	69.62
300.136	88.62
300.366	80.62
300.597	81.62
300.827	86.62
301.057	85.62
301.288	91.62
301.518	92.62
301.748	85.62
301.979	81.62
302.209	85.62
302.439	92.62
302.669	74.62
302.9	91.62
303.13	84.62
303.36	85.62
303.59	76.62
303.82	85.62
304.051	87.62
304.281	83.62
304.511	88.62
304.741	92.62
304.971	89.62
305.201	83.62
305.431	90.62
305.661	85.62
305.891	80.62
306.121	97.62
306.352	84.62
306.582	86.62
306.812	77.62
307.042	86.62
307.272	97.62
307.502	87.62
307.731	87.62
307.961	86.62
308.191	91.62
308.421	83.62
308.651	92.62
308.881	87.62
309.111	74.62
309.341	75.62
309.571	88.62
309.8	81.62
310.03	91.62
310.26	79.62
310.49	81.62
310.72	89.62
310.949	96.62
311.179	85.62
311.409	75.62
311.639	82.62
311.868	85.62
312.098	75.62
312.328	92.62
312.557	83.62
312.787	85.62
313.017	78.62
313.246	76.62
313.476	86.62
313.706	68.62
313.935	81.62
314.165	85.62
314.394	83.62
314.624	80.62
314.853	87.62
315.083	87.62
315.312	91.62
315.542	78.62
315.771	85.62
316.001	84.62
316.23	83.62
316.46	80.62
316.689	73.62
316.919	87.62
317.148	92.62
317.377	92.62
317.607	72.62
317.836	85.62
318.065	77.62
318.295	75.62
318.524	77.62
318.753	93.62
318.983	95.62
319.212	91.62
319.441	86.62
319.67	65.62
319.9	78.62
320.129	76.62
320.358	68.62
320.587	105.62
320.816	95.62
321.046	92.62
321.275	84.62
321.504	82.62
321.733	90.62
321.962	85.62
322.191	82.62
322.42	77.62
322.649	93.62
322.878	84.62
323.108	83.62
323.337	72.62
323.566	87.62
323.795	79.62
324.024	86.62
324.253	79.62
324.482	80.62
324.71	97.62
324.939	89.62
325.168	79.62
325.397	87.62
325.626	91.62
325.855	84.62
326.084	74.62
326.313	94.62
326.542	97.62
326.77	96.62
326.999	85.62
327.228	101.62
327.457	90.62
327.686	99.62
327.914	97.62
328.143	75.62
328.372	92.62
328.6	82.62
328.829	81.62
329.058	85.62
329.287	82.62
329.515	67.62
329.744	84.62
329.972	89.62
330.201	84.62
330.43	86.62
330.658	83.62
330.887	92.62
331.115	90.62
331.344	87.62
331.572	77.62
331.801	89.62
332.03	98.62
332.258	80.62
332.486	82.62
332.715	82.62
332.943	93.62
333.172	98.62
333.4	72.62
333.629	84.62
333.857	90.62
334.085	89.62
334.314	91.62
334.542	79.62
334.771	88.62
334.999	81.62
335.227	82.62
335.455	75.62
335.684	87.62
335.912	87.62
336.14	84.62
336.369	82.62
336.597	90.62
336.825	84.62
337.053	85.62
337.281	76.62
337.51	83.62
337.738	97.62
337.966	84.62
338.194	94.62
338.422	83.62
338.65	87.62
338.878	77.62
339.106	78.62
339.334	83.62
339.562	88.62
339.79	86.62
340.018	80.62
340.246	80.62
340.474	78.62
340.702	76.62
340.93	78.62
341.158	73.62
341.386	92.62
341.614	77.62
341.842	85.62
342.07	76.62
342.298	80.62
342.526	76.62
342.754	85.62
342.981	89.62
343.209	89.62
343.437	86.62
343.665	99.62
343.893	86.62
344.12	81.62
344.348	81.62
344.576	92.62
344.804	92.62
345.031	88.62
345.259	68.62
345.487	87.62
345.714	84.62
345.942	85.62
346.17	76.62
346.397	79.62
346.625	83.62
346.853	81.62
347.08	92.62
347.308	86.62
347.535	84.62
347.763	89.62
347.99	81.62
348.218	87.62
348.445	85.62
348.673	88.62
348.9	82.62
349.128	97.62
349.355	91.62
349.583	85.62
349.81	79.62
350.037	83.62
350.265	78.62
350.492	81.62
350.72	83.62
350.947	90.62
351.174	80.62
351.402	85.62
351.629	75.62
351.856	78.62
352.083	75.62
352.311	91.62
352.538	78.62
352.765	86.62
352.992	92.62
353.22	90.62
353.447	85.62
353.674	93.62
353.901	85.62
354.128	80.62
354.355	87.62
354.583	85.62
354.81	83.62
355.037	96.62
355.264	81.62
355.491	85.62
355.718	99.62
355.945	66.62
356.172	76.62
356.399	79.62
356.626	89.62
356.853	75.62
357.08	76.62
357.307	85.62
357.534	86.62
357.761	84.62
357.988	75.62
358.215	103.62
358.441	94.62
358.668	87.62
358.895	86.62
359.122	86.62
359.349	80.62
359.576	75.62
359.802	81.62
360.029	80.62
360.256	81.62
360.483	90.62
360.709	93.62
360.936	89.62
361.163	85.62
361.39	86.62
361.616	91.62
361.843	89.62
362.07	77.62
362.296	76.62
362.523	89.62
362.749	80.62
362.976	73.62
363.203	91.62
363.429	81.62
363.656	72.62
363.882	81.62
364.109	73.62
364.335	83.62
364.562	85.62
364.788	96.62
365.015	92.62
365.241	85.62
365.468	89.62
365.694	74.62
365.92	81.62
366.147	81.62
366.373	80.62
366.599	84.62
366.826	82.62
367.052	88.62
367.278	75.62
367.505	87.62
367.731	96.62
367.957	87.62
368.184	84.62
368.41	79.62
368.636	86.62
368.862	84.62
369.089	78.62
369.315	90.62
369.541	95.62
369.767	88.62
369.993	91.62
370.219	96.62
370.445	96.62
370.672	92.62
370.898	93.62
371.124	88.62
371.35	81.62
371.576	92.62
371.802	102.62
372.028	87.62
372.254	97.62
372.48	82.62
372.706	79.62
372.932	85.62
373.158	81.62
373.384	72.62
373.61	82.62
373.835	96.62
374.061	104.62
374.287	88.62
374.513	81.62
374.739	95.62
374.965	96.62
375.191	85.62
375.416	92.62
375.642	83.62
375.868	79.62
376.094	99.62
376.319	92.62
376.545	96.62
376.771	92.62
376.997	101.62
377.222	89.62
377.448	92.62
377.674	84.62
377.899	90.62
378.125	99.62
378.35	96.62
378.576	94.62
378.802	87.62
379.027	104.62
379.253	84.62
379.478	81.62
379.704	99.62
379.929	76.62
380.155	104.62
380.38	91.62
380.606	82.62
380.831	91.62
381.057	100.62
381.282	115.62
381.507	90.62
381.733	101.62
381.958	99.62
382.184	97.62
382.409	101.62
382.634	100.62
382.86	98.62
383.085	85.62
383.31	89.62
383.535	100.62
383.761	100.62
383.986	100.62
384.211	103.62
384.436	106.62
384.662	111.62
384.887	75.62
385.112	100.62
385.337	91.62
385.562	90.62
385.787	104.62
386.013	103.62
386.238	90.62
386.463	97.62
386.688	103.62
386.913	97.62
387.138	120.62
387.363	99.62
387.588	100.62
387.813	101.62
388.038	97.62
388.263	96.62
388.488	87.62
388.713	101.62
388.938	86.62
389.163	95.62
389.387	95.62
389.612	85.62
389.837	105.62
390.062	97.62
390.287	94.62
390.512	93.62
390.736	99.62
390.961	100.62
391.186	100.62
391.411	95.62
391.636	91.62
391.86	87.62
392.085	111.62
392.31	97.62
392.534	93.62
392.759	79.62
392.984	83.62
393.208	90.62
393.433	88.62
393.658	89.62
393.882	93.62
394.107	103.62
394.331	103.62
394.556	99.62
394.78	81.62
395.005	101.62
395.229	89.62
395.454	81.62
395.678	110.62
395.903	115.62
396.127	93.62
396.352	103.62
396.576	95.62
396.801	105.62
397.025	109.62
397.249	110.62
397.474	90.62
397.698	99.62
397.922	109.62
398.147	95.62
398.371	106.62
398.595	112.62
398.82	104.62
399.044	95.62
399.268	106.62
399.492	113.62
399.717	117.62
399.941	106.62
400.165	95.62
400.389	106.62
400.613	110.62
400.837	96.62
401.062	91.62
401.286	110.62
401.51	104.62
401.734	101.62
401.958	105.62
402.182	105.62
402.406	97.62
402.63	107.62
402.854	104.62
403.078	99.62
403.302	99.62
403.526	100.62
403.75	102.62
403.974	116.62
404.198	110.62
404.422	115.62
404.645	104.62
404.869	108.62
405.093	94.62
405.317	101.62
405.541	110.62
405.765	117.62
405.988	116.62
406.212	109.62
406.436	101.62
406.66	111.62
406.883	95.62
407.107	113.62
407.331	101.62
407.555	115.62
407.778	108.62
408.002	123.62
408.226	97.62
408.449	120.62
408.673	117.62
408.896	112.62
409.12	97.62
409.344	113.62
409.567	102.62
409.791	115.62
410.014	113.62
410.238	123.62
410.461	111.62
410.685	104.62
410.908	127.62
411.132	127.62
411.355	99.62
411.578	107.62
411.802	108.62
412.025	89.62
412.249	103.62
412.472	98.62
412.695	114.62
412.919	106.62
413.142	117.62
413.365	114.62
413.589	105.62
413.812	110.62
414.035	111.62
414.258	120.62
414.482	104.62
414.705	125.62
414.928	111.62
415.151	121.62
415.374	100.62
415.597	131.62
415.821	115.62
416.044	104.62
416.267	113.62
416.49	90.62
416.713	108.62
416.936	111.62
417.159	108.62
417.382	113.62
417.605	104.62
417.828	119.62
418.051	106.62
418.274	108.62
418.497	115.62
418.72	119.62
418.943	100.62
419.166	119.62
419.389	135.62
419.611	118.62
419.834	116.62
420.057	111.62
420.28	119.62
420.503	98.62
420.726	121.62
420.948	104.62
421.171	112.62
421.394	115.62
421.617	112.62
421.839	117.62
422.062	99.62
422.285	103.62
422.507	95.62
422.73	104.62
422.953	115.62
423.175	129.62
423.398	105.62
423.621	104.62
423.843	117.62
424.066	127.62
424.288	121.62
424.511	127.62
424.733	117.62
424.956	107.62
425.178	135.62
425.401	118.62
425.623	113.62
425.846	103.62
426.068	99.62
426.291	98.62
426.513	111.62
426.735	123.62
426.958	122.62
427.18	120.62
427.402	110.62
427.625	116.62
427.847	111.62
428.069	111.62
428.292	118.62
428.514	121.62
428.736	109.62
428.958	119.62
429.181	117.62
429.403	111.62
429.625	114.62
429.847	107.62
430.069	95.62
430.292	121.62
430.514	110.62
430.736	114.62
430.958	112.62
431.18	122.62
431.402	114.62
431.624	111.62
431.846	113.62
432.068	107.62
432.29	117.62
432.512	112.62
432.734	99.62
432.956	117.62
433.178	114.62
433.4	108.62
433.622	101.62
433.844	107.62
434.066	111.62
434.287	104.62
434.509	99.62
434.731	108.62
434.953	108.62
435.175	118.62
435.397	111.62
435.618	121.62
435.84	104.62
436.062	112.62
436.284	108.62
436.505	113.62
436.727	131.62
436.949	113.62
437.17	117.62
437.392	107.62
437.614	102.62
437.835	92.62
438.057	100.62
438.278	103.62
438.5	112.62
438.721	103.62
438.943	118.62
439.165	109.62
439.386	111.62
439.608	107.62
439.829	107.62
440.05	113.62
440.272	116.62
440.493	109.62
440.715	121.62
440.936	115.62
441.158	129.62
441.379	116.62
441.6	119.62
441.822	118.62
442.043	125.62
442.264	111.62
442.486	118.62
442.707	115.62
442.928	131.62
443.149	125.62
443.371	120.62
443.592	103.62
443.813	122.62
444.034	119.62
444.255	121.62
444.476	124.62
444.698	136.62
444.919	123.62
445.14	235.62
445.361	181.62
445.582	129.62
445.803	125.62
446.024	111.62
446.245	124.62
446.466	119.62
446.687	117.62
446.908	115.62
447.129	105.62
447.35	120.62
447.571	111.62
447.792	111.62
448.013	111.62
448.234	119.62
448.455	130.62
448.675	107.62
448.896	123.62
449.117	122.62
449.338	120.62
449.559	108.62
449.779	109.62
450	120.62
450.221	115.62
450.442	115.62
450.662	99.62
450.883	105.62
451.104	117.62
451.324	116.62
451.545	114.62
451.766	120.62
451.986	111.62
452.207	118.62
452.428	120.62
452.648	98.62
452.869	119.62
453.089	111.62
453.31	95.62
453.53	111.62
453.751	105.62
453.971	103.62
454.192	107.62
454.412	91.62
454.633	113.62
454.853	116.62
455.073	102.62
455.294	98.62
455.514	109.62
455.734	109.62
455.955	123.62
456.175	106.62
456.395	104.62
456.616	111.62
456.836	106.62
457.056	92.62
457.276	102.62
457.497	100.62
457.717	102.62
457.937	111.62
458.157	103.62
458.377	119.62
458.598	108.62
458.818	98.62
459.038	96.62
459.258	102.62
459.478	99.62
459.698	93.62
459.918	114.62
460.138	106.62
460.358	112.62
460.578	113.62
460.798	112.62
461.018	112.62
461.238	115.62
461.458	131.62
461.678	121.62
461.898	102.62
462.118	103.62
462.338	123.62
462.558	105.62
462.777	115.62
462.997	117.62
463.217	135.62
463.437	133.62
463.657	123.62
463.876	116.62
464.096	128.62
464.316	128.62
464.536	120.62
464.755	106.62
464.975	112.62
465.195	114.62
465.414	111.62
465.634	129.62
465.854	119.62
466.073	107.62
466.293	106.62
466.512	104.62
466.732	114.62
466.951	109.62
467.171	119.62
467.391	119.62
467.61	107.62
467.829	114.62
468.049	121.62
468.268	120.62
468.488	100.62
468.707	124.62
468.927	115.62
469.146	124.62
469.365	109.62
469.585	113.62
469.804	119.62
470.023	125.62
470.243	116.62
470.462	117.62
470.681	131.62
470.901	114.62
471.12	147.62
471.339	122.62
471.558	119.62
471.777	103.62
471.997	108.62
472.216	95.62
472.435	95.62
472.654	103.62
472.873	100.62
473.092	115.62
473.311	107.62
473.53	111.62
473.749	108.62
473.968	123.62
474.187	111.62
474.406	111.62
474.625	104.62
474.844	139.62
475.063	123.62
475.282	124.62
475.501	115.62
475.72	121.62
475.939	115.62
476.158	113.62
476.377	106.62
476.596	121.62
476.814	114.62
477.033	113.62
477.252	112.62
477.471	120.62
477.69	125.62
477.908	125.62
478.127	133.62
478.346	127.62
478.564	137.62
478.783	132.62
479.002	125.62
479.22	133.62
479.439	112.62
479.658	115.62
479.876	119.62
480.095	125.62
480.313	130.62
480.532	119.62
480.751	117.62
480.969	117.62
481.188	107.62
481.406	111.62
481.624	123.62
481.843	119.62
482.061	114.62
482.28	114.62
482.498	114.62
482.717	109.62
482.935	118.62
483.153	123.62
483.372	142.62
483.59	127.62
483.808	122.62
484.027	138.62
484.245	129.62
484.463	131.62
484.681	141.62
484.9	125.62
485.118	137.62
485.336	123.62
485.554	128.62
485.772	110.62
485.99	123.62
486.209	127.62
486.427	116.62
486.645	127.62
486.863	130.62
487.081	133.62
487.299	123.62
487.517	131.62
487.735	144.62
487.953	144.62
488.171	147.62
488.389	127.62
488.607	127.62
488.825	134.62
489.043	129.62
489.261	124.62
489.479	131.62
489.696	134.62
489.914	132.62
490.132	131.62
490.35	131.62
490.568	138.62
490.786	131.62
491.003	149.62
491.221	151.62
491.439	145.62
491.657	149.62
491.874	148.62
492.092	161.62
492.31	161.62
492.527	159.62
492.745	151.62
492.963	150.62
493.18	148.62
493.398	156.62
493.615	151.62
493.833	155.62
494.05	145.62
494.268	164.62
494.485	137.62
494.703	133.62
494.92	138.62
495.138	141.62
495.355	147.62
495.573	163.62
495.79	148.62
496.008	165.62
496.225	160.62
496.442	156.62
496.66	150.62
496.877	154.62
497.094	152.62
497.312	148.62
497.529	152.62
497.746	140.62
497.963	135.62
498.181	147.62
498.398	153.62
498.615	151.62
498.832	140.62
499.049	131.62
499.267	155.62
499.484	150.62
499.701	169.62
499.918	170.62
500.135	198.62
500.352	209.62
500.569	208.62
500.786	208.62
501.003	217.62
501.22	196.62
501.437	198.62
501.654	167.62
501.871	156.62
502.088	155.62
502.305	154.62
502.522	143.62
502.739	137.62
502.956	155.62
503.172	133.62
503.389	149.62
503.606	127.62
503.823	125.62
504.04	143.62
504.256	139.62
504.473	133.62
504.69	133.62
504.907	148.62
505.123	133.62
505.34	130.62
505.557	121.62
505.773	113.62
505.99	115.62
506.207	133.62
506.423	130.62
506.64	125.62
506.856	139.62
507.073	128.62
507.289	133.62
507.506	122.62
507.722	122.62
507.939	131.62
508.155	130.62
508.372	127.62
508.588	117.62
508.805	117.62
509.021	121.62
509.238	129.62
509.454	104.62
509.67	105.62
509.887	119.62
510.103	109.62
510.319	119.62
510.536	105.62
510.752	111.62
510.968	106.62
511.184	106.62
511.401	115.62
511.617	119.62
