Data from StandardFe(NO3)3.TAE.3%Agarose.FlatLispGreen.Lamp.Energy10.07252019_HRD10591_11-56-33-442.txt Node
Date: Thu Jul 25 11:56:33 EDT 2019
User: cochatt
Spectrometer: HR+D1059
Trigger mode: 1
Integration Time (sec): 1.000000E-1
Scans to average: 1
Electric dark correction enabled: true
Nonlinearity correction enabled: false
Boxcar width: 0
XAxis mode: Wavelengths
Number of Pixels in Spectrum: 2048
>>>>>Begin Spectral Data<<<<<
223.165	2.5
223.4	2.5
223.635	2.5
223.869	-11.5
224.104	-18.5
224.338	-20.5
224.573	4.5
224.808	-3.5
225.042	-16.5
225.277	-8.5
225.511	-12.5
225.746	5.5
225.98	0.5
226.215	18.5
226.449	15.5
226.683	12.5
226.918	8.5
227.152	23.5
227.387	35.5
227.621	37.5
227.856	39.5
228.09	43.5
228.324	48.5
228.559	51.5
228.793	53.5
229.027	72.5
229.262	65.5
229.496	83.5
229.73	72.5
229.964	79.5
230.199	67.5
230.433	77.5
230.667	83.5
230.901	90.5
231.136	81.5
231.37	77.5
231.604	90.5
231.838	79.5
232.072	92.5
232.306	72.5
232.541	88.5
232.775	73.5
233.009	83.5
233.243	83.5
233.477	90.5
233.711	77.5
233.945	74.5
234.179	77.5
234.413	69.5
234.647	76.5
234.881	76.5
235.115	79.5
235.349	83.5
235.583	69.5
235.817	76.5
236.051	88.5
236.285	63.5
236.519	74.5
236.753	78.5
236.987	73.5
237.221	69.5
237.455	77.5
237.689	86.5
237.922	79.5
238.156	86.5
238.39	67.5
238.624	63.5
238.858	69.5
239.091	72.5
239.325	69.5
239.559	86.5
239.793	85.5
240.027	69.5
240.26	74.5
240.494	85.5
240.728	75.5
240.961	78.5
241.195	86.5
241.429	80.5
241.662	83.5
241.896	102.5
242.13	67.5
242.363	77.5
242.597	72.5
242.83	68.5
243.064	70.5
243.298	82.5
243.531	79.5
243.765	79.5
243.998	77.5
244.232	74.5
244.465	69.5
244.699	84.5
244.932	70.5
245.166	73.5
245.399	77.5
245.633	74.5
245.866	77.5
246.099	84.5
246.333	85.5
246.566	68.5
246.8	81.5
247.033	79.5
247.266	78.5
247.5	76.5
247.733	63.5
247.966	72.5
248.2	74.5
248.433	85.5
248.666	85.5
248.899	78.5
249.133	72.5
249.366	66.5
249.599	82.5
249.832	75.5
250.066	76.5
250.299	83.5
250.532	86.5
250.765	72.5
250.998	80.5
251.231	77.5
251.465	74.5
251.698	81.5
251.931	78.5
252.164	69.5
252.397	78.5
252.63	71.5
252.863	75.5
253.096	88.5
253.329	69.5
253.562	73.5
253.795	75.5
254.028	74.5
254.261	71.5
254.494	68.5
254.727	90.5
254.96	81.5
255.193	88.5
255.426	77.5
255.659	83.5
255.892	92.5
256.124	74.5
256.357	75.5
256.59	92.5
256.823	84.5
257.056	84.5
257.289	80.5
257.521	67.5
257.754	56.5
257.987	64.5
258.22	80.5
258.452	89.5
258.685	85.5
258.918	85.5
259.151	78.5
259.383	80.5
259.616	83.5
259.849	70.5
260.081	73.5
260.314	81.5
260.547	72.5
260.779	81.5
261.012	87.5
261.244	77.5
261.477	84.5
261.71	84.5
261.942	96.5
262.175	74.5
262.407	89.5
262.64	89.5
262.872	74.5
263.105	87.5
263.337	75.5
263.57	65.5
263.802	70.5
264.035	88.5
264.267	70.5
264.499	90.5
264.732	82.5
264.964	84.5
265.197	79.5
265.429	97.5
265.661	75.5
265.894	72.5
266.126	91.5
266.358	66.5
266.591	77.5
266.823	75.5
267.055	81.5
267.287	75.5
267.52	76.5
267.752	79.5
267.984	92.5
268.216	91.5
268.448	100.5
268.681	78.5
268.913	74.5
269.145	75.5
269.377	78.5
269.609	73.5
269.841	62.5
270.073	87.5
270.306	92.5
270.538	75.5
270.77	81.5
271.002	90.5
271.234	64.5
271.466	96.5
271.698	81.5
271.93	90.5
272.162	83.5
272.394	80.5
272.626	87.5
272.858	87.5
273.09	81.5
273.322	84.5
273.553	74.5
273.785	79.5
274.017	75.5
274.249	87.5
274.481	74.5
274.713	81.5
274.945	84.5
275.176	95.5
275.408	87.5
275.64	81.5
275.872	90.5
276.104	76.5
276.335	88.5
276.567	86.5
276.799	84.5
277.031	83.5
277.262	89.5
277.494	80.5
277.726	90.5
277.957	85.5
278.189	80.5
278.421	80.5
278.652	87.5
278.884	83.5
279.115	100.5
279.347	95.5
279.579	94.5
279.81	72.5
280.042	86.5
280.273	80.5
280.505	87.5
280.736	83.5
280.968	76.5
281.199	82.5
281.431	87.5
281.662	84.5
281.894	88.5
282.125	86.5
282.356	93.5
282.588	85.5
282.819	77.5
283.051	81.5
283.282	94.5
283.513	96.5
283.745	84.5
283.976	72.5
284.207	73.5
284.439	83.5
284.67	75.5
284.901	82.5
285.132	85.5
285.364	69.5
285.595	88.5
285.826	97.5
286.057	76.5
286.288	72.5
286.52	82.5
286.751	83.5
286.982	87.5
287.213	87.5
287.444	87.5
287.675	88.5
287.906	87.5
288.138	81.5
288.369	83.5
288.6	73.5
288.831	75.5
289.062	91.5
289.293	86.5
289.524	89.5
289.755	80.5
289.986	63.5
290.217	83.5
290.448	70.5
290.679	86.5
290.91	86.5
291.141	84.5
291.371	82.5
291.602	86.5
291.833	87.5
292.064	91.5
292.295	78.5
292.526	87.5
292.757	80.5
292.987	83.5
293.218	80.5
293.449	95.5
293.68	80.5
293.91	76.5
294.141	83.5
294.372	86.5
294.603	88.5
294.833	85.5
295.064	78.5
295.295	82.5
295.525	65.5
295.756	79.5
295.987	91.5
296.217	84.5
296.448	89.5
296.679	94.5
296.909	98.5
297.14	88.5
297.37	88.5
297.601	77.5
297.831	86.5
298.062	92.5
298.292	85.5
298.523	86.5
298.753	83.5
298.984	91.5
299.214	86.5
299.445	81.5
299.675	83.5
299.905	79.5
300.136	95.5
300.366	91.5
300.597	88.5
300.827	87.5
301.057	77.5
301.288	90.5
301.518	87.5
301.748	79.5
301.979	87.5
302.209	78.5
302.439	86.5
302.669	74.5
302.9	73.5
303.13	84.5
303.36	91.5
303.59	91.5
303.82	81.5
304.051	72.5
304.281	85.5
304.511	84.5
304.741	75.5
304.971	82.5
305.201	80.5
305.431	76.5
305.661	84.5
305.891	88.5
306.121	95.5
306.352	87.5
306.582	90.5
306.812	87.5
307.042	82.5
307.272	84.5
307.502	77.5
307.731	87.5
307.961	104.5
308.191	75.5
308.421	82.5
308.651	93.5
308.881	90.5
309.111	77.5
309.341	85.5
309.571	79.5
309.8	94.5
310.03	91.5
310.26	84.5
310.49	88.5
310.72	89.5
310.949	75.5
311.179	80.5
311.409	94.5
311.639	81.5
311.868	84.5
312.098	82.5
312.328	98.5
312.557	87.5
312.787	85.5
313.017	77.5
313.246	88.5
313.476	80.5
313.706	87.5
313.935	87.5
314.165	96.5
314.394	101.5
314.624	94.5
314.853	95.5
315.083	82.5
315.312	80.5
315.542	81.5
315.771	79.5
316.001	80.5
316.23	74.5
316.46	86.5
316.689	89.5
316.919	88.5
317.148	85.5
317.377	84.5
317.607	81.5
317.836	96.5
318.065	67.5
318.295	81.5
318.524	91.5
318.753	90.5
318.983	96.5
319.212	80.5
319.441	90.5
319.67	73.5
319.9	87.5
320.129	88.5
320.358	97.5
320.587	81.5
320.816	76.5
321.046	81.5
321.275	90.5
321.504	84.5
321.733	80.5
321.962	82.5
322.191	88.5
322.42	84.5
322.649	83.5
322.878	75.5
323.108	85.5
323.337	90.5
323.566	91.5
323.795	76.5
324.024	99.5
324.253	103.5
324.482	80.5
324.71	81.5
324.939	73.5
325.168	80.5
325.397	71.5
325.626	82.5
325.855	96.5
326.084	88.5
326.313	99.5
326.542	83.5
326.77	93.5
326.999	90.5
327.228	76.5
327.457	76.5
327.686	79.5
327.914	97.5
328.143	91.5
328.372	62.5
328.6	84.5
328.829	91.5
329.058	89.5
329.287	95.5
329.515	76.5
329.744	81.5
329.972	90.5
330.201	88.5
330.43	97.5
330.658	76.5
330.887	64.5
331.115	84.5
331.344	99.5
331.572	77.5
331.801	89.5
332.03	95.5
332.258	77.5
332.486	81.5
332.715	87.5
332.943	83.5
333.172	91.5
333.4	76.5
333.629	94.5
333.857	81.5
334.085	99.5
334.314	85.5
334.542	87.5
334.771	87.5
334.999	88.5
335.227	76.5
335.455	83.5
335.684	73.5
335.912	89.5
336.14	76.5
336.369	85.5
336.597	92.5
336.825	92.5
337.053	83.5
337.281	80.5
337.51	81.5
337.738	84.5
337.966	81.5
338.194	80.5
338.422	77.5
338.65	93.5
338.878	101.5
339.106	80.5
339.334	83.5
339.562	82.5
339.79	91.5
340.018	74.5
340.246	94.5
340.474	87.5
340.702	72.5
340.93	77.5
341.158	84.5
341.386	72.5
341.614	86.5
341.842	79.5
342.07	81.5
342.298	96.5
342.526	95.5
342.754	92.5
342.981	74.5
343.209	80.5
343.437	78.5
343.665	79.5
343.893	79.5
344.12	81.5
344.348	85.5
344.576	89.5
344.804	82.5
345.031	97.5
345.259	74.5
345.487	79.5
345.714	90.5
345.942	90.5
346.17	86.5
346.397	75.5
346.625	81.5
346.853	77.5
347.08	71.5
347.308	97.5
347.535	91.5
347.763	83.5
347.99	88.5
348.218	85.5
348.445	81.5
348.673	99.5
348.9	79.5
349.128	86.5
349.355	86.5
349.583	84.5
349.81	72.5
350.037	90.5
350.265	98.5
350.492	89.5
350.72	85.5
350.947	76.5
351.174	86.5
351.402	83.5
351.629	89.5
351.856	96.5
352.083	103.5
352.311	90.5
352.538	76.5
352.765	78.5
352.992	104.5
353.22	88.5
353.447	92.5
353.674	85.5
353.901	80.5
354.128	88.5
354.355	80.5
354.583	98.5
354.81	94.5
355.037	84.5
355.264	81.5
355.491	85.5
355.718	86.5
355.945	84.5
356.172	93.5
356.399	82.5
356.626	83.5
356.853	77.5
357.08	100.5
357.307	81.5
357.534	90.5
357.761	80.5
357.988	87.5
358.215	103.5
358.441	99.5
358.668	86.5
358.895	95.5
359.122	91.5
359.349	77.5
359.576	79.5
359.802	80.5
360.029	88.5
360.256	95.5
360.483	91.5
360.709	85.5
360.936	91.5
361.163	83.5
361.39	91.5
361.616	81.5
361.843	84.5
362.07	83.5
362.296	77.5
362.523	89.5
362.749	87.5
362.976	85.5
363.203	93.5
363.429	83.5
363.656	97.5
363.882	77.5
364.109	105.5
364.335	88.5
364.562	77.5
364.788	77.5
365.015	83.5
365.241	91.5
365.468	94.5
365.694	87.5
365.92	105.5
366.147	97.5
366.373	81.5
366.599	97.5
366.826	88.5
367.052	86.5
367.278	86.5
367.505	85.5
367.731	84.5
367.957	73.5
368.184	95.5
368.41	82.5
368.636	83.5
368.862	76.5
369.089	88.5
369.315	98.5
369.541	100.5
369.767	98.5
369.993	84.5
370.219	80.5
370.445	90.5
370.672	81.5
370.898	83.5
371.124	101.5
371.35	77.5
371.576	77.5
371.802	92.5
372.028	84.5
372.254	97.5
372.48	83.5
372.706	94.5
372.932	82.5
373.158	93.5
373.384	97.5
373.61	93.5
373.835	73.5
374.061	95.5
374.287	80.5
374.513	91.5
374.739	82.5
374.965	87.5
375.191	84.5
375.416	91.5
375.642	91.5
375.868	86.5
376.094	69.5
376.319	92.5
376.545	86.5
376.771	92.5
376.997	91.5
377.222	83.5
377.448	85.5
377.674	91.5
377.899	86.5
378.125	90.5
378.35	87.5
378.576	73.5
378.802	80.5
379.027	99.5
379.253	85.5
379.478	91.5
379.704	87.5
379.929	100.5
380.155	88.5
380.38	77.5
380.606	98.5
380.831	82.5
381.057	92.5
381.282	90.5
381.507	83.5
381.733	92.5
381.958	99.5
382.184	92.5
382.409	91.5
382.634	85.5
382.86	90.5
383.085	98.5
383.31	90.5
383.535	80.5
383.761	83.5
383.986	87.5
384.211	86.5
384.436	88.5
384.662	99.5
384.887	93.5
385.112	92.5
385.337	84.5
385.562	113.5
385.787	79.5
386.013	76.5
386.238	91.5
386.463	88.5
386.688	85.5
386.913	91.5
387.138	78.5
387.363	100.5
387.588	87.5
387.813	91.5
388.038	108.5
388.263	101.5
388.488	81.5
388.713	85.5
388.938	92.5
389.163	85.5
389.387	97.5
389.612	99.5
389.837	100.5
390.062	88.5
390.287	93.5
390.512	103.5
390.736	101.5
390.961	76.5
391.186	90.5
391.411	95.5
391.636	93.5
391.86	100.5
392.085	95.5
392.31	99.5
392.534	93.5
392.759	103.5
392.984	101.5
393.208	101.5
393.433	80.5
393.658	87.5
393.882	100.5
394.107	103.5
394.331	83.5
394.556	87.5
394.78	88.5
395.005	108.5
395.229	98.5
395.454	101.5
395.678	108.5
395.903	95.5
396.127	95.5
396.352	98.5
396.576	93.5
396.801	104.5
397.025	94.5
397.249	91.5
397.474	97.5
397.698	102.5
397.922	106.5
398.147	96.5
398.371	95.5
398.595	93.5
398.82	91.5
399.044	97.5
399.268	86.5
399.492	106.5
399.717	108.5
399.941	117.5
400.165	111.5
400.389	93.5
400.613	105.5
400.837	107.5
401.062	112.5
401.286	100.5
401.51	104.5
401.734	100.5
401.958	99.5
402.182	93.5
402.406	111.5
402.63	113.5
402.854	92.5
403.078	101.5
403.302	101.5
403.526	93.5
403.75	91.5
403.974	103.5
404.198	108.5
404.422	86.5
404.645	99.5
404.869	110.5
405.093	103.5
405.317	103.5
405.541	111.5
405.765	100.5
405.988	99.5
406.212	95.5
406.436	114.5
406.66	138.5
406.883	101.5
407.107	101.5
407.331	98.5
407.555	120.5
407.778	121.5
408.002	102.5
408.226	88.5
408.449	103.5
408.673	96.5
408.896	109.5
409.12	119.5
409.344	113.5
409.567	113.5
409.791	101.5
410.014	105.5
410.238	100.5
410.461	97.5
410.685	102.5
410.908	100.5
411.132	92.5
411.355	112.5
411.578	113.5
411.802	102.5
412.025	105.5
412.249	100.5
412.472	100.5
412.695	110.5
412.919	104.5
413.142	102.5
413.365	99.5
413.589	121.5
413.812	105.5
414.035	108.5
414.258	102.5
414.482	92.5
414.705	110.5
414.928	117.5
415.151	106.5
415.374	113.5
415.597	94.5
415.821	108.5
416.044	116.5
416.267	108.5
416.49	107.5
416.713	118.5
416.936	105.5
417.159	100.5
417.382	108.5
417.605	102.5
417.828	115.5
418.051	114.5
418.274	99.5
418.497	115.5
418.72	115.5
418.943	108.5
419.166	104.5
419.389	125.5
419.611	122.5
419.834	108.5
420.057	115.5
420.28	108.5
420.503	116.5
420.726	116.5
420.948	109.5
421.171	101.5
421.394	117.5
421.617	104.5
421.839	107.5
422.062	123.5
422.285	123.5
422.507	103.5
422.73	115.5
422.953	109.5
423.175	96.5
423.398	102.5
423.621	111.5
423.843	115.5
424.066	117.5
424.288	117.5
424.511	107.5
424.733	103.5
424.956	107.5
425.178	107.5
425.401	107.5
425.623	114.5
425.846	111.5
426.068	107.5
426.291	106.5
426.513	81.5
426.735	105.5
426.958	114.5
427.18	107.5
427.402	112.5
427.625	109.5
427.847	97.5
428.069	114.5
428.292	117.5
428.514	117.5
428.736	110.5
428.958	103.5
429.181	96.5
429.403	107.5
429.625	105.5
429.847	96.5
430.069	103.5
430.292	115.5
430.514	103.5
430.736	98.5
430.958	123.5
431.18	111.5
431.402	100.5
431.624	108.5
431.846	106.5
432.068	115.5
432.29	114.5
432.512	123.5
432.734	100.5
432.956	107.5
433.178	120.5
433.4	111.5
433.622	104.5
433.844	105.5
434.066	103.5
434.287	101.5
434.509	96.5
434.731	80.5
434.953	100.5
435.175	107.5
435.397	107.5
435.618	107.5
435.84	113.5
436.062	120.5
436.284	112.5
436.505	115.5
436.727	114.5
436.949	120.5
437.17	97.5
437.392	99.5
437.614	106.5
437.835	101.5
438.057	85.5
438.278	86.5
438.5	104.5
438.721	112.5
438.943	110.5
439.165	104.5
439.386	119.5
439.608	124.5
439.829	123.5
440.05	119.5
440.272	113.5
440.493	115.5
440.715	113.5
440.936	123.5
441.158	114.5
441.379	119.5
441.6	124.5
441.822	125.5
442.043	112.5
442.264	118.5
442.486	116.5
442.707	100.5
442.928	99.5
443.149	121.5
443.371	121.5
443.592	113.5
443.813	115.5
444.034	130.5
444.255	118.5
444.476	117.5
444.698	127.5
444.919	110.5
445.14	246.5
445.361	183.5
445.582	124.5
445.803	111.5
446.024	100.5
446.245	111.5
446.466	103.5
446.687	103.5
446.908	116.5
447.129	124.5
447.35	108.5
447.571	131.5
447.792	114.5
448.013	93.5
448.234	106.5
448.455	107.5
448.675	102.5
448.896	100.5
449.117	99.5
449.338	113.5
449.559	106.5
449.779	103.5
450	112.5
450.221	123.5
450.442	115.5
450.662	111.5
450.883	103.5
451.104	115.5
451.324	114.5
451.545	114.5
451.766	124.5
451.986	104.5
452.207	102.5
452.428	95.5
452.648	98.5
452.869	96.5
453.089	105.5
453.31	120.5
453.53	106.5
453.751	105.5
453.971	83.5
454.192	89.5
454.412	90.5
454.633	106.5
454.853	105.5
455.073	102.5
455.294	105.5
455.514	113.5
455.734	99.5
455.955	105.5
456.175	101.5
456.395	96.5
456.616	104.5
456.836	92.5
457.056	120.5
457.276	100.5
457.497	104.5
457.717	108.5
457.937	102.5
458.157	108.5
458.377	88.5
458.598	95.5
458.818	98.5
459.038	101.5
459.258	95.5
459.478	110.5
459.698	101.5
459.918	106.5
460.138	110.5
460.358	127.5
460.578	121.5
460.798	103.5
461.018	107.5
461.238	112.5
461.458	107.5
461.678	119.5
461.898	117.5
462.118	111.5
462.338	110.5
462.558	111.5
462.777	100.5
462.997	125.5
463.217	122.5
463.437	117.5
463.657	134.5
463.876	114.5
464.096	107.5
464.316	113.5
464.536	119.5
464.755	127.5
464.975	121.5
465.195	112.5
465.414	111.5
465.634	122.5
465.854	115.5
466.073	107.5
466.293	100.5
466.512	103.5
466.732	104.5
466.951	98.5
467.171	114.5
467.391	115.5
467.61	91.5
467.829	119.5
468.049	107.5
468.268	115.5
468.488	115.5
468.707	98.5
468.927	107.5
469.146	111.5
469.365	112.5
469.585	122.5
469.804	116.5
470.023	99.5
470.243	99.5
470.462	113.5
470.681	129.5
470.901	117.5
471.12	104.5
471.339	119.5
471.558	121.5
471.777	112.5
471.997	108.5
472.216	113.5
472.435	84.5
472.654	105.5
472.873	114.5
473.092	103.5
473.311	111.5
473.53	122.5
473.749	106.5
473.968	118.5
474.187	103.5
474.406	109.5
474.625	98.5
474.844	121.5
475.063	114.5
475.282	95.5
475.501	107.5
475.72	117.5
475.939	102.5
476.158	115.5
476.377	118.5
476.596	111.5
476.814	116.5
477.033	95.5
477.252	98.5
477.471	115.5
477.69	120.5
477.908	104.5
478.127	129.5
478.346	112.5
478.564	112.5
478.783	121.5
479.002	106.5
479.22	116.5
479.439	117.5
479.658	107.5
479.876	120.5
480.095	117.5
480.313	113.5
480.532	112.5
480.751	105.5
480.969	109.5
481.188	111.5
481.406	118.5
481.624	107.5
481.843	101.5
482.061	112.5
482.28	117.5
482.498	125.5
482.717	121.5
482.935	107.5
483.153	106.5
483.372	112.5
483.59	123.5
483.808	121.5
484.027	119.5
484.245	119.5
484.463	122.5
484.681	133.5
484.9	133.5
485.118	129.5
485.336	124.5
485.554	108.5
485.772	104.5
485.99	123.5
486.209	113.5
486.427	135.5
486.645	115.5
486.863	115.5
487.081	111.5
487.299	111.5
487.517	119.5
487.735	135.5
487.953	131.5
488.171	142.5
488.389	121.5
488.607	117.5
488.825	121.5
489.043	103.5
489.261	122.5
489.479	132.5
489.696	128.5
489.914	127.5
490.132	117.5
490.35	113.5
490.568	123.5
490.786	137.5
491.003	137.5
491.221	133.5
491.439	146.5
491.657	131.5
491.874	132.5
492.092	157.5
492.31	163.5
492.527	167.5
492.745	150.5
492.963	139.5
493.18	151.5
493.398	156.5
493.615	143.5
493.833	131.5
494.05	151.5
494.268	131.5
494.485	131.5
494.703	145.5
494.92	143.5
495.138	142.5
495.355	130.5
495.573	151.5
495.79	143.5
496.008	152.5
496.225	149.5
496.442	137.5
496.66	147.5
496.877	142.5
497.094	131.5
497.312	147.5
497.529	145.5
497.746	139.5
497.963	139.5
498.181	130.5
498.398	130.5
498.615	130.5
498.832	133.5
499.049	130.5
499.267	148.5
499.484	137.5
499.701	158.5
499.918	179.5
500.135	177.5
500.352	196.5
500.569	201.5
500.786	204.5
501.003	198.5
501.22	179.5
501.437	172.5
501.654	155.5
501.871	146.5
502.088	157.5
502.305	137.5
502.522	140.5
502.739	115.5
502.956	131.5
503.172	131.5
503.389	114.5
503.606	125.5
503.823	135.5
504.04	126.5
504.256	120.5
504.473	130.5
504.69	131.5
504.907	128.5
505.123	130.5
505.34	118.5
505.557	117.5
505.773	122.5
505.99	108.5
506.207	118.5
506.423	107.5
506.64	118.5
506.856	105.5
507.073	115.5
507.289	121.5
507.506	120.5
507.722	123.5
507.939	123.5
508.155	123.5
508.372	111.5
508.588	122.5
508.805	116.5
509.021	116.5
509.238	117.5
509.454	109.5
509.67	93.5
509.887	105.5
510.103	105.5
510.319	119.5
510.536	111.5
510.752	102.5
510.968	105.5
511.184	98.5
511.401	113.5
511.617	97.5
511.833	99.5
512.049	103.5
512.265	108.5
512.481	103.5
512.698	112.5
512.914	108.5
513.13	116.5
513.346	107.5
513.562	110.5
513.778	117.5
513.994	115.5
514.21	121.5
514.426	105.5
514.642	105.5
514.858	106.5
515.074	109.5
515.29	114.5
515.506	105.5
515.721	111.5
515.937	106.5
516.153	101.5
516.369	116.5
516.585	103.5
516.801	108.5
517.016	127.5
517.232	112.5
517.448	129.5
517.664	115.5
517.879	120.5
518.095	123.5
518.311	119.5
518.527	107.5
518.742	112.5
518.958	119.5
519.173	121.5
519.389	132.5
519.605	113.5
519.82	123.5
520.036	117.5
520.251	92.5
520.467	109.5
520.682	115.5
520.898	106.5
521.113	101.5
521.329	114.5
521.544	96.5
521.76	110.5
521.975	113.5
522.19	111.5
522.406	108.5
522.621	116.5
522.836	111.5
523.052	112.5
523.267	116.5
523.482	123.5
523.698	117.5
523.913	107.5
524.128	122.5
524.343	113.5
524.559	107.5
524.774	107.5
524.989	114.5
525.204	116.5
525.419	101.5
525.634	117.5
525.849	113.5
526.064	117.5
526.28	101.5
526.495	105.5
526.71	119.5
526.925	119.5
527.14	111.5
527.355	113.5
527.57	100.5
527.785	102.5
527.999	110.5
528.214	115.5
528.429	114.5
528.644	109.5
528.859	131.5
529.074	117.5
529.289	131.5
529.503	120.5
529.718	103.5
529.933	121.5
530.148	104.5
530.363	104.5
530.577	124.5
530.792	109.5
531.007	98.5
