Data from StandardFe(NO3)3.TAE.3%Agarose.FlatLispGreen.Lamp.Energy10.07252019_HRD10591_11-55-42-442.txt Node
Date: Thu Jul 25 11:55:42 EDT 2019
User: cochatt
Spectrometer: HR+D1059
Trigger mode: 1
Integration Time (sec): 1.000000E-1
Scans to average: 1
Electric dark correction enabled: true
Nonlinearity correction enabled: false
Boxcar width: 0
XAxis mode: Wavelengths
Number of Pixels in Spectrum: 2048
>>>>>Begin Spectral Data<<<<<
223.165	-14.88
223.4	-14.88
223.635	-14.88
223.869	-20.88
224.104	-18.88
224.338	-17.88
224.573	-15.88
224.808	-26.88
225.042	-11.88
225.277	2.12
225.511	9.12
225.746	4.12
225.98	-6.88
226.215	2.12
226.449	26.12
226.683	33.12
226.918	30.12
227.152	27.12
227.387	41.12
227.621	29.12
227.856	57.12
228.09	40.12
228.324	36.12
228.559	50.12
228.793	64.12
229.027	65.12
229.262	64.12
229.496	64.12
229.73	88.12
229.964	68.12
230.199	73.12
230.433	62.12
230.667	87.12
230.901	80.12
231.136	66.12
231.37	74.12
231.604	84.12
231.838	69.12
232.072	82.12
232.306	94.12
232.541	82.12
232.775	74.12
233.009	84.12
233.243	90.12
233.477	90.12
233.711	84.12
233.945	80.12
234.179	90.12
234.413	86.12
234.647	77.12
234.881	81.12
235.115	80.12
235.349	93.12
235.583	80.12
235.817	85.12
236.051	78.12
236.285	74.12
236.519	68.12
236.753	89.12
236.987	70.12
237.221	84.12
237.455	77.12
237.689	77.12
237.922	72.12
238.156	98.12
238.39	77.12
238.624	76.12
238.858	72.12
239.091	83.12
239.325	83.12
239.559	77.12
239.793	82.12
240.027	73.12
240.26	67.12
240.494	85.12
240.728	81.12
240.961	83.12
241.195	74.12
241.429	83.12
241.662	82.12
241.896	81.12
242.13	82.12
242.363	69.12
242.597	86.12
242.83	68.12
243.064	75.12
243.298	80.12
243.531	62.12
243.765	82.12
243.998	76.12
244.232	64.12
244.465	82.12
244.699	76.12
244.932	66.12
245.166	73.12
245.399	89.12
245.633	70.12
245.866	73.12
246.099	91.12
246.333	64.12
246.566	86.12
246.8	78.12
247.033	75.12
247.266	73.12
247.5	76.12
247.733	79.12
247.966	82.12
248.2	76.12
248.433	75.12
248.666	81.12
248.899	90.12
249.133	78.12
249.366	79.12
249.599	73.12
249.832	73.12
250.066	89.12
250.299	65.12
250.532	84.12
250.765	77.12
250.998	68.12
251.231	69.12
251.465	71.12
251.698	76.12
251.931	74.12
252.164	90.12
252.397	65.12
252.63	81.12
252.863	79.12
253.096	70.12
253.329	75.12
253.562	71.12
253.795	88.12
254.028	85.12
254.261	86.12
254.494	86.12
254.727	81.12
254.96	82.12
255.193	89.12
255.426	66.12
255.659	74.12
255.892	85.12
256.124	78.12
256.357	82.12
256.59	77.12
256.823	75.12
257.056	76.12
257.289	82.12
257.521	78.12
257.754	82.12
257.987	78.12
258.22	90.12
258.452	82.12
258.685	77.12
258.918	78.12
259.151	74.12
259.383	71.12
259.616	73.12
259.849	70.12
260.081	81.12
260.314	73.12
260.547	76.12
260.779	79.12
261.012	76.12
261.244	77.12
261.477	84.12
261.71	62.12
261.942	79.12
262.175	70.12
262.407	73.12
262.64	88.12
262.872	67.12
263.105	84.12
263.337	78.12
263.57	79.12
263.802	79.12
264.035	89.12
264.267	78.12
264.499	72.12
264.732	81.12
264.964	90.12
265.197	73.12
265.429	72.12
265.661	95.12
265.894	86.12
266.126	82.12
266.358	92.12
266.591	76.12
266.823	78.12
267.055	74.12
267.287	83.12
267.52	84.12
267.752	101.12
267.984	89.12
268.216	89.12
268.448	88.12
268.681	85.12
268.913	81.12
269.145	87.12
269.377	61.12
269.609	93.12
269.841	80.12
270.073	76.12
270.306	83.12
270.538	82.12
270.77	84.12
271.002	96.12
271.234	84.12
271.466	86.12
271.698	71.12
271.93	79.12
272.162	74.12
272.394	89.12
272.626	82.12
272.858	104.12
273.09	89.12
273.322	75.12
273.553	90.12
273.785	85.12
274.017	86.12
274.249	86.12
274.481	81.12
274.713	96.12
274.945	78.12
275.176	73.12
275.408	97.12
275.64	83.12
275.872	86.12
276.104	93.12
276.335	79.12
276.567	81.12
276.799	90.12
277.031	88.12
277.262	96.12
277.494	78.12
277.726	71.12
277.957	102.12
278.189	74.12
278.421	69.12
278.652	105.12
278.884	86.12
279.115	69.12
279.347	76.12
279.579	79.12
279.81	77.12
280.042	78.12
280.273	75.12
280.505	74.12
280.736	77.12
280.968	72.12
281.199	86.12
281.431	79.12
281.662	88.12
281.894	81.12
282.125	89.12
282.356	77.12
282.588	78.12
282.819	88.12
283.051	77.12
283.282	84.12
283.513	75.12
283.745	82.12
283.976	74.12
284.207	89.12
284.439	77.12
284.67	86.12
284.901	88.12
285.132	78.12
285.364	86.12
285.595	100.12
285.826	86.12
286.057	89.12
286.288	91.12
286.52	81.12
286.751	104.12
286.982	100.12
287.213	81.12
287.444	77.12
287.675	91.12
287.906	80.12
288.138	90.12
288.369	88.12
288.6	95.12
288.831	76.12
289.062	77.12
289.293	79.12
289.524	90.12
289.755	84.12
289.986	88.12
290.217	76.12
290.448	76.12
290.679	107.12
290.91	81.12
291.141	86.12
291.371	88.12
291.602	84.12
291.833	96.12
292.064	96.12
292.295	87.12
292.526	86.12
292.757	94.12
292.987	81.12
293.218	92.12
293.449	96.12
293.68	98.12
293.91	97.12
294.141	83.12
294.372	83.12
294.603	84.12
294.833	80.12
295.064	86.12
295.295	97.12
295.525	89.12
295.756	88.12
295.987	80.12
296.217	71.12
296.448	74.12
296.679	80.12
296.909	97.12
297.14	82.12
297.37	77.12
297.601	76.12
297.831	83.12
298.062	99.12
298.292	89.12
298.523	84.12
298.753	84.12
298.984	86.12
299.214	99.12
299.445	100.12
299.675	80.12
299.905	92.12
300.136	89.12
300.366	94.12
300.597	89.12
300.827	94.12
301.057	98.12
301.288	93.12
301.518	84.12
301.748	97.12
301.979	97.12
302.209	100.12
302.439	91.12
302.669	88.12
302.9	93.12
303.13	82.12
303.36	82.12
303.59	87.12
303.82	98.12
304.051	88.12
304.281	83.12
304.511	83.12
304.741	76.12
304.971	88.12
305.201	110.12
305.431	79.12
305.661	86.12
305.891	68.12
306.121	84.12
306.352	76.12
306.582	85.12
306.812	91.12
307.042	80.12
307.272	89.12
307.502	89.12
307.731	90.12
307.961	83.12
308.191	84.12
308.421	65.12
308.651	91.12
308.881	100.12
309.111	86.12
309.341	92.12
309.571	82.12
309.8	73.12
310.03	93.12
310.26	93.12
310.49	88.12
310.72	86.12
310.949	95.12
311.179	84.12
311.409	97.12
311.639	67.12
311.868	84.12
312.098	90.12
312.328	98.12
312.557	83.12
312.787	88.12
313.017	83.12
313.246	73.12
313.476	97.12
313.706	79.12
313.935	87.12
314.165	87.12
314.394	74.12
314.624	86.12
314.853	93.12
315.083	85.12
315.312	73.12
315.542	85.12
315.771	94.12
316.001	79.12
316.23	93.12
316.46	90.12
316.689	90.12
316.919	84.12
317.148	96.12
317.377	84.12
317.607	77.12
317.836	77.12
318.065	92.12
318.295	87.12
318.524	81.12
318.753	86.12
318.983	75.12
319.212	92.12
319.441	73.12
319.67	91.12
319.9	88.12
320.129	88.12
320.358	79.12
320.587	88.12
320.816	91.12
321.046	85.12
321.275	84.12
321.504	96.12
321.733	84.12
321.962	96.12
322.191	84.12
322.42	76.12
322.649	104.12
322.878	86.12
323.108	90.12
323.337	95.12
323.566	87.12
323.795	78.12
324.024	90.12
324.253	86.12
324.482	86.12
324.71	78.12
324.939	89.12
325.168	90.12
325.397	85.12
325.626	100.12
325.855	92.12
326.084	83.12
326.313	93.12
326.542	90.12
326.77	93.12
326.999	95.12
327.228	79.12
327.457	62.12
327.686	85.12
327.914	79.12
328.143	85.12
328.372	93.12
328.6	77.12
328.829	82.12
329.058	86.12
329.287	96.12
329.515	80.12
329.744	72.12
329.972	89.12
330.201	86.12
330.43	96.12
330.658	76.12
330.887	86.12
331.115	84.12
331.344	81.12
331.572	82.12
331.801	80.12
332.03	75.12
332.258	92.12
332.486	82.12
332.715	80.12
332.943	92.12
333.172	89.12
333.4	81.12
333.629	92.12
333.857	77.12
334.085	100.12
334.314	98.12
334.542	90.12
334.771	90.12
334.999	79.12
335.227	77.12
335.455	91.12
335.684	91.12
335.912	91.12
336.14	80.12
336.369	88.12
336.597	95.12
336.825	97.12
337.053	92.12
337.281	85.12
337.51	102.12
337.738	103.12
337.966	73.12
338.194	85.12
338.422	102.12
338.65	89.12
338.878	70.12
339.106	88.12
339.334	77.12
339.562	85.12
339.79	90.12
340.018	90.12
340.246	78.12
340.474	95.12
340.702	87.12
340.93	85.12
341.158	82.12
341.386	100.12
341.614	87.12
341.842	69.12
342.07	77.12
342.298	85.12
342.526	86.12
342.754	91.12
342.981	79.12
343.209	73.12
343.437	98.12
343.665	88.12
343.893	88.12
344.12	99.12
344.348	81.12
344.576	84.12
344.804	94.12
345.031	73.12
345.259	84.12
345.487	74.12
345.714	88.12
345.942	94.12
346.17	89.12
346.397	74.12
346.625	87.12
346.853	85.12
347.08	78.12
347.308	88.12
347.535	84.12
347.763	85.12
347.99	104.12
348.218	96.12
348.445	92.12
348.673	76.12
348.9	94.12
349.128	90.12
349.355	99.12
349.583	99.12
349.81	94.12
350.037	82.12
350.265	92.12
350.492	94.12
350.72	86.12
350.947	78.12
351.174	78.12
351.402	84.12
351.629	104.12
351.856	89.12
352.083	88.12
352.311	97.12
352.538	97.12
352.765	75.12
352.992	88.12
353.22	86.12
353.447	79.12
353.674	84.12
353.901	90.12
354.128	93.12
354.355	81.12
354.583	80.12
354.81	90.12
355.037	86.12
355.264	74.12
355.491	85.12
355.718	94.12
355.945	102.12
356.172	94.12
356.399	89.12
356.626	84.12
356.853	83.12
357.08	76.12
357.307	84.12
357.534	90.12
357.761	90.12
357.988	82.12
358.215	90.12
358.441	101.12
358.668	93.12
358.895	85.12
359.122	79.12
359.349	93.12
359.576	86.12
359.802	85.12
360.029	90.12
360.256	102.12
360.483	101.12
360.709	98.12
360.936	90.12
361.163	82.12
361.39	88.12
361.616	80.12
361.843	85.12
362.07	88.12
362.296	76.12
362.523	86.12
362.749	72.12
362.976	76.12
363.203	87.12
363.429	91.12
363.656	87.12
363.882	90.12
364.109	87.12
364.335	84.12
364.562	80.12
364.788	90.12
365.015	89.12
365.241	89.12
365.468	83.12
365.694	74.12
365.92	73.12
366.147	84.12
366.373	94.12
366.599	83.12
366.826	103.12
367.052	90.12
367.278	91.12
367.505	89.12
367.731	81.12
367.957	96.12
368.184	104.12
368.41	84.12
368.636	94.12
368.862	88.12
369.089	96.12
369.315	86.12
369.541	79.12
369.767	77.12
369.993	88.12
370.219	96.12
370.445	85.12
370.672	92.12
370.898	90.12
371.124	81.12
371.35	90.12
371.576	98.12
371.802	86.12
372.028	73.12
372.254	91.12
372.48	76.12
372.706	82.12
372.932	80.12
373.158	76.12
373.384	86.12
373.61	88.12
373.835	101.12
374.061	96.12
374.287	99.12
374.513	84.12
374.739	82.12
374.965	84.12
375.191	85.12
375.416	87.12
375.642	91.12
375.868	78.12
376.094	94.12
376.319	79.12
376.545	83.12
376.771	85.12
376.997	86.12
377.222	77.12
377.448	73.12
377.674	97.12
377.899	96.12
378.125	85.12
378.35	94.12
378.576	90.12
378.802	97.12
379.027	90.12
379.253	77.12
379.478	78.12
379.704	82.12
379.929	100.12
380.155	89.12
380.38	92.12
380.606	85.12
380.831	96.12
381.057	109.12
381.282	81.12
381.507	85.12
381.733	100.12
381.958	102.12
382.184	80.12
382.409	94.12
382.634	106.12
382.86	103.12
383.085	91.12
383.31	98.12
383.535	94.12
383.761	85.12
383.986	94.12
384.211	90.12
384.436	93.12
384.662	105.12
384.887	96.12
385.112	99.12
385.337	83.12
385.562	94.12
385.787	96.12
386.013	97.12
386.238	89.12
386.463	105.12
386.688	97.12
386.913	86.12
387.138	92.12
387.363	93.12
387.588	97.12
387.813	93.12
388.038	98.12
388.263	101.12
388.488	90.12
388.713	97.12
388.938	97.12
389.163	97.12
389.387	110.12
389.612	99.12
389.837	96.12
390.062	93.12
390.287	89.12
390.512	104.12
390.736	93.12
390.961	86.12
391.186	98.12
391.411	101.12
391.636	92.12
391.86	96.12
392.085	102.12
392.31	111.12
392.534	87.12
392.759	95.12
392.984	100.12
393.208	106.12
393.433	106.12
393.658	92.12
393.882	99.12
394.107	97.12
394.331	108.12
394.556	102.12
394.78	99.12
395.005	100.12
395.229	91.12
395.454	101.12
395.678	99.12
395.903	110.12
396.127	115.12
396.352	83.12
396.576	94.12
396.801	108.12
397.025	98.12
397.249	106.12
397.474	96.12
397.698	86.12
397.922	97.12
398.147	90.12
398.371	92.12
398.595	112.12
398.82	103.12
399.044	89.12
399.268	110.12
399.492	101.12
399.717	126.12
399.941	118.12
400.165	113.12
400.389	105.12
400.613	108.12
400.837	102.12
401.062	104.12
401.286	108.12
401.51	108.12
401.734	91.12
401.958	113.12
402.182	92.12
402.406	109.12
402.63	85.12
402.854	106.12
403.078	100.12
403.302	114.12
403.526	118.12
403.75	109.12
403.974	115.12
404.198	114.12
404.422	112.12
404.645	116.12
404.869	88.12
405.093	94.12
405.317	109.12
405.541	124.12
405.765	101.12
405.988	119.12
406.212	100.12
406.436	102.12
406.66	118.12
406.883	112.12
407.107	105.12
407.331	102.12
407.555	95.12
407.778	118.12
408.002	112.12
408.226	117.12
408.449	103.12
408.673	106.12
408.896	113.12
409.12	108.12
409.344	108.12
409.567	99.12
409.791	116.12
410.014	101.12
410.238	103.12
410.461	116.12
410.685	103.12
410.908	98.12
411.132	120.12
411.355	112.12
411.578	99.12
411.802	110.12
412.025	95.12
412.249	119.12
412.472	94.12
412.695	106.12
412.919	113.12
413.142	101.12
413.365	97.12
413.589	106.12
413.812	105.12
414.035	117.12
414.258	119.12
414.482	110.12
414.705	110.12
414.928	101.12
415.151	99.12
415.374	104.12
415.597	97.12
415.821	106.12
416.044	118.12
416.267	120.12
416.49	113.12
416.713	103.12
416.936	121.12
417.159	110.12
417.382	105.12
417.605	100.12
417.828	116.12
418.051	117.12
418.274	117.12
418.497	113.12
418.72	123.12
418.943	107.12
419.166	110.12
419.389	120.12
419.611	112.12
419.834	114.12
420.057	120.12
420.28	116.12
420.503	118.12
420.726	106.12
420.948	116.12
421.171	106.12
421.394	118.12
421.617	118.12
421.839	113.12
422.062	117.12
422.285	112.12
422.507	118.12
422.73	110.12
422.953	108.12
423.175	101.12
423.398	109.12
423.621	106.12
423.843	123.12
424.066	122.12
424.288	114.12
424.511	120.12
424.733	122.12
424.956	106.12
425.178	127.12
425.401	112.12
425.623	125.12
425.846	116.12
426.068	120.12
426.291	123.12
426.513	114.12
426.735	114.12
426.958	130.12
427.18	101.12
427.402	120.12
427.625	109.12
427.847	109.12
428.069	116.12
428.292	124.12
428.514	113.12
428.736	112.12
428.958	117.12
429.181	100.12
429.403	110.12
429.625	100.12
429.847	108.12
430.069	109.12
430.292	112.12
430.514	106.12
430.736	124.12
430.958	105.12
431.18	115.12
431.402	113.12
431.624	104.12
431.846	108.12
432.068	106.12
432.29	99.12
432.512	105.12
432.734	103.12
432.956	106.12
433.178	116.12
433.4	124.12
433.622	117.12
433.844	99.12
434.066	111.12
434.287	102.12
434.509	106.12
434.731	96.12
434.953	120.12
435.175	112.12
435.397	129.12
435.618	115.12
435.84	105.12
436.062	112.12
436.284	101.12
436.505	101.12
436.727	112.12
436.949	105.12
437.17	118.12
437.392	109.12
437.614	100.12
437.835	100.12
438.057	104.12
438.278	112.12
438.5	107.12
438.721	106.12
438.943	134.12
439.165	125.12
439.386	122.12
439.608	122.12
439.829	123.12
440.05	125.12
440.272	115.12
440.493	108.12
440.715	112.12
440.936	101.12
441.158	121.12
441.379	133.12
441.6	124.12
441.822	101.12
442.043	112.12
442.264	130.12
442.486	116.12
442.707	113.12
442.928	120.12
443.149	122.12
443.371	128.12
443.592	124.12
443.813	120.12
444.034	117.12
444.255	118.12
444.476	121.12
444.698	114.12
444.919	127.12
445.14	215.12
445.361	161.12
445.582	107.12
445.803	104.12
446.024	113.12
446.245	116.12
446.466	109.12
446.687	117.12
446.908	120.12
447.129	124.12
447.35	114.12
447.571	113.12
447.792	114.12
448.013	113.12
448.234	113.12
448.455	124.12
448.675	109.12
448.896	119.12
449.117	120.12
449.338	117.12
449.559	102.12
449.779	124.12
450	100.12
450.221	118.12
450.442	113.12
450.662	117.12
450.883	103.12
451.104	107.12
451.324	99.12
451.545	108.12
451.766	120.12
451.986	99.12
452.207	107.12
452.428	108.12
452.648	95.12
452.869	96.12
453.089	109.12
453.31	107.12
453.53	101.12
453.751	117.12
453.971	89.12
454.192	98.12
454.412	114.12
454.633	94.12
454.853	107.12
455.073	101.12
455.294	109.12
455.514	108.12
455.734	113.12
455.955	109.12
456.175	102.12
456.395	96.12
456.616	102.12
456.836	118.12
457.056	107.12
457.276	96.12
457.497	138.12
457.717	108.12
457.937	99.12
458.157	104.12
458.377	108.12
458.598	102.12
458.818	100.12
459.038	101.12
459.258	107.12
459.478	100.12
459.698	109.12
459.918	105.12
460.138	116.12
460.358	121.12
460.578	121.12
460.798	130.12
461.018	130.12
461.238	100.12
461.458	118.12
461.678	121.12
461.898	115.12
462.118	118.12
462.338	111.12
462.558	108.12
462.777	117.12
462.997	120.12
463.217	124.12
463.437	135.12
463.657	128.12
463.876	116.12
464.096	123.12
464.316	132.12
464.536	130.12
464.755	120.12
464.975	123.12
465.195	125.12
465.414	112.12
465.634	112.12
465.854	110.12
466.073	122.12
466.293	112.12
466.512	98.12
466.732	115.12
466.951	121.12
467.171	112.12
467.391	112.12
467.61	102.12
467.829	114.12
468.049	112.12
468.268	116.12
468.488	117.12
468.707	117.12
468.927	108.12
469.146	120.12
469.365	113.12
469.585	106.12
469.804	112.12
470.023	115.12
470.243	114.12
470.462	121.12
470.681	115.12
470.901	117.12
471.12	123.12
471.339	111.12
471.558	125.12
471.777	134.12
471.997	119.12
472.216	117.12
472.435	103.12
472.654	121.12
472.873	112.12
473.092	116.12
473.311	100.12
473.53	106.12
473.749	124.12
473.968	114.12
474.187	101.12
474.406	114.12
474.625	114.12
474.844	117.12
475.063	103.12
475.282	107.12
475.501	114.12
475.72	107.12
475.939	106.12
476.158	114.12
476.377	115.12
476.596	99.12
476.814	121.12
477.033	116.12
477.252	107.12
477.471	126.12
477.69	128.12
477.908	118.12
478.127	124.12
478.346	136.12
478.564	130.12
478.783	108.12
479.002	124.12
479.22	117.12
479.439	126.12
479.658	122.12
479.876	121.12
480.095	118.12
480.313	122.12
480.532	124.12
480.751	120.12
480.969	113.12
481.188	125.12
481.406	112.12
481.624	102.12
481.843	125.12
482.061	121.12
482.28	116.12
482.498	132.12
482.717	108.12
482.935	111.12
483.153	116.12
483.372	119.12
483.59	135.12
483.808	120.12
484.027	120.12
484.245	119.12
484.463	120.12
484.681	139.12
484.9	113.12
485.118	128.12
485.336	120.12
485.554	118.12
485.772	127.12
485.99	126.12
486.209	114.12
486.427	118.12
486.645	125.12
486.863	124.12
487.081	120.12
487.299	128.12
487.517	131.12
487.735	141.12
487.953	142.12
488.171	134.12
488.389	136.12
488.607	138.12
488.825	133.12
489.043	128.12
489.261	120.12
489.479	129.12
489.696	138.12
489.914	131.12
490.132	132.12
490.35	141.12
490.568	151.12
490.786	136.12
491.003	152.12
491.221	143.12
491.439	148.12
491.657	143.12
491.874	152.12
492.092	160.12
492.31	148.12
492.527	159.12
492.745	156.12
492.963	147.12
493.18	145.12
493.398	157.12
493.615	148.12
493.833	140.12
494.05	139.12
494.268	140.12
494.485	143.12
494.703	154.12
494.92	132.12
495.138	141.12
495.355	149.12
495.573	153.12
495.79	145.12
496.008	139.12
496.225	142.12
496.442	142.12
496.66	154.12
496.877	148.12
497.094	142.12
497.312	141.12
497.529	148.12
497.746	138.12
497.963	132.12
498.181	141.12
498.398	145.12
498.615	134.12
498.832	136.12
499.049	139.12
499.267	140.12
499.484	169.12
499.701	176.12
499.918	185.12
500.135	173.12
500.352	213.12
500.569	214.12
500.786	204.12
501.003	204.12
501.22	185.12
501.437	172.12
501.654	168.12
501.871	169.12
502.088	167.12
502.305	146.12
502.522	150.12
502.739	138.12
502.956	153.12
503.172	127.12
503.389	132.12
503.606	128.12
503.823	133.12
504.04	132.12
504.256	128.12
504.473	122.12
504.69	137.12
504.907	138.12
505.123	128.12
505.34	130.12
505.557	128.12
505.773	134.12
505.99	119.12
506.207	116.12
506.423	124.12
506.64	132.12
506.856	130.12
507.073	115.12
507.289	108.12
507.506	131.12
507.722	121.12
507.939	124.12
508.155	128.12
508.372	108.12
508.588	121.12
508.805	122.12
509.021	127.12
509.238	104.12
509.454	114.12
509.67	116.12
509.887	117.12
510.103	127.12
510.319	112.12
510.536	124.12
510.752	123.12
510.968	109.12
511.184	102.12
511.401	119.12
511.617	101.12
