Data from StandardFe(NO3)3.TAE.3%Agarose.FlatLispGreen.Lamp.Energy10.07252019_HRD10591_11-54-38-441.txt Node
Date: Thu Jul 25 11:54:38 EDT 2019
User: cochatt
Spectrometer: HR+D1059
Trigger mode: 1
Integration Time (sec): 1.000000E-1
Scans to average: 1
Electric dark correction enabled: true
Nonlinearity correction enabled: false
Boxcar width: 0
XAxis mode: Wavelengths
Number of Pixels in Spectrum: 2048
>>>>>Begin Spectral Data<<<<<
223.165	-7.88
223.4	-7.88
223.635	-7.88
223.869	-14.88
224.104	-19.88
224.338	-18.88
224.573	-24.88
224.808	-7.88
225.042	-18.88
225.277	-3.88
225.511	-2.88
225.746	13.12
225.98	6.12
226.215	17.12
226.449	20.12
226.683	20.12
226.918	19.12
227.152	24.12
227.387	28.12
227.621	24.12
227.856	43.12
228.09	37.12
228.324	53.12
228.559	40.12
228.793	51.12
229.027	51.12
229.262	49.12
229.496	55.12
229.73	65.12
229.964	70.12
230.199	72.12
230.433	72.12
230.667	70.12
230.901	57.12
231.136	79.12
231.37	78.12
231.604	90.12
231.838	77.12
232.072	80.12
232.306	87.12
232.541	77.12
232.775	81.12
233.009	68.12
233.243	80.12
233.477	76.12
233.711	89.12
233.945	65.12
234.179	73.12
234.413	77.12
234.647	77.12
234.881	79.12
235.115	73.12
235.349	67.12
235.583	61.12
235.817	87.12
236.051	75.12
236.285	77.12
236.519	76.12
236.753	69.12
236.987	71.12
237.221	84.12
237.455	66.12
237.689	69.12
237.922	76.12
238.156	89.12
238.39	70.12
238.624	82.12
238.858	75.12
239.091	75.12
239.325	63.12
239.559	73.12
239.793	59.12
240.027	60.12
240.26	78.12
240.494	87.12
240.728	77.12
240.961	74.12
241.195	78.12
241.429	69.12
241.662	79.12
241.896	65.12
242.13	56.12
242.363	69.12
242.597	73.12
242.83	75.12
243.064	90.12
243.298	83.12
243.531	68.12
243.765	74.12
243.998	67.12
244.232	75.12
244.465	79.12
244.699	83.12
244.932	56.12
245.166	73.12
245.399	68.12
245.633	74.12
245.866	64.12
246.099	71.12
246.333	68.12
246.566	90.12
246.8	70.12
247.033	71.12
247.266	78.12
247.5	66.12
247.733	59.12
247.966	68.12
248.2	73.12
248.433	76.12
248.666	81.12
248.899	64.12
249.133	62.12
249.366	74.12
249.599	72.12
249.832	71.12
250.066	63.12
250.299	84.12
250.532	78.12
250.765	81.12
250.998	84.12
251.231	79.12
251.465	78.12
251.698	82.12
251.931	62.12
252.164	94.12
252.397	73.12
252.63	70.12
252.863	84.12
253.096	79.12
253.329	79.12
253.562	78.12
253.795	87.12
254.028	75.12
254.261	82.12
254.494	73.12
254.727	71.12
254.96	65.12
255.193	70.12
255.426	59.12
255.659	84.12
255.892	63.12
256.124	85.12
256.357	75.12
256.59	71.12
256.823	91.12
257.056	81.12
257.289	59.12
257.521	70.12
257.754	66.12
257.987	78.12
258.22	79.12
258.452	64.12
258.685	50.12
258.918	85.12
259.151	74.12
259.383	80.12
259.616	80.12
259.849	69.12
260.081	75.12
260.314	68.12
260.547	77.12
260.779	67.12
261.012	79.12
261.244	72.12
261.477	89.12
261.71	72.12
261.942	71.12
262.175	68.12
262.407	68.12
262.64	60.12
262.872	92.12
263.105	92.12
263.337	87.12
263.57	83.12
263.802	64.12
264.035	76.12
264.267	85.12
264.499	86.12
264.732	72.12
264.964	81.12
265.197	68.12
265.429	81.12
265.661	76.12
265.894	76.12
266.126	63.12
266.358	71.12
266.591	78.12
266.823	79.12
267.055	84.12
267.287	72.12
267.52	76.12
267.752	75.12
267.984	76.12
268.216	75.12
268.448	68.12
268.681	83.12
268.913	72.12
269.145	86.12
269.377	87.12
269.609	89.12
269.841	85.12
270.073	81.12
270.306	83.12
270.538	70.12
270.77	74.12
271.002	75.12
271.234	80.12
271.466	93.12
271.698	73.12
271.93	74.12
272.162	82.12
272.394	88.12
272.626	66.12
272.858	85.12
273.09	78.12
273.322	76.12
273.553	77.12
273.785	73.12
274.017	71.12
274.249	75.12
274.481	75.12
274.713	85.12
274.945	72.12
275.176	72.12
275.408	76.12
275.64	78.12
275.872	82.12
276.104	83.12
276.335	73.12
276.567	72.12
276.799	76.12
277.031	97.12
277.262	80.12
277.494	64.12
277.726	77.12
277.957	69.12
278.189	79.12
278.421	67.12
278.652	82.12
278.884	96.12
279.115	82.12
279.347	84.12
279.579	71.12
279.81	79.12
280.042	66.12
280.273	72.12
280.505	85.12
280.736	86.12
280.968	82.12
281.199	103.12
281.431	78.12
281.662	81.12
281.894	92.12
282.125	66.12
282.356	78.12
282.588	84.12
282.819	86.12
283.051	83.12
283.282	85.12
283.513	82.12
283.745	86.12
283.976	77.12
284.207	83.12
284.439	78.12
284.67	67.12
284.901	73.12
285.132	79.12
285.364	76.12
285.595	88.12
285.826	87.12
286.057	77.12
286.288	89.12
286.52	86.12
286.751	79.12
286.982	87.12
287.213	74.12
287.444	86.12
287.675	81.12
287.906	79.12
288.138	89.12
288.369	77.12
288.6	62.12
288.831	85.12
289.062	87.12
289.293	90.12
289.524	76.12
289.755	79.12
289.986	72.12
290.217	88.12
290.448	72.12
290.679	91.12
290.91	80.12
291.141	63.12
291.371	78.12
291.602	74.12
291.833	79.12
292.064	74.12
292.295	71.12
292.526	75.12
292.757	83.12
292.987	81.12
293.218	81.12
293.449	70.12
293.68	85.12
293.91	89.12
294.141	83.12
294.372	80.12
294.603	77.12
294.833	78.12
295.064	78.12
295.295	85.12
295.525	77.12
295.756	72.12
295.987	93.12
296.217	83.12
296.448	81.12
296.679	80.12
296.909	88.12
297.14	73.12
297.37	80.12
297.601	76.12
297.831	69.12
298.062	77.12
298.292	76.12
298.523	67.12
298.753	75.12
298.984	88.12
299.214	90.12
299.445	85.12
299.675	73.12
299.905	94.12
300.136	83.12
300.366	85.12
300.597	85.12
300.827	83.12
301.057	79.12
301.288	78.12
301.518	73.12
301.748	80.12
301.979	72.12
302.209	85.12
302.439	81.12
302.669	78.12
302.9	80.12
303.13	71.12
303.36	68.12
303.59	78.12
303.82	79.12
304.051	76.12
304.281	81.12
304.511	101.12
304.741	87.12
304.971	82.12
305.201	79.12
305.431	73.12
305.661	77.12
305.891	75.12
306.121	88.12
306.352	84.12
306.582	82.12
306.812	81.12
307.042	80.12
307.272	91.12
307.502	81.12
307.731	85.12
307.961	78.12
308.191	96.12
308.421	86.12
308.651	76.12
308.881	79.12
309.111	73.12
309.341	101.12
309.571	79.12
309.8	65.12
310.03	77.12
310.26	68.12
310.49	83.12
310.72	89.12
310.949	81.12
311.179	67.12
311.409	79.12
311.639	81.12
311.868	83.12
312.098	88.12
312.328	84.12
312.557	65.12
312.787	84.12
313.017	84.12
313.246	75.12
313.476	89.12
313.706	89.12
313.935	88.12
314.165	83.12
314.394	78.12
314.624	78.12
314.853	88.12
315.083	80.12
315.312	80.12
315.542	78.12
315.771	69.12
316.001	67.12
316.23	78.12
316.46	80.12
316.689	82.12
316.919	91.12
317.148	81.12
317.377	81.12
317.607	89.12
317.836	84.12
318.065	86.12
318.295	96.12
318.524	84.12
318.753	78.12
318.983	77.12
319.212	74.12
319.441	85.12
319.67	71.12
319.9	90.12
320.129	75.12
320.358	78.12
320.587	79.12
320.816	69.12
321.046	76.12
321.275	87.12
321.504	80.12
321.733	72.12
321.962	77.12
322.191	88.12
322.42	80.12
322.649	75.12
322.878	71.12
323.108	87.12
323.337	81.12
323.566	77.12
323.795	70.12
324.024	71.12
324.253	80.12
324.482	79.12
324.71	84.12
324.939	83.12
325.168	90.12
325.397	71.12
325.626	86.12
325.855	81.12
326.084	77.12
326.313	86.12
326.542	85.12
326.77	92.12
326.999	75.12
327.228	83.12
327.457	79.12
327.686	86.12
327.914	76.12
328.143	83.12
328.372	76.12
328.6	73.12
328.829	99.12
329.058	82.12
329.287	61.12
329.515	91.12
329.744	84.12
329.972	68.12
330.201	87.12
330.43	84.12
330.658	79.12
330.887	89.12
331.115	75.12
331.344	70.12
331.572	97.12
331.801	81.12
332.03	89.12
332.258	63.12
332.486	78.12
332.715	90.12
332.943	68.12
333.172	83.12
333.4	71.12
333.629	80.12
333.857	90.12
334.085	87.12
334.314	71.12
334.542	88.12
334.771	81.12
334.999	82.12
335.227	77.12
335.455	76.12
335.684	65.12
335.912	78.12
336.14	83.12
336.369	85.12
336.597	84.12
336.825	77.12
337.053	77.12
337.281	90.12
337.51	69.12
337.738	68.12
337.966	86.12
338.194	91.12
338.422	80.12
338.65	84.12
338.878	81.12
339.106	78.12
339.334	75.12
339.562	68.12
339.79	92.12
340.018	76.12
340.246	78.12
340.474	74.12
340.702	69.12
340.93	78.12
341.158	71.12
341.386	81.12
341.614	68.12
341.842	88.12
342.07	76.12
342.298	70.12
342.526	77.12
342.754	91.12
342.981	88.12
343.209	81.12
343.437	72.12
343.665	81.12
343.893	89.12
344.12	90.12
344.348	78.12
344.576	73.12
344.804	80.12
345.031	82.12
345.259	78.12
345.487	82.12
345.714	84.12
345.942	81.12
346.17	88.12
346.397	85.12
346.625	81.12
346.853	89.12
347.08	83.12
347.308	75.12
347.535	75.12
347.763	80.12
347.99	76.12
348.218	76.12
348.445	93.12
348.673	85.12
348.9	91.12
349.128	72.12
349.355	82.12
349.583	80.12
349.81	81.12
350.037	84.12
350.265	80.12
350.492	83.12
350.72	74.12
350.947	83.12
351.174	78.12
351.402	71.12
351.629	71.12
351.856	76.12
352.083	75.12
352.311	85.12
352.538	68.12
352.765	89.12
352.992	71.12
353.22	75.12
353.447	70.12
353.674	97.12
353.901	84.12
354.128	75.12
354.355	88.12
354.583	73.12
354.81	85.12
355.037	80.12
355.264	92.12
355.491	69.12
355.718	67.12
355.945	84.12
356.172	78.12
356.399	94.12
356.626	74.12
356.853	81.12
357.08	80.12
357.307	81.12
357.534	77.12
357.761	75.12
357.988	95.12
358.215	86.12
358.441	86.12
358.668	84.12
358.895	76.12
359.122	80.12
359.349	87.12
359.576	91.12
359.802	83.12
360.029	88.12
360.256	84.12
360.483	89.12
360.709	75.12
360.936	77.12
361.163	83.12
361.39	67.12
361.616	87.12
361.843	71.12
362.07	80.12
362.296	71.12
362.523	77.12
362.749	83.12
362.976	78.12
363.203	77.12
363.429	82.12
363.656	82.12
363.882	81.12
364.109	88.12
364.335	85.12
364.562	72.12
364.788	79.12
365.015	74.12
365.241	89.12
365.468	92.12
365.694	84.12
365.92	97.12
366.147	74.12
366.373	82.12
366.599	76.12
366.826	83.12
367.052	81.12
367.278	92.12
367.505	86.12
367.731	77.12
367.957	98.12
368.184	80.12
368.41	67.12
368.636	78.12
368.862	88.12
369.089	84.12
369.315	91.12
369.541	82.12
369.767	86.12
369.993	96.12
370.219	69.12
370.445	77.12
370.672	71.12
370.898	80.12
371.124	82.12
371.35	88.12
371.576	81.12
371.802	74.12
372.028	96.12
372.254	74.12
372.48	75.12
372.706	78.12
372.932	76.12
373.158	94.12
373.384	81.12
373.61	73.12
373.835	91.12
374.061	81.12
374.287	71.12
374.513	81.12
374.739	84.12
374.965	74.12
375.191	89.12
375.416	81.12
375.642	82.12
375.868	93.12
376.094	84.12
376.319	89.12
376.545	85.12
376.771	77.12
376.997	87.12
377.222	73.12
377.448	81.12
377.674	87.12
377.899	96.12
378.125	81.12
378.35	79.12
378.576	76.12
378.802	84.12
379.027	80.12
379.253	86.12
379.478	84.12
379.704	78.12
379.929	77.12
380.155	85.12
380.38	92.12
380.606	87.12
380.831	86.12
381.057	91.12
381.282	89.12
381.507	85.12
381.733	77.12
381.958	76.12
382.184	92.12
382.409	95.12
382.634	86.12
382.86	77.12
383.085	88.12
383.31	97.12
383.535	89.12
383.761	90.12
383.986	91.12
384.211	93.12
384.436	74.12
384.662	84.12
384.887	78.12
385.112	83.12
385.337	81.12
385.562	87.12
385.787	93.12
386.013	92.12
386.238	99.12
386.463	84.12
386.688	83.12
386.913	97.12
387.138	91.12
387.363	78.12
387.588	79.12
387.813	93.12
388.038	94.12
388.263	87.12
388.488	87.12
388.713	101.12
388.938	82.12
389.163	81.12
389.387	81.12
389.612	83.12
389.837	103.12
390.062	82.12
390.287	82.12
390.512	87.12
390.736	105.12
390.961	92.12
391.186	101.12
391.411	76.12
391.636	80.12
391.86	92.12
392.085	96.12
392.31	100.12
392.534	93.12
392.759	98.12
392.984	92.12
393.208	90.12
393.433	102.12
393.658	95.12
393.882	91.12
394.107	84.12
394.331	86.12
394.556	92.12
394.78	93.12
395.005	100.12
395.229	95.12
395.454	92.12
395.678	93.12
395.903	84.12
396.127	96.12
396.352	84.12
396.576	100.12
396.801	85.12
397.025	83.12
397.249	99.12
397.474	86.12
397.698	77.12
397.922	94.12
398.147	103.12
398.371	82.12
398.595	79.12
398.82	94.12
399.044	101.12
399.268	95.12
399.492	104.12
399.717	97.12
399.941	108.12
400.165	111.12
400.389	87.12
400.613	102.12
400.837	85.12
401.062	84.12
401.286	93.12
401.51	99.12
401.734	102.12
401.958	111.12
402.182	97.12
402.406	115.12
402.63	95.12
402.854	98.12
403.078	108.12
403.302	114.12
403.526	102.12
403.75	102.12
403.974	97.12
404.198	94.12
404.422	103.12
404.645	127.12
404.869	116.12
405.093	95.12
405.317	106.12
405.541	96.12
405.765	102.12
405.988	109.12
406.212	107.12
406.436	97.12
406.66	104.12
406.883	107.12
407.107	96.12
407.331	103.12
407.555	91.12
407.778	94.12
408.002	111.12
408.226	102.12
408.449	93.12
408.673	113.12
408.896	103.12
409.12	104.12
409.344	106.12
409.567	111.12
409.791	112.12
410.014	120.12
410.238	107.12
410.461	112.12
410.685	123.12
410.908	101.12
411.132	108.12
411.355	117.12
411.578	114.12
411.802	99.12
412.025	94.12
412.249	100.12
412.472	108.12
412.695	107.12
412.919	117.12
413.142	102.12
413.365	89.12
413.589	99.12
413.812	96.12
414.035	108.12
414.258	115.12
414.482	95.12
414.705	95.12
414.928	100.12
415.151	99.12
415.374	116.12
415.597	97.12
415.821	101.12
416.044	104.12
416.267	101.12
416.49	88.12
416.713	102.12
416.936	104.12
417.159	94.12
417.382	102.12
417.605	99.12
417.828	110.12
418.051	111.12
418.274	112.12
418.497	114.12
418.72	101.12
418.943	86.12
419.166	106.12
419.389	103.12
419.611	99.12
419.834	112.12
420.057	119.12
420.28	118.12
420.503	108.12
420.726	100.12
420.948	99.12
421.171	95.12
421.394	95.12
421.617	100.12
421.839	114.12
422.062	112.12
422.285	105.12
422.507	101.12
422.73	112.12
422.953	109.12
423.175	100.12
423.398	104.12
423.621	102.12
423.843	110.12
424.066	108.12
424.288	115.12
424.511	103.12
424.733	123.12
424.956	115.12
425.178	114.12
425.401	110.12
425.623	118.12
425.846	88.12
426.068	101.12
426.291	97.12
426.513	114.12
426.735	108.12
426.958	102.12
427.18	113.12
427.402	105.12
427.625	111.12
427.847	105.12
428.069	108.12
428.292	95.12
428.514	99.12
428.736	97.12
428.958	96.12
429.181	115.12
429.403	100.12
429.625	107.12
429.847	105.12
430.069	95.12
430.292	103.12
430.514	109.12
430.736	116.12
430.958	116.12
431.18	116.12
431.402	104.12
431.624	87.12
431.846	113.12
432.068	87.12
432.29	98.12
432.512	111.12
432.734	96.12
432.956	110.12
433.178	113.12
433.4	116.12
433.622	101.12
433.844	113.12
434.066	102.12
434.287	92.12
434.509	98.12
434.731	84.12
434.953	92.12
435.175	112.12
435.397	109.12
435.618	107.12
435.84	79.12
436.062	91.12
436.284	113.12
436.505	109.12
436.727	100.12
436.949	107.12
437.17	101.12
437.392	124.12
437.614	107.12
437.835	92.12
438.057	99.12
438.278	101.12
438.5	98.12
438.721	104.12
438.943	107.12
439.165	99.12
439.386	95.12
439.608	100.12
439.829	103.12
440.05	115.12
440.272	113.12
440.493	107.12
440.715	121.12
440.936	119.12
441.158	104.12
441.379	123.12
441.6	119.12
441.822	118.12
442.043	127.12
442.264	102.12
442.486	115.12
442.707	108.12
442.928	109.12
443.149	117.12
443.371	111.12
443.592	116.12
443.813	108.12
444.034	122.12
444.255	129.12
444.476	104.12
444.698	123.12
444.919	119.12
445.14	240.12
445.361	171.12
445.582	134.12
445.803	110.12
446.024	101.12
446.245	117.12
446.466	116.12
446.687	93.12
446.908	106.12
447.129	103.12
447.35	107.12
447.571	109.12
447.792	99.12
448.013	104.12
448.234	105.12
448.455	89.12
448.675	104.12
448.896	98.12
449.117	115.12
449.338	101.12
449.559	109.12
449.779	93.12
450	123.12
450.221	99.12
450.442	102.12
450.662	102.12
450.883	104.12
451.104	100.12
451.324	100.12
451.545	106.12
451.766	117.12
451.986	100.12
452.207	117.12
452.428	105.12
452.648	101.12
452.869	104.12
453.089	86.12
453.31	98.12
453.53	103.12
453.751	100.12
453.971	98.12
454.192	88.12
454.412	92.12
454.633	105.12
454.853	110.12
455.073	95.12
455.294	89.12
455.514	110.12
455.734	92.12
455.955	105.12
456.175	83.12
456.395	76.12
456.616	91.12
456.836	81.12
457.056	80.12
457.276	89.12
457.497	99.12
457.717	79.12
457.937	108.12
458.157	79.12
458.377	103.12
458.598	99.12
458.818	85.12
459.038	94.12
459.258	90.12
459.478	89.12
459.698	104.12
459.918	93.12
460.138	102.12
460.358	92.12
460.578	114.12
460.798	99.12
461.018	111.12
461.238	121.12
461.458	123.12
461.678	110.12
461.898	115.12
462.118	101.12
462.338	103.12
462.558	112.12
462.777	120.12
462.997	102.12
463.217	117.12
463.437	122.12
463.657	117.12
463.876	115.12
464.096	118.12
464.316	109.12
464.536	108.12
464.755	110.12
464.975	111.12
465.195	118.12
465.414	96.12
465.634	83.12
465.854	117.12
466.073	101.12
466.293	110.12
466.512	119.12
466.732	114.12
466.951	117.12
467.171	111.12
467.391	116.12
467.61	118.12
467.829	119.12
468.049	104.12
468.268	112.12
468.488	112.12
468.707	116.12
468.927	102.12
469.146	105.12
469.365	102.12
469.585	103.12
469.804	109.12
470.023	121.12
470.243	127.12
470.462	121.12
470.681	109.12
470.901	101.12
471.12	107.12
471.339	97.12
471.558	121.12
471.777	122.12
471.997	123.12
472.216	111.12
472.435	114.12
472.654	105.12
472.873	107.12
473.092	108.12
473.311	125.12
473.53	109.12
473.749	109.12
473.968	93.12
474.187	107.12
474.406	99.12
474.625	120.12
474.844	116.12
475.063	108.12
475.282	112.12
475.501	108.12
475.72	120.12
475.939	118.12
476.158	123.12
476.377	104.12
476.596	103.12
476.814	108.12
477.033	109.12
477.252	108.12
477.471	120.12
477.69	110.12
477.908	120.12
478.127	125.12
478.346	119.12
478.564	128.12
478.783	119.12
479.002	114.12
479.22	112.12
479.439	112.12
479.658	117.12
479.876	113.12
480.095	127.12
480.313	123.12
480.532	113.12
480.751	125.12
480.969	94.12
481.188	102.12
481.406	104.12
481.624	110.12
481.843	92.12
482.061	105.12
482.28	115.12
482.498	120.12
482.717	114.12
482.935	124.12
483.153	116.12
483.372	131.12
483.59	125.12
483.808	119.12
484.027	119.12
484.245	118.12
484.463	132.12
484.681	121.12
484.9	120.12
485.118	118.12
485.336	133.12
485.554	119.12
485.772	99.12
485.99	122.12
486.209	100.12
486.427	103.12
486.645	118.12
486.863	128.12
487.081	116.12
487.299	123.12
487.517	111.12
487.735	126.12
487.953	138.12
488.171	128.12
488.389	125.12
488.607	117.12
488.825	113.12
489.043	120.12
489.261	116.12
489.479	116.12
489.696	125.12
489.914	132.12
490.132	133.12
490.35	133.12
490.568	131.12
490.786	150.12
491.003	129.12
491.221	145.12
491.439	150.12
491.657	153.12
491.874	134.12
492.092	156.12
492.31	146.12
492.527	145.12
492.745	147.12
492.963	133.12
493.18	166.12
493.398	151.12
493.615	148.12
493.833	128.12
494.05	133.12
494.268	141.12
494.485	150.12
494.703	135.12
494.92	140.12
495.138	137.12
495.355	145.12
495.573	139.12
495.79	132.12
496.008	137.12
496.225	138.12
496.442	142.12
496.66	156.12
496.877	154.12
497.094	154.12
497.312	133.12
497.529	143.12
497.746	142.12
497.963	129.12
498.181	128.12
498.398	131.12
498.615	125.12
498.832	136.12
499.049	142.12
499.267	149.12
499.484	162.12
499.701	184.12
499.918	168.12
500.135	185.12
500.352	186.12
500.569	197.12
500.786	216.12
501.003	203.12
501.22	184.12
501.437	185.12
501.654	167.12
501.871	148.12
502.088	141.12
502.305	145.12
502.522	140.12
502.739	138.12
502.956	127.12
503.172	126.12
503.389	140.12
503.606	139.12
503.823	143.12
504.04	140.12
504.256	126.12
504.473	141.12
504.69	148.12
504.907	144.12
505.123	125.12
505.34	113.12
505.557	122.12
505.773	123.12
505.99	118.12
506.207	114.12
506.423	118.12
506.64	113.12
506.856	108.12
507.073	116.12
507.289	126.12
507.506	130.12
507.722	127.12
507.939	96.12
508.155	135.12
508.372	94.12
508.588	107.12
508.805	107.12
509.021	112.12
509.238	108.12
509.454	104.12
509.67	98.12
509.887	115.12
510.103	114.12
510.319	126.12
510.536	114.12
510.752	124.12
510.968	106.12
511.184	114.12
511.401	115.12
511.617	95.12
511.833	104.12
512.049	119.12
512.265	102.12
512.481	119.12
512.698	118.12
512.914	108.12
513.13	110.12
