Data from StandardFe(NO3)3.TAE.3%Agarose.FlatLispGreen.Lamp.Energy10.07252019_HRD10591_11-54-15-439.txt Node
Date: Thu Jul 25 11:54:15 EDT 2019
User: cochatt
Spectrometer: HR+D1059
Trigger mode: 1
Integration Time (sec): 1.000000E-1
Scans to average: 1
Electric dark correction enabled: true
Nonlinearity correction enabled: false
Boxcar width: 0
XAxis mode: Wavelengths
Number of Pixels in Spectrum: 2048
>>>>>Begin Spectral Data<<<<<
223.165	-6.25
223.4	-6.25
223.635	-6.25
223.869	-46.25
224.104	-28.25
224.338	-19.25
224.573	-15.25
224.808	-21.25
225.042	2.75
225.277	2.75
225.511	-5.25
225.746	8.75
225.98	-5.25
226.215	13.75
226.449	24.75
226.683	34.75
226.918	32.75
227.152	26.75
227.387	33.75
227.621	38.75
227.856	30.75
228.09	47.75
228.324	48.75
228.559	65.75
228.793	52.75
229.027	64.75
229.262	63.75
229.496	56.75
229.73	58.75
229.964	68.75
230.199	74.75
230.433	71.75
230.667	70.75
230.901	79.75
231.136	71.75
231.37	65.75
231.604	76.75
231.838	74.75
232.072	77.75
232.306	72.75
232.541	81.75
232.775	87.75
233.009	83.75
233.243	84.75
233.477	79.75
233.711	67.75
233.945	83.75
234.179	72.75
234.413	74.75
234.647	91.75
234.881	88.75
235.115	79.75
235.349	80.75
235.583	83.75
235.817	72.75
236.051	88.75
236.285	75.75
236.519	75.75
236.753	71.75
236.987	65.75
237.221	70.75
237.455	75.75
237.689	87.75
237.922	82.75
238.156	78.75
238.39	94.75
238.624	74.75
238.858	71.75
239.091	71.75
239.325	96.75
239.559	86.75
239.793	73.75
240.027	82.75
240.26	81.75
240.494	85.75
240.728	88.75
240.961	67.75
241.195	62.75
241.429	69.75
241.662	92.75
241.896	71.75
242.13	84.75
242.363	73.75
242.597	74.75
242.83	64.75
243.064	78.75
243.298	72.75
243.531	72.75
243.765	74.75
243.998	83.75
244.232	86.75
244.465	85.75
244.699	71.75
244.932	76.75
245.166	71.75
245.399	75.75
245.633	76.75
245.866	67.75
246.099	77.75
246.333	75.75
246.566	72.75
246.8	79.75
247.033	65.75
247.266	73.75
247.5	80.75
247.733	69.75
247.966	88.75
248.2	76.75
248.433	75.75
248.666	89.75
248.899	69.75
249.133	81.75
249.366	78.75
249.599	81.75
249.832	70.75
250.066	78.75
250.299	69.75
250.532	89.75
250.765	89.75
250.998	93.75
251.231	92.75
251.465	88.75
251.698	83.75
251.931	78.75
252.164	80.75
252.397	62.75
252.63	75.75
252.863	82.75
253.096	78.75
253.329	72.75
253.562	91.75
253.795	66.75
254.028	85.75
254.261	78.75
254.494	72.75
254.727	74.75
254.96	60.75
255.193	87.75
255.426	85.75
255.659	60.75
255.892	86.75
256.124	88.75
256.357	91.75
256.59	82.75
256.823	86.75
257.056	75.75
257.289	77.75
257.521	75.75
257.754	67.75
257.987	80.75
258.22	77.75
258.452	79.75
258.685	81.75
258.918	78.75
259.151	87.75
259.383	72.75
259.616	79.75
259.849	74.75
260.081	86.75
260.314	68.75
260.547	81.75
260.779	84.75
261.012	82.75
261.244	78.75
261.477	98.75
261.71	84.75
261.942	72.75
262.175	77.75
262.407	84.75
262.64	81.75
262.872	82.75
263.105	88.75
263.337	86.75
263.57	83.75
263.802	80.75
264.035	76.75
264.267	92.75
264.499	70.75
264.732	83.75
264.964	72.75
265.197	100.75
265.429	86.75
265.661	82.75
265.894	82.75
266.126	79.75
266.358	79.75
266.591	75.75
266.823	75.75
267.055	79.75
267.287	86.75
267.52	78.75
267.752	70.75
267.984	88.75
268.216	70.75
268.448	86.75
268.681	93.75
268.913	87.75
269.145	77.75
269.377	74.75
269.609	78.75
269.841	78.75
270.073	76.75
270.306	90.75
270.538	82.75
270.77	86.75
271.002	72.75
271.234	76.75
271.466	72.75
271.698	80.75
271.93	72.75
272.162	79.75
272.394	91.75
272.626	68.75
272.858	101.75
273.09	87.75
273.322	90.75
273.553	76.75
273.785	88.75
274.017	62.75
274.249	64.75
274.481	83.75
274.713	63.75
274.945	84.75
275.176	82.75
275.408	88.75
275.64	86.75
275.872	70.75
276.104	71.75
276.335	82.75
276.567	80.75
276.799	80.75
277.031	72.75
277.262	86.75
277.494	100.75
277.726	88.75
277.957	81.75
278.189	78.75
278.421	78.75
278.652	78.75
278.884	87.75
279.115	89.75
279.347	74.75
279.579	85.75
279.81	88.75
280.042	77.75
280.273	87.75
280.505	82.75
280.736	83.75
280.968	80.75
281.199	85.75
281.431	82.75
281.662	86.75
281.894	75.75
282.125	88.75
282.356	81.75
282.588	94.75
282.819	90.75
283.051	93.75
283.282	80.75
283.513	86.75
283.745	78.75
283.976	74.75
284.207	84.75
284.439	90.75
284.67	90.75
284.901	76.75
285.132	89.75
285.364	76.75
285.595	83.75
285.826	82.75
286.057	104.75
286.288	84.75
286.52	76.75
286.751	85.75
286.982	73.75
287.213	73.75
287.444	90.75
287.675	84.75
287.906	83.75
288.138	82.75
288.369	91.75
288.6	81.75
288.831	91.75
289.062	89.75
289.293	87.75
289.524	78.75
289.755	76.75
289.986	78.75
290.217	73.75
290.448	83.75
290.679	92.75
290.91	80.75
291.141	62.75
291.371	60.75
291.602	87.75
291.833	75.75
292.064	85.75
292.295	82.75
292.526	76.75
292.757	71.75
292.987	85.75
293.218	88.75
293.449	82.75
293.68	77.75
293.91	90.75
294.141	76.75
294.372	79.75
294.603	73.75
294.833	115.75
295.064	87.75
295.295	80.75
295.525	82.75
295.756	82.75
295.987	66.75
296.217	81.75
296.448	78.75
296.679	90.75
296.909	80.75
297.14	91.75
297.37	81.75
297.601	84.75
297.831	87.75
298.062	78.75
298.292	86.75
298.523	84.75
298.753	75.75
298.984	83.75
299.214	90.75
299.445	79.75
299.675	78.75
299.905	70.75
300.136	79.75
300.366	75.75
300.597	99.75
300.827	88.75
301.057	83.75
301.288	85.75
301.518	91.75
301.748	89.75
301.979	85.75
302.209	75.75
302.439	89.75
302.669	82.75
302.9	77.75
303.13	81.75
303.36	76.75
303.59	83.75
303.82	75.75
304.051	83.75
304.281	76.75
304.511	83.75
304.741	87.75
304.971	93.75
305.201	98.75
305.431	74.75
305.661	72.75
305.891	90.75
306.121	82.75
306.352	82.75
306.582	81.75
306.812	70.75
307.042	80.75
307.272	84.75
307.502	75.75
307.731	88.75
307.961	69.75
308.191	94.75
308.421	82.75
308.651	79.75
308.881	85.75
309.111	90.75
309.341	78.75
309.571	93.75
309.8	82.75
310.03	71.75
310.26	74.75
310.49	88.75
310.72	86.75
310.949	83.75
311.179	95.75
311.409	83.75
311.639	77.75
311.868	78.75
312.098	89.75
312.328	87.75
312.557	94.75
312.787	91.75
313.017	87.75
313.246	78.75
313.476	86.75
313.706	82.75
313.935	81.75
314.165	92.75
314.394	88.75
314.624	69.75
314.853	70.75
315.083	83.75
315.312	80.75
315.542	94.75
315.771	84.75
316.001	86.75
316.23	84.75
316.46	74.75
316.689	85.75
316.919	82.75
317.148	113.75
317.377	99.75
317.607	76.75
317.836	73.75
318.065	79.75
318.295	79.75
318.524	75.75
318.753	89.75
318.983	72.75
319.212	87.75
319.441	87.75
319.67	84.75
319.9	80.75
320.129	82.75
320.358	93.75
320.587	95.75
320.816	87.75
321.046	81.75
321.275	82.75
321.504	75.75
321.733	76.75
321.962	77.75
322.191	64.75
322.42	88.75
322.649	89.75
322.878	83.75
323.108	93.75
323.337	69.75
323.566	76.75
323.795	87.75
324.024	89.75
324.253	68.75
324.482	85.75
324.71	91.75
324.939	71.75
325.168	84.75
325.397	86.75
325.626	95.75
325.855	89.75
326.084	87.75
326.313	92.75
326.542	86.75
326.77	92.75
326.999	95.75
327.228	86.75
327.457	77.75
327.686	68.75
327.914	98.75
328.143	89.75
328.372	82.75
328.6	88.75
328.829	85.75
329.058	83.75
329.287	71.75
329.515	91.75
329.744	81.75
329.972	74.75
330.201	79.75
330.43	82.75
330.658	74.75
330.887	84.75
331.115	87.75
331.344	69.75
331.572	84.75
331.801	82.75
332.03	86.75
332.258	83.75
332.486	86.75
332.715	84.75
332.943	77.75
333.172	78.75
333.4	88.75
333.629	89.75
333.857	90.75
334.085	80.75
334.314	83.75
334.542	78.75
334.771	82.75
334.999	90.75
335.227	80.75
335.455	84.75
335.684	84.75
335.912	88.75
336.14	83.75
336.369	80.75
336.597	79.75
336.825	89.75
337.053	93.75
337.281	90.75
337.51	84.75
337.738	90.75
337.966	86.75
338.194	82.75
338.422	91.75
338.65	81.75
338.878	76.75
339.106	96.75
339.334	98.75
339.562	86.75
339.79	83.75
340.018	90.75
340.246	80.75
340.474	82.75
340.702	79.75
340.93	89.75
341.158	83.75
341.386	92.75
341.614	85.75
341.842	79.75
342.07	81.75
342.298	98.75
342.526	89.75
342.754	76.75
342.981	80.75
343.209	90.75
343.437	98.75
343.665	75.75
343.893	81.75
344.12	92.75
344.348	80.75
344.576	90.75
344.804	96.75
345.031	92.75
345.259	87.75
345.487	85.75
345.714	85.75
345.942	68.75
346.17	70.75
346.397	75.75
346.625	99.75
346.853	84.75
347.08	88.75
347.308	80.75
347.535	70.75
347.763	79.75
347.99	96.75
348.218	95.75
348.445	90.75
348.673	84.75
348.9	88.75
349.128	94.75
349.355	94.75
349.583	85.75
349.81	82.75
350.037	87.75
350.265	83.75
350.492	77.75
350.72	75.75
350.947	90.75
351.174	97.75
351.402	72.75
351.629	80.75
351.856	80.75
352.083	83.75
352.311	77.75
352.538	77.75
352.765	79.75
352.992	77.75
353.22	91.75
353.447	80.75
353.674	92.75
353.901	87.75
354.128	84.75
354.355	76.75
354.583	90.75
354.81	91.75
355.037	76.75
355.264	89.75
355.491	73.75
355.718	83.75
355.945	76.75
356.172	80.75
356.399	89.75
356.626	73.75
356.853	77.75
357.08	78.75
357.307	88.75
357.534	77.75
357.761	85.75
357.988	78.75
358.215	75.75
358.441	80.75
358.668	80.75
358.895	88.75
359.122	68.75
359.349	84.75
359.576	84.75
359.802	93.75
360.029	77.75
360.256	79.75
360.483	87.75
360.709	82.75
360.936	82.75
361.163	83.75
361.39	89.75
361.616	82.75
361.843	94.75
362.07	90.75
362.296	88.75
362.523	83.75
362.749	69.75
362.976	80.75
363.203	73.75
363.429	83.75
363.656	94.75
363.882	74.75
364.109	102.75
364.335	87.75
364.562	95.75
364.788	98.75
365.015	81.75
365.241	86.75
365.468	89.75
365.694	81.75
365.92	83.75
366.147	83.75
366.373	87.75
366.599	75.75
366.826	74.75
367.052	83.75
367.278	91.75
367.505	85.75
367.731	89.75
367.957	81.75
368.184	99.75
368.41	90.75
368.636	93.75
368.862	66.75
369.089	85.75
369.315	68.75
369.541	91.75
369.767	79.75
369.993	82.75
370.219	81.75
370.445	89.75
370.672	76.75
370.898	87.75
371.124	104.75
371.35	89.75
371.576	80.75
371.802	86.75
372.028	92.75
372.254	79.75
372.48	82.75
372.706	89.75
372.932	89.75
373.158	88.75
373.384	94.75
373.61	81.75
373.835	103.75
374.061	90.75
374.287	94.75
374.513	77.75
374.739	89.75
374.965	69.75
375.191	99.75
375.416	88.75
375.642	92.75
375.868	92.75
376.094	101.75
376.319	82.75
376.545	92.75
376.771	81.75
376.997	85.75
377.222	80.75
377.448	89.75
377.674	94.75
377.899	76.75
378.125	77.75
378.35	88.75
378.576	94.75
378.802	101.75
379.027	88.75
379.253	86.75
379.478	88.75
379.704	87.75
379.929	95.75
380.155	96.75
380.38	85.75
380.606	81.75
380.831	91.75
381.057	101.75
381.282	112.75
381.507	82.75
381.733	83.75
381.958	79.75
382.184	91.75
382.409	88.75
382.634	83.75
382.86	95.75
383.085	102.75
383.31	80.75
383.535	95.75
383.761	95.75
383.986	94.75
384.211	94.75
384.436	94.75
384.662	88.75
384.887	91.75
385.112	85.75
385.337	86.75
385.562	87.75
385.787	89.75
386.013	88.75
386.238	84.75
386.463	110.75
386.688	95.75
386.913	87.75
387.138	95.75
387.363	107.75
387.588	93.75
387.813	101.75
388.038	106.75
388.263	90.75
388.488	106.75
388.713	94.75
388.938	102.75
389.163	90.75
389.387	107.75
389.612	96.75
389.837	99.75
390.062	116.75
390.287	104.75
390.512	93.75
390.736	104.75
390.961	88.75
391.186	86.75
391.411	86.75
391.636	99.75
391.86	115.75
392.085	97.75
392.31	99.75
392.534	98.75
392.759	96.75
392.984	102.75
393.208	110.75
393.433	96.75
393.658	100.75
393.882	117.75
394.107	110.75
394.331	78.75
394.556	103.75
394.78	105.75
395.005	112.75
395.229	88.75
395.454	99.75
395.678	96.75
395.903	102.75
396.127	101.75
396.352	101.75
396.576	99.75
396.801	104.75
397.025	101.75
397.249	107.75
397.474	111.75
397.698	96.75
397.922	83.75
398.147	90.75
398.371	118.75
398.595	102.75
398.82	88.75
399.044	110.75
399.268	108.75
399.492	117.75
399.717	106.75
399.941	98.75
400.165	105.75
400.389	101.75
400.613	105.75
400.837	98.75
401.062	99.75
401.286	94.75
401.51	109.75
401.734	90.75
401.958	114.75
402.182	98.75
402.406	74.75
402.63	114.75
402.854	119.75
403.078	103.75
403.302	116.75
403.526	118.75
403.75	103.75
403.974	112.75
404.198	99.75
404.422	90.75
404.645	94.75
404.869	97.75
405.093	119.75
405.317	106.75
405.541	126.75
405.765	105.75
405.988	98.75
406.212	111.75
406.436	116.75
406.66	111.75
406.883	105.75
407.107	114.75
407.331	124.75
407.555	110.75
407.778	96.75
408.002	94.75
408.226	116.75
408.449	102.75
408.673	114.75
408.896	114.75
409.12	117.75
409.344	104.75
409.567	117.75
409.791	109.75
410.014	121.75
410.238	116.75
410.461	103.75
410.685	105.75
410.908	113.75
411.132	102.75
411.355	112.75
411.578	103.75
411.802	108.75
412.025	115.75
412.249	113.75
412.472	95.75
412.695	102.75
412.919	118.75
413.142	113.75
413.365	111.75
413.589	114.75
413.812	103.75
414.035	98.75
414.258	111.75
414.482	113.75
414.705	120.75
414.928	123.75
415.151	101.75
415.374	106.75
415.597	112.75
415.821	114.75
416.044	117.75
416.267	106.75
416.49	97.75
416.713	110.75
416.936	110.75
417.159	103.75
417.382	107.75
417.605	104.75
417.828	111.75
418.051	114.75
418.274	114.75
418.497	112.75
418.72	101.75
418.943	118.75
419.166	122.75
419.389	124.75
419.611	117.75
419.834	114.75
420.057	113.75
420.28	125.75
420.503	119.75
420.726	117.75
420.948	117.75
421.171	104.75
421.394	118.75
421.617	103.75
421.839	114.75
422.062	118.75
422.285	115.75
422.507	125.75
422.73	124.75
422.953	96.75
423.175	97.75
423.398	126.75
423.621	110.75
423.843	115.75
424.066	113.75
424.288	117.75
424.511	111.75
424.733	123.75
424.956	114.75
425.178	107.75
425.401	120.75
425.623	122.75
425.846	107.75
426.068	118.75
426.291	120.75
426.513	117.75
426.735	112.75
426.958	105.75
427.18	96.75
427.402	117.75
427.625	101.75
427.847	110.75
428.069	110.75
428.292	115.75
428.514	110.75
428.736	122.75
428.958	121.75
429.181	107.75
429.403	116.75
429.625	105.75
429.847	111.75
430.069	117.75
430.292	112.75
430.514	90.75
430.736	124.75
430.958	107.75
431.18	108.75
431.402	123.75
431.624	106.75
431.846	98.75
432.068	107.75
432.29	107.75
432.512	106.75
432.734	96.75
432.956	103.75
433.178	114.75
433.4	112.75
433.622	115.75
433.844	103.75
434.066	99.75
434.287	102.75
434.509	112.75
434.731	96.75
434.953	120.75
435.175	107.75
435.397	92.75
435.618	106.75
435.84	99.75
436.062	110.75
436.284	122.75
436.505	98.75
436.727	116.75
436.949	118.75
437.17	128.75
437.392	118.75
437.614	107.75
437.835	116.75
438.057	104.75
438.278	100.75
438.5	124.75
438.721	110.75
438.943	115.75
439.165	110.75
439.386	136.75
439.608	119.75
439.829	108.75
440.05	110.75
440.272	116.75
440.493	123.75
440.715	115.75
440.936	121.75
441.158	114.75
441.379	113.75
441.6	127.75
441.822	115.75
442.043	102.75
442.264	126.75
442.486	122.75
442.707	100.75
442.928	124.75
443.149	110.75
443.371	116.75
443.592	118.75
443.813	118.75
444.034	110.75
444.255	131.75
444.476	120.75
444.698	115.75
444.919	124.75
445.14	245.75
445.361	166.75
445.582	119.75
445.803	127.75
446.024	125.75
446.245	110.75
446.466	111.75
446.687	114.75
446.908	127.75
447.129	129.75
447.35	100.75
447.571	124.75
447.792	126.75
448.013	116.75
448.234	133.75
448.455	122.75
448.675	114.75
448.896	102.75
449.117	114.75
449.338	123.75
449.559	113.75
449.779	109.75
450	115.75
450.221	117.75
450.442	100.75
450.662	109.75
450.883	111.75
451.104	114.75
451.324	107.75
451.545	108.75
451.766	117.75
451.986	120.75
452.207	98.75
452.428	108.75
452.648	111.75
452.869	113.75
453.089	103.75
453.31	110.75
453.53	114.75
453.751	97.75
453.971	102.75
454.192	120.75
454.412	101.75
454.633	107.75
454.853	98.75
455.073	102.75
455.294	85.75
455.514	121.75
455.734	108.75
455.955	90.75
456.175	113.75
456.395	107.75
456.616	95.75
456.836	111.75
457.056	117.75
457.276	103.75
457.497	89.75
457.717	100.75
457.937	90.75
458.157	108.75
458.377	101.75
458.598	116.75
458.818	97.75
459.038	102.75
459.258	97.75
459.478	104.75
459.698	110.75
459.918	91.75
460.138	108.75
460.358	128.75
460.578	118.75
460.798	120.75
461.018	108.75
461.238	116.75
461.458	110.75
461.678	119.75
461.898	121.75
462.118	113.75
462.338	113.75
462.558	113.75
462.777	114.75
462.997	124.75
463.217	127.75
463.437	127.75
463.657	125.75
463.876	122.75
464.096	112.75
464.316	114.75
464.536	121.75
464.755	122.75
464.975	125.75
465.195	124.75
465.414	126.75
465.634	118.75
465.854	123.75
466.073	100.75
466.293	116.75
466.512	103.75
466.732	122.75
466.951	99.75
467.171	127.75
467.391	118.75
467.61	119.75
467.829	120.75
468.049	123.75
468.268	113.75
468.488	123.75
468.707	119.75
468.927	125.75
469.146	100.75
469.365	119.75
469.585	120.75
469.804	123.75
470.023	133.75
470.243	127.75
470.462	119.75
470.681	132.75
470.901	108.75
471.12	124.75
471.339	114.75
471.558	124.75
471.777	126.75
471.997	118.75
472.216	122.75
472.435	121.75
472.654	116.75
472.873	113.75
473.092	110.75
473.311	106.75
473.53	113.75
473.749	121.75
473.968	134.75
474.187	129.75
474.406	110.75
474.625	117.75
474.844	131.75
475.063	120.75
475.282	124.75
475.501	118.75
475.72	121.75
475.939	120.75
476.158	120.75
476.377	119.75
476.596	114.75
476.814	104.75
477.033	97.75
477.252	108.75
477.471	127.75
477.69	113.75
477.908	130.75
478.127	133.75
478.346	122.75
478.564	140.75
478.783	117.75
479.002	135.75
479.22	125.75
479.439	124.75
479.658	131.75
479.876	109.75
480.095	116.75
480.313	103.75
480.532	130.75
480.751	117.75
480.969	104.75
481.188	107.75
481.406	114.75
481.624	94.75
481.843	110.75
482.061	108.75
482.28	105.75
482.498	99.75
482.717	126.75
482.935	114.75
483.153	122.75
483.372	124.75
483.59	133.75
483.808	122.75
484.027	95.75
484.245	132.75
484.463	120.75
484.681	126.75
484.9	122.75
485.118	124.75
485.336	106.75
485.554	126.75
485.772	105.75
485.99	120.75
486.209	116.75
486.427	121.75
486.645	118.75
486.863	127.75
487.081	116.75
487.299	128.75
487.517	126.75
487.735	119.75
487.953	134.75
488.171	143.75
488.389	131.75
488.607	121.75
488.825	132.75
489.043	131.75
489.261	118.75
489.479	128.75
489.696	128.75
489.914	128.75
490.132	133.75
490.35	132.75
490.568	153.75
490.786	129.75
491.003	131.75
491.221	152.75
491.439	149.75
491.657	134.75
491.874	147.75
492.092	158.75
492.31	154.75
492.527	169.75
492.745	144.75
492.963	150.75
493.18	164.75
493.398	148.75
493.615	145.75
493.833	155.75
494.05	137.75
494.268	135.75
494.485	159.75
494.703	139.75
494.92	152.75
495.138	159.75
495.355	143.75
495.573	153.75
495.79	160.75
496.008	137.75
496.225	130.75
496.442	146.75
496.66	151.75
496.877	135.75
497.094	131.75
497.312	148.75
497.529	146.75
497.746	144.75
497.963	146.75
498.181	141.75
498.398	146.75
498.615	147.75
498.832	138.75
499.049	156.75
499.267	158.75
499.484	162.75
499.701	164.75
499.918	166.75
500.135	200.75
500.352	220.75
500.569	220.75
500.786	224.75
501.003	212.75
501.22	185.75
501.437	177.75
501.654	167.75
501.871	158.75
502.088	158.75
502.305	152.75
502.522	159.75
502.739	154.75
502.956	140.75
503.172	144.75
503.389	135.75
503.606	142.75
503.823	138.75
504.04	142.75
504.256	135.75
504.473	138.75
504.69	133.75
504.907	134.75
505.123	138.75
505.34	120.75
505.557	118.75
505.773	118.75
505.99	114.75
506.207	124.75
506.423	132.75
506.64	115.75
506.856	113.75
507.073	122.75
507.289	120.75
507.506	116.75
507.722	123.75
507.939	123.75
508.155	122.75
508.372	121.75
508.588	143.75
508.805	124.75
509.021	117.75
509.238	118.75
509.454	121.75
509.67	118.75
509.887	120.75
510.103	122.75
510.319	120.75
510.536	114.75
510.752	105.75
510.968	107.75
511.184	109.75
511.401	104.75
511.617	114.75
511.833	114.75
