Data from StandardFe(NO3)3.TAE.3%Agarose.FlatLispGreen.Lamp.Energy10.07252019_HRD10591_11-53-45-440.txt Node
Date: Thu Jul 25 11:53:45 EDT 2019
User: cochatt
Spectrometer: HR+D1059
Trigger mode: 1
Integration Time (sec): 1.000000E-1
Scans to average: 1
Electric dark correction enabled: true
Nonlinearity correction enabled: false
Boxcar width: 0
XAxis mode: Wavelengths
Number of Pixels in Spectrum: 2048
>>>>>Begin Spectral Data<<<<<
223.165	-16.56
223.4	-16.56
223.635	-16.56
223.869	-15.56
224.104	-14.56
224.338	-11.56
224.573	-9.56
224.808	-19.56
225.042	-6.56
225.277	-4.56
225.511	3.44
225.746	4.44
225.98	1.44
226.215	9.44
226.449	10.44
226.683	20.44
226.918	21.44
227.152	27.44
227.387	24.44
227.621	26.44
227.856	34.44
228.09	59.44
228.324	41.44
228.559	72.44
228.793	60.44
229.027	68.44
229.262	65.44
229.496	73.44
229.73	85.44
229.964	80.44
230.199	79.44
230.433	85.44
230.667	73.44
230.901	87.44
231.136	82.44
231.37	79.44
231.604	68.44
231.838	73.44
232.072	92.44
232.306	76.44
232.541	80.44
232.775	80.44
233.009	78.44
233.243	86.44
233.477	88.44
233.711	85.44
233.945	74.44
234.179	79.44
234.413	95.44
234.647	75.44
234.881	73.44
235.115	86.44
235.349	85.44
235.583	89.44
235.817	76.44
236.051	76.44
236.285	74.44
236.519	76.44
236.753	77.44
236.987	90.44
237.221	95.44
237.455	88.44
237.689	72.44
237.922	78.44
238.156	73.44
238.39	70.44
238.624	81.44
238.858	80.44
239.091	89.44
239.325	87.44
239.559	91.44
239.793	70.44
240.027	81.44
240.26	86.44
240.494	79.44
240.728	78.44
240.961	79.44
241.195	84.44
241.429	85.44
241.662	86.44
241.896	77.44
242.13	75.44
242.363	79.44
242.597	66.44
242.83	53.44
243.064	77.44
243.298	63.44
243.531	84.44
243.765	87.44
243.998	75.44
244.232	90.44
244.465	76.44
244.699	77.44
244.932	81.44
245.166	93.44
245.399	85.44
245.633	94.44
245.866	69.44
246.099	72.44
246.333	74.44
246.566	78.44
246.8	74.44
247.033	76.44
247.266	80.44
247.5	73.44
247.733	75.44
247.966	80.44
248.2	70.44
248.433	84.44
248.666	82.44
248.899	84.44
249.133	86.44
249.366	90.44
249.599	80.44
249.832	77.44
250.066	74.44
250.299	61.44
250.532	82.44
250.765	82.44
250.998	79.44
251.231	70.44
251.465	92.44
251.698	84.44
251.931	82.44
252.164	98.44
252.397	80.44
252.63	90.44
252.863	78.44
253.096	77.44
253.329	77.44
253.562	64.44
253.795	95.44
254.028	81.44
254.261	79.44
254.494	75.44
254.727	86.44
254.96	83.44
255.193	96.44
255.426	85.44
255.659	84.44
255.892	77.44
256.124	62.44
256.357	79.44
256.59	85.44
256.823	78.44
257.056	73.44
257.289	89.44
257.521	78.44
257.754	87.44
257.987	82.44
258.22	79.44
258.452	81.44
258.685	67.44
258.918	80.44
259.151	85.44
259.383	85.44
259.616	91.44
259.849	88.44
260.081	81.44
260.314	89.44
260.547	78.44
260.779	82.44
261.012	79.44
261.244	65.44
261.477	87.44
261.71	76.44
261.942	73.44
262.175	84.44
262.407	75.44
262.64	74.44
262.872	79.44
263.105	80.44
263.337	84.44
263.57	97.44
263.802	86.44
264.035	91.44
264.267	103.44
264.499	89.44
264.732	71.44
264.964	98.44
265.197	82.44
265.429	77.44
265.661	94.44
265.894	81.44
266.126	83.44
266.358	82.44
266.591	92.44
266.823	80.44
267.055	87.44
267.287	86.44
267.52	95.44
267.752	82.44
267.984	83.44
268.216	92.44
268.448	84.44
268.681	85.44
268.913	76.44
269.145	68.44
269.377	70.44
269.609	87.44
269.841	83.44
270.073	101.44
270.306	87.44
270.538	97.44
270.77	82.44
271.002	89.44
271.234	88.44
271.466	83.44
271.698	85.44
271.93	79.44
272.162	82.44
272.394	86.44
272.626	92.44
272.858	89.44
273.09	87.44
273.322	81.44
273.553	81.44
273.785	89.44
274.017	76.44
274.249	72.44
274.481	74.44
274.713	79.44
274.945	92.44
275.176	64.44
275.408	81.44
275.64	79.44
275.872	78.44
276.104	82.44
276.335	94.44
276.567	72.44
276.799	66.44
277.031	84.44
277.262	89.44
277.494	94.44
277.726	87.44
277.957	85.44
278.189	86.44
278.421	82.44
278.652	77.44
278.884	91.44
279.115	85.44
279.347	85.44
279.579	82.44
279.81	85.44
280.042	78.44
280.273	94.44
280.505	82.44
280.736	94.44
280.968	83.44
281.199	83.44
281.431	79.44
281.662	86.44
281.894	87.44
282.125	90.44
282.356	78.44
282.588	79.44
282.819	89.44
283.051	84.44
283.282	78.44
283.513	84.44
283.745	86.44
283.976	94.44
284.207	80.44
284.439	81.44
284.67	91.44
284.901	95.44
285.132	77.44
285.364	85.44
285.595	93.44
285.826	80.44
286.057	88.44
286.288	78.44
286.52	85.44
286.751	74.44
286.982	79.44
287.213	76.44
287.444	94.44
287.675	82.44
287.906	83.44
288.138	82.44
288.369	80.44
288.6	90.44
288.831	74.44
289.062	95.44
289.293	84.44
289.524	69.44
289.755	79.44
289.986	94.44
290.217	92.44
290.448	89.44
290.679	99.44
290.91	93.44
291.141	87.44
291.371	91.44
291.602	92.44
291.833	113.44
292.064	91.44
292.295	86.44
292.526	94.44
292.757	86.44
292.987	76.44
293.218	81.44
293.449	86.44
293.68	87.44
293.91	92.44
294.141	100.44
294.372	90.44
294.603	101.44
294.833	77.44
295.064	81.44
295.295	90.44
295.525	94.44
295.756	91.44
295.987	87.44
296.217	98.44
296.448	87.44
296.679	98.44
296.909	89.44
297.14	94.44
297.37	74.44
297.601	74.44
297.831	92.44
298.062	86.44
298.292	89.44
298.523	77.44
298.753	87.44
298.984	104.44
299.214	97.44
299.445	84.44
299.675	81.44
299.905	74.44
300.136	86.44
300.366	80.44
300.597	78.44
300.827	90.44
301.057	89.44
301.288	91.44
301.518	99.44
301.748	86.44
301.979	76.44
302.209	75.44
302.439	92.44
302.669	93.44
302.9	89.44
303.13	84.44
303.36	96.44
303.59	78.44
303.82	86.44
304.051	92.44
304.281	84.44
304.511	99.44
304.741	76.44
304.971	83.44
305.201	87.44
305.431	95.44
305.661	82.44
305.891	102.44
306.121	92.44
306.352	79.44
306.582	66.44
306.812	86.44
307.042	90.44
307.272	95.44
307.502	89.44
307.731	83.44
307.961	84.44
308.191	85.44
308.421	85.44
308.651	70.44
308.881	84.44
309.111	102.44
309.341	81.44
309.571	86.44
309.8	80.44
310.03	91.44
310.26	98.44
310.49	82.44
310.72	83.44
310.949	91.44
311.179	97.44
311.409	90.44
311.639	101.44
311.868	83.44
312.098	92.44
312.328	87.44
312.557	87.44
312.787	90.44
313.017	94.44
313.246	95.44
313.476	97.44
313.706	75.44
313.935	100.44
314.165	85.44
314.394	93.44
314.624	87.44
314.853	83.44
315.083	87.44
315.312	92.44
315.542	90.44
315.771	105.44
316.001	79.44
316.23	96.44
316.46	89.44
316.689	88.44
316.919	86.44
317.148	83.44
317.377	83.44
317.607	86.44
317.836	81.44
318.065	94.44
318.295	98.44
318.524	87.44
318.753	95.44
318.983	86.44
319.212	94.44
319.441	86.44
319.67	87.44
319.9	81.44
320.129	79.44
320.358	83.44
320.587	91.44
320.816	91.44
321.046	101.44
321.275	87.44
321.504	88.44
321.733	85.44
321.962	95.44
322.191	77.44
322.42	87.44
322.649	97.44
322.878	78.44
323.108	87.44
323.337	90.44
323.566	86.44
323.795	71.44
324.024	90.44
324.253	88.44
324.482	89.44
324.71	93.44
324.939	108.44
325.168	82.44
325.397	72.44
325.626	79.44
325.855	81.44
326.084	82.44
326.313	98.44
326.542	79.44
326.77	83.44
326.999	91.44
327.228	92.44
327.457	101.44
327.686	82.44
327.914	85.44
328.143	87.44
328.372	66.44
328.6	79.44
328.829	98.44
329.058	85.44
329.287	92.44
329.515	91.44
329.744	97.44
329.972	82.44
330.201	83.44
330.43	87.44
330.658	97.44
330.887	89.44
331.115	94.44
331.344	85.44
331.572	98.44
331.801	93.44
332.03	86.44
332.258	87.44
332.486	82.44
332.715	91.44
332.943	91.44
333.172	88.44
333.4	75.44
333.629	87.44
333.857	85.44
334.085	80.44
334.314	85.44
334.542	86.44
334.771	91.44
334.999	87.44
335.227	101.44
335.455	82.44
335.684	100.44
335.912	90.44
336.14	87.44
336.369	92.44
336.597	82.44
336.825	95.44
337.053	75.44
337.281	109.44
337.51	77.44
337.738	100.44
337.966	95.44
338.194	92.44
338.422	85.44
338.65	93.44
338.878	86.44
339.106	104.44
339.334	91.44
339.562	89.44
339.79	79.44
340.018	98.44
340.246	98.44
340.474	90.44
340.702	85.44
340.93	91.44
341.158	70.44
341.386	92.44
341.614	100.44
341.842	94.44
342.07	99.44
342.298	69.44
342.526	95.44
342.754	83.44
342.981	86.44
343.209	92.44
343.437	91.44
343.665	81.44
343.893	82.44
344.12	78.44
344.348	81.44
344.576	101.44
344.804	92.44
345.031	93.44
345.259	97.44
345.487	81.44
345.714	87.44
345.942	87.44
346.17	94.44
346.397	86.44
346.625	97.44
346.853	86.44
347.08	86.44
347.308	92.44
347.535	96.44
347.763	86.44
347.99	85.44
348.218	93.44
348.445	74.44
348.673	76.44
348.9	87.44
349.128	92.44
349.355	89.44
349.583	92.44
349.81	91.44
350.037	100.44
350.265	95.44
350.492	87.44
350.72	96.44
350.947	94.44
351.174	93.44
351.402	82.44
351.629	101.44
351.856	82.44
352.083	91.44
352.311	81.44
352.538	78.44
352.765	86.44
352.992	88.44
353.22	79.44
353.447	95.44
353.674	81.44
353.901	103.44
354.128	95.44
354.355	90.44
354.583	97.44
354.81	92.44
355.037	89.44
355.264	84.44
355.491	89.44
355.718	73.44
355.945	93.44
356.172	91.44
356.399	94.44
356.626	88.44
356.853	103.44
357.08	81.44
357.307	93.44
357.534	90.44
357.761	82.44
357.988	81.44
358.215	96.44
358.441	94.44
358.668	79.44
358.895	82.44
359.122	76.44
359.349	77.44
359.576	77.44
359.802	80.44
360.029	76.44
360.256	95.44
360.483	87.44
360.709	103.44
360.936	100.44
361.163	97.44
361.39	94.44
361.616	94.44
361.843	103.44
362.07	87.44
362.296	79.44
362.523	98.44
362.749	81.44
362.976	97.44
363.203	86.44
363.429	97.44
363.656	78.44
363.882	86.44
364.109	82.44
364.335	92.44
364.562	102.44
364.788	87.44
365.015	95.44
365.241	97.44
365.468	79.44
365.694	97.44
365.92	88.44
366.147	91.44
366.373	98.44
366.599	97.44
366.826	91.44
367.052	83.44
367.278	82.44
367.505	97.44
367.731	98.44
367.957	97.44
368.184	92.44
368.41	75.44
368.636	91.44
368.862	95.44
369.089	103.44
369.315	101.44
369.541	86.44
369.767	79.44
369.993	102.44
370.219	92.44
370.445	88.44
370.672	93.44
370.898	95.44
371.124	100.44
371.35	100.44
371.576	110.44
371.802	93.44
372.028	94.44
372.254	92.44
372.48	95.44
372.706	82.44
372.932	93.44
373.158	92.44
373.384	88.44
373.61	85.44
373.835	73.44
374.061	90.44
374.287	92.44
374.513	76.44
374.739	90.44
374.965	89.44
375.191	88.44
375.416	91.44
375.642	94.44
375.868	91.44
376.094	108.44
376.319	93.44
376.545	79.44
376.771	93.44
376.997	75.44
377.222	94.44
377.448	102.44
377.674	98.44
377.899	78.44
378.125	90.44
378.35	96.44
378.576	109.44
378.802	92.44
379.027	94.44
379.253	98.44
379.478	92.44
379.704	89.44
379.929	97.44
380.155	89.44
380.38	91.44
380.606	95.44
380.831	98.44
381.057	105.44
381.282	101.44
381.507	85.44
381.733	91.44
381.958	90.44
382.184	98.44
382.409	95.44
382.634	97.44
382.86	97.44
383.085	88.44
383.31	74.44
383.535	78.44
383.761	88.44
383.986	92.44
384.211	93.44
384.436	92.44
384.662	86.44
384.887	81.44
385.112	93.44
385.337	89.44
385.562	99.44
385.787	100.44
386.013	105.44
386.238	108.44
386.463	100.44
386.688	101.44
386.913	107.44
387.138	86.44
387.363	102.44
387.588	107.44
387.813	99.44
388.038	90.44
388.263	98.44
388.488	92.44
388.713	81.44
388.938	87.44
389.163	110.44
389.387	98.44
389.612	89.44
389.837	117.44
390.062	83.44
390.287	114.44
390.512	104.44
390.736	114.44
390.961	87.44
391.186	110.44
391.411	108.44
391.636	101.44
391.86	109.44
392.085	103.44
392.31	103.44
392.534	111.44
392.759	100.44
392.984	99.44
393.208	98.44
393.433	111.44
393.658	110.44
393.882	98.44
394.107	95.44
394.331	98.44
394.556	110.44
394.78	89.44
395.005	85.44
395.229	117.44
395.454	113.44
395.678	109.44
395.903	110.44
396.127	98.44
396.352	102.44
396.576	110.44
396.801	87.44
397.025	101.44
397.249	102.44
397.474	109.44
397.698	100.44
397.922	99.44
398.147	101.44
398.371	106.44
398.595	117.44
398.82	101.44
399.044	116.44
399.268	116.44
399.492	102.44
399.717	133.44
399.941	120.44
400.165	116.44
400.389	107.44
400.613	119.44
400.837	117.44
401.062	103.44
401.286	96.44
401.51	108.44
401.734	106.44
401.958	106.44
402.182	121.44
402.406	113.44
402.63	110.44
402.854	107.44
403.078	105.44
403.302	103.44
403.526	112.44
403.75	106.44
403.974	113.44
404.198	116.44
404.422	121.44
404.645	118.44
404.869	105.44
405.093	116.44
405.317	119.44
405.541	122.44
405.765	119.44
405.988	125.44
406.212	115.44
406.436	107.44
406.66	127.44
406.883	121.44
407.107	113.44
407.331	121.44
407.555	124.44
407.778	113.44
408.002	128.44
408.226	111.44
408.449	117.44
408.673	121.44
408.896	110.44
409.12	116.44
409.344	121.44
409.567	114.44
409.791	122.44
410.014	108.44
410.238	108.44
410.461	104.44
410.685	102.44
410.908	118.44
411.132	118.44
411.355	117.44
411.578	137.44
411.802	112.44
412.025	119.44
412.249	123.44
412.472	123.44
412.695	122.44
412.919	119.44
413.142	116.44
413.365	127.44
413.589	110.44
413.812	99.44
414.035	123.44
414.258	116.44
414.482	117.44
414.705	116.44
414.928	109.44
415.151	124.44
415.374	109.44
415.597	114.44
415.821	110.44
416.044	126.44
416.267	133.44
416.49	127.44
416.713	127.44
416.936	115.44
417.159	116.44
417.382	107.44
417.605	119.44
417.828	114.44
418.051	111.44
418.274	108.44
418.497	101.44
418.72	134.44
418.943	118.44
419.166	117.44
419.389	121.44
419.611	138.44
419.834	120.44
420.057	126.44
420.28	119.44
420.503	113.44
420.726	117.44
420.948	103.44
421.171	115.44
421.394	110.44
421.617	124.44
421.839	125.44
422.062	123.44
422.285	117.44
422.507	119.44
422.73	117.44
422.953	117.44
423.175	109.44
423.398	125.44
423.621	129.44
423.843	121.44
424.066	128.44
424.288	129.44
424.511	110.44
424.733	111.44
424.956	133.44
425.178	123.44
425.401	115.44
425.623	119.44
425.846	108.44
426.068	99.44
426.291	115.44
426.513	113.44
426.735	123.44
426.958	105.44
427.18	122.44
427.402	117.44
427.625	110.44
427.847	105.44
428.069	107.44
428.292	121.44
428.514	109.44
428.736	114.44
428.958	105.44
429.181	102.44
429.403	112.44
429.625	113.44
429.847	115.44
430.069	116.44
430.292	106.44
430.514	97.44
430.736	117.44
430.958	123.44
431.18	120.44
431.402	105.44
431.624	123.44
431.846	115.44
432.068	106.44
432.29	113.44
432.512	112.44
432.734	113.44
432.956	116.44
433.178	117.44
433.4	111.44
433.622	124.44
433.844	113.44
434.066	121.44
434.287	107.44
434.509	100.44
434.731	108.44
434.953	105.44
435.175	110.44
435.397	110.44
435.618	121.44
435.84	124.44
436.062	122.44
436.284	109.44
436.505	131.44
436.727	120.44
436.949	115.44
437.17	129.44
437.392	119.44
437.614	105.44
437.835	95.44
438.057	117.44
438.278	115.44
438.5	118.44
438.721	110.44
438.943	118.44
439.165	125.44
439.386	115.44
439.608	117.44
439.829	118.44
440.05	132.44
440.272	120.44
440.493	121.44
440.715	128.44
440.936	139.44
441.158	125.44
441.379	119.44
441.6	137.44
441.822	108.44
442.043	135.44
442.264	127.44
442.486	117.44
442.707	115.44
442.928	117.44
443.149	123.44
443.371	115.44
443.592	131.44
443.813	129.44
444.034	128.44
444.255	123.44
444.476	135.44
444.698	127.44
444.919	132.44
445.14	241.44
445.361	189.44
445.582	138.44
445.803	117.44
446.024	132.44
446.245	128.44
446.466	117.44
446.687	130.44
446.908	121.44
447.129	113.44
447.35	140.44
447.571	129.44
447.792	125.44
448.013	118.44
448.234	119.44
448.455	118.44
448.675	121.44
448.896	109.44
449.117	123.44
449.338	117.44
449.559	111.44
449.779	122.44
450	113.44
450.221	113.44
450.442	121.44
450.662	110.44
450.883	121.44
451.104	125.44
451.324	115.44
451.545	128.44
451.766	126.44
451.986	92.44
452.207	115.44
452.428	113.44
452.648	109.44
452.869	119.44
453.089	110.44
453.31	95.44
453.53	107.44
453.751	99.44
453.971	103.44
454.192	89.44
454.412	103.44
454.633	104.44
454.853	121.44
455.073	107.44
455.294	109.44
455.514	113.44
455.734	104.44
455.955	108.44
456.175	98.44
456.395	107.44
456.616	106.44
456.836	109.44
457.056	98.44
457.276	117.44
457.497	104.44
457.717	100.44
457.937	120.44
458.157	104.44
458.377	125.44
458.598	114.44
458.818	107.44
459.038	99.44
459.258	114.44
459.478	108.44
459.698	93.44
459.918	101.44
460.138	116.44
460.358	121.44
460.578	120.44
460.798	127.44
461.018	119.44
461.238	123.44
461.458	112.44
461.678	114.44
461.898	106.44
462.118	123.44
462.338	117.44
462.558	109.44
462.777	131.44
462.997	121.44
463.217	126.44
463.437	137.44
463.657	134.44
463.876	111.44
464.096	107.44
464.316	133.44
464.536	133.44
464.755	116.44
464.975	125.44
465.195	116.44
465.414	127.44
465.634	134.44
465.854	116.44
466.073	116.44
466.293	100.44
466.512	119.44
466.732	121.44
466.951	127.44
467.171	131.44
467.391	105.44
467.61	123.44
467.829	116.44
468.049	124.44
468.268	113.44
468.488	115.44
468.707	122.44
468.927	119.44
469.146	124.44
469.365	117.44
469.585	112.44
469.804	131.44
470.023	120.44
470.243	123.44
470.462	135.44
470.681	135.44
470.901	127.44
471.12	134.44
471.339	136.44
471.558	121.44
471.777	127.44
471.997	115.44
472.216	125.44
472.435	119.44
472.654	119.44
472.873	129.44
473.092	120.44
473.311	123.44
473.53	117.44
473.749	116.44
473.968	115.44
474.187	131.44
474.406	124.44
474.625	110.44
474.844	129.44
475.063	127.44
475.282	126.44
475.501	113.44
475.72	120.44
475.939	121.44
476.158	118.44
476.377	121.44
476.596	102.44
476.814	133.44
477.033	115.44
477.252	115.44
477.471	126.44
477.69	123.44
477.908	132.44
478.127	125.44
478.346	137.44
478.564	133.44
478.783	130.44
479.002	127.44
479.22	135.44
479.439	139.44
479.658	121.44
479.876	131.44
480.095	125.44
480.313	132.44
480.532	136.44
480.751	115.44
480.969	110.44
481.188	117.44
481.406	101.44
481.624	116.44
481.843	125.44
482.061	118.44
482.28	119.44
482.498	126.44
482.717	113.44
482.935	121.44
483.153	139.44
483.372	157.44
483.59	150.44
483.808	123.44
484.027	138.44
484.245	131.44
484.463	127.44
484.681	143.44
484.9	129.44
485.118	119.44
485.336	123.44
485.554	122.44
485.772	123.44
485.99	127.44
486.209	123.44
486.427	119.44
486.645	134.44
486.863	135.44
487.081	129.44
487.299	127.44
487.517	149.44
487.735	134.44
487.953	155.44
488.171	151.44
488.389	150.44
488.607	134.44
488.825	112.44
489.043	102.44
489.261	126.44
489.479	143.44
489.696	131.44
489.914	139.44
490.132	136.44
490.35	144.44
490.568	134.44
490.786	140.44
491.003	144.44
491.221	155.44
491.439	142.44
491.657	158.44
491.874	159.44
492.092	167.44
492.31	172.44
492.527	165.44
492.745	170.44
492.963	155.44
493.18	139.44
493.398	147.44
493.615	142.44
493.833	147.44
494.05	151.44
494.268	153.44
494.485	154.44
494.703	161.44
494.92	161.44
495.138	148.44
495.355	158.44
495.573	135.44
495.79	149.44
496.008	159.44
496.225	154.44
496.442	143.44
496.66	165.44
496.877	150.44
497.094	147.44
497.312	156.44
497.529	149.44
497.746	154.44
497.963	149.44
498.181	143.44
498.398	151.44
498.615	139.44
498.832	148.44
499.049	143.44
499.267	161.44
499.484	147.44
499.701	164.44
499.918	201.44
500.135	198.44
500.352	209.44
500.569	214.44
500.786	211.44
501.003	205.44
501.22	193.44
501.437	182.44
501.654	165.44
501.871	173.44
502.088	164.44
502.305	157.44
502.522	159.44
502.739	154.44
502.956	158.44
503.172	148.44
503.389	139.44
503.606	135.44
503.823	131.44
504.04	150.44
504.256	139.44
504.473	137.44
504.69	145.44
504.907	131.44
505.123	130.44
505.34	132.44
505.557	128.44
505.773	130.44
505.99	142.44
506.207	126.44
506.423	137.44
506.64	131.44
506.856	126.44
507.073	145.44
507.289	129.44
507.506	125.44
507.722	118.44
507.939	120.44
508.155	123.44
508.372	120.44
508.588	112.44
508.805	117.44
509.021	125.44
509.238	115.44
509.454	109.44
509.67	111.44
509.887	122.44
510.103	117.44
510.319	126.44
510.536	111.44
510.752	122.44
510.968	105.44
