Data from StandardFe(NO3)3.TAE.3%Agarose.FlatLispGreen.Lamp.Energy10.07252019_HRD10591_11-54-48-440.txt Node
Date: Thu Jul 25 11:54:48 EDT 2019
User: cochatt
Spectrometer: HR+D1059
Trigger mode: 1
Integration Time (sec): 1.000000E-1
Scans to average: 1
Electric dark correction enabled: true
Nonlinearity correction enabled: false
Boxcar width: 0
XAxis mode: Wavelengths
Number of Pixels in Spectrum: 2048
>>>>>Begin Spectral Data<<<<<
223.165	-4.06
223.4	-4.06
223.635	-4.06
223.869	-24.06
224.104	-19.06
224.338	-20.06
224.573	-21.06
224.808	-27.06
225.042	-9.06
225.277	-1.06
225.511	-5.06
225.746	11.94
225.98	8.94
226.215	17.94
226.449	25.94
226.683	16.94
226.918	14.94
227.152	33.94
227.387	39.94
227.621	30.94
227.856	38.94
228.09	49.94
228.324	65.94
228.559	59.94
228.793	67.94
229.027	65.94
229.262	52.94
229.496	52.94
229.73	75.94
229.964	75.94
230.199	66.94
230.433	79.94
230.667	64.94
230.901	67.94
231.136	71.94
231.37	89.94
231.604	82.94
231.838	81.94
232.072	63.94
232.306	77.94
232.541	80.94
232.775	72.94
233.009	86.94
233.243	78.94
233.477	81.94
233.711	85.94
233.945	74.94
234.179	83.94
234.413	78.94
234.647	88.94
234.881	72.94
235.115	78.94
235.349	89.94
235.583	78.94
235.817	88.94
236.051	74.94
236.285	70.94
236.519	82.94
236.753	81.94
236.987	85.94
237.221	74.94
237.455	72.94
237.689	71.94
237.922	82.94
238.156	71.94
238.39	74.94
238.624	71.94
238.858	64.94
239.091	69.94
239.325	62.94
239.559	85.94
239.793	81.94
240.027	73.94
240.26	81.94
240.494	73.94
240.728	64.94
240.961	85.94
241.195	86.94
241.429	74.94
241.662	82.94
241.896	63.94
242.13	79.94
242.363	70.94
242.597	86.94
242.83	76.94
243.064	79.94
243.298	71.94
243.531	80.94
243.765	66.94
243.998	74.94
244.232	86.94
244.465	82.94
244.699	75.94
244.932	78.94
245.166	73.94
245.399	83.94
245.633	76.94
245.866	71.94
246.099	72.94
246.333	71.94
246.566	87.94
246.8	78.94
247.033	66.94
247.266	73.94
247.5	73.94
247.733	89.94
247.966	94.94
248.2	74.94
248.433	83.94
248.666	80.94
248.899	76.94
249.133	83.94
249.366	86.94
249.599	70.94
249.832	58.94
250.066	77.94
250.299	91.94
250.532	70.94
250.765	61.94
250.998	75.94
251.231	76.94
251.465	76.94
251.698	76.94
251.931	59.94
252.164	63.94
252.397	74.94
252.63	79.94
252.863	92.94
253.096	90.94
253.329	76.94
253.562	66.94
253.795	80.94
254.028	80.94
254.261	81.94
254.494	86.94
254.727	78.94
254.96	74.94
255.193	84.94
255.426	84.94
255.659	81.94
255.892	77.94
256.124	67.94
256.357	79.94
256.59	82.94
256.823	63.94
257.056	75.94
257.289	94.94
257.521	70.94
257.754	79.94
257.987	86.94
258.22	80.94
258.452	86.94
258.685	92.94
258.918	77.94
259.151	80.94
259.383	93.94
259.616	77.94
259.849	91.94
260.081	96.94
260.314	83.94
260.547	64.94
260.779	82.94
261.012	87.94
261.244	83.94
261.477	79.94
261.71	82.94
261.942	73.94
262.175	91.94
262.407	77.94
262.64	73.94
262.872	86.94
263.105	79.94
263.337	80.94
263.57	69.94
263.802	88.94
264.035	80.94
264.267	81.94
264.499	84.94
264.732	82.94
264.964	74.94
265.197	64.94
265.429	72.94
265.661	93.94
265.894	82.94
266.126	80.94
266.358	70.94
266.591	78.94
266.823	82.94
267.055	62.94
267.287	76.94
267.52	69.94
267.752	82.94
267.984	78.94
268.216	84.94
268.448	75.94
268.681	76.94
268.913	84.94
269.145	83.94
269.377	70.94
269.609	84.94
269.841	99.94
270.073	87.94
270.306	84.94
270.538	88.94
270.77	80.94
271.002	81.94
271.234	76.94
271.466	93.94
271.698	79.94
271.93	87.94
272.162	86.94
272.394	75.94
272.626	91.94
272.858	81.94
273.09	87.94
273.322	81.94
273.553	68.94
273.785	87.94
274.017	86.94
274.249	80.94
274.481	86.94
274.713	88.94
274.945	76.94
275.176	91.94
275.408	88.94
275.64	78.94
275.872	82.94
276.104	66.94
276.335	82.94
276.567	87.94
276.799	87.94
277.031	75.94
277.262	82.94
277.494	73.94
277.726	80.94
277.957	87.94
278.189	77.94
278.421	94.94
278.652	81.94
278.884	84.94
279.115	82.94
279.347	91.94
279.579	74.94
279.81	68.94
280.042	79.94
280.273	94.94
280.505	76.94
280.736	69.94
280.968	87.94
281.199	87.94
281.431	86.94
281.662	88.94
281.894	75.94
282.125	90.94
282.356	80.94
282.588	88.94
282.819	87.94
283.051	82.94
283.282	81.94
283.513	90.94
283.745	78.94
283.976	89.94
284.207	97.94
284.439	103.94
284.67	73.94
284.901	82.94
285.132	84.94
285.364	87.94
285.595	92.94
285.826	68.94
286.057	90.94
286.288	99.94
286.52	79.94
286.751	79.94
286.982	92.94
287.213	63.94
287.444	87.94
287.675	94.94
287.906	95.94
288.138	83.94
288.369	85.94
288.6	84.94
288.831	75.94
289.062	87.94
289.293	91.94
289.524	69.94
289.755	78.94
289.986	74.94
290.217	90.94
290.448	82.94
290.679	76.94
290.91	91.94
291.141	92.94
291.371	79.94
291.602	91.94
291.833	72.94
292.064	73.94
292.295	71.94
292.526	75.94
292.757	81.94
292.987	101.94
293.218	86.94
293.449	78.94
293.68	89.94
293.91	80.94
294.141	67.94
294.372	79.94
294.603	79.94
294.833	84.94
295.064	72.94
295.295	76.94
295.525	82.94
295.756	89.94
295.987	94.94
296.217	80.94
296.448	73.94
296.679	95.94
296.909	85.94
297.14	96.94
297.37	79.94
297.601	86.94
297.831	76.94
298.062	85.94
298.292	79.94
298.523	86.94
298.753	95.94
298.984	92.94
299.214	91.94
299.445	84.94
299.675	95.94
299.905	76.94
300.136	90.94
300.366	83.94
300.597	78.94
300.827	88.94
301.057	80.94
301.288	80.94
301.518	84.94
301.748	87.94
301.979	79.94
302.209	88.94
302.439	90.94
302.669	80.94
302.9	68.94
303.13	80.94
303.36	79.94
303.59	71.94
303.82	86.94
304.051	96.94
304.281	75.94
304.511	87.94
304.741	87.94
304.971	90.94
305.201	74.94
305.431	78.94
305.661	80.94
305.891	96.94
306.121	94.94
306.352	94.94
306.582	72.94
306.812	94.94
307.042	100.94
307.272	97.94
307.502	94.94
307.731	82.94
307.961	96.94
308.191	70.94
308.421	88.94
308.651	89.94
308.881	84.94
309.111	74.94
309.341	85.94
309.571	99.94
309.8	97.94
310.03	84.94
310.26	85.94
310.49	82.94
310.72	92.94
310.949	75.94
311.179	93.94
311.409	86.94
311.639	85.94
311.868	97.94
312.098	100.94
312.328	77.94
312.557	71.94
312.787	74.94
313.017	87.94
313.246	96.94
313.476	82.94
313.706	86.94
313.935	74.94
314.165	81.94
314.394	82.94
314.624	74.94
314.853	83.94
315.083	83.94
315.312	76.94
315.542	83.94
315.771	94.94
316.001	97.94
316.23	82.94
316.46	82.94
316.689	89.94
316.919	89.94
317.148	83.94
317.377	105.94
317.607	82.94
317.836	74.94
318.065	70.94
318.295	91.94
318.524	72.94
318.753	88.94
318.983	101.94
319.212	95.94
319.441	85.94
319.67	94.94
319.9	84.94
320.129	88.94
320.358	81.94
320.587	77.94
320.816	86.94
321.046	86.94
321.275	73.94
321.504	93.94
321.733	86.94
321.962	93.94
322.191	75.94
322.42	81.94
322.649	87.94
322.878	95.94
323.108	72.94
323.337	74.94
323.566	79.94
323.795	72.94
324.024	75.94
324.253	81.94
324.482	98.94
324.71	72.94
324.939	91.94
325.168	103.94
325.397	83.94
325.626	78.94
325.855	90.94
326.084	87.94
326.313	87.94
326.542	89.94
326.77	96.94
326.999	90.94
327.228	86.94
327.457	57.94
327.686	76.94
327.914	81.94
328.143	108.94
328.372	82.94
328.6	108.94
328.829	77.94
329.058	99.94
329.287	80.94
329.515	83.94
329.744	85.94
329.972	82.94
330.201	91.94
330.43	90.94
330.658	76.94
330.887	80.94
331.115	89.94
331.344	75.94
331.572	93.94
331.801	88.94
332.03	81.94
332.258	91.94
332.486	74.94
332.715	76.94
332.943	83.94
333.172	73.94
333.4	80.94
333.629	88.94
333.857	83.94
334.085	89.94
334.314	72.94
334.542	77.94
334.771	89.94
334.999	83.94
335.227	90.94
335.455	90.94
335.684	100.94
335.912	89.94
336.14	92.94
336.369	90.94
336.597	74.94
336.825	92.94
337.053	81.94
337.281	83.94
337.51	85.94
337.738	100.94
337.966	85.94
338.194	96.94
338.422	79.94
338.65	82.94
338.878	84.94
339.106	83.94
339.334	75.94
339.562	89.94
339.79	80.94
340.018	83.94
340.246	90.94
340.474	95.94
340.702	88.94
340.93	81.94
341.158	74.94
341.386	79.94
341.614	87.94
341.842	84.94
342.07	78.94
342.298	95.94
342.526	83.94
342.754	80.94
342.981	78.94
343.209	78.94
343.437	87.94
343.665	80.94
343.893	85.94
344.12	94.94
344.348	94.94
344.576	88.94
344.804	74.94
345.031	85.94
345.259	92.94
345.487	82.94
345.714	78.94
345.942	70.94
346.17	95.94
346.397	80.94
346.625	96.94
346.853	78.94
347.08	76.94
347.308	75.94
347.535	84.94
347.763	71.94
347.99	98.94
348.218	78.94
348.445	81.94
348.673	89.94
348.9	88.94
349.128	90.94
349.355	88.94
349.583	97.94
349.81	99.94
350.037	83.94
350.265	91.94
350.492	95.94
350.72	88.94
350.947	87.94
351.174	91.94
351.402	68.94
351.629	76.94
351.856	91.94
352.083	81.94
352.311	81.94
352.538	79.94
352.765	88.94
352.992	81.94
353.22	75.94
353.447	85.94
353.674	93.94
353.901	91.94
354.128	95.94
354.355	85.94
354.583	82.94
354.81	72.94
355.037	79.94
355.264	71.94
355.491	79.94
355.718	80.94
355.945	89.94
356.172	80.94
356.399	82.94
356.626	92.94
356.853	77.94
357.08	92.94
357.307	92.94
357.534	81.94
357.761	81.94
357.988	74.94
358.215	92.94
358.441	90.94
358.668	87.94
358.895	80.94
359.122	92.94
359.349	84.94
359.576	82.94
359.802	80.94
360.029	96.94
360.256	93.94
360.483	82.94
360.709	80.94
360.936	80.94
361.163	81.94
361.39	87.94
361.616	80.94
361.843	82.94
362.07	81.94
362.296	80.94
362.523	79.94
362.749	86.94
362.976	97.94
363.203	78.94
363.429	72.94
363.656	90.94
363.882	82.94
364.109	82.94
364.335	95.94
364.562	91.94
364.788	98.94
365.015	85.94
365.241	93.94
365.468	88.94
365.694	90.94
365.92	85.94
366.147	77.94
366.373	87.94
366.599	88.94
366.826	80.94
367.052	74.94
367.278	84.94
367.505	72.94
367.731	87.94
367.957	75.94
368.184	89.94
368.41	90.94
368.636	85.94
368.862	87.94
369.089	76.94
369.315	65.94
369.541	88.94
369.767	83.94
369.993	92.94
370.219	84.94
370.445	87.94
370.672	90.94
370.898	86.94
371.124	86.94
371.35	79.94
371.576	71.94
371.802	85.94
372.028	98.94
372.254	76.94
372.48	98.94
372.706	93.94
372.932	78.94
373.158	74.94
373.384	92.94
373.61	74.94
373.835	72.94
374.061	90.94
374.287	94.94
374.513	85.94
374.739	91.94
374.965	80.94
375.191	85.94
375.416	90.94
375.642	92.94
375.868	97.94
376.094	94.94
376.319	87.94
376.545	93.94
376.771	79.94
376.997	88.94
377.222	86.94
377.448	94.94
377.674	99.94
377.899	90.94
378.125	94.94
378.35	104.94
378.576	89.94
378.802	85.94
379.027	71.94
379.253	76.94
379.478	83.94
379.704	76.94
379.929	89.94
380.155	80.94
380.38	90.94
380.606	85.94
380.831	95.94
381.057	94.94
381.282	86.94
381.507	81.94
381.733	101.94
381.958	86.94
382.184	101.94
382.409	85.94
382.634	84.94
382.86	73.94
383.085	91.94
383.31	81.94
383.535	89.94
383.761	99.94
383.986	95.94
384.211	86.94
384.436	95.94
384.662	87.94
384.887	83.94
385.112	85.94
385.337	96.94
385.562	102.94
385.787	94.94
386.013	97.94
386.238	96.94
386.463	89.94
386.688	90.94
386.913	91.94
387.138	98.94
387.363	100.94
387.588	101.94
387.813	83.94
388.038	87.94
388.263	102.94
388.488	97.94
388.713	90.94
388.938	92.94
389.163	68.94
389.387	82.94
389.612	83.94
389.837	98.94
390.062	101.94
390.287	88.94
390.512	91.94
390.736	83.94
390.961	83.94
391.186	91.94
391.411	83.94
391.636	101.94
391.86	84.94
392.085	106.94
392.31	104.94
392.534	97.94
392.759	88.94
392.984	96.94
393.208	82.94
393.433	99.94
393.658	100.94
393.882	110.94
394.107	108.94
394.331	98.94
394.556	99.94
394.78	98.94
395.005	94.94
395.229	92.94
395.454	111.94
395.678	82.94
395.903	98.94
396.127	104.94
396.352	98.94
396.576	96.94
396.801	100.94
397.025	104.94
397.249	102.94
397.474	97.94
397.698	94.94
397.922	104.94
398.147	106.94
398.371	95.94
398.595	103.94
398.82	100.94
399.044	113.94
399.268	101.94
399.492	124.94
399.717	120.94
399.941	126.94
400.165	126.94
400.389	108.94
400.613	98.94
400.837	103.94
401.062	104.94
401.286	89.94
401.51	99.94
401.734	108.94
401.958	104.94
402.182	99.94
402.406	104.94
402.63	112.94
402.854	125.94
403.078	102.94
403.302	104.94
403.526	114.94
403.75	116.94
403.974	97.94
404.198	114.94
404.422	117.94
404.645	96.94
404.869	114.94
405.093	100.94
405.317	118.94
405.541	111.94
405.765	104.94
405.988	98.94
406.212	115.94
406.436	107.94
406.66	103.94
406.883	117.94
407.107	113.94
407.331	104.94
407.555	110.94
407.778	107.94
408.002	103.94
408.226	100.94
408.449	110.94
408.673	98.94
408.896	117.94
409.12	120.94
409.344	113.94
409.567	114.94
409.791	114.94
410.014	107.94
410.238	102.94
410.461	108.94
410.685	103.94
410.908	90.94
411.132	114.94
411.355	119.94
411.578	134.94
411.802	94.94
412.025	99.94
412.249	113.94
412.472	112.94
412.695	92.94
412.919	119.94
413.142	110.94
413.365	100.94
413.589	102.94
413.812	110.94
414.035	104.94
414.258	122.94
414.482	110.94
414.705	117.94
414.928	115.94
415.151	107.94
415.374	99.94
415.597	113.94
415.821	112.94
416.044	116.94
416.267	111.94
416.49	113.94
416.713	106.94
416.936	105.94
417.159	107.94
417.382	114.94
417.605	110.94
417.828	113.94
418.051	121.94
418.274	107.94
418.497	110.94
418.72	102.94
418.943	126.94
419.166	100.94
419.389	117.94
419.611	116.94
419.834	115.94
420.057	102.94
420.28	94.94
420.503	118.94
420.726	112.94
420.948	95.94
421.171	110.94
421.394	112.94
421.617	111.94
421.839	111.94
422.062	101.94
422.285	128.94
422.507	117.94
422.73	106.94
422.953	121.94
423.175	104.94
423.398	104.94
423.621	97.94
423.843	129.94
424.066	114.94
424.288	112.94
424.511	103.94
424.733	115.94
424.956	114.94
425.178	123.94
425.401	110.94
425.623	107.94
425.846	122.94
426.068	94.94
426.291	107.94
426.513	103.94
426.735	107.94
426.958	115.94
427.18	121.94
427.402	124.94
427.625	115.94
427.847	112.94
428.069	105.94
428.292	113.94
428.514	122.94
428.736	121.94
428.958	116.94
429.181	103.94
429.403	116.94
429.625	118.94
429.847	120.94
430.069	102.94
430.292	118.94
430.514	117.94
430.736	106.94
430.958	123.94
431.18	124.94
431.402	127.94
431.624	98.94
431.846	105.94
432.068	106.94
432.29	103.94
432.512	109.94
432.734	98.94
432.956	119.94
433.178	119.94
433.4	111.94
433.622	107.94
433.844	114.94
434.066	103.94
434.287	102.94
434.509	113.94
434.731	126.94
434.953	95.94
435.175	104.94
435.397	115.94
435.618	104.94
435.84	98.94
436.062	99.94
436.284	108.94
436.505	116.94
436.727	98.94
436.949	115.94
437.17	124.94
437.392	120.94
437.614	113.94
437.835	103.94
438.057	98.94
438.278	97.94
438.5	101.94
438.721	104.94
438.943	113.94
439.165	126.94
439.386	123.94
439.608	120.94
439.829	116.94
440.05	107.94
440.272	133.94
440.493	105.94
440.715	118.94
440.936	133.94
441.158	128.94
441.379	124.94
441.6	126.94
441.822	107.94
442.043	120.94
442.264	103.94
442.486	110.94
442.707	104.94
442.928	114.94
443.149	106.94
443.371	114.94
443.592	116.94
443.813	121.94
444.034	111.94
444.255	133.94
444.476	117.94
444.698	122.94
444.919	123.94
445.14	227.94
445.361	181.94
445.582	128.94
445.803	106.94
446.024	132.94
446.245	114.94
446.466	117.94
446.687	99.94
446.908	126.94
447.129	131.94
447.35	112.94
447.571	106.94
447.792	110.94
448.013	110.94
448.234	113.94
448.455	113.94
448.675	103.94
448.896	114.94
449.117	118.94
449.338	113.94
449.559	114.94
449.779	113.94
450	116.94
450.221	103.94
450.442	110.94
450.662	107.94
450.883	124.94
451.104	116.94
451.324	107.94
451.545	108.94
451.766	127.94
451.986	110.94
452.207	103.94
452.428	98.94
452.648	115.94
452.869	98.94
453.089	105.94
453.31	102.94
453.53	97.94
453.751	99.94
453.971	102.94
454.192	114.94
454.412	103.94
454.633	115.94
454.853	113.94
455.073	118.94
455.294	101.94
455.514	96.94
455.734	95.94
455.955	105.94
456.175	99.94
456.395	99.94
456.616	101.94
456.836	97.94
457.056	103.94
457.276	114.94
457.497	100.94
457.717	108.94
457.937	96.94
458.157	111.94
458.377	106.94
458.598	114.94
458.818	110.94
459.038	112.94
459.258	99.94
459.478	94.94
459.698	94.94
459.918	113.94
460.138	126.94
460.358	111.94
460.578	121.94
460.798	110.94
461.018	94.94
461.238	112.94
461.458	120.94
461.678	99.94
461.898	118.94
462.118	116.94
462.338	123.94
462.558	120.94
462.777	125.94
462.997	116.94
463.217	116.94
463.437	128.94
463.657	132.94
463.876	133.94
464.096	104.94
464.316	124.94
464.536	112.94
464.755	119.94
464.975	119.94
465.195	103.94
465.414	111.94
465.634	96.94
465.854	114.94
466.073	110.94
466.293	91.94
466.512	100.94
466.732	120.94
466.951	96.94
467.171	110.94
467.391	113.94
467.61	117.94
467.829	117.94
468.049	117.94
468.268	105.94
468.488	115.94
468.707	115.94
468.927	123.94
469.146	118.94
469.365	123.94
469.585	115.94
469.804	126.94
470.023	114.94
470.243	120.94
470.462	107.94
470.681	123.94
470.901	121.94
471.12	132.94
471.339	129.94
471.558	115.94
471.777	125.94
471.997	120.94
472.216	120.94
472.435	108.94
472.654	122.94
472.873	99.94
473.092	104.94
473.311	116.94
473.53	124.94
473.749	118.94
473.968	119.94
474.187	115.94
474.406	115.94
474.625	133.94
474.844	117.94
475.063	106.94
475.282	119.94
475.501	98.94
475.72	106.94
475.939	122.94
476.158	116.94
476.377	114.94
476.596	118.94
476.814	121.94
477.033	106.94
477.252	132.94
477.471	126.94
477.69	124.94
477.908	119.94
478.127	123.94
478.346	119.94
478.564	129.94
478.783	114.94
479.002	136.94
479.22	125.94
479.439	122.94
479.658	109.94
479.876	114.94
480.095	124.94
480.313	128.94
480.532	128.94
480.751	105.94
480.969	105.94
481.188	118.94
481.406	106.94
481.624	106.94
481.843	109.94
482.061	122.94
482.28	114.94
482.498	124.94
482.717	118.94
482.935	96.94
483.153	126.94
483.372	138.94
483.59	125.94
483.808	117.94
484.027	120.94
484.245	121.94
484.463	120.94
484.681	128.94
484.9	134.94
485.118	127.94
485.336	118.94
485.554	112.94
485.772	119.94
485.99	127.94
486.209	114.94
486.427	113.94
486.645	121.94
486.863	136.94
487.081	120.94
487.299	132.94
487.517	137.94
487.735	149.94
487.953	143.94
488.171	131.94
488.389	144.94
488.607	130.94
488.825	126.94
489.043	125.94
489.261	142.94
489.479	132.94
489.696	130.94
489.914	132.94
490.132	133.94
490.35	125.94
490.568	135.94
490.786	144.94
491.003	125.94
491.221	137.94
491.439	137.94
491.657	159.94
491.874	161.94
492.092	163.94
492.31	168.94
492.527	146.94
492.745	156.94
492.963	152.94
493.18	160.94
493.398	161.94
493.615	151.94
493.833	142.94
494.05	129.94
494.268	134.94
494.485	154.94
494.703	139.94
494.92	143.94
495.138	152.94
495.355	150.94
495.573	152.94
495.79	131.94
496.008	171.94
496.225	138.94
496.442	146.94
496.66	144.94
496.877	142.94
497.094	138.94
497.312	155.94
497.529	142.94
497.746	147.94
497.963	134.94
498.181	132.94
498.398	129.94
498.615	136.94
498.832	133.94
499.049	131.94
499.267	157.94
499.484	153.94
499.701	160.94
499.918	171.94
500.135	192.94
500.352	209.94
500.569	215.94
500.786	225.94
501.003	191.94
501.22	187.94
501.437	188.94
501.654	167.94
501.871	171.94
502.088	152.94
502.305	151.94
502.522	141.94
502.739	154.94
502.956	145.94
503.172	132.94
503.389	122.94
503.606	131.94
503.823	136.94
504.04	127.94
504.256	126.94
504.473	130.94
504.69	127.94
504.907	136.94
505.123	135.94
505.34	126.94
505.557	130.94
505.773	124.94
505.99	117.94
506.207	126.94
506.423	120.94
506.64	130.94
506.856	132.94
507.073	115.94
507.289	118.94
507.506	130.94
507.722	105.94
507.939	125.94
508.155	108.94
508.372	130.94
508.588	114.94
508.805	123.94
509.021	112.94
509.238	124.94
509.454	121.94
509.67	94.94
509.887	114.94
510.103	115.94
510.319	104.94
510.536	118.94
510.752	98.94
510.968	114.94
511.184	109.94
511.401	97.94
511.617	109.94
511.833	113.94
512.049	103.94
