Data from StandardFe(NO3)3.TAE.3%Agarose.FlatLispGreen.Lamp.Energy10.07252019_HRD10591_11-53-48-439.txt Node
Date: Thu Jul 25 11:53:48 EDT 2019
User: cochatt
Spectrometer: HR+D1059
Trigger mode: 1
Integration Time (sec): 1.000000E-1
Scans to average: 1
Electric dark correction enabled: true
Nonlinearity correction enabled: false
Boxcar width: 0
XAxis mode: Wavelengths
Number of Pixels in Spectrum: 2048
>>>>>Begin Spectral Data<<<<<
223.165	-33.06
223.4	-33.06
223.635	-33.06
223.869	-14.06
224.104	-15.06
224.338	-14.06
224.573	-8.06
224.808	-12.06
225.042	-16.06
225.277	-2.06
225.511	-7.06
225.746	6.94
225.98	13.94
226.215	20.94
226.449	8.94
226.683	12.94
226.918	27.94
227.152	29.94
227.387	29.94
227.621	44.94
227.856	57.94
228.09	28.94
228.324	64.94
228.559	41.94
228.793	56.94
229.027	71.94
229.262	49.94
229.496	56.94
229.73	65.94
229.964	74.94
230.199	66.94
230.433	79.94
230.667	74.94
230.901	72.94
231.136	82.94
231.37	76.94
231.604	75.94
231.838	83.94
232.072	74.94
232.306	86.94
232.541	87.94
232.775	96.94
233.009	83.94
233.243	80.94
233.477	73.94
233.711	79.94
233.945	90.94
234.179	81.94
234.413	90.94
234.647	94.94
234.881	88.94
235.115	75.94
235.349	80.94
235.583	73.94
235.817	77.94
236.051	71.94
236.285	73.94
236.519	77.94
236.753	72.94
236.987	73.94
237.221	86.94
237.455	73.94
237.689	63.94
237.922	63.94
238.156	80.94
238.39	74.94
238.624	73.94
238.858	96.94
239.091	68.94
239.325	78.94
239.559	87.94
239.793	73.94
240.027	77.94
240.26	77.94
240.494	63.94
240.728	73.94
240.961	90.94
241.195	70.94
241.429	75.94
241.662	64.94
241.896	68.94
242.13	64.94
242.363	84.94
242.597	89.94
242.83	71.94
243.064	63.94
243.298	70.94
243.531	88.94
243.765	66.94
243.998	70.94
244.232	78.94
244.465	81.94
244.699	75.94
244.932	75.94
245.166	75.94
245.399	73.94
245.633	71.94
245.866	63.94
246.099	77.94
246.333	75.94
246.566	78.94
246.8	82.94
247.033	80.94
247.266	69.94
247.5	76.94
247.733	59.94
247.966	64.94
248.2	74.94
248.433	74.94
248.666	83.94
248.899	65.94
249.133	74.94
249.366	81.94
249.599	61.94
249.832	82.94
250.066	77.94
250.299	72.94
250.532	78.94
250.765	78.94
250.998	83.94
251.231	73.94
251.465	76.94
251.698	70.94
251.931	75.94
252.164	80.94
252.397	74.94
252.63	69.94
252.863	75.94
253.096	76.94
253.329	75.94
253.562	81.94
253.795	80.94
254.028	77.94
254.261	95.94
254.494	84.94
254.727	84.94
254.96	82.94
255.193	72.94
255.426	79.94
255.659	71.94
255.892	86.94
256.124	80.94
256.357	78.94
256.59	74.94
256.823	75.94
257.056	80.94
257.289	87.94
257.521	85.94
257.754	74.94
257.987	82.94
258.22	80.94
258.452	73.94
258.685	64.94
258.918	74.94
259.151	71.94
259.383	77.94
259.616	76.94
259.849	78.94
260.081	73.94
260.314	73.94
260.547	87.94
260.779	83.94
261.012	89.94
261.244	91.94
261.477	79.94
261.71	69.94
261.942	79.94
262.175	84.94
262.407	78.94
262.64	75.94
262.872	82.94
263.105	82.94
263.337	75.94
263.57	87.94
263.802	84.94
264.035	83.94
264.267	76.94
264.499	79.94
264.732	79.94
264.964	69.94
265.197	77.94
265.429	81.94
265.661	71.94
265.894	80.94
266.126	92.94
266.358	80.94
266.591	67.94
266.823	70.94
267.055	84.94
267.287	83.94
267.52	90.94
267.752	75.94
267.984	94.94
268.216	85.94
268.448	92.94
268.681	79.94
268.913	85.94
269.145	72.94
269.377	95.94
269.609	98.94
269.841	81.94
270.073	82.94
270.306	77.94
270.538	84.94
270.77	73.94
271.002	84.94
271.234	87.94
271.466	93.94
271.698	74.94
271.93	85.94
272.162	75.94
272.394	92.94
272.626	82.94
272.858	74.94
273.09	79.94
273.322	85.94
273.553	72.94
273.785	69.94
274.017	82.94
274.249	79.94
274.481	81.94
274.713	81.94
274.945	85.94
275.176	89.94
275.408	86.94
275.64	82.94
275.872	83.94
276.104	84.94
276.335	91.94
276.567	90.94
276.799	76.94
277.031	73.94
277.262	90.94
277.494	88.94
277.726	81.94
277.957	71.94
278.189	84.94
278.421	82.94
278.652	77.94
278.884	81.94
279.115	106.94
279.347	85.94
279.579	71.94
279.81	82.94
280.042	96.94
280.273	90.94
280.505	82.94
280.736	82.94
280.968	87.94
281.199	97.94
281.431	68.94
281.662	87.94
281.894	92.94
282.125	85.94
282.356	87.94
282.588	77.94
282.819	82.94
283.051	88.94
283.282	80.94
283.513	85.94
283.745	78.94
283.976	74.94
284.207	85.94
284.439	86.94
284.67	87.94
284.901	72.94
285.132	81.94
285.364	84.94
285.595	89.94
285.826	81.94
286.057	77.94
286.288	96.94
286.52	87.94
286.751	89.94
286.982	83.94
287.213	90.94
287.444	79.94
287.675	87.94
287.906	92.94
288.138	83.94
288.369	82.94
288.6	72.94
288.831	73.94
289.062	96.94
289.293	87.94
289.524	86.94
289.755	78.94
289.986	81.94
290.217	92.94
290.448	82.94
290.679	77.94
290.91	85.94
291.141	83.94
291.371	74.94
291.602	101.94
291.833	86.94
292.064	81.94
292.295	89.94
292.526	81.94
292.757	71.94
292.987	84.94
293.218	74.94
293.449	87.94
293.68	77.94
293.91	87.94
294.141	74.94
294.372	74.94
294.603	80.94
294.833	91.94
295.064	77.94
295.295	87.94
295.525	79.94
295.756	75.94
295.987	97.94
296.217	89.94
296.448	84.94
296.679	85.94
296.909	71.94
297.14	89.94
297.37	81.94
297.601	84.94
297.831	83.94
298.062	91.94
298.292	83.94
298.523	85.94
298.753	88.94
298.984	76.94
299.214	91.94
299.445	91.94
299.675	80.94
299.905	82.94
300.136	89.94
300.366	93.94
300.597	71.94
300.827	87.94
301.057	65.94
301.288	72.94
301.518	73.94
301.748	88.94
301.979	89.94
302.209	79.94
302.439	85.94
302.669	88.94
302.9	78.94
303.13	63.94
303.36	87.94
303.59	78.94
303.82	84.94
304.051	71.94
304.281	88.94
304.511	76.94
304.741	70.94
304.971	84.94
305.201	85.94
305.431	103.94
305.661	86.94
305.891	85.94
306.121	92.94
306.352	81.94
306.582	81.94
306.812	92.94
307.042	88.94
307.272	77.94
307.502	77.94
307.731	86.94
307.961	79.94
308.191	94.94
308.421	95.94
308.651	88.94
308.881	87.94
309.111	93.94
309.341	87.94
309.571	83.94
309.8	66.94
310.03	80.94
310.26	96.94
310.49	89.94
310.72	87.94
310.949	88.94
311.179	87.94
311.409	82.94
311.639	84.94
311.868	94.94
312.098	88.94
312.328	85.94
312.557	86.94
312.787	87.94
313.017	90.94
313.246	99.94
313.476	90.94
313.706	85.94
313.935	64.94
314.165	96.94
314.394	84.94
314.624	82.94
314.853	80.94
315.083	89.94
315.312	86.94
315.542	85.94
315.771	70.94
316.001	75.94
316.23	77.94
316.46	100.94
316.689	84.94
316.919	94.94
317.148	86.94
317.377	83.94
317.607	86.94
317.836	90.94
318.065	79.94
318.295	81.94
318.524	87.94
318.753	83.94
318.983	81.94
319.212	100.94
319.441	83.94
319.67	84.94
319.9	83.94
320.129	86.94
320.358	81.94
320.587	93.94
320.816	90.94
321.046	88.94
321.275	79.94
321.504	84.94
321.733	78.94
321.962	88.94
322.191	74.94
322.42	91.94
322.649	91.94
322.878	93.94
323.108	80.94
323.337	85.94
323.566	95.94
323.795	80.94
324.024	88.94
324.253	75.94
324.482	80.94
324.71	86.94
324.939	90.94
325.168	96.94
325.397	91.94
325.626	93.94
325.855	79.94
326.084	97.94
326.313	74.94
326.542	80.94
326.77	79.94
326.999	90.94
327.228	86.94
327.457	89.94
327.686	88.94
327.914	86.94
328.143	66.94
328.372	91.94
328.6	82.94
328.829	87.94
329.058	76.94
329.287	93.94
329.515	91.94
329.744	68.94
329.972	75.94
330.201	73.94
330.43	77.94
330.658	88.94
330.887	84.94
331.115	93.94
331.344	81.94
331.572	82.94
331.801	81.94
332.03	94.94
332.258	89.94
332.486	81.94
332.715	86.94
332.943	76.94
333.172	79.94
333.4	77.94
333.629	71.94
333.857	90.94
334.085	84.94
334.314	73.94
334.542	77.94
334.771	91.94
334.999	95.94
335.227	88.94
335.455	73.94
335.684	91.94
335.912	87.94
336.14	77.94
336.369	74.94
336.597	80.94
336.825	89.94
337.053	92.94
337.281	81.94
337.51	78.94
337.738	91.94
337.966	64.94
338.194	79.94
338.422	92.94
338.65	90.94
338.878	88.94
339.106	89.94
339.334	94.94
339.562	74.94
339.79	83.94
340.018	100.94
340.246	92.94
340.474	75.94
340.702	85.94
340.93	79.94
341.158	85.94
341.386	88.94
341.614	74.94
341.842	81.94
342.07	104.94
342.298	102.94
342.526	83.94
342.754	83.94
342.981	92.94
343.209	98.94
343.437	83.94
343.665	81.94
343.893	91.94
344.12	85.94
344.348	93.94
344.576	85.94
344.804	65.94
345.031	88.94
345.259	78.94
345.487	83.94
345.714	85.94
345.942	74.94
346.17	79.94
346.397	79.94
346.625	77.94
346.853	85.94
347.08	76.94
347.308	80.94
347.535	85.94
347.763	76.94
347.99	83.94
348.218	106.94
348.445	75.94
348.673	90.94
348.9	83.94
349.128	97.94
349.355	83.94
349.583	88.94
349.81	85.94
350.037	84.94
350.265	80.94
350.492	88.94
350.72	77.94
350.947	88.94
351.174	88.94
351.402	87.94
351.629	68.94
351.856	80.94
352.083	77.94
352.311	76.94
352.538	87.94
352.765	85.94
352.992	87.94
353.22	81.94
353.447	81.94
353.674	73.94
353.901	81.94
354.128	79.94
354.355	80.94
354.583	83.94
354.81	78.94
355.037	98.94
355.264	84.94
355.491	84.94
355.718	68.94
355.945	89.94
356.172	65.94
356.399	78.94
356.626	83.94
356.853	75.94
357.08	92.94
357.307	73.94
357.534	85.94
357.761	74.94
357.988	97.94
358.215	87.94
358.441	79.94
358.668	88.94
358.895	87.94
359.122	88.94
359.349	92.94
359.576	90.94
359.802	81.94
360.029	82.94
360.256	85.94
360.483	87.94
360.709	91.94
360.936	89.94
361.163	100.94
361.39	87.94
361.616	77.94
361.843	100.94
362.07	79.94
362.296	83.94
362.523	80.94
362.749	72.94
362.976	88.94
363.203	100.94
363.429	96.94
363.656	89.94
363.882	90.94
364.109	94.94
364.335	94.94
364.562	78.94
364.788	77.94
365.015	100.94
365.241	83.94
365.468	70.94
365.694	85.94
365.92	90.94
366.147	88.94
366.373	73.94
366.599	70.94
366.826	73.94
367.052	94.94
367.278	94.94
367.505	86.94
367.731	85.94
367.957	89.94
368.184	93.94
368.41	81.94
368.636	89.94
368.862	84.94
369.089	91.94
369.315	74.94
369.541	84.94
369.767	87.94
369.993	79.94
370.219	91.94
370.445	87.94
370.672	83.94
370.898	93.94
371.124	87.94
371.35	78.94
371.576	90.94
371.802	84.94
372.028	84.94
372.254	83.94
372.48	81.94
372.706	91.94
372.932	94.94
373.158	81.94
373.384	94.94
373.61	99.94
373.835	78.94
374.061	77.94
374.287	84.94
374.513	93.94
374.739	89.94
374.965	86.94
375.191	82.94
375.416	77.94
375.642	89.94
375.868	87.94
376.094	82.94
376.319	88.94
376.545	83.94
376.771	101.94
376.997	98.94
377.222	85.94
377.448	95.94
377.674	80.94
377.899	91.94
378.125	88.94
378.35	81.94
378.576	81.94
378.802	81.94
379.027	84.94
379.253	95.94
379.478	91.94
379.704	93.94
379.929	97.94
380.155	96.94
380.38	92.94
380.606	89.94
380.831	77.94
381.057	92.94
381.282	78.94
381.507	94.94
381.733	85.94
381.958	91.94
382.184	74.94
382.409	83.94
382.634	89.94
382.86	95.94
383.085	84.94
383.31	90.94
383.535	85.94
383.761	86.94
383.986	88.94
384.211	86.94
384.436	96.94
384.662	96.94
384.887	95.94
385.112	91.94
385.337	88.94
385.562	88.94
385.787	107.94
386.013	109.94
386.238	61.94
386.463	96.94
386.688	94.94
386.913	85.94
387.138	101.94
387.363	78.94
387.588	98.94
387.813	96.94
388.038	116.94
388.263	90.94
388.488	98.94
388.713	97.94
388.938	111.94
389.163	80.94
389.387	95.94
389.612	102.94
389.837	84.94
390.062	91.94
390.287	91.94
390.512	107.94
390.736	95.94
390.961	103.94
391.186	92.94
391.411	100.94
391.636	103.94
391.86	99.94
392.085	96.94
392.31	111.94
392.534	85.94
392.759	100.94
392.984	84.94
393.208	96.94
393.433	90.94
393.658	101.94
393.882	102.94
394.107	89.94
394.331	95.94
394.556	110.94
394.78	92.94
395.005	101.94
395.229	97.94
395.454	96.94
395.678	82.94
395.903	98.94
396.127	104.94
396.352	105.94
396.576	95.94
396.801	86.94
397.025	103.94
397.249	118.94
397.474	90.94
397.698	100.94
397.922	101.94
398.147	89.94
398.371	95.94
398.595	110.94
398.82	99.94
399.044	96.94
399.268	116.94
399.492	118.94
399.717	118.94
399.941	102.94
400.165	109.94
400.389	85.94
400.613	109.94
400.837	92.94
401.062	90.94
401.286	98.94
401.51	97.94
401.734	108.94
401.958	114.94
402.182	100.94
402.406	107.94
402.63	93.94
402.854	97.94
403.078	111.94
403.302	111.94
403.526	112.94
403.75	101.94
403.974	100.94
404.198	94.94
404.422	108.94
404.645	111.94
404.869	108.94
405.093	105.94
405.317	114.94
405.541	117.94
405.765	118.94
405.988	101.94
406.212	104.94
406.436	109.94
406.66	119.94
406.883	111.94
407.107	107.94
407.331	96.94
407.555	128.94
407.778	121.94
408.002	104.94
408.226	102.94
408.449	112.94
408.673	105.94
408.896	119.94
409.12	124.94
409.344	106.94
409.567	115.94
409.791	100.94
410.014	119.94
410.238	137.94
410.461	108.94
410.685	111.94
410.908	117.94
411.132	122.94
411.355	120.94
411.578	114.94
411.802	111.94
412.025	102.94
412.249	122.94
412.472	109.94
412.695	113.94
412.919	107.94
413.142	104.94
413.365	112.94
413.589	113.94
413.812	113.94
414.035	119.94
414.258	128.94
414.482	94.94
414.705	115.94
414.928	115.94
415.151	114.94
415.374	104.94
415.597	106.94
415.821	103.94
416.044	106.94
416.267	108.94
416.49	107.94
416.713	107.94
416.936	105.94
417.159	103.94
417.382	99.94
417.605	112.94
417.828	115.94
418.051	104.94
418.274	117.94
418.497	122.94
418.72	113.94
418.943	115.94
419.166	109.94
419.389	115.94
419.611	107.94
419.834	118.94
420.057	107.94
420.28	111.94
420.503	105.94
420.726	117.94
420.948	107.94
421.171	107.94
421.394	112.94
421.617	120.94
421.839	104.94
422.062	123.94
422.285	102.94
422.507	111.94
422.73	93.94
422.953	111.94
423.175	113.94
423.398	101.94
423.621	111.94
423.843	119.94
424.066	126.94
424.288	121.94
424.511	125.94
424.733	118.94
424.956	137.94
425.178	125.94
425.401	117.94
425.623	123.94
425.846	118.94
426.068	114.94
426.291	123.94
426.513	118.94
426.735	119.94
426.958	116.94
427.18	106.94
427.402	111.94
427.625	115.94
427.847	107.94
428.069	111.94
428.292	123.94
428.514	117.94
428.736	111.94
428.958	96.94
429.181	119.94
429.403	100.94
429.625	91.94
429.847	115.94
430.069	106.94
430.292	127.94
430.514	105.94
430.736	112.94
430.958	108.94
431.18	121.94
431.402	116.94
431.624	108.94
431.846	106.94
432.068	118.94
432.29	104.94
432.512	122.94
432.734	118.94
432.956	115.94
433.178	127.94
433.4	108.94
433.622	95.94
433.844	122.94
434.066	107.94
434.287	101.94
434.509	98.94
434.731	96.94
434.953	96.94
435.175	102.94
435.397	119.94
435.618	104.94
435.84	112.94
436.062	90.94
436.284	116.94
436.505	121.94
436.727	123.94
436.949	125.94
437.17	114.94
437.392	115.94
437.614	103.94
437.835	102.94
438.057	99.94
438.278	108.94
438.5	125.94
438.721	103.94
438.943	117.94
439.165	119.94
439.386	118.94
439.608	108.94
439.829	119.94
440.05	119.94
440.272	129.94
440.493	130.94
440.715	115.94
440.936	124.94
441.158	123.94
441.379	111.94
441.6	116.94
441.822	122.94
442.043	103.94
442.264	137.94
442.486	123.94
442.707	125.94
442.928	122.94
443.149	132.94
443.371	131.94
443.592	114.94
443.813	125.94
444.034	121.94
444.255	114.94
444.476	134.94
444.698	120.94
444.919	137.94
445.14	237.94
445.361	170.94
445.582	116.94
445.803	124.94
446.024	116.94
446.245	122.94
446.466	128.94
446.687	115.94
446.908	127.94
447.129	115.94
447.35	112.94
447.571	119.94
447.792	131.94
448.013	115.94
448.234	116.94
448.455	123.94
448.675	115.94
448.896	104.94
449.117	109.94
449.338	108.94
449.559	105.94
449.779	109.94
450	105.94
450.221	103.94
450.442	114.94
450.662	132.94
450.883	119.94
451.104	109.94
451.324	104.94
451.545	105.94
451.766	124.94
451.986	111.94
452.207	115.94
452.428	109.94
452.648	116.94
452.869	105.94
453.089	121.94
453.31	100.94
453.53	115.94
453.751	105.94
453.971	118.94
454.192	97.94
454.412	105.94
454.633	105.94
454.853	111.94
455.073	109.94
455.294	123.94
455.514	129.94
455.734	106.94
455.955	105.94
456.175	107.94
456.395	109.94
456.616	115.94
456.836	101.94
457.056	95.94
457.276	112.94
457.497	106.94
457.717	90.94
457.937	107.94
458.157	106.94
458.377	104.94
458.598	99.94
458.818	91.94
459.038	96.94
459.258	97.94
459.478	100.94
459.698	86.94
459.918	103.94
460.138	101.94
460.358	104.94
460.578	118.94
460.798	128.94
461.018	115.94
461.238	117.94
461.458	109.94
461.678	113.94
461.898	121.94
462.118	104.94
462.338	115.94
462.558	116.94
462.777	123.94
462.997	127.94
463.217	117.94
463.437	117.94
463.657	124.94
463.876	118.94
464.096	110.94
464.316	119.94
464.536	113.94
464.755	134.94
464.975	117.94
465.195	113.94
465.414	117.94
465.634	109.94
465.854	106.94
466.073	111.94
466.293	107.94
466.512	121.94
466.732	121.94
466.951	120.94
467.171	108.94
467.391	113.94
467.61	119.94
467.829	120.94
468.049	118.94
468.268	118.94
468.488	117.94
468.707	115.94
468.927	104.94
469.146	115.94
469.365	127.94
469.585	140.94
469.804	125.94
470.023	116.94
470.243	106.94
470.462	133.94
470.681	128.94
470.901	129.94
471.12	124.94
471.339	120.94
471.558	118.94
471.777	116.94
471.997	109.94
472.216	103.94
472.435	123.94
472.654	111.94
472.873	112.94
473.092	104.94
473.311	116.94
473.53	117.94
473.749	115.94
473.968	124.94
474.187	115.94
474.406	103.94
474.625	103.94
474.844	120.94
475.063	117.94
475.282	113.94
475.501	120.94
475.72	114.94
475.939	114.94
476.158	114.94
476.377	120.94
476.596	114.94
476.814	108.94
477.033	109.94
477.252	103.94
477.471	106.94
477.69	114.94
477.908	105.94
478.127	123.94
478.346	127.94
478.564	115.94
478.783	113.94
479.002	119.94
479.22	123.94
479.439	114.94
479.658	123.94
479.876	116.94
480.095	116.94
480.313	120.94
480.532	129.94
480.751	125.94
480.969	121.94
481.188	101.94
481.406	111.94
481.624	116.94
481.843	100.94
482.061	104.94
482.28	115.94
482.498	121.94
482.717	119.94
482.935	114.94
483.153	119.94
483.372	139.94
483.59	134.94
483.808	133.94
484.027	111.94
484.245	124.94
484.463	112.94
484.681	131.94
484.9	135.94
485.118	141.94
485.336	131.94
485.554	116.94
485.772	121.94
485.99	112.94
486.209	128.94
486.427	120.94
486.645	104.94
486.863	133.94
487.081	127.94
487.299	133.94
487.517	134.94
487.735	127.94
487.953	127.94
488.171	154.94
488.389	141.94
488.607	131.94
488.825	131.94
489.043	123.94
489.261	111.94
489.479	127.94
489.696	121.94
489.914	127.94
490.132	143.94
490.35	148.94
490.568	122.94
490.786	144.94
491.003	145.94
491.221	159.94
491.439	164.94
491.657	147.94
491.874	154.94
492.092	165.94
492.31	159.94
492.527	157.94
492.745	151.94
492.963	149.94
493.18	147.94
493.398	147.94
493.615	140.94
493.833	167.94
494.05	163.94
494.268	151.94
494.485	151.94
494.703	156.94
494.92	148.94
495.138	159.94
495.355	145.94
495.573	150.94
495.79	134.94
496.008	129.94
496.225	144.94
496.442	159.94
496.66	141.94
496.877	138.94
497.094	160.94
497.312	155.94
497.529	147.94
497.746	128.94
497.963	151.94
498.181	143.94
498.398	132.94
498.615	140.94
498.832	139.94
499.049	153.94
499.267	161.94
499.484	161.94
499.701	170.94
499.918	179.94
500.135	184.94
500.352	204.94
500.569	217.94
500.786	219.94
501.003	215.94
501.22	195.94
501.437	175.94
501.654	163.94
501.871	157.94
502.088	148.94
502.305	138.94
502.522	143.94
502.739	153.94
502.956	136.94
503.172	125.94
503.389	139.94
503.606	131.94
503.823	131.94
504.04	135.94
504.256	136.94
504.473	145.94
504.69	143.94
504.907	140.94
505.123	137.94
505.34	136.94
505.557	116.94
505.773	118.94
505.99	123.94
506.207	132.94
506.423	118.94
506.64	119.94
506.856	121.94
507.073	132.94
507.289	128.94
507.506	133.94
507.722	125.94
507.939	122.94
508.155	125.94
508.372	128.94
508.588	131.94
508.805	107.94
509.021	121.94
509.238	106.94
509.454	111.94
509.67	106.94
509.887	121.94
510.103	100.94
510.319	97.94
510.536	96.94
510.752	103.94
510.968	108.94
511.184	116.94
511.401	123.94
511.617	95.94
511.833	120.94
