Data from StandardFe(NO3)3.TAE.3%Agarose.FlatLispGreen.Lamp.Energy10.07252019_HRD10591_11-56-24-442.txt Node
Date: Thu Jul 25 11:56:24 EDT 2019
User: cochatt
Spectrometer: HR+D1059
Trigger mode: 1
Integration Time (sec): 1.000000E-1
Scans to average: 1
Electric dark correction enabled: true
Nonlinearity correction enabled: false
Boxcar width: 0
XAxis mode: Wavelengths
Number of Pixels in Spectrum: 2048
>>>>>Begin Spectral Data<<<<<
223.165	-11.44
223.4	-11.44
223.635	-11.44
223.869	-6.44
224.104	-11.44
224.338	-20.44
224.573	-15.44
224.808	-14.44
225.042	-15.44
225.277	-3.44
225.511	-10.44
225.746	2.56
225.98	9.56
226.215	6.56
226.449	13.56
226.683	28.56
226.918	23.56
227.152	24.56
227.387	33.56
227.621	46.56
227.856	57.56
228.09	43.56
228.324	52.56
228.559	57.56
228.793	55.56
229.027	71.56
229.262	60.56
229.496	74.56
229.73	68.56
229.964	75.56
230.199	75.56
230.433	84.56
230.667	81.56
230.901	81.56
231.136	76.56
231.37	68.56
231.604	81.56
231.838	76.56
232.072	74.56
232.306	85.56
232.541	80.56
232.775	79.56
233.009	86.56
233.243	83.56
233.477	94.56
233.711	70.56
233.945	87.56
234.179	74.56
234.413	80.56
234.647	78.56
234.881	86.56
235.115	80.56
235.349	81.56
235.583	74.56
235.817	81.56
236.051	87.56
236.285	77.56
236.519	69.56
236.753	87.56
236.987	82.56
237.221	77.56
237.455	82.56
237.689	82.56
237.922	82.56
238.156	74.56
238.39	74.56
238.624	70.56
238.858	87.56
239.091	80.56
239.325	76.56
239.559	84.56
239.793	72.56
240.027	66.56
240.26	66.56
240.494	82.56
240.728	67.56
240.961	84.56
241.195	70.56
241.429	67.56
241.662	80.56
241.896	73.56
242.13	81.56
242.363	85.56
242.597	79.56
242.83	74.56
243.064	88.56
243.298	86.56
243.531	81.56
243.765	80.56
243.998	79.56
244.232	78.56
244.465	71.56
244.699	71.56
244.932	73.56
245.166	84.56
245.399	77.56
245.633	99.56
245.866	75.56
246.099	88.56
246.333	70.56
246.566	79.56
246.8	87.56
247.033	76.56
247.266	78.56
247.5	84.56
247.733	80.56
247.966	85.56
248.2	79.56
248.433	82.56
248.666	93.56
248.899	79.56
249.133	86.56
249.366	90.56
249.599	81.56
249.832	83.56
250.066	93.56
250.299	83.56
250.532	85.56
250.765	75.56
250.998	79.56
251.231	78.56
251.465	97.56
251.698	82.56
251.931	74.56
252.164	75.56
252.397	81.56
252.63	76.56
252.863	84.56
253.096	62.56
253.329	69.56
253.562	82.56
253.795	77.56
254.028	79.56
254.261	82.56
254.494	74.56
254.727	88.56
254.96	73.56
255.193	76.56
255.426	71.56
255.659	90.56
255.892	74.56
256.124	73.56
256.357	72.56
256.59	83.56
256.823	78.56
257.056	81.56
257.289	86.56
257.521	79.56
257.754	94.56
257.987	92.56
258.22	78.56
258.452	82.56
258.685	89.56
258.918	83.56
259.151	80.56
259.383	101.56
259.616	62.56
259.849	95.56
260.081	88.56
260.314	80.56
260.547	75.56
260.779	82.56
261.012	89.56
261.244	80.56
261.477	85.56
261.71	86.56
261.942	90.56
262.175	92.56
262.407	85.56
262.64	83.56
262.872	85.56
263.105	80.56
263.337	82.56
263.57	95.56
263.802	83.56
264.035	71.56
264.267	79.56
264.499	84.56
264.732	90.56
264.964	77.56
265.197	79.56
265.429	85.56
265.661	80.56
265.894	75.56
266.126	75.56
266.358	85.56
266.591	83.56
266.823	78.56
267.055	78.56
267.287	77.56
267.52	73.56
267.752	92.56
267.984	81.56
268.216	66.56
268.448	90.56
268.681	74.56
268.913	84.56
269.145	94.56
269.377	70.56
269.609	86.56
269.841	84.56
270.073	78.56
270.306	84.56
270.538	88.56
270.77	88.56
271.002	74.56
271.234	64.56
271.466	78.56
271.698	86.56
271.93	79.56
272.162	79.56
272.394	91.56
272.626	82.56
272.858	82.56
273.09	94.56
273.322	94.56
273.553	85.56
273.785	87.56
274.017	91.56
274.249	78.56
274.481	81.56
274.713	83.56
274.945	82.56
275.176	78.56
275.408	90.56
275.64	84.56
275.872	73.56
276.104	86.56
276.335	87.56
276.567	86.56
276.799	83.56
277.031	82.56
277.262	82.56
277.494	88.56
277.726	81.56
277.957	82.56
278.189	86.56
278.421	82.56
278.652	77.56
278.884	81.56
279.115	82.56
279.347	93.56
279.579	78.56
279.81	91.56
280.042	86.56
280.273	91.56
280.505	84.56
280.736	77.56
280.968	86.56
281.199	74.56
281.431	96.56
281.662	96.56
281.894	76.56
282.125	84.56
282.356	103.56
282.588	86.56
282.819	66.56
283.051	97.56
283.282	87.56
283.513	72.56
283.745	88.56
283.976	83.56
284.207	91.56
284.439	86.56
284.67	91.56
284.901	84.56
285.132	82.56
285.364	92.56
285.595	99.56
285.826	89.56
286.057	92.56
286.288	72.56
286.52	87.56
286.751	92.56
286.982	72.56
287.213	87.56
287.444	82.56
287.675	86.56
287.906	94.56
288.138	99.56
288.369	76.56
288.6	81.56
288.831	86.56
289.062	88.56
289.293	81.56
289.524	76.56
289.755	81.56
289.986	80.56
290.217	85.56
290.448	79.56
290.679	81.56
290.91	88.56
291.141	77.56
291.371	87.56
291.602	89.56
291.833	99.56
292.064	70.56
292.295	94.56
292.526	82.56
292.757	75.56
292.987	84.56
293.218	87.56
293.449	91.56
293.68	88.56
293.91	83.56
294.141	81.56
294.372	90.56
294.603	74.56
294.833	86.56
295.064	82.56
295.295	99.56
295.525	79.56
295.756	88.56
295.987	79.56
296.217	99.56
296.448	91.56
296.679	91.56
296.909	85.56
297.14	84.56
297.37	74.56
297.601	86.56
297.831	81.56
298.062	87.56
298.292	78.56
298.523	78.56
298.753	92.56
298.984	88.56
299.214	84.56
299.445	94.56
299.675	81.56
299.905	75.56
300.136	87.56
300.366	95.56
300.597	89.56
300.827	100.56
301.057	88.56
301.288	76.56
301.518	85.56
301.748	80.56
301.979	85.56
302.209	78.56
302.439	88.56
302.669	85.56
302.9	78.56
303.13	77.56
303.36	62.56
303.59	74.56
303.82	88.56
304.051	80.56
304.281	93.56
304.511	84.56
304.741	84.56
304.971	83.56
305.201	69.56
305.431	81.56
305.661	79.56
305.891	107.56
306.121	85.56
306.352	94.56
306.582	82.56
306.812	95.56
307.042	86.56
307.272	79.56
307.502	78.56
307.731	81.56
307.961	89.56
308.191	86.56
308.421	88.56
308.651	78.56
308.881	75.56
309.111	78.56
309.341	74.56
309.571	87.56
309.8	90.56
310.03	84.56
310.26	85.56
310.49	96.56
310.72	97.56
310.949	90.56
311.179	92.56
311.409	79.56
311.639	88.56
311.868	104.56
312.098	72.56
312.328	90.56
312.557	93.56
312.787	79.56
313.017	78.56
313.246	80.56
313.476	68.56
313.706	95.56
313.935	83.56
314.165	76.56
314.394	83.56
314.624	98.56
314.853	83.56
315.083	98.56
315.312	90.56
315.542	73.56
315.771	69.56
316.001	91.56
316.23	92.56
316.46	88.56
316.689	86.56
316.919	84.56
317.148	87.56
317.377	86.56
317.607	92.56
317.836	78.56
318.065	76.56
318.295	92.56
318.524	87.56
318.753	78.56
318.983	89.56
319.212	90.56
319.441	85.56
319.67	92.56
319.9	76.56
320.129	83.56
320.358	88.56
320.587	82.56
320.816	89.56
321.046	84.56
321.275	89.56
321.504	99.56
321.733	91.56
321.962	93.56
322.191	86.56
322.42	74.56
322.649	83.56
322.878	75.56
323.108	78.56
323.337	83.56
323.566	88.56
323.795	85.56
324.024	90.56
324.253	89.56
324.482	83.56
324.71	85.56
324.939	80.56
325.168	78.56
325.397	91.56
325.626	82.56
325.855	83.56
326.084	75.56
326.313	65.56
326.542	70.56
326.77	88.56
326.999	80.56
327.228	83.56
327.457	65.56
327.686	73.56
327.914	84.56
328.143	78.56
328.372	91.56
328.6	75.56
328.829	82.56
329.058	91.56
329.287	88.56
329.515	65.56
329.744	86.56
329.972	86.56
330.201	92.56
330.43	77.56
330.658	86.56
330.887	77.56
331.115	93.56
331.344	89.56
331.572	83.56
331.801	92.56
332.03	84.56
332.258	80.56
332.486	71.56
332.715	82.56
332.943	97.56
333.172	91.56
333.4	82.56
333.629	85.56
333.857	80.56
334.085	93.56
334.314	86.56
334.542	83.56
334.771	97.56
334.999	93.56
335.227	88.56
335.455	91.56
335.684	83.56
335.912	82.56
336.14	98.56
336.369	85.56
336.597	92.56
336.825	79.56
337.053	86.56
337.281	86.56
337.51	86.56
337.738	82.56
337.966	85.56
338.194	96.56
338.422	83.56
338.65	96.56
338.878	101.56
339.106	84.56
339.334	96.56
339.562	96.56
339.79	76.56
340.018	85.56
340.246	86.56
340.474	98.56
340.702	86.56
340.93	112.56
341.158	86.56
341.386	90.56
341.614	84.56
341.842	93.56
342.07	90.56
342.298	76.56
342.526	87.56
342.754	81.56
342.981	81.56
343.209	77.56
343.437	86.56
343.665	77.56
343.893	82.56
344.12	93.56
344.348	87.56
344.576	86.56
344.804	81.56
345.031	91.56
345.259	94.56
345.487	72.56
345.714	78.56
345.942	88.56
346.17	90.56
346.397	95.56
346.625	85.56
346.853	69.56
347.08	81.56
347.308	88.56
347.535	100.56
347.763	88.56
347.99	83.56
348.218	83.56
348.445	86.56
348.673	84.56
348.9	77.56
349.128	94.56
349.355	84.56
349.583	78.56
349.81	87.56
350.037	92.56
350.265	87.56
350.492	100.56
350.72	84.56
350.947	96.56
351.174	89.56
351.402	93.56
351.629	91.56
351.856	97.56
352.083	89.56
352.311	78.56
352.538	100.56
352.765	87.56
352.992	91.56
353.22	81.56
353.447	85.56
353.674	83.56
353.901	92.56
354.128	83.56
354.355	83.56
354.583	98.56
354.81	91.56
355.037	96.56
355.264	86.56
355.491	92.56
355.718	91.56
355.945	100.56
356.172	86.56
356.399	83.56
356.626	88.56
356.853	94.56
357.08	94.56
357.307	96.56
357.534	84.56
357.761	85.56
357.988	78.56
358.215	88.56
358.441	76.56
358.668	85.56
358.895	83.56
359.122	77.56
359.349	88.56
359.576	87.56
359.802	92.56
360.029	80.56
360.256	92.56
360.483	93.56
360.709	96.56
360.936	105.56
361.163	92.56
361.39	78.56
361.616	83.56
361.843	76.56
362.07	95.56
362.296	87.56
362.523	78.56
362.749	81.56
362.976	87.56
363.203	76.56
363.429	97.56
363.656	78.56
363.882	88.56
364.109	74.56
364.335	90.56
364.562	78.56
364.788	87.56
365.015	90.56
365.241	88.56
365.468	83.56
365.694	76.56
365.92	83.56
366.147	86.56
366.373	78.56
366.599	87.56
366.826	82.56
367.052	96.56
367.278	96.56
367.505	85.56
367.731	91.56
367.957	86.56
368.184	85.56
368.41	94.56
368.636	82.56
368.862	106.56
369.089	78.56
369.315	76.56
369.541	84.56
369.767	91.56
369.993	90.56
370.219	80.56
370.445	85.56
370.672	81.56
370.898	81.56
371.124	98.56
371.35	93.56
371.576	89.56
371.802	77.56
372.028	80.56
372.254	78.56
372.48	82.56
372.706	91.56
372.932	86.56
373.158	88.56
373.384	98.56
373.61	100.56
373.835	92.56
374.061	80.56
374.287	82.56
374.513	81.56
374.739	85.56
374.965	89.56
375.191	74.56
375.416	85.56
375.642	88.56
375.868	93.56
376.094	98.56
376.319	95.56
376.545	93.56
376.771	85.56
376.997	104.56
377.222	109.56
377.448	92.56
377.674	85.56
377.899	91.56
378.125	83.56
378.35	96.56
378.576	83.56
378.802	94.56
379.027	92.56
379.253	95.56
379.478	100.56
379.704	87.56
379.929	82.56
380.155	93.56
380.38	90.56
380.606	91.56
380.831	83.56
381.057	86.56
381.282	95.56
381.507	86.56
381.733	81.56
381.958	75.56
382.184	88.56
382.409	94.56
382.634	95.56
382.86	79.56
383.085	83.56
383.31	93.56
383.535	91.56
383.761	89.56
383.986	96.56
384.211	88.56
384.436	83.56
384.662	96.56
384.887	95.56
385.112	83.56
385.337	97.56
385.562	91.56
385.787	85.56
386.013	89.56
386.238	102.56
386.463	91.56
386.688	98.56
386.913	101.56
387.138	87.56
387.363	86.56
387.588	105.56
387.813	101.56
388.038	106.56
388.263	89.56
388.488	93.56
388.713	89.56
388.938	89.56
389.163	87.56
389.387	87.56
389.612	88.56
389.837	99.56
390.062	93.56
390.287	88.56
390.512	93.56
390.736	103.56
390.961	85.56
391.186	120.56
391.411	101.56
391.636	86.56
391.86	100.56
392.085	94.56
392.31	104.56
392.534	106.56
392.759	96.56
392.984	85.56
393.208	92.56
393.433	95.56
393.658	105.56
393.882	104.56
394.107	94.56
394.331	101.56
394.556	100.56
394.78	92.56
395.005	90.56
395.229	108.56
395.454	100.56
395.678	101.56
395.903	108.56
396.127	104.56
396.352	93.56
396.576	91.56
396.801	93.56
397.025	115.56
397.249	100.56
397.474	108.56
397.698	102.56
397.922	96.56
398.147	100.56
398.371	100.56
398.595	96.56
398.82	117.56
399.044	112.56
399.268	98.56
399.492	123.56
399.717	116.56
399.941	108.56
400.165	98.56
400.389	103.56
400.613	112.56
400.837	108.56
401.062	123.56
401.286	103.56
401.51	99.56
401.734	106.56
401.958	103.56
402.182	100.56
402.406	104.56
402.63	94.56
402.854	104.56
403.078	109.56
403.302	101.56
403.526	98.56
403.75	97.56
403.974	105.56
404.198	110.56
404.422	113.56
404.645	103.56
404.869	118.56
405.093	120.56
405.317	105.56
405.541	109.56
405.765	106.56
405.988	98.56
406.212	101.56
406.436	102.56
406.66	109.56
406.883	95.56
407.107	104.56
407.331	111.56
407.555	122.56
407.778	106.56
408.002	88.56
408.226	104.56
408.449	113.56
408.673	117.56
408.896	118.56
409.12	110.56
409.344	122.56
409.567	116.56
409.791	103.56
410.014	94.56
410.238	110.56
410.461	113.56
410.685	109.56
410.908	103.56
411.132	102.56
411.355	111.56
411.578	111.56
411.802	99.56
412.025	105.56
412.249	109.56
412.472	109.56
412.695	105.56
412.919	98.56
413.142	105.56
413.365	109.56
413.589	102.56
413.812	116.56
414.035	112.56
414.258	109.56
414.482	105.56
414.705	103.56
414.928	98.56
415.151	109.56
415.374	93.56
415.597	103.56
415.821	107.56
416.044	116.56
416.267	117.56
416.49	109.56
416.713	110.56
416.936	120.56
417.159	102.56
417.382	119.56
417.605	120.56
417.828	101.56
418.051	118.56
418.274	120.56
418.497	142.56
418.72	114.56
418.943	114.56
419.166	114.56
419.389	115.56
419.611	122.56
419.834	128.56
420.057	118.56
420.28	108.56
420.503	114.56
420.726	126.56
420.948	118.56
421.171	104.56
421.394	104.56
421.617	117.56
421.839	104.56
422.062	122.56
422.285	112.56
422.507	106.56
422.73	121.56
422.953	110.56
423.175	121.56
423.398	126.56
423.621	110.56
423.843	112.56
424.066	128.56
424.288	133.56
424.511	108.56
424.733	122.56
424.956	104.56
425.178	117.56
425.401	115.56
425.623	104.56
425.846	112.56
426.068	103.56
426.291	101.56
426.513	105.56
426.735	117.56
426.958	124.56
427.18	107.56
427.402	101.56
427.625	108.56
427.847	125.56
428.069	118.56
428.292	114.56
428.514	121.56
428.736	122.56
428.958	114.56
429.181	108.56
429.403	122.56
429.625	103.56
429.847	117.56
430.069	118.56
430.292	109.56
430.514	126.56
430.736	119.56
430.958	108.56
431.18	101.56
431.402	112.56
431.624	99.56
431.846	118.56
432.068	99.56
432.29	101.56
432.512	107.56
432.734	112.56
432.956	132.56
433.178	128.56
433.4	116.56
433.622	113.56
433.844	112.56
434.066	117.56
434.287	108.56
434.509	105.56
434.731	117.56
434.953	118.56
435.175	109.56
435.397	109.56
435.618	116.56
435.84	114.56
436.062	108.56
436.284	101.56
436.505	105.56
436.727	109.56
436.949	101.56
437.17	96.56
437.392	119.56
437.614	108.56
437.835	94.56
438.057	116.56
438.278	95.56
438.5	115.56
438.721	110.56
438.943	104.56
439.165	104.56
439.386	121.56
439.608	122.56
439.829	116.56
440.05	105.56
440.272	112.56
440.493	118.56
440.715	108.56
440.936	118.56
441.158	116.56
441.379	107.56
441.6	106.56
441.822	113.56
442.043	122.56
442.264	109.56
442.486	115.56
442.707	122.56
442.928	108.56
443.149	119.56
443.371	116.56
443.592	120.56
443.813	105.56
444.034	124.56
444.255	114.56
444.476	112.56
444.698	119.56
444.919	121.56
445.14	263.56
445.361	190.56
445.582	122.56
445.803	120.56
446.024	118.56
446.245	128.56
446.466	121.56
446.687	119.56
446.908	114.56
447.129	117.56
447.35	126.56
447.571	113.56
447.792	110.56
448.013	128.56
448.234	128.56
448.455	118.56
448.675	123.56
448.896	120.56
449.117	104.56
449.338	118.56
449.559	123.56
449.779	119.56
450	109.56
450.221	114.56
450.442	121.56
450.662	121.56
450.883	102.56
451.104	112.56
451.324	117.56
451.545	97.56
451.766	112.56
451.986	100.56
452.207	121.56
452.428	117.56
452.648	115.56
452.869	103.56
453.089	103.56
453.31	107.56
453.53	112.56
453.751	122.56
453.971	103.56
454.192	109.56
454.412	103.56
454.633	114.56
454.853	102.56
455.073	98.56
455.294	104.56
455.514	99.56
455.734	107.56
455.955	114.56
456.175	104.56
456.395	117.56
456.616	109.56
456.836	110.56
457.056	115.56
457.276	108.56
457.497	97.56
457.717	109.56
457.937	94.56
458.157	110.56
458.377	118.56
458.598	103.56
458.818	96.56
459.038	99.56
459.258	102.56
459.478	114.56
459.698	106.56
459.918	110.56
460.138	122.56
460.358	104.56
460.578	117.56
460.798	119.56
461.018	101.56
461.238	119.56
461.458	106.56
461.678	120.56
461.898	115.56
462.118	104.56
462.338	119.56
462.558	116.56
462.777	117.56
462.997	116.56
463.217	117.56
463.437	122.56
463.657	124.56
463.876	114.56
464.096	122.56
464.316	121.56
464.536	103.56
464.755	121.56
464.975	122.56
465.195	131.56
465.414	121.56
465.634	122.56
465.854	114.56
466.073	123.56
466.293	109.56
466.512	105.56
466.732	109.56
466.951	116.56
467.171	112.56
467.391	107.56
467.61	116.56
467.829	121.56
468.049	119.56
468.268	123.56
468.488	113.56
468.707	122.56
468.927	115.56
469.146	132.56
469.365	104.56
469.585	122.56
469.804	128.56
470.023	117.56
470.243	115.56
470.462	130.56
470.681	129.56
470.901	122.56
471.12	123.56
471.339	122.56
471.558	119.56
471.777	117.56
471.997	120.56
472.216	123.56
472.435	117.56
472.654	107.56
472.873	110.56
473.092	114.56
473.311	120.56
473.53	119.56
473.749	119.56
473.968	120.56
474.187	113.56
474.406	91.56
474.625	108.56
474.844	119.56
475.063	132.56
475.282	121.56
475.501	106.56
475.72	117.56
475.939	110.56
476.158	116.56
476.377	107.56
476.596	112.56
476.814	114.56
477.033	109.56
477.252	124.56
477.471	122.56
477.69	109.56
477.908	116.56
478.127	128.56
478.346	123.56
478.564	134.56
478.783	128.56
479.002	113.56
479.22	124.56
479.439	130.56
479.658	125.56
479.876	114.56
480.095	112.56
480.313	133.56
480.532	122.56
480.751	114.56
480.969	118.56
481.188	117.56
481.406	123.56
481.624	108.56
481.843	105.56
482.061	123.56
482.28	106.56
482.498	120.56
482.717	113.56
482.935	126.56
483.153	116.56
483.372	130.56
483.59	125.56
483.808	124.56
484.027	131.56
484.245	116.56
484.463	119.56
484.681	141.56
484.9	137.56
485.118	141.56
485.336	106.56
485.554	110.56
485.772	110.56
485.99	133.56
486.209	132.56
486.427	122.56
486.645	130.56
486.863	124.56
487.081	120.56
487.299	128.56
487.517	128.56
487.735	137.56
487.953	134.56
488.171	150.56
488.389	143.56
488.607	139.56
488.825	137.56
489.043	110.56
489.261	128.56
489.479	126.56
489.696	133.56
489.914	121.56
490.132	128.56
490.35	144.56
490.568	139.56
490.786	132.56
491.003	132.56
491.221	141.56
491.439	136.56
491.657	139.56
491.874	151.56
492.092	171.56
492.31	157.56
492.527	151.56
492.745	153.56
492.963	161.56
493.18	150.56
493.398	134.56
493.615	141.56
493.833	164.56
494.05	146.56
494.268	143.56
494.485	154.56
494.703	158.56
494.92	149.56
495.138	161.56
495.355	141.56
495.573	139.56
495.79	146.56
496.008	130.56
496.225	145.56
496.442	141.56
496.66	164.56
496.877	150.56
497.094	170.56
497.312	152.56
497.529	143.56
497.746	132.56
497.963	136.56
498.181	147.56
498.398	150.56
498.615	136.56
498.832	137.56
499.049	136.56
499.267	158.56
499.484	161.56
499.701	184.56
499.918	173.56
500.135	200.56
500.352	197.56
500.569	216.56
500.786	212.56
501.003	202.56
501.22	180.56
501.437	201.56
501.654	161.56
501.871	147.56
502.088	160.56
502.305	146.56
502.522	142.56
502.739	144.56
502.956	166.56
503.172	142.56
503.389	128.56
503.606	132.56
503.823	146.56
504.04	137.56
504.256	136.56
504.473	146.56
504.69	148.56
504.907	123.56
505.123	132.56
505.34	128.56
505.557	122.56
505.773	136.56
505.99	122.56
506.207	113.56
506.423	108.56
506.64	132.56
506.856	121.56
507.073	134.56
507.289	128.56
507.506	125.56
507.722	146.56
507.939	134.56
508.155	125.56
508.372	110.56
508.588	119.56
508.805	120.56
509.021	124.56
509.238	126.56
509.454	113.56
509.67	124.56
509.887	116.56
510.103	118.56
510.319	107.56
510.536	117.56
510.752	110.56
510.968	111.56
511.184	115.56
511.401	113.56
511.617	107.56
