Data from StandardFe(NO3)3.TAE.3%Agarose.FlatLispGreen.Lamp.Energy10.07252019_HRD10591_11-53-29-439.txt Node
Date: Thu Jul 25 11:53:29 EDT 2019
User: cochatt
Spectrometer: HR+D1059
Trigger mode: 1
Integration Time (sec): 1.000000E-1
Scans to average: 1
Electric dark correction enabled: true
Nonlinearity correction enabled: false
Boxcar width: 0
XAxis mode: Wavelengths
Number of Pixels in Spectrum: 2048
>>>>>Begin Spectral Data<<<<<
223.165	-9.44
223.4	-9.44
223.635	-9.44
223.869	-20.44
224.104	-18.44
224.338	-1.44
224.573	-15.44
224.808	-25.44
225.042	-5.44
225.277	-0.44
225.511	-28.44
225.746	11.56
225.98	14.56
226.215	17.56
226.449	19.56
226.683	22.56
226.918	13.56
227.152	25.56
227.387	37.56
227.621	38.56
227.856	52.56
228.09	34.56
228.324	57.56
228.559	50.56
228.793	61.56
229.027	76.56
229.262	65.56
229.496	70.56
229.73	66.56
229.964	69.56
230.199	75.56
230.433	80.56
230.667	86.56
230.901	70.56
231.136	80.56
231.37	98.56
231.604	100.56
231.838	77.56
232.072	89.56
232.306	86.56
232.541	76.56
232.775	85.56
233.009	78.56
233.243	84.56
233.477	81.56
233.711	75.56
233.945	88.56
234.179	66.56
234.413	79.56
234.647	77.56
234.881	66.56
235.115	90.56
235.349	83.56
235.583	80.56
235.817	85.56
236.051	80.56
236.285	94.56
236.519	70.56
236.753	83.56
236.987	69.56
237.221	73.56
237.455	82.56
237.689	86.56
237.922	78.56
238.156	68.56
238.39	72.56
238.624	85.56
238.858	88.56
239.091	92.56
239.325	90.56
239.559	71.56
239.793	94.56
240.027	80.56
240.26	85.56
240.494	62.56
240.728	82.56
240.961	79.56
241.195	84.56
241.429	83.56
241.662	72.56
241.896	67.56
242.13	86.56
242.363	80.56
242.597	77.56
242.83	75.56
243.064	85.56
243.298	86.56
243.531	80.56
243.765	75.56
243.998	69.56
244.232	86.56
244.465	90.56
244.699	86.56
244.932	74.56
245.166	81.56
245.399	82.56
245.633	91.56
245.866	79.56
246.099	71.56
246.333	77.56
246.566	78.56
246.8	73.56
247.033	101.56
247.266	92.56
247.5	86.56
247.733	70.56
247.966	82.56
248.2	71.56
248.433	85.56
248.666	67.56
248.899	76.56
249.133	79.56
249.366	82.56
249.599	101.56
249.832	86.56
250.066	78.56
250.299	75.56
250.532	78.56
250.765	70.56
250.998	97.56
251.231	85.56
251.465	78.56
251.698	88.56
251.931	95.56
252.164	79.56
252.397	71.56
252.63	69.56
252.863	87.56
253.096	80.56
253.329	78.56
253.562	83.56
253.795	91.56
254.028	88.56
254.261	93.56
254.494	85.56
254.727	87.56
254.96	82.56
255.193	71.56
255.426	82.56
255.659	83.56
255.892	81.56
256.124	81.56
256.357	77.56
256.59	86.56
256.823	79.56
257.056	91.56
257.289	88.56
257.521	106.56
257.754	88.56
257.987	86.56
258.22	82.56
258.452	78.56
258.685	80.56
258.918	68.56
259.151	82.56
259.383	85.56
259.616	75.56
259.849	92.56
260.081	75.56
260.314	93.56
260.547	87.56
260.779	62.56
261.012	91.56
261.244	90.56
261.477	98.56
261.71	73.56
261.942	91.56
262.175	76.56
262.407	80.56
262.64	102.56
262.872	99.56
263.105	76.56
263.337	104.56
263.57	90.56
263.802	87.56
264.035	91.56
264.267	80.56
264.499	69.56
264.732	92.56
264.964	86.56
265.197	95.56
265.429	106.56
265.661	94.56
265.894	77.56
266.126	83.56
266.358	82.56
266.591	83.56
266.823	88.56
267.055	88.56
267.287	91.56
267.52	84.56
267.752	84.56
267.984	76.56
268.216	89.56
268.448	86.56
268.681	77.56
268.913	96.56
269.145	93.56
269.377	90.56
269.609	83.56
269.841	96.56
270.073	86.56
270.306	81.56
270.538	93.56
270.77	89.56
271.002	88.56
271.234	82.56
271.466	115.56
271.698	100.56
271.93	79.56
272.162	77.56
272.394	87.56
272.626	81.56
272.858	80.56
273.09	86.56
273.322	100.56
273.553	97.56
273.785	91.56
274.017	76.56
274.249	93.56
274.481	90.56
274.713	87.56
274.945	90.56
275.176	78.56
275.408	80.56
275.64	91.56
275.872	72.56
276.104	92.56
276.335	77.56
276.567	91.56
276.799	74.56
277.031	85.56
277.262	80.56
277.494	94.56
277.726	81.56
277.957	75.56
278.189	80.56
278.421	79.56
278.652	77.56
278.884	91.56
279.115	76.56
279.347	88.56
279.579	87.56
279.81	94.56
280.042	77.56
280.273	84.56
280.505	77.56
280.736	77.56
280.968	78.56
281.199	81.56
281.431	75.56
281.662	94.56
281.894	87.56
282.125	79.56
282.356	89.56
282.588	92.56
282.819	71.56
283.051	68.56
283.282	71.56
283.513	80.56
283.745	84.56
283.976	88.56
284.207	85.56
284.439	78.56
284.67	75.56
284.901	82.56
285.132	89.56
285.364	93.56
285.595	99.56
285.826	98.56
286.057	80.56
286.288	101.56
286.52	89.56
286.751	74.56
286.982	94.56
287.213	92.56
287.444	85.56
287.675	85.56
287.906	79.56
288.138	88.56
288.369	70.56
288.6	93.56
288.831	92.56
289.062	109.56
289.293	92.56
289.524	96.56
289.755	95.56
289.986	85.56
290.217	88.56
290.448	103.56
290.679	86.56
290.91	95.56
291.141	84.56
291.371	99.56
291.602	88.56
291.833	81.56
292.064	93.56
292.295	84.56
292.526	101.56
292.757	86.56
292.987	73.56
293.218	92.56
293.449	77.56
293.68	84.56
293.91	99.56
294.141	99.56
294.372	90.56
294.603	86.56
294.833	91.56
295.064	98.56
295.295	77.56
295.525	91.56
295.756	93.56
295.987	89.56
296.217	92.56
296.448	90.56
296.679	91.56
296.909	92.56
297.14	83.56
297.37	67.56
297.601	93.56
297.831	61.56
298.062	80.56
298.292	73.56
298.523	84.56
298.753	93.56
298.984	88.56
299.214	74.56
299.445	82.56
299.675	75.56
299.905	93.56
300.136	93.56
300.366	94.56
300.597	82.56
300.827	90.56
301.057	98.56
301.288	82.56
301.518	85.56
301.748	84.56
301.979	83.56
302.209	101.56
302.439	88.56
302.669	86.56
302.9	99.56
303.13	81.56
303.36	97.56
303.59	83.56
303.82	81.56
304.051	83.56
304.281	91.56
304.511	85.56
304.741	84.56
304.971	65.56
305.201	86.56
305.431	94.56
305.661	87.56
305.891	84.56
306.121	96.56
306.352	80.56
306.582	94.56
306.812	77.56
307.042	93.56
307.272	84.56
307.502	93.56
307.731	91.56
307.961	97.56
308.191	88.56
308.421	95.56
308.651	75.56
308.881	88.56
309.111	78.56
309.341	81.56
309.571	78.56
309.8	105.56
310.03	87.56
310.26	99.56
310.49	82.56
310.72	87.56
310.949	76.56
311.179	83.56
311.409	97.56
311.639	91.56
311.868	82.56
312.098	89.56
312.328	95.56
312.557	104.56
312.787	82.56
313.017	79.56
313.246	90.56
313.476	87.56
313.706	94.56
313.935	73.56
314.165	92.56
314.394	79.56
314.624	94.56
314.853	96.56
315.083	85.56
315.312	89.56
315.542	92.56
315.771	104.56
316.001	75.56
316.23	98.56
316.46	93.56
316.689	90.56
316.919	90.56
317.148	74.56
317.377	95.56
317.607	93.56
317.836	71.56
318.065	75.56
318.295	80.56
318.524	94.56
318.753	67.56
318.983	91.56
319.212	89.56
319.441	79.56
319.67	89.56
319.9	92.56
320.129	91.56
320.358	94.56
320.587	99.56
320.816	88.56
321.046	86.56
321.275	82.56
321.504	89.56
321.733	86.56
321.962	81.56
322.191	92.56
322.42	87.56
322.649	76.56
322.878	92.56
323.108	86.56
323.337	94.56
323.566	80.56
323.795	94.56
324.024	87.56
324.253	92.56
324.482	88.56
324.71	96.56
324.939	81.56
325.168	86.56
325.397	83.56
325.626	93.56
325.855	88.56
326.084	96.56
326.313	72.56
326.542	95.56
326.77	93.56
326.999	103.56
327.228	75.56
327.457	103.56
327.686	81.56
327.914	92.56
328.143	89.56
328.372	80.56
328.6	90.56
328.829	85.56
329.058	98.56
329.287	82.56
329.515	79.56
329.744	86.56
329.972	79.56
330.201	93.56
330.43	85.56
330.658	81.56
330.887	87.56
331.115	86.56
331.344	92.56
331.572	101.56
331.801	71.56
332.03	95.56
332.258	94.56
332.486	97.56
332.715	86.56
332.943	95.56
333.172	90.56
333.4	79.56
333.629	98.56
333.857	86.56
334.085	90.56
334.314	86.56
334.542	84.56
334.771	74.56
334.999	90.56
335.227	82.56
335.455	94.56
335.684	92.56
335.912	87.56
336.14	83.56
336.369	95.56
336.597	79.56
336.825	88.56
337.053	83.56
337.281	88.56
337.51	93.56
337.738	94.56
337.966	95.56
338.194	81.56
338.422	85.56
338.65	81.56
338.878	90.56
339.106	94.56
339.334	80.56
339.562	96.56
339.79	91.56
340.018	86.56
340.246	90.56
340.474	86.56
340.702	71.56
340.93	85.56
341.158	94.56
341.386	86.56
341.614	81.56
341.842	78.56
342.07	83.56
342.298	92.56
342.526	88.56
342.754	80.56
342.981	91.56
343.209	91.56
343.437	89.56
343.665	81.56
343.893	82.56
344.12	100.56
344.348	74.56
344.576	69.56
344.804	73.56
345.031	73.56
345.259	104.56
345.487	78.56
345.714	83.56
345.942	79.56
346.17	89.56
346.397	71.56
346.625	85.56
346.853	76.56
347.08	84.56
347.308	109.56
347.535	101.56
347.763	80.56
347.99	102.56
348.218	79.56
348.445	78.56
348.673	92.56
348.9	74.56
349.128	91.56
349.355	101.56
349.583	92.56
349.81	77.56
350.037	90.56
350.265	88.56
350.492	92.56
350.72	80.56
350.947	81.56
351.174	78.56
351.402	84.56
351.629	98.56
351.856	87.56
352.083	90.56
352.311	96.56
352.538	66.56
352.765	99.56
352.992	107.56
353.22	83.56
353.447	100.56
353.674	76.56
353.901	91.56
354.128	66.56
354.355	95.56
354.583	98.56
354.81	86.56
355.037	99.56
355.264	84.56
355.491	105.56
355.718	70.56
355.945	105.56
356.172	84.56
356.399	84.56
356.626	67.56
356.853	84.56
357.08	101.56
357.307	89.56
357.534	84.56
357.761	94.56
357.988	94.56
358.215	97.56
358.441	89.56
358.668	88.56
358.895	97.56
359.122	90.56
359.349	86.56
359.576	73.56
359.802	99.56
360.029	87.56
360.256	92.56
360.483	86.56
360.709	91.56
360.936	83.56
361.163	85.56
361.39	84.56
361.616	79.56
361.843	82.56
362.07	87.56
362.296	87.56
362.523	83.56
362.749	82.56
362.976	79.56
363.203	96.56
363.429	93.56
363.656	81.56
363.882	92.56
364.109	84.56
364.335	93.56
364.562	88.56
364.788	92.56
365.015	92.56
365.241	102.56
365.468	90.56
365.694	99.56
365.92	88.56
366.147	72.56
366.373	93.56
366.599	101.56
366.826	90.56
367.052	83.56
367.278	94.56
367.505	84.56
367.731	83.56
367.957	106.56
368.184	86.56
368.41	78.56
368.636	89.56
368.862	85.56
369.089	81.56
369.315	97.56
369.541	92.56
369.767	93.56
369.993	82.56
370.219	88.56
370.445	92.56
370.672	94.56
370.898	102.56
371.124	100.56
371.35	86.56
371.576	75.56
371.802	98.56
372.028	90.56
372.254	99.56
372.48	106.56
372.706	91.56
372.932	90.56
373.158	98.56
373.384	102.56
373.61	96.56
373.835	99.56
374.061	81.56
374.287	86.56
374.513	87.56
374.739	82.56
374.965	93.56
375.191	101.56
375.416	86.56
375.642	92.56
375.868	97.56
376.094	98.56
376.319	94.56
376.545	91.56
376.771	91.56
376.997	103.56
377.222	103.56
377.448	98.56
377.674	105.56
377.899	79.56
378.125	89.56
378.35	106.56
378.576	88.56
378.802	97.56
379.027	92.56
379.253	92.56
379.478	98.56
379.704	87.56
379.929	91.56
380.155	100.56
380.38	102.56
380.606	94.56
380.831	92.56
381.057	89.56
381.282	88.56
381.507	107.56
381.733	111.56
381.958	103.56
382.184	86.56
382.409	81.56
382.634	93.56
382.86	84.56
383.085	95.56
383.31	98.56
383.535	93.56
383.761	104.56
383.986	99.56
384.211	83.56
384.436	91.56
384.662	86.56
384.887	94.56
385.112	104.56
385.337	88.56
385.562	99.56
385.787	106.56
386.013	107.56
386.238	98.56
386.463	97.56
386.688	87.56
386.913	86.56
387.138	86.56
387.363	92.56
387.588	98.56
387.813	93.56
388.038	95.56
388.263	83.56
388.488	98.56
388.713	104.56
388.938	93.56
389.163	82.56
389.387	93.56
389.612	105.56
389.837	112.56
390.062	91.56
390.287	100.56
390.512	90.56
390.736	106.56
390.961	110.56
391.186	93.56
391.411	96.56
391.636	93.56
391.86	102.56
392.085	82.56
392.31	111.56
392.534	94.56
392.759	97.56
392.984	106.56
393.208	87.56
393.433	89.56
393.658	106.56
393.882	103.56
394.107	94.56
394.331	101.56
394.556	99.56
394.78	122.56
395.005	104.56
395.229	103.56
395.454	100.56
395.678	110.56
395.903	98.56
396.127	107.56
396.352	98.56
396.576	98.56
396.801	91.56
397.025	108.56
397.249	106.56
397.474	99.56
397.698	112.56
397.922	123.56
398.147	111.56
398.371	84.56
398.595	88.56
398.82	114.56
399.044	117.56
399.268	102.56
399.492	108.56
399.717	126.56
399.941	114.56
400.165	119.56
400.389	112.56
400.613	107.56
400.837	106.56
401.062	110.56
401.286	106.56
401.51	107.56
401.734	101.56
401.958	110.56
402.182	115.56
402.406	111.56
402.63	116.56
402.854	100.56
403.078	105.56
403.302	115.56
403.526	126.56
403.75	121.56
403.974	127.56
404.198	133.56
404.422	101.56
404.645	94.56
404.869	105.56
405.093	107.56
405.317	108.56
405.541	121.56
405.765	115.56
405.988	131.56
406.212	125.56
406.436	100.56
406.66	121.56
406.883	114.56
407.107	126.56
407.331	118.56
407.555	112.56
407.778	134.56
408.002	116.56
408.226	124.56
408.449	110.56
408.673	108.56
408.896	120.56
409.12	123.56
409.344	122.56
409.567	122.56
409.791	111.56
410.014	130.56
410.238	120.56
410.461	114.56
410.685	117.56
410.908	102.56
411.132	123.56
411.355	119.56
411.578	131.56
411.802	106.56
412.025	116.56
412.249	114.56
412.472	110.56
412.695	125.56
412.919	111.56
413.142	116.56
413.365	110.56
413.589	105.56
413.812	102.56
414.035	118.56
414.258	106.56
414.482	112.56
414.705	116.56
414.928	122.56
415.151	127.56
415.374	128.56
415.597	117.56
415.821	107.56
416.044	132.56
416.267	120.56
416.49	100.56
416.713	116.56
416.936	112.56
417.159	122.56
417.382	118.56
417.605	123.56
417.828	126.56
418.051	125.56
418.274	116.56
418.497	130.56
418.72	127.56
418.943	130.56
419.166	113.56
419.389	127.56
419.611	120.56
419.834	119.56
420.057	117.56
420.28	120.56
420.503	114.56
420.726	119.56
420.948	113.56
421.171	121.56
421.394	138.56
421.617	118.56
421.839	120.56
422.062	131.56
422.285	122.56
422.507	126.56
422.73	119.56
422.953	129.56
423.175	132.56
423.398	119.56
423.621	124.56
423.843	128.56
424.066	127.56
424.288	122.56
424.511	121.56
424.733	118.56
424.956	116.56
425.178	111.56
425.401	121.56
425.623	115.56
425.846	110.56
426.068	132.56
426.291	127.56
426.513	113.56
426.735	124.56
426.958	118.56
427.18	101.56
427.402	121.56
427.625	123.56
427.847	118.56
428.069	108.56
428.292	122.56
428.514	119.56
428.736	116.56
428.958	117.56
429.181	120.56
429.403	124.56
429.625	129.56
429.847	126.56
430.069	118.56
430.292	117.56
430.514	113.56
430.736	123.56
430.958	116.56
431.18	119.56
431.402	114.56
431.624	111.56
431.846	107.56
432.068	124.56
432.29	102.56
432.512	108.56
432.734	117.56
432.956	119.56
433.178	117.56
433.4	111.56
433.622	127.56
433.844	108.56
434.066	109.56
434.287	122.56
434.509	118.56
434.731	126.56
434.953	118.56
435.175	103.56
435.397	113.56
435.618	106.56
435.84	101.56
436.062	114.56
436.284	109.56
436.505	122.56
436.727	120.56
436.949	107.56
437.17	118.56
437.392	122.56
437.614	117.56
437.835	116.56
438.057	120.56
438.278	119.56
438.5	123.56
438.721	113.56
438.943	122.56
439.165	135.56
439.386	116.56
439.608	129.56
439.829	114.56
440.05	108.56
440.272	132.56
440.493	110.56
440.715	103.56
440.936	123.56
441.158	130.56
441.379	122.56
441.6	129.56
441.822	122.56
442.043	103.56
442.264	122.56
442.486	120.56
442.707	123.56
442.928	124.56
443.149	127.56
443.371	120.56
443.592	114.56
443.813	113.56
444.034	115.56
444.255	119.56
444.476	140.56
444.698	138.56
444.919	138.56
445.14	250.56
445.361	186.56
445.582	138.56
445.803	117.56
446.024	128.56
446.245	127.56
446.466	111.56
446.687	123.56
446.908	138.56
447.129	135.56
447.35	124.56
447.571	120.56
447.792	103.56
448.013	127.56
448.234	131.56
448.455	128.56
448.675	125.56
448.896	118.56
449.117	102.56
449.338	100.56
449.559	115.56
449.779	114.56
450	104.56
450.221	110.56
450.442	121.56
450.662	110.56
450.883	134.56
451.104	123.56
451.324	117.56
451.545	127.56
451.766	134.56
451.986	117.56
452.207	118.56
452.428	109.56
452.648	97.56
452.869	119.56
453.089	112.56
453.31	106.56
453.53	108.56
453.751	122.56
453.971	108.56
454.192	120.56
454.412	102.56
454.633	112.56
454.853	103.56
455.073	126.56
455.294	124.56
455.514	110.56
455.734	112.56
455.955	116.56
456.175	116.56
456.395	108.56
456.616	114.56
456.836	93.56
457.056	108.56
457.276	116.56
457.497	114.56
457.717	120.56
457.937	101.56
458.157	98.56
458.377	97.56
458.598	97.56
458.818	94.56
459.038	96.56
459.258	100.56
459.478	92.56
459.698	115.56
459.918	106.56
460.138	118.56
460.358	141.56
460.578	121.56
460.798	111.56
461.018	114.56
461.238	120.56
461.458	115.56
461.678	104.56
461.898	126.56
462.118	111.56
462.338	120.56
462.558	126.56
462.777	107.56
462.997	138.56
463.217	135.56
463.437	130.56
463.657	130.56
463.876	125.56
464.096	122.56
464.316	122.56
464.536	119.56
464.755	138.56
464.975	130.56
465.195	133.56
465.414	130.56
465.634	117.56
465.854	127.56
466.073	130.56
466.293	116.56
466.512	124.56
466.732	116.56
466.951	121.56
467.171	126.56
467.391	123.56
467.61	126.56
467.829	121.56
468.049	127.56
468.268	117.56
468.488	118.56
468.707	122.56
468.927	132.56
469.146	137.56
469.365	128.56
469.585	131.56
469.804	118.56
470.023	118.56
470.243	131.56
470.462	120.56
470.681	135.56
470.901	112.56
471.12	118.56
471.339	122.56
471.558	142.56
471.777	120.56
471.997	118.56
472.216	117.56
472.435	116.56
472.654	108.56
472.873	120.56
473.092	117.56
473.311	129.56
473.53	122.56
473.749	125.56
473.968	119.56
474.187	127.56
474.406	108.56
474.625	118.56
474.844	120.56
475.063	117.56
475.282	100.56
475.501	115.56
475.72	119.56
475.939	129.56
476.158	121.56
476.377	131.56
476.596	117.56
476.814	112.56
477.033	114.56
477.252	119.56
477.471	118.56
477.69	133.56
477.908	129.56
478.127	125.56
478.346	125.56
478.564	130.56
478.783	139.56
479.002	144.56
479.22	131.56
479.439	121.56
479.658	134.56
479.876	128.56
480.095	120.56
480.313	138.56
480.532	130.56
480.751	125.56
480.969	133.56
481.188	103.56
481.406	103.56
481.624	100.56
481.843	115.56
482.061	113.56
482.28	117.56
482.498	121.56
482.717	119.56
482.935	112.56
483.153	133.56
483.372	140.56
483.59	131.56
483.808	129.56
484.027	117.56
484.245	134.56
484.463	128.56
484.681	127.56
484.9	137.56
485.118	128.56
485.336	118.56
485.554	123.56
485.772	136.56
485.99	124.56
486.209	120.56
486.427	121.56
486.645	119.56
486.863	130.56
487.081	133.56
487.299	129.56
487.517	129.56
487.735	130.56
487.953	163.56
488.171	146.56
488.389	141.56
488.607	130.56
488.825	132.56
489.043	133.56
489.261	130.56
489.479	132.56
489.696	130.56
489.914	141.56
490.132	156.56
490.35	142.56
490.568	152.56
490.786	140.56
491.003	144.56
491.221	158.56
491.439	159.56
491.657	158.56
491.874	147.56
492.092	170.56
492.31	182.56
492.527	166.56
492.745	165.56
492.963	169.56
493.18	170.56
493.398	155.56
493.615	148.56
493.833	152.56
494.05	162.56
494.268	146.56
494.485	152.56
494.703	154.56
494.92	147.56
495.138	159.56
495.355	146.56
495.573	150.56
495.79	168.56
496.008	163.56
496.225	149.56
496.442	147.56
496.66	153.56
496.877	149.56
497.094	164.56
497.312	161.56
497.529	146.56
497.746	135.56
497.963	148.56
498.181	141.56
498.398	156.56
498.615	142.56
498.832	155.56
499.049	148.56
499.267	179.56
499.484	167.56
499.701	184.56
499.918	193.56
500.135	214.56
500.352	229.56
500.569	228.56
500.786	231.56
501.003	220.56
501.22	205.56
501.437	173.56
501.654	173.56
501.871	156.56
502.088	153.56
502.305	172.56
502.522	159.56
502.739	155.56
502.956	157.56
503.172	151.56
503.389	140.56
503.606	140.56
503.823	142.56
504.04	148.56
504.256	134.56
504.473	132.56
504.69	142.56
504.907	141.56
505.123	131.56
505.34	121.56
505.557	142.56
505.773	134.56
505.99	121.56
506.207	131.56
506.423	127.56
506.64	131.56
506.856	122.56
507.073	135.56
507.289	134.56
507.506	125.56
507.722	120.56
507.939	130.56
508.155	123.56
508.372	122.56
508.588	137.56
508.805	124.56
509.021	124.56
509.238	126.56
509.454	126.56
509.67	118.56
509.887	119.56
510.103	116.56
510.319	118.56
510.536	112.56
510.752	124.56
510.968	110.56
