Data from StandardFe(NO3)3.TAE.3%Agarose.FlatLispGreen.Lamp.Energy10.07252019_HRD10591_11-55-09-440.txt Node
Date: Thu Jul 25 11:55:09 EDT 2019
User: cochatt
Spectrometer: HR+D1059
Trigger mode: 1
Integration Time (sec): 1.000000E-1
Scans to average: 1
Electric dark correction enabled: true
Nonlinearity correction enabled: false
Boxcar width: 0
XAxis mode: Wavelengths
Number of Pixels in Spectrum: 2048
>>>>>Begin Spectral Data<<<<<
223.165	-16.5
223.4	-16.5
223.635	-16.5
223.869	-16.5
224.104	-30.5
224.338	-5.5
224.573	1.5
224.808	-10.5
225.042	-12.5
225.277	-10.5
225.511	-10.5
225.746	10.5
225.98	10.5
226.215	14.5
226.449	15.5
226.683	2.5
226.918	23.5
227.152	34.5
227.387	35.5
227.621	40.5
227.856	49.5
228.09	57.5
228.324	64.5
228.559	52.5
228.793	53.5
229.027	58.5
229.262	67.5
229.496	59.5
229.73	73.5
229.964	80.5
230.199	68.5
230.433	78.5
230.667	71.5
230.901	83.5
231.136	84.5
231.37	75.5
231.604	85.5
231.838	81.5
232.072	85.5
232.306	88.5
232.541	82.5
232.775	81.5
233.009	74.5
233.243	83.5
233.477	74.5
233.711	87.5
233.945	88.5
234.179	86.5
234.413	84.5
234.647	74.5
234.881	72.5
235.115	88.5
235.349	91.5
235.583	93.5
235.817	85.5
236.051	85.5
236.285	71.5
236.519	71.5
236.753	81.5
236.987	80.5
237.221	80.5
237.455	70.5
237.689	81.5
237.922	81.5
238.156	85.5
238.39	79.5
238.624	92.5
238.858	70.5
239.091	76.5
239.325	73.5
239.559	78.5
239.793	77.5
240.027	81.5
240.26	79.5
240.494	85.5
240.728	84.5
240.961	77.5
241.195	79.5
241.429	67.5
241.662	69.5
241.896	69.5
242.13	73.5
242.363	94.5
242.597	64.5
242.83	68.5
243.064	70.5
243.298	78.5
243.531	70.5
243.765	85.5
243.998	83.5
244.232	82.5
244.465	82.5
244.699	71.5
244.932	74.5
245.166	84.5
245.399	82.5
245.633	77.5
245.866	85.5
246.099	81.5
246.333	78.5
246.566	81.5
246.8	75.5
247.033	70.5
247.266	69.5
247.5	72.5
247.733	64.5
247.966	50.5
248.2	71.5
248.433	85.5
248.666	88.5
248.899	71.5
249.133	72.5
249.366	86.5
249.599	84.5
249.832	83.5
250.066	80.5
250.299	82.5
250.532	79.5
250.765	85.5
250.998	78.5
251.231	77.5
251.465	77.5
251.698	59.5
251.931	81.5
252.164	83.5
252.397	74.5
252.63	89.5
252.863	74.5
253.096	79.5
253.329	84.5
253.562	85.5
253.795	67.5
254.028	74.5
254.261	79.5
254.494	82.5
254.727	81.5
254.96	91.5
255.193	77.5
255.426	83.5
255.659	73.5
255.892	83.5
256.124	76.5
256.357	75.5
256.59	76.5
256.823	84.5
257.056	91.5
257.289	77.5
257.521	77.5
257.754	77.5
257.987	87.5
258.22	85.5
258.452	95.5
258.685	83.5
258.918	87.5
259.151	86.5
259.383	81.5
259.616	80.5
259.849	76.5
260.081	88.5
260.314	79.5
260.547	84.5
260.779	84.5
261.012	83.5
261.244	80.5
261.477	93.5
261.71	75.5
261.942	76.5
262.175	75.5
262.407	75.5
262.64	91.5
262.872	88.5
263.105	81.5
263.337	89.5
263.57	70.5
263.802	70.5
264.035	90.5
264.267	82.5
264.499	91.5
264.732	77.5
264.964	90.5
265.197	92.5
265.429	75.5
265.661	76.5
265.894	76.5
266.126	76.5
266.358	74.5
266.591	80.5
266.823	85.5
267.055	82.5
267.287	75.5
267.52	73.5
267.752	61.5
267.984	81.5
268.216	90.5
268.448	76.5
268.681	96.5
268.913	87.5
269.145	81.5
269.377	74.5
269.609	72.5
269.841	80.5
270.073	77.5
270.306	81.5
270.538	79.5
270.77	78.5
271.002	83.5
271.234	75.5
271.466	77.5
271.698	88.5
271.93	86.5
272.162	92.5
272.394	78.5
272.626	82.5
272.858	82.5
273.09	80.5
273.322	86.5
273.553	94.5
273.785	77.5
274.017	93.5
274.249	87.5
274.481	96.5
274.713	87.5
274.945	96.5
275.176	90.5
275.408	94.5
275.64	85.5
275.872	75.5
276.104	83.5
276.335	72.5
276.567	86.5
276.799	83.5
277.031	86.5
277.262	90.5
277.494	90.5
277.726	91.5
277.957	87.5
278.189	74.5
278.421	75.5
278.652	86.5
278.884	83.5
279.115	87.5
279.347	81.5
279.579	91.5
279.81	78.5
280.042	82.5
280.273	80.5
280.505	87.5
280.736	89.5
280.968	77.5
281.199	81.5
281.431	69.5
281.662	64.5
281.894	84.5
282.125	89.5
282.356	92.5
282.588	87.5
282.819	82.5
283.051	88.5
283.282	92.5
283.513	92.5
283.745	89.5
283.976	85.5
284.207	81.5
284.439	80.5
284.67	90.5
284.901	92.5
285.132	82.5
285.364	99.5
285.595	75.5
285.826	88.5
286.057	82.5
286.288	83.5
286.52	103.5
286.751	83.5
286.982	76.5
287.213	95.5
287.444	97.5
287.675	92.5
287.906	84.5
288.138	100.5
288.369	90.5
288.6	82.5
288.831	87.5
289.062	85.5
289.293	85.5
289.524	101.5
289.755	93.5
289.986	92.5
290.217	81.5
290.448	84.5
290.679	82.5
290.91	91.5
291.141	65.5
291.371	89.5
291.602	88.5
291.833	88.5
292.064	105.5
292.295	77.5
292.526	74.5
292.757	79.5
292.987	76.5
293.218	85.5
293.449	90.5
293.68	87.5
293.91	84.5
294.141	85.5
294.372	83.5
294.603	89.5
294.833	77.5
295.064	87.5
295.295	83.5
295.525	83.5
295.756	98.5
295.987	82.5
296.217	77.5
296.448	86.5
296.679	94.5
296.909	82.5
297.14	92.5
297.37	80.5
297.601	89.5
297.831	84.5
298.062	89.5
298.292	89.5
298.523	90.5
298.753	76.5
298.984	96.5
299.214	88.5
299.445	82.5
299.675	83.5
299.905	88.5
300.136	87.5
300.366	84.5
300.597	84.5
300.827	97.5
301.057	79.5
301.288	88.5
301.518	102.5
301.748	83.5
301.979	91.5
302.209	81.5
302.439	81.5
302.669	93.5
302.9	76.5
303.13	88.5
303.36	94.5
303.59	76.5
303.82	80.5
304.051	78.5
304.281	84.5
304.511	96.5
304.741	97.5
304.971	96.5
305.201	87.5
305.431	90.5
305.661	88.5
305.891	82.5
306.121	86.5
306.352	82.5
306.582	87.5
306.812	71.5
307.042	83.5
307.272	88.5
307.502	81.5
307.731	84.5
307.961	69.5
308.191	85.5
308.421	80.5
308.651	87.5
308.881	92.5
309.111	80.5
309.341	83.5
309.571	86.5
309.8	83.5
310.03	80.5
310.26	89.5
310.49	78.5
310.72	87.5
310.949	81.5
311.179	84.5
311.409	91.5
311.639	80.5
311.868	82.5
312.098	94.5
312.328	86.5
312.557	87.5
312.787	72.5
313.017	93.5
313.246	86.5
313.476	96.5
313.706	75.5
313.935	91.5
314.165	92.5
314.394	83.5
314.624	78.5
314.853	69.5
315.083	89.5
315.312	80.5
315.542	87.5
315.771	80.5
316.001	92.5
316.23	88.5
316.46	89.5
316.689	87.5
316.919	95.5
317.148	96.5
317.377	92.5
317.607	94.5
317.836	80.5
318.065	75.5
318.295	86.5
318.524	96.5
318.753	80.5
318.983	76.5
319.212	87.5
319.441	85.5
319.67	80.5
319.9	86.5
320.129	93.5
320.358	78.5
320.587	74.5
320.816	91.5
321.046	91.5
321.275	96.5
321.504	89.5
321.733	87.5
321.962	82.5
322.191	88.5
322.42	71.5
322.649	83.5
322.878	92.5
323.108	89.5
323.337	72.5
323.566	94.5
323.795	88.5
324.024	87.5
324.253	90.5
324.482	85.5
324.71	95.5
324.939	76.5
325.168	88.5
325.397	74.5
325.626	86.5
325.855	87.5
326.084	77.5
326.313	83.5
326.542	75.5
326.77	83.5
326.999	91.5
327.228	76.5
327.457	99.5
327.686	83.5
327.914	80.5
328.143	81.5
328.372	80.5
328.6	79.5
328.829	81.5
329.058	86.5
329.287	82.5
329.515	84.5
329.744	97.5
329.972	92.5
330.201	88.5
330.43	91.5
330.658	88.5
330.887	82.5
331.115	81.5
331.344	87.5
331.572	89.5
331.801	92.5
332.03	102.5
332.258	92.5
332.486	88.5
332.715	92.5
332.943	84.5
333.172	97.5
333.4	87.5
333.629	75.5
333.857	86.5
334.085	84.5
334.314	78.5
334.542	83.5
334.771	75.5
334.999	80.5
335.227	76.5
335.455	84.5
335.684	82.5
335.912	81.5
336.14	96.5
336.369	96.5
336.597	83.5
336.825	91.5
337.053	69.5
337.281	95.5
337.51	82.5
337.738	74.5
337.966	74.5
338.194	82.5
338.422	96.5
338.65	94.5
338.878	75.5
339.106	85.5
339.334	83.5
339.562	91.5
339.79	85.5
340.018	80.5
340.246	82.5
340.474	101.5
340.702	101.5
340.93	88.5
341.158	72.5
341.386	85.5
341.614	82.5
341.842	91.5
342.07	85.5
342.298	81.5
342.526	79.5
342.754	91.5
342.981	86.5
343.209	82.5
343.437	88.5
343.665	96.5
343.893	82.5
344.12	91.5
344.348	97.5
344.576	101.5
344.804	90.5
345.031	80.5
345.259	71.5
345.487	77.5
345.714	84.5
345.942	96.5
346.17	103.5
346.397	78.5
346.625	72.5
346.853	95.5
347.08	76.5
347.308	81.5
347.535	92.5
347.763	61.5
347.99	82.5
348.218	78.5
348.445	89.5
348.673	78.5
348.9	89.5
349.128	103.5
349.355	89.5
349.583	64.5
349.81	87.5
350.037	83.5
350.265	86.5
350.492	87.5
350.72	89.5
350.947	94.5
351.174	93.5
351.402	73.5
351.629	75.5
351.856	84.5
352.083	91.5
352.311	80.5
352.538	73.5
352.765	81.5
352.992	90.5
353.22	87.5
353.447	96.5
353.674	83.5
353.901	85.5
354.128	82.5
354.355	92.5
354.583	105.5
354.81	92.5
355.037	97.5
355.264	85.5
355.491	91.5
355.718	75.5
355.945	85.5
356.172	88.5
356.399	87.5
356.626	83.5
356.853	87.5
357.08	80.5
357.307	82.5
357.534	88.5
357.761	82.5
357.988	117.5
358.215	92.5
358.441	91.5
358.668	70.5
358.895	85.5
359.122	80.5
359.349	84.5
359.576	79.5
359.802	87.5
360.029	98.5
360.256	86.5
360.483	87.5
360.709	81.5
360.936	96.5
361.163	82.5
361.39	88.5
361.616	97.5
361.843	89.5
362.07	93.5
362.296	83.5
362.523	79.5
362.749	79.5
362.976	99.5
363.203	82.5
363.429	87.5
363.656	87.5
363.882	100.5
364.109	98.5
364.335	84.5
364.562	96.5
364.788	88.5
365.015	86.5
365.241	93.5
365.468	90.5
365.694	95.5
365.92	97.5
366.147	88.5
366.373	88.5
366.599	94.5
366.826	86.5
367.052	86.5
367.278	82.5
367.505	85.5
367.731	84.5
367.957	87.5
368.184	78.5
368.41	92.5
368.636	81.5
368.862	76.5
369.089	76.5
369.315	82.5
369.541	89.5
369.767	93.5
369.993	77.5
370.219	87.5
370.445	89.5
370.672	92.5
370.898	84.5
371.124	74.5
371.35	77.5
371.576	86.5
371.802	104.5
372.028	94.5
372.254	108.5
372.48	77.5
372.706	96.5
372.932	91.5
373.158	75.5
373.384	93.5
373.61	89.5
373.835	88.5
374.061	89.5
374.287	87.5
374.513	91.5
374.739	86.5
374.965	98.5
375.191	94.5
375.416	91.5
375.642	113.5
375.868	100.5
376.094	89.5
376.319	104.5
376.545	89.5
376.771	75.5
376.997	90.5
377.222	80.5
377.448	78.5
377.674	100.5
377.899	83.5
378.125	94.5
378.35	91.5
378.576	92.5
378.802	92.5
379.027	90.5
379.253	100.5
379.478	103.5
379.704	81.5
379.929	103.5
380.155	98.5
380.38	98.5
380.606	96.5
380.831	91.5
381.057	84.5
381.282	84.5
381.507	95.5
381.733	107.5
381.958	93.5
382.184	78.5
382.409	78.5
382.634	89.5
382.86	92.5
383.085	94.5
383.31	76.5
383.535	84.5
383.761	89.5
383.986	108.5
384.211	94.5
384.436	91.5
384.662	95.5
384.887	95.5
385.112	91.5
385.337	94.5
385.562	98.5
385.787	106.5
386.013	87.5
386.238	86.5
386.463	89.5
386.688	101.5
386.913	78.5
387.138	89.5
387.363	103.5
387.588	100.5
387.813	98.5
388.038	101.5
388.263	96.5
388.488	110.5
388.713	88.5
388.938	100.5
389.163	81.5
389.387	87.5
389.612	97.5
389.837	93.5
390.062	97.5
390.287	105.5
390.512	84.5
390.736	90.5
390.961	81.5
391.186	89.5
391.411	93.5
391.636	94.5
391.86	106.5
392.085	110.5
392.31	95.5
392.534	108.5
392.759	102.5
392.984	106.5
393.208	95.5
393.433	82.5
393.658	95.5
393.882	103.5
394.107	100.5
394.331	94.5
394.556	98.5
394.78	86.5
395.005	91.5
395.229	105.5
395.454	111.5
395.678	110.5
395.903	95.5
396.127	89.5
396.352	95.5
396.576	87.5
396.801	107.5
397.025	82.5
397.249	116.5
397.474	103.5
397.698	100.5
397.922	100.5
398.147	92.5
398.371	99.5
398.595	107.5
398.82	104.5
399.044	103.5
399.268	100.5
399.492	101.5
399.717	119.5
399.941	108.5
400.165	99.5
400.389	110.5
400.613	111.5
400.837	106.5
401.062	104.5
401.286	92.5
401.51	91.5
401.734	102.5
401.958	98.5
402.182	93.5
402.406	105.5
402.63	93.5
402.854	112.5
403.078	110.5
403.302	119.5
403.526	107.5
403.75	104.5
403.974	107.5
404.198	113.5
404.422	113.5
404.645	99.5
404.869	120.5
405.093	115.5
405.317	106.5
405.541	112.5
405.765	127.5
405.988	108.5
406.212	98.5
406.436	105.5
406.66	114.5
406.883	99.5
407.107	123.5
407.331	108.5
407.555	117.5
407.778	121.5
408.002	107.5
408.226	102.5
408.449	111.5
408.673	114.5
408.896	116.5
409.12	110.5
409.344	100.5
409.567	119.5
409.791	101.5
410.014	114.5
410.238	113.5
410.461	101.5
410.685	116.5
410.908	87.5
411.132	111.5
411.355	117.5
411.578	120.5
411.802	125.5
412.025	107.5
412.249	111.5
412.472	109.5
412.695	115.5
412.919	101.5
413.142	107.5
413.365	100.5
413.589	108.5
413.812	119.5
414.035	113.5
414.258	111.5
414.482	109.5
414.705	113.5
414.928	116.5
415.151	107.5
415.374	113.5
415.597	97.5
415.821	121.5
416.044	100.5
416.267	96.5
416.49	98.5
416.713	109.5
416.936	119.5
417.159	109.5
417.382	94.5
417.605	105.5
417.828	109.5
418.051	105.5
418.274	121.5
418.497	101.5
418.72	128.5
418.943	109.5
419.166	123.5
419.389	123.5
419.611	131.5
419.834	122.5
420.057	97.5
420.28	122.5
420.503	115.5
420.726	123.5
420.948	126.5
421.171	108.5
421.394	107.5
421.617	103.5
421.839	115.5
422.062	118.5
422.285	101.5
422.507	112.5
422.73	124.5
422.953	107.5
423.175	107.5
423.398	111.5
423.621	103.5
423.843	99.5
424.066	113.5
424.288	125.5
424.511	119.5
424.733	116.5
424.956	115.5
425.178	127.5
425.401	125.5
425.623	112.5
425.846	115.5
426.068	116.5
426.291	113.5
426.513	109.5
426.735	119.5
426.958	104.5
427.18	113.5
427.402	122.5
427.625	126.5
427.847	107.5
428.069	123.5
428.292	107.5
428.514	114.5
428.736	121.5
428.958	118.5
429.181	115.5
429.403	113.5
429.625	96.5
429.847	117.5
430.069	113.5
430.292	115.5
430.514	122.5
430.736	125.5
430.958	101.5
431.18	112.5
431.402	103.5
431.624	115.5
431.846	99.5
432.068	97.5
432.29	107.5
432.512	96.5
432.734	104.5
432.956	106.5
433.178	109.5
433.4	127.5
433.622	114.5
433.844	131.5
434.066	111.5
434.287	109.5
434.509	111.5
434.731	99.5
434.953	111.5
435.175	115.5
435.397	121.5
435.618	113.5
435.84	108.5
436.062	107.5
436.284	115.5
436.505	107.5
436.727	125.5
436.949	112.5
437.17	111.5
437.392	97.5
437.614	104.5
437.835	109.5
438.057	105.5
438.278	103.5
438.5	98.5
438.721	120.5
438.943	107.5
439.165	108.5
439.386	128.5
439.608	132.5
439.829	112.5
440.05	125.5
440.272	120.5
440.493	122.5
440.715	114.5
440.936	124.5
441.158	103.5
441.379	122.5
441.6	129.5
441.822	129.5
442.043	116.5
442.264	105.5
442.486	105.5
442.707	126.5
442.928	128.5
443.149	123.5
443.371	118.5
443.592	122.5
443.813	125.5
444.034	123.5
444.255	128.5
444.476	116.5
444.698	127.5
444.919	137.5
445.14	226.5
445.361	181.5
445.582	121.5
445.803	125.5
446.024	122.5
446.245	105.5
446.466	115.5
446.687	107.5
446.908	118.5
447.129	129.5
447.35	131.5
447.571	115.5
447.792	106.5
448.013	113.5
448.234	107.5
448.455	112.5
448.675	107.5
448.896	106.5
449.117	113.5
449.338	113.5
449.559	122.5
449.779	120.5
450	102.5
450.221	121.5
450.442	108.5
450.662	112.5
450.883	120.5
451.104	97.5
451.324	111.5
451.545	113.5
451.766	122.5
451.986	107.5
452.207	102.5
452.428	99.5
452.648	94.5
452.869	104.5
453.089	113.5
453.31	115.5
453.53	109.5
453.751	111.5
453.971	84.5
454.192	120.5
454.412	115.5
454.633	120.5
454.853	112.5
455.073	104.5
455.294	113.5
455.514	118.5
455.734	119.5
455.955	103.5
456.175	82.5
456.395	103.5
456.616	87.5
456.836	105.5
457.056	96.5
457.276	89.5
457.497	98.5
457.717	115.5
457.937	92.5
458.157	96.5
458.377	98.5
458.598	97.5
458.818	99.5
459.038	96.5
459.258	98.5
459.478	100.5
459.698	109.5
459.918	102.5
460.138	108.5
460.358	124.5
460.578	111.5
460.798	107.5
461.018	109.5
461.238	108.5
461.458	117.5
461.678	107.5
461.898	113.5
462.118	117.5
462.338	99.5
462.558	128.5
462.777	115.5
462.997	119.5
463.217	105.5
463.437	121.5
463.657	137.5
463.876	119.5
464.096	116.5
464.316	129.5
464.536	119.5
464.755	114.5
464.975	119.5
465.195	120.5
465.414	102.5
465.634	108.5
465.854	116.5
466.073	123.5
466.293	113.5
466.512	112.5
466.732	114.5
466.951	111.5
467.171	107.5
467.391	108.5
467.61	118.5
467.829	117.5
468.049	120.5
468.268	125.5
468.488	125.5
468.707	119.5
468.927	121.5
469.146	120.5
469.365	100.5
469.585	120.5
469.804	120.5
470.023	114.5
470.243	127.5
470.462	122.5
470.681	125.5
470.901	118.5
471.12	131.5
471.339	124.5
471.558	118.5
471.777	113.5
471.997	129.5
472.216	121.5
472.435	116.5
472.654	104.5
472.873	119.5
473.092	115.5
473.311	120.5
473.53	105.5
473.749	105.5
473.968	119.5
474.187	119.5
474.406	116.5
474.625	124.5
474.844	132.5
475.063	107.5
475.282	121.5
475.501	104.5
475.72	119.5
475.939	105.5
476.158	116.5
476.377	105.5
476.596	123.5
476.814	116.5
477.033	114.5
477.252	107.5
477.471	120.5
477.69	118.5
477.908	114.5
478.127	120.5
478.346	116.5
478.564	136.5
478.783	120.5
479.002	127.5
479.22	128.5
479.439	115.5
479.658	127.5
479.876	106.5
480.095	119.5
480.313	118.5
480.532	113.5
480.751	120.5
480.969	117.5
481.188	118.5
481.406	107.5
481.624	107.5
481.843	97.5
482.061	109.5
482.28	127.5
482.498	121.5
482.717	113.5
482.935	130.5
483.153	120.5
483.372	133.5
483.59	139.5
483.808	132.5
484.027	125.5
484.245	130.5
484.463	129.5
484.681	138.5
484.9	130.5
485.118	129.5
485.336	120.5
485.554	115.5
485.772	122.5
485.99	108.5
486.209	113.5
486.427	121.5
486.645	120.5
486.863	135.5
487.081	122.5
487.299	116.5
487.517	124.5
487.735	139.5
487.953	140.5
488.171	154.5
488.389	131.5
488.607	132.5
488.825	127.5
489.043	118.5
489.261	139.5
489.479	121.5
489.696	124.5
489.914	135.5
490.132	132.5
490.35	155.5
490.568	136.5
490.786	138.5
491.003	139.5
491.221	153.5
491.439	130.5
491.657	147.5
491.874	151.5
492.092	169.5
492.31	159.5
492.527	145.5
492.745	150.5
492.963	141.5
493.18	135.5
493.398	146.5
493.615	149.5
493.833	148.5
494.05	137.5
494.268	145.5
494.485	148.5
494.703	144.5
494.92	141.5
495.138	146.5
495.355	143.5
495.573	162.5
495.79	157.5
496.008	158.5
496.225	139.5
496.442	128.5
496.66	138.5
496.877	141.5
497.094	147.5
497.312	124.5
497.529	127.5
497.746	138.5
497.963	152.5
498.181	157.5
498.398	140.5
498.615	130.5
498.832	134.5
499.049	145.5
499.267	137.5
499.484	169.5
499.701	194.5
499.918	184.5
500.135	197.5
500.352	214.5
500.569	207.5
500.786	210.5
501.003	199.5
501.22	190.5
501.437	187.5
501.654	164.5
501.871	167.5
502.088	151.5
502.305	151.5
502.522	155.5
502.739	152.5
502.956	142.5
503.172	141.5
503.389	135.5
503.606	123.5
503.823	132.5
504.04	141.5
504.256	123.5
504.473	129.5
504.69	137.5
504.907	131.5
505.123	142.5
505.34	129.5
505.557	123.5
505.773	119.5
505.99	123.5
506.207	120.5
506.423	135.5
506.64	120.5
506.856	119.5
507.073	126.5
507.289	116.5
507.506	131.5
507.722	118.5
507.939	125.5
508.155	117.5
508.372	115.5
508.588	124.5
508.805	118.5
509.021	103.5
509.238	111.5
509.454	107.5
509.67	106.5
509.887	105.5
510.103	105.5
510.319	115.5
510.536	115.5
510.752	103.5
510.968	108.5
511.184	121.5
511.401	112.5
511.617	113.5
511.833	117.5
512.049	101.5
512.265	122.5
512.481	108.5
512.698	113.5
512.914	113.5
513.13	122.5
513.346	107.5
513.562	117.5
513.778	117.5
513.994	124.5
514.21	116.5
514.426	117.5
514.642	116.5
514.858	125.5
515.074	110.5
515.29	122.5
515.506	123.5
515.721	117.5
515.937	97.5
516.153	117.5
516.369	113.5
516.585	118.5
516.801	129.5
517.016	126.5
517.232	124.5
517.448	125.5
517.664	125.5
517.879	137.5
518.095	131.5
518.311	119.5
518.527	135.5
518.742	107.5
518.958	114.5
519.173	115.5
519.389	116.5
519.605	122.5
519.82	113.5
520.036	109.5
520.251	124.5
520.467	119.5
520.682	109.5
520.898	123.5
521.113	111.5
521.329	105.5
521.544	113.5
521.76	108.5
521.975	120.5
522.19	117.5
522.406	115.5
522.621	117.5
522.836	103.5
523.052	119.5
523.267	111.5
523.482	111.5
523.698	116.5
523.913	125.5
524.128	120.5
524.343	117.5
524.559	131.5
524.774	129.5
524.989	120.5
525.204	123.5
525.419	117.5
525.634	121.5
525.849	129.5
526.064	114.5
526.28	122.5
526.495	106.5
526.71	113.5
526.925	105.5
527.14	106.5
527.355	99.5
527.57	107.5
527.785	101.5
527.999	104.5
528.214	113.5
528.429	119.5
528.644	105.5
528.859	111.5
529.074	133.5
529.289	129.5
529.503	127.5
529.718	121.5
529.933	124.5
530.148	123.5
530.363	118.5
