Data from StandardFe(NO3)3.TAE.3%Agarose.FlatLispGreen.Lamp.Energy10.07252019_HRD10591_11-55-21-441.txt Node
Date: Thu Jul 25 11:55:21 EDT 2019
User: cochatt
Spectrometer: HR+D1059
Trigger mode: 1
Integration Time (sec): 1.000000E-1
Scans to average: 1
Electric dark correction enabled: true
Nonlinearity correction enabled: false
Boxcar width: 0
XAxis mode: Wavelengths
Number of Pixels in Spectrum: 2048
>>>>>Begin Spectral Data<<<<<
223.165	-20.69
223.4	-20.69
223.635	-20.69
223.869	-20.69
224.104	-14.69
224.338	-9.69
224.573	-15.69
224.808	-12.69
225.042	-15.69
225.277	-1.69
225.511	-8.69
225.746	6.31
225.98	-5.69
226.215	11.31
226.449	32.31
226.683	20.31
226.918	20.31
227.152	35.31
227.387	44.31
227.621	55.31
227.856	51.31
228.09	52.31
228.324	35.31
228.559	61.31
228.793	40.31
229.027	71.31
229.262	73.31
229.496	66.31
229.73	67.31
229.964	64.31
230.199	72.31
230.433	71.31
230.667	72.31
230.901	82.31
231.136	71.31
231.37	77.31
231.604	76.31
231.838	75.31
232.072	90.31
232.306	85.31
232.541	89.31
232.775	93.31
233.009	82.31
233.243	85.31
233.477	88.31
233.711	81.31
233.945	79.31
234.179	88.31
234.413	64.31
234.647	91.31
234.881	69.31
235.115	62.31
235.349	76.31
235.583	87.31
235.817	71.31
236.051	91.31
236.285	88.31
236.519	77.31
236.753	84.31
236.987	88.31
237.221	77.31
237.455	78.31
237.689	79.31
237.922	91.31
238.156	87.31
238.39	70.31
238.624	86.31
238.858	84.31
239.091	85.31
239.325	79.31
239.559	87.31
239.793	75.31
240.027	75.31
240.26	78.31
240.494	81.31
240.728	84.31
240.961	71.31
241.195	76.31
241.429	86.31
241.662	77.31
241.896	79.31
242.13	81.31
242.363	92.31
242.597	91.31
242.83	84.31
243.064	82.31
243.298	89.31
243.531	73.31
243.765	72.31
243.998	80.31
244.232	72.31
244.465	91.31
244.699	73.31
244.932	73.31
245.166	76.31
245.399	85.31
245.633	86.31
245.866	88.31
246.099	74.31
246.333	72.31
246.566	79.31
246.8	83.31
247.033	77.31
247.266	85.31
247.5	82.31
247.733	79.31
247.966	87.31
248.2	81.31
248.433	81.31
248.666	61.31
248.899	80.31
249.133	85.31
249.366	90.31
249.599	68.31
249.832	80.31
250.066	92.31
250.299	90.31
250.532	88.31
250.765	82.31
250.998	76.31
251.231	88.31
251.465	95.31
251.698	79.31
251.931	76.31
252.164	86.31
252.397	80.31
252.63	77.31
252.863	83.31
253.096	85.31
253.329	85.31
253.562	77.31
253.795	73.31
254.028	73.31
254.261	71.31
254.494	66.31
254.727	93.31
254.96	77.31
255.193	91.31
255.426	81.31
255.659	70.31
255.892	70.31
256.124	78.31
256.357	71.31
256.59	82.31
256.823	79.31
257.056	82.31
257.289	97.31
257.521	85.31
257.754	88.31
257.987	79.31
258.22	88.31
258.452	67.31
258.685	89.31
258.918	77.31
259.151	87.31
259.383	83.31
259.616	85.31
259.849	88.31
260.081	87.31
260.314	83.31
260.547	83.31
260.779	76.31
261.012	76.31
261.244	83.31
261.477	98.31
261.71	77.31
261.942	90.31
262.175	82.31
262.407	86.31
262.64	87.31
262.872	84.31
263.105	85.31
263.337	88.31
263.57	93.31
263.802	82.31
264.035	70.31
264.267	80.31
264.499	75.31
264.732	92.31
264.964	89.31
265.197	76.31
265.429	92.31
265.661	90.31
265.894	87.31
266.126	93.31
266.358	73.31
266.591	78.31
266.823	83.31
267.055	82.31
267.287	85.31
267.52	96.31
267.752	90.31
267.984	102.31
268.216	89.31
268.448	97.31
268.681	92.31
268.913	96.31
269.145	77.31
269.377	96.31
269.609	72.31
269.841	83.31
270.073	97.31
270.306	89.31
270.538	89.31
270.77	95.31
271.002	82.31
271.234	74.31
271.466	98.31
271.698	76.31
271.93	92.31
272.162	76.31
272.394	90.31
272.626	92.31
272.858	93.31
273.09	92.31
273.322	88.31
273.553	84.31
273.785	79.31
274.017	83.31
274.249	86.31
274.481	83.31
274.713	89.31
274.945	90.31
275.176	81.31
275.408	88.31
275.64	88.31
275.872	101.31
276.104	119.31
276.335	81.31
276.567	94.31
276.799	77.31
277.031	71.31
277.262	77.31
277.494	82.31
277.726	88.31
277.957	87.31
278.189	81.31
278.421	84.31
278.652	83.31
278.884	85.31
279.115	77.31
279.347	81.31
279.579	72.31
279.81	82.31
280.042	100.31
280.273	93.31
280.505	78.31
280.736	90.31
280.968	88.31
281.199	86.31
281.431	93.31
281.662	95.31
281.894	98.31
282.125	84.31
282.356	95.31
282.588	105.31
282.819	84.31
283.051	74.31
283.282	77.31
283.513	82.31
283.745	77.31
283.976	90.31
284.207	74.31
284.439	76.31
284.67	83.31
284.901	93.31
285.132	70.31
285.364	90.31
285.595	91.31
285.826	86.31
286.057	89.31
286.288	77.31
286.52	88.31
286.751	92.31
286.982	95.31
287.213	81.31
287.444	88.31
287.675	96.31
287.906	88.31
288.138	88.31
288.369	79.31
288.6	103.31
288.831	81.31
289.062	95.31
289.293	75.31
289.524	91.31
289.755	94.31
289.986	91.31
290.217	81.31
290.448	79.31
290.679	81.31
290.91	92.31
291.141	94.31
291.371	84.31
291.602	83.31
291.833	77.31
292.064	96.31
292.295	85.31
292.526	89.31
292.757	74.31
292.987	96.31
293.218	83.31
293.449	91.31
293.68	84.31
293.91	92.31
294.141	89.31
294.372	93.31
294.603	78.31
294.833	79.31
295.064	77.31
295.295	87.31
295.525	84.31
295.756	76.31
295.987	85.31
296.217	94.31
296.448	72.31
296.679	89.31
296.909	89.31
297.14	80.31
297.37	92.31
297.601	90.31
297.831	73.31
298.062	90.31
298.292	90.31
298.523	92.31
298.753	89.31
298.984	95.31
299.214	82.31
299.445	100.31
299.675	68.31
299.905	85.31
300.136	89.31
300.366	87.31
300.597	77.31
300.827	66.31
301.057	91.31
301.288	92.31
301.518	75.31
301.748	86.31
301.979	83.31
302.209	79.31
302.439	87.31
302.669	77.31
302.9	90.31
303.13	93.31
303.36	86.31
303.59	88.31
303.82	85.31
304.051	95.31
304.281	81.31
304.511	92.31
304.741	87.31
304.971	91.31
305.201	99.31
305.431	90.31
305.661	98.31
305.891	92.31
306.121	76.31
306.352	82.31
306.582	84.31
306.812	95.31
307.042	95.31
307.272	93.31
307.502	79.31
307.731	90.31
307.961	80.31
308.191	104.31
308.421	84.31
308.651	88.31
308.881	90.31
309.111	94.31
309.341	99.31
309.571	88.31
309.8	88.31
310.03	82.31
310.26	90.31
310.49	101.31
310.72	91.31
310.949	93.31
311.179	88.31
311.409	76.31
311.639	71.31
311.868	95.31
312.098	85.31
312.328	81.31
312.557	96.31
312.787	86.31
313.017	74.31
313.246	89.31
313.476	94.31
313.706	85.31
313.935	95.31
314.165	86.31
314.394	77.31
314.624	90.31
314.853	87.31
315.083	80.31
315.312	61.31
315.542	86.31
315.771	84.31
316.001	90.31
316.23	77.31
316.46	84.31
316.689	91.31
316.919	94.31
317.148	89.31
317.377	85.31
317.607	87.31
317.836	81.31
318.065	86.31
318.295	78.31
318.524	83.31
318.753	90.31
318.983	94.31
319.212	82.31
319.441	82.31
319.67	87.31
319.9	83.31
320.129	79.31
320.358	93.31
320.587	77.31
320.816	83.31
321.046	92.31
321.275	84.31
321.504	81.31
321.733	94.31
321.962	86.31
322.191	101.31
322.42	91.31
322.649	92.31
322.878	86.31
323.108	93.31
323.337	85.31
323.566	90.31
323.795	81.31
324.024	80.31
324.253	91.31
324.482	85.31
324.71	83.31
324.939	83.31
325.168	92.31
325.397	83.31
325.626	77.31
325.855	78.31
326.084	82.31
326.313	99.31
326.542	90.31
326.77	83.31
326.999	79.31
327.228	90.31
327.457	80.31
327.686	84.31
327.914	80.31
328.143	86.31
328.372	96.31
328.6	74.31
328.829	83.31
329.058	72.31
329.287	89.31
329.515	77.31
329.744	88.31
329.972	84.31
330.201	70.31
330.43	89.31
330.658	82.31
330.887	86.31
331.115	92.31
331.344	83.31
331.572	89.31
331.801	80.31
332.03	86.31
332.258	103.31
332.486	81.31
332.715	91.31
332.943	83.31
333.172	78.31
333.4	84.31
333.629	90.31
333.857	80.31
334.085	81.31
334.314	93.31
334.542	88.31
334.771	93.31
334.999	84.31
335.227	79.31
335.455	102.31
335.684	88.31
335.912	91.31
336.14	94.31
336.369	84.31
336.597	84.31
336.825	80.31
337.053	97.31
337.281	94.31
337.51	104.31
337.738	72.31
337.966	98.31
338.194	76.31
338.422	83.31
338.65	77.31
338.878	95.31
339.106	92.31
339.334	89.31
339.562	76.31
339.79	89.31
340.018	68.31
340.246	82.31
340.474	82.31
340.702	96.31
340.93	86.31
341.158	98.31
341.386	81.31
341.614	88.31
341.842	89.31
342.07	91.31
342.298	88.31
342.526	73.31
342.754	78.31
342.981	93.31
343.209	86.31
343.437	89.31
343.665	81.31
343.893	83.31
344.12	93.31
344.348	83.31
344.576	89.31
344.804	90.31
345.031	81.31
345.259	87.31
345.487	95.31
345.714	91.31
345.942	92.31
346.17	85.31
346.397	89.31
346.625	81.31
346.853	100.31
347.08	89.31
347.308	89.31
347.535	70.31
347.763	75.31
347.99	93.31
348.218	83.31
348.445	84.31
348.673	94.31
348.9	90.31
349.128	95.31
349.355	90.31
349.583	92.31
349.81	85.31
350.037	79.31
350.265	78.31
350.492	97.31
350.72	88.31
350.947	84.31
351.174	95.31
351.402	76.31
351.629	77.31
351.856	74.31
352.083	82.31
352.311	87.31
352.538	88.31
352.765	91.31
352.992	91.31
353.22	89.31
353.447	91.31
353.674	88.31
353.901	79.31
354.128	86.31
354.355	61.31
354.583	73.31
354.81	98.31
355.037	81.31
355.264	82.31
355.491	77.31
355.718	86.31
355.945	72.31
356.172	90.31
356.399	81.31
356.626	91.31
356.853	103.31
357.08	92.31
357.307	82.31
357.534	90.31
357.761	92.31
357.988	91.31
358.215	99.31
358.441	93.31
358.668	86.31
358.895	95.31
359.122	93.31
359.349	82.31
359.576	90.31
359.802	85.31
360.029	73.31
360.256	100.31
360.483	82.31
360.709	84.31
360.936	94.31
361.163	87.31
361.39	73.31
361.616	83.31
361.843	80.31
362.07	68.31
362.296	86.31
362.523	75.31
362.749	91.31
362.976	89.31
363.203	94.31
363.429	87.31
363.656	91.31
363.882	96.31
364.109	95.31
364.335	94.31
364.562	96.31
364.788	75.31
365.015	88.31
365.241	106.31
365.468	74.31
365.694	78.31
365.92	100.31
366.147	93.31
366.373	90.31
366.599	91.31
366.826	97.31
367.052	82.31
367.278	81.31
367.505	89.31
367.731	94.31
367.957	98.31
368.184	75.31
368.41	81.31
368.636	93.31
368.862	98.31
369.089	88.31
369.315	90.31
369.541	89.31
369.767	83.31
369.993	84.31
370.219	87.31
370.445	97.31
370.672	86.31
370.898	91.31
371.124	99.31
371.35	89.31
371.576	87.31
371.802	81.31
372.028	79.31
372.254	74.31
372.48	88.31
372.706	89.31
372.932	89.31
373.158	91.31
373.384	95.31
373.61	84.31
373.835	84.31
374.061	85.31
374.287	84.31
374.513	88.31
374.739	76.31
374.965	93.31
375.191	93.31
375.416	105.31
375.642	95.31
375.868	101.31
376.094	92.31
376.319	85.31
376.545	78.31
376.771	102.31
376.997	89.31
377.222	93.31
377.448	81.31
377.674	89.31
377.899	90.31
378.125	92.31
378.35	92.31
378.576	97.31
378.802	88.31
379.027	94.31
379.253	98.31
379.478	96.31
379.704	95.31
379.929	103.31
380.155	96.31
380.38	94.31
380.606	93.31
380.831	105.31
381.057	93.31
381.282	87.31
381.507	89.31
381.733	88.31
381.958	90.31
382.184	86.31
382.409	90.31
382.634	96.31
382.86	105.31
383.085	104.31
383.31	88.31
383.535	90.31
383.761	89.31
383.986	83.31
384.211	102.31
384.436	98.31
384.662	92.31
384.887	96.31
385.112	99.31
385.337	100.31
385.562	77.31
385.787	82.31
386.013	91.31
386.238	105.31
386.463	99.31
386.688	106.31
386.913	112.31
387.138	97.31
387.363	102.31
387.588	103.31
387.813	104.31
388.038	89.31
388.263	102.31
388.488	100.31
388.713	102.31
388.938	79.31
389.163	92.31
389.387	97.31
389.612	93.31
389.837	92.31
390.062	109.31
390.287	93.31
390.512	105.31
390.736	97.31
390.961	94.31
391.186	112.31
391.411	92.31
391.636	106.31
391.86	93.31
392.085	98.31
392.31	91.31
392.534	90.31
392.759	112.31
392.984	90.31
393.208	98.31
393.433	100.31
393.658	99.31
393.882	95.31
394.107	107.31
394.331	109.31
394.556	108.31
394.78	99.31
395.005	99.31
395.229	105.31
395.454	90.31
395.678	106.31
395.903	115.31
396.127	108.31
396.352	101.31
396.576	100.31
396.801	103.31
397.025	94.31
397.249	95.31
397.474	101.31
397.698	96.31
397.922	94.31
398.147	98.31
398.371	101.31
398.595	101.31
398.82	102.31
399.044	119.31
399.268	111.31
399.492	119.31
399.717	109.31
399.941	112.31
400.165	106.31
400.389	99.31
400.613	105.31
400.837	108.31
401.062	104.31
401.286	108.31
401.51	93.31
401.734	109.31
401.958	95.31
402.182	118.31
402.406	119.31
402.63	112.31
402.854	97.31
403.078	101.31
403.302	98.31
403.526	105.31
403.75	98.31
403.974	106.31
404.198	110.31
404.422	120.31
404.645	117.31
404.869	100.31
405.093	104.31
405.317	94.31
405.541	108.31
405.765	108.31
405.988	101.31
406.212	101.31
406.436	114.31
406.66	133.31
406.883	114.31
407.107	93.31
407.331	112.31
407.555	115.31
407.778	108.31
408.002	106.31
408.226	122.31
408.449	119.31
408.673	124.31
408.896	128.31
409.12	108.31
409.344	93.31
409.567	108.31
409.791	105.31
410.014	113.31
410.238	125.31
410.461	110.31
410.685	118.31
410.908	105.31
411.132	112.31
411.355	117.31
411.578	119.31
411.802	101.31
412.025	116.31
412.249	116.31
412.472	116.31
412.695	116.31
412.919	109.31
413.142	118.31
413.365	118.31
413.589	118.31
413.812	100.31
414.035	117.31
414.258	109.31
414.482	112.31
414.705	116.31
414.928	105.31
415.151	92.31
415.374	110.31
415.597	120.31
415.821	108.31
416.044	102.31
416.267	112.31
416.49	112.31
416.713	121.31
416.936	110.31
417.159	118.31
417.382	120.31
417.605	107.31
417.828	123.31
418.051	126.31
418.274	114.31
418.497	105.31
418.72	131.31
418.943	115.31
419.166	101.31
419.389	123.31
419.611	106.31
419.834	109.31
420.057	103.31
420.28	109.31
420.503	119.31
420.726	117.31
420.948	119.31
421.171	125.31
421.394	116.31
421.617	115.31
421.839	112.31
422.062	110.31
422.285	102.31
422.507	95.31
422.73	109.31
422.953	108.31
423.175	114.31
423.398	101.31
423.621	118.31
423.843	120.31
424.066	113.31
424.288	110.31
424.511	126.31
424.733	123.31
424.956	128.31
425.178	113.31
425.401	102.31
425.623	117.31
425.846	122.31
426.068	107.31
426.291	115.31
426.513	116.31
426.735	112.31
426.958	98.31
427.18	109.31
427.402	100.31
427.625	120.31
427.847	113.31
428.069	116.31
428.292	99.31
428.514	122.31
428.736	128.31
428.958	117.31
429.181	120.31
429.403	109.31
429.625	116.31
429.847	125.31
430.069	108.31
430.292	113.31
430.514	104.31
430.736	101.31
430.958	108.31
431.18	109.31
431.402	114.31
431.624	105.31
431.846	97.31
432.068	109.31
432.29	91.31
432.512	124.31
432.734	109.31
432.956	104.31
433.178	121.31
433.4	124.31
433.622	108.31
433.844	111.31
434.066	102.31
434.287	108.31
434.509	102.31
434.731	113.31
434.953	100.31
435.175	116.31
435.397	108.31
435.618	103.31
435.84	102.31
436.062	115.31
436.284	128.31
436.505	98.31
436.727	96.31
436.949	116.31
437.17	112.31
437.392	105.31
437.614	112.31
437.835	116.31
438.057	98.31
438.278	108.31
438.5	107.31
438.721	119.31
438.943	100.31
439.165	106.31
439.386	119.31
439.608	117.31
439.829	114.31
440.05	124.31
440.272	120.31
440.493	114.31
440.715	120.31
440.936	124.31
441.158	130.31
441.379	122.31
441.6	125.31
441.822	128.31
442.043	132.31
442.264	117.31
442.486	124.31
442.707	126.31
442.928	120.31
443.149	105.31
443.371	126.31
443.592	127.31
443.813	140.31
444.034	125.31
444.255	118.31
444.476	129.31
444.698	114.31
444.919	126.31
445.14	249.31
445.361	181.31
445.582	130.31
445.803	116.31
446.024	116.31
446.245	122.31
446.466	120.31
446.687	115.31
446.908	123.31
447.129	131.31
447.35	125.31
447.571	117.31
447.792	120.31
448.013	122.31
448.234	122.31
448.455	113.31
448.675	117.31
448.896	121.31
449.117	110.31
449.338	103.31
449.559	119.31
449.779	103.31
450	120.31
450.221	125.31
450.442	118.31
450.662	116.31
450.883	117.31
451.104	117.31
451.324	108.31
451.545	112.31
451.766	106.31
451.986	113.31
452.207	87.31
452.428	107.31
452.648	116.31
452.869	106.31
453.089	100.31
453.31	108.31
453.53	114.31
453.751	107.31
453.971	98.31
454.192	106.31
454.412	105.31
454.633	103.31
454.853	123.31
455.073	104.31
455.294	109.31
455.514	103.31
455.734	108.31
455.955	107.31
456.175	100.31
456.395	84.31
456.616	104.31
456.836	107.31
457.056	105.31
457.276	113.31
457.497	98.31
457.717	109.31
457.937	98.31
458.157	101.31
458.377	116.31
458.598	101.31
458.818	100.31
459.038	95.31
459.258	94.31
459.478	97.31
459.698	103.31
459.918	94.31
460.138	109.31
460.358	96.31
460.578	118.31
460.798	129.31
461.018	121.31
461.238	111.31
461.458	117.31
461.678	128.31
461.898	123.31
462.118	114.31
462.338	104.31
462.558	115.31
462.777	119.31
462.997	118.31
463.217	122.31
463.437	113.31
463.657	113.31
463.876	114.31
464.096	115.31
464.316	139.31
464.536	125.31
464.755	128.31
464.975	119.31
465.195	131.31
465.414	128.31
465.634	113.31
465.854	115.31
466.073	114.31
466.293	108.31
466.512	114.31
466.732	136.31
466.951	99.31
467.171	120.31
467.391	120.31
467.61	112.31
467.829	110.31
468.049	116.31
468.268	120.31
468.488	123.31
468.707	133.31
468.927	120.31
469.146	121.31
469.365	125.31
469.585	130.31
469.804	110.31
470.023	106.31
470.243	126.31
470.462	136.31
470.681	121.31
470.901	128.31
471.12	136.31
471.339	141.31
471.558	134.31
471.777	127.31
471.997	122.31
472.216	109.31
472.435	109.31
472.654	114.31
472.873	112.31
473.092	129.31
473.311	119.31
473.53	107.31
473.749	110.31
473.968	116.31
474.187	120.31
474.406	113.31
474.625	101.31
474.844	114.31
475.063	116.31
475.282	117.31
475.501	118.31
475.72	108.31
475.939	112.31
476.158	121.31
476.377	118.31
476.596	120.31
476.814	107.31
477.033	112.31
477.252	122.31
477.471	122.31
477.69	130.31
477.908	109.31
478.127	116.31
478.346	118.31
478.564	117.31
478.783	117.31
479.002	130.31
479.22	128.31
479.439	116.31
479.658	114.31
479.876	121.31
480.095	124.31
480.313	122.31
480.532	121.31
480.751	121.31
480.969	118.31
481.188	111.31
481.406	114.31
481.624	106.31
481.843	101.31
482.061	116.31
482.28	122.31
482.498	105.31
482.717	122.31
482.935	118.31
483.153	107.31
483.372	134.31
483.59	132.31
483.808	123.31
484.027	119.31
484.245	128.31
484.463	121.31
484.681	143.31
484.9	128.31
485.118	112.31
485.336	109.31
485.554	115.31
485.772	120.31
485.99	125.31
486.209	132.31
486.427	113.31
486.645	131.31
486.863	130.31
487.081	122.31
487.299	116.31
487.517	115.31
487.735	132.31
487.953	142.31
488.171	146.31
488.389	123.31
488.607	121.31
488.825	137.31
489.043	118.31
489.261	128.31
489.479	125.31
489.696	126.31
489.914	127.31
490.132	135.31
490.35	147.31
490.568	140.31
490.786	128.31
491.003	136.31
491.221	141.31
491.439	155.31
491.657	142.31
491.874	167.31
492.092	160.31
492.31	157.31
492.527	169.31
492.745	158.31
492.963	149.31
493.18	163.31
493.398	149.31
493.615	147.31
493.833	146.31
494.05	147.31
494.268	133.31
494.485	158.31
494.703	145.31
494.92	150.31
495.138	153.31
495.355	146.31
495.573	147.31
495.79	147.31
496.008	157.31
496.225	137.31
496.442	150.31
496.66	141.31
496.877	146.31
497.094	153.31
497.312	143.31
497.529	148.31
497.746	149.31
497.963	143.31
498.181	139.31
498.398	140.31
498.615	144.31
498.832	128.31
499.049	164.31
499.267	160.31
499.484	150.31
499.701	182.31
499.918	181.31
500.135	193.31
500.352	203.31
500.569	219.31
500.786	221.31
501.003	206.31
501.22	196.31
501.437	169.31
501.654	184.31
501.871	154.31
502.088	148.31
502.305	178.31
502.522	146.31
502.739	134.31
502.956	160.31
503.172	121.31
503.389	140.31
503.606	138.31
503.823	133.31
504.04	146.31
504.256	138.31
504.473	139.31
504.69	142.31
504.907	125.31
505.123	141.31
505.34	118.31
505.557	127.31
505.773	119.31
505.99	132.31
506.207	126.31
506.423	126.31
506.64	133.31
506.856	130.31
507.073	118.31
507.289	127.31
507.506	132.31
507.722	135.31
507.939	121.31
508.155	118.31
508.372	114.31
508.588	117.31
508.805	127.31
509.021	116.31
509.238	120.31
509.454	122.31
509.67	117.31
509.887	108.31
510.103	116.31
510.319	113.31
510.536	110.31
510.752	103.31
510.968	94.31
511.184	116.31
511.401	114.31
