Data from StandardFe(NO3)3.TAE.3%Agarose.FlatLispGreen.Lamp.Energy10.07252019_HRD10591_11-53-20-439.txt Node
Date: Thu Jul 25 11:53:20 EDT 2019
User: cochatt
Spectrometer: HR+D1059
Trigger mode: 1
Integration Time (sec): 1.000000E-1
Scans to average: 1
Electric dark correction enabled: true
Nonlinearity correction enabled: false
Boxcar width: 0
XAxis mode: Wavelengths
Number of Pixels in Spectrum: 2048
>>>>>Begin Spectral Data<<<<<
223.165	-10.75
223.4	-10.75
223.635	-10.75
223.869	-14.75
224.104	-13.75
224.338	-19.75
224.573	-10.75
224.808	-8.75
225.042	-6.75
225.277	-2.75
225.511	-7.75
225.746	13.25
225.98	5.25
226.215	-2.75
226.449	11.25
226.683	-0.75
226.918	25.25
227.152	44.25
227.387	39.25
227.621	40.25
227.856	39.25
228.09	44.25
228.324	37.25
228.559	62.25
228.793	72.25
229.027	43.25
229.262	60.25
229.496	57.25
229.73	61.25
229.964	65.25
230.199	71.25
230.433	74.25
230.667	61.25
230.901	79.25
231.136	81.25
231.37	75.25
231.604	89.25
231.838	70.25
232.072	81.25
232.306	77.25
232.541	88.25
232.775	99.25
233.009	84.25
233.243	68.25
233.477	87.25
233.711	92.25
233.945	91.25
234.179	89.25
234.413	101.25
234.647	83.25
234.881	87.25
235.115	77.25
235.349	79.25
235.583	69.25
235.817	67.25
236.051	71.25
236.285	75.25
236.519	71.25
236.753	92.25
236.987	67.25
237.221	81.25
237.455	80.25
237.689	77.25
237.922	71.25
238.156	70.25
238.39	87.25
238.624	68.25
238.858	87.25
239.091	71.25
239.325	80.25
239.559	73.25
239.793	74.25
240.027	85.25
240.26	81.25
240.494	75.25
240.728	68.25
240.961	77.25
241.195	77.25
241.429	92.25
241.662	90.25
241.896	82.25
242.13	84.25
242.363	76.25
242.597	77.25
242.83	74.25
243.064	66.25
243.298	91.25
243.531	76.25
243.765	83.25
243.998	74.25
244.232	83.25
244.465	75.25
244.699	83.25
244.932	65.25
245.166	74.25
245.399	75.25
245.633	83.25
245.866	85.25
246.099	86.25
246.333	78.25
246.566	74.25
246.8	64.25
247.033	71.25
247.266	76.25
247.5	92.25
247.733	81.25
247.966	72.25
248.2	86.25
248.433	71.25
248.666	65.25
248.899	84.25
249.133	78.25
249.366	80.25
249.599	74.25
249.832	91.25
250.066	80.25
250.299	73.25
250.532	72.25
250.765	86.25
250.998	80.25
251.231	67.25
251.465	80.25
251.698	81.25
251.931	85.25
252.164	79.25
252.397	93.25
252.63	69.25
252.863	81.25
253.096	88.25
253.329	88.25
253.562	72.25
253.795	90.25
254.028	82.25
254.261	84.25
254.494	73.25
254.727	75.25
254.96	76.25
255.193	77.25
255.426	81.25
255.659	71.25
255.892	74.25
256.124	74.25
256.357	52.25
256.59	85.25
256.823	88.25
257.056	82.25
257.289	81.25
257.521	78.25
257.754	71.25
257.987	82.25
258.22	83.25
258.452	92.25
258.685	82.25
258.918	87.25
259.151	61.25
259.383	84.25
259.616	86.25
259.849	74.25
260.081	93.25
260.314	77.25
260.547	69.25
260.779	73.25
261.012	86.25
261.244	68.25
261.477	78.25
261.71	90.25
261.942	82.25
262.175	73.25
262.407	97.25
262.64	63.25
262.872	95.25
263.105	88.25
263.337	94.25
263.57	87.25
263.802	79.25
264.035	65.25
264.267	92.25
264.499	87.25
264.732	89.25
264.964	76.25
265.197	84.25
265.429	84.25
265.661	66.25
265.894	81.25
266.126	98.25
266.358	93.25
266.591	64.25
266.823	84.25
267.055	83.25
267.287	79.25
267.52	70.25
267.752	73.25
267.984	83.25
268.216	88.25
268.448	88.25
268.681	92.25
268.913	81.25
269.145	77.25
269.377	75.25
269.609	91.25
269.841	93.25
270.073	80.25
270.306	84.25
270.538	87.25
270.77	100.25
271.002	88.25
271.234	71.25
271.466	76.25
271.698	94.25
271.93	95.25
272.162	87.25
272.394	83.25
272.626	85.25
272.858	82.25
273.09	88.25
273.322	88.25
273.553	81.25
273.785	87.25
274.017	97.25
274.249	79.25
274.481	83.25
274.713	71.25
274.945	85.25
275.176	91.25
275.408	72.25
275.64	83.25
275.872	95.25
276.104	78.25
276.335	78.25
276.567	95.25
276.799	87.25
277.031	85.25
277.262	84.25
277.494	81.25
277.726	94.25
277.957	79.25
278.189	84.25
278.421	88.25
278.652	99.25
278.884	78.25
279.115	84.25
279.347	85.25
279.579	84.25
279.81	71.25
280.042	85.25
280.273	77.25
280.505	82.25
280.736	83.25
280.968	85.25
281.199	92.25
281.431	78.25
281.662	96.25
281.894	88.25
282.125	80.25
282.356	75.25
282.588	86.25
282.819	81.25
283.051	94.25
283.282	77.25
283.513	76.25
283.745	90.25
283.976	77.25
284.207	84.25
284.439	81.25
284.67	94.25
284.901	91.25
285.132	82.25
285.364	84.25
285.595	78.25
285.826	81.25
286.057	90.25
286.288	85.25
286.52	73.25
286.751	93.25
286.982	89.25
287.213	80.25
287.444	72.25
287.675	90.25
287.906	93.25
288.138	85.25
288.369	84.25
288.6	92.25
288.831	86.25
289.062	93.25
289.293	91.25
289.524	88.25
289.755	101.25
289.986	80.25
290.217	83.25
290.448	82.25
290.679	83.25
290.91	84.25
291.141	76.25
291.371	88.25
291.602	91.25
291.833	82.25
292.064	90.25
292.295	68.25
292.526	87.25
292.757	83.25
292.987	83.25
293.218	80.25
293.449	89.25
293.68	84.25
293.91	85.25
294.141	85.25
294.372	66.25
294.603	91.25
294.833	77.25
295.064	82.25
295.295	82.25
295.525	74.25
295.756	66.25
295.987	76.25
296.217	87.25
296.448	91.25
296.679	89.25
296.909	88.25
297.14	90.25
297.37	78.25
297.601	90.25
297.831	81.25
298.062	70.25
298.292	75.25
298.523	83.25
298.753	82.25
298.984	86.25
299.214	82.25
299.445	99.25
299.675	99.25
299.905	82.25
300.136	82.25
300.366	97.25
300.597	95.25
300.827	88.25
301.057	89.25
301.288	74.25
301.518	65.25
301.748	81.25
301.979	86.25
302.209	93.25
302.439	84.25
302.669	91.25
302.9	79.25
303.13	64.25
303.36	73.25
303.59	77.25
303.82	85.25
304.051	98.25
304.281	71.25
304.511	84.25
304.741	72.25
304.971	92.25
305.201	85.25
305.431	82.25
305.661	89.25
305.891	91.25
306.121	101.25
306.352	82.25
306.582	89.25
306.812	91.25
307.042	97.25
307.272	94.25
307.502	77.25
307.731	87.25
307.961	82.25
308.191	73.25
308.421	80.25
308.651	72.25
308.881	80.25
309.111	84.25
309.341	84.25
309.571	76.25
309.8	96.25
310.03	87.25
310.26	77.25
310.49	82.25
310.72	83.25
310.949	80.25
311.179	99.25
311.409	106.25
311.639	99.25
311.868	89.25
312.098	80.25
312.328	75.25
312.557	97.25
312.787	99.25
313.017	86.25
313.246	81.25
313.476	81.25
313.706	67.25
313.935	72.25
314.165	80.25
314.394	90.25
314.624	85.25
314.853	102.25
315.083	79.25
315.312	86.25
315.542	89.25
315.771	90.25
316.001	91.25
316.23	86.25
316.46	87.25
316.689	87.25
316.919	80.25
317.148	87.25
317.377	89.25
317.607	87.25
317.836	72.25
318.065	80.25
318.295	82.25
318.524	86.25
318.753	69.25
318.983	79.25
319.212	87.25
319.441	73.25
319.67	87.25
319.9	81.25
320.129	91.25
320.358	87.25
320.587	88.25
320.816	82.25
321.046	94.25
321.275	92.25
321.504	95.25
321.733	92.25
321.962	94.25
322.191	82.25
322.42	76.25
322.649	71.25
322.878	82.25
323.108	97.25
323.337	97.25
323.566	84.25
323.795	100.25
324.024	88.25
324.253	78.25
324.482	99.25
324.71	94.25
324.939	89.25
325.168	86.25
325.397	83.25
325.626	91.25
325.855	82.25
326.084	81.25
326.313	96.25
326.542	75.25
326.77	86.25
326.999	90.25
327.228	99.25
327.457	81.25
327.686	77.25
327.914	99.25
328.143	88.25
328.372	80.25
328.6	97.25
328.829	96.25
329.058	75.25
329.287	99.25
329.515	88.25
329.744	90.25
329.972	92.25
330.201	80.25
330.43	74.25
330.658	76.25
330.887	77.25
331.115	80.25
331.344	88.25
331.572	83.25
331.801	80.25
332.03	84.25
332.258	94.25
332.486	95.25
332.715	89.25
332.943	98.25
333.172	69.25
333.4	89.25
333.629	79.25
333.857	91.25
334.085	91.25
334.314	76.25
334.542	75.25
334.771	83.25
334.999	75.25
335.227	89.25
335.455	95.25
335.684	96.25
335.912	90.25
336.14	79.25
336.369	77.25
336.597	81.25
336.825	89.25
337.053	84.25
337.281	85.25
337.51	79.25
337.738	81.25
337.966	85.25
338.194	85.25
338.422	80.25
338.65	91.25
338.878	79.25
339.106	98.25
339.334	81.25
339.562	84.25
339.79	80.25
340.018	82.25
340.246	84.25
340.474	80.25
340.702	74.25
340.93	72.25
341.158	83.25
341.386	76.25
341.614	80.25
341.842	75.25
342.07	82.25
342.298	85.25
342.526	85.25
342.754	87.25
342.981	102.25
343.209	88.25
343.437	89.25
343.665	82.25
343.893	93.25
344.12	86.25
344.348	83.25
344.576	97.25
344.804	93.25
345.031	90.25
345.259	90.25
345.487	83.25
345.714	77.25
345.942	83.25
346.17	85.25
346.397	89.25
346.625	71.25
346.853	90.25
347.08	96.25
347.308	77.25
347.535	75.25
347.763	92.25
347.99	88.25
348.218	80.25
348.445	87.25
348.673	75.25
348.9	83.25
349.128	88.25
349.355	84.25
349.583	80.25
349.81	68.25
350.037	85.25
350.265	87.25
350.492	72.25
350.72	81.25
350.947	76.25
351.174	83.25
351.402	83.25
351.629	99.25
351.856	87.25
352.083	90.25
352.311	93.25
352.538	88.25
352.765	95.25
352.992	91.25
353.22	84.25
353.447	85.25
353.674	84.25
353.901	84.25
354.128	93.25
354.355	90.25
354.583	91.25
354.81	80.25
355.037	98.25
355.264	86.25
355.491	82.25
355.718	78.25
355.945	85.25
356.172	96.25
356.399	91.25
356.626	83.25
356.853	85.25
357.08	89.25
357.307	82.25
357.534	81.25
357.761	92.25
357.988	105.25
358.215	97.25
358.441	82.25
358.668	81.25
358.895	90.25
359.122	80.25
359.349	80.25
359.576	94.25
359.802	84.25
360.029	85.25
360.256	98.25
360.483	96.25
360.709	65.25
360.936	109.25
361.163	68.25
361.39	82.25
361.616	82.25
361.843	85.25
362.07	89.25
362.296	76.25
362.523	84.25
362.749	82.25
362.976	80.25
363.203	87.25
363.429	90.25
363.656	83.25
363.882	83.25
364.109	81.25
364.335	75.25
364.562	88.25
364.788	81.25
365.015	88.25
365.241	85.25
365.468	81.25
365.694	93.25
365.92	80.25
366.147	100.25
366.373	100.25
366.599	88.25
366.826	80.25
367.052	86.25
367.278	86.25
367.505	90.25
367.731	92.25
367.957	89.25
368.184	87.25
368.41	80.25
368.636	96.25
368.862	85.25
369.089	88.25
369.315	81.25
369.541	95.25
369.767	87.25
369.993	99.25
370.219	88.25
370.445	94.25
370.672	96.25
370.898	100.25
371.124	76.25
371.35	78.25
371.576	88.25
371.802	86.25
372.028	83.25
372.254	95.25
372.48	77.25
372.706	102.25
372.932	74.25
373.158	86.25
373.384	86.25
373.61	83.25
373.835	94.25
374.061	88.25
374.287	93.25
374.513	86.25
374.739	92.25
374.965	85.25
375.191	91.25
375.416	85.25
375.642	89.25
375.868	94.25
376.094	95.25
376.319	92.25
376.545	84.25
376.771	89.25
376.997	92.25
377.222	80.25
377.448	87.25
377.674	95.25
377.899	92.25
378.125	91.25
378.35	92.25
378.576	85.25
378.802	86.25
379.027	89.25
379.253	90.25
379.478	90.25
379.704	84.25
379.929	83.25
380.155	90.25
380.38	97.25
380.606	97.25
380.831	94.25
381.057	100.25
381.282	96.25
381.507	88.25
381.733	81.25
381.958	96.25
382.184	92.25
382.409	99.25
382.634	87.25
382.86	78.25
383.085	89.25
383.31	87.25
383.535	108.25
383.761	109.25
383.986	86.25
384.211	84.25
384.436	94.25
384.662	96.25
384.887	96.25
385.112	91.25
385.337	99.25
385.562	102.25
385.787	93.25
386.013	106.25
386.238	107.25
386.463	101.25
386.688	85.25
386.913	86.25
387.138	92.25
387.363	99.25
387.588	103.25
387.813	99.25
388.038	100.25
388.263	98.25
388.488	96.25
388.713	102.25
388.938	100.25
389.163	94.25
389.387	92.25
389.612	98.25
389.837	97.25
390.062	100.25
390.287	87.25
390.512	101.25
390.736	96.25
390.961	106.25
391.186	98.25
391.411	100.25
391.636	98.25
391.86	113.25
392.085	102.25
392.31	98.25
392.534	95.25
392.759	85.25
392.984	92.25
393.208	97.25
393.433	88.25
393.658	97.25
393.882	96.25
394.107	80.25
394.331	90.25
394.556	100.25
394.78	88.25
395.005	92.25
395.229	93.25
395.454	96.25
395.678	108.25
395.903	107.25
396.127	94.25
396.352	95.25
396.576	98.25
396.801	107.25
397.025	107.25
397.249	104.25
397.474	125.25
397.698	113.25
397.922	89.25
398.147	103.25
398.371	94.25
398.595	109.25
398.82	117.25
399.044	121.25
399.268	122.25
399.492	123.25
399.717	115.25
399.941	106.25
400.165	102.25
400.389	107.25
400.613	104.25
400.837	104.25
401.062	119.25
401.286	112.25
401.51	117.25
401.734	108.25
401.958	105.25
402.182	113.25
402.406	106.25
402.63	113.25
402.854	97.25
403.078	117.25
403.302	107.25
403.526	119.25
403.75	123.25
403.974	115.25
404.198	119.25
404.422	103.25
404.645	112.25
404.869	104.25
405.093	102.25
405.317	109.25
405.541	109.25
405.765	111.25
405.988	115.25
406.212	118.25
406.436	112.25
406.66	115.25
406.883	99.25
407.107	119.25
407.331	112.25
407.555	117.25
407.778	107.25
408.002	121.25
408.226	123.25
408.449	101.25
408.673	117.25
408.896	111.25
409.12	103.25
409.344	127.25
409.567	125.25
409.791	108.25
410.014	123.25
410.238	115.25
410.461	116.25
410.685	109.25
410.908	114.25
411.132	101.25
411.355	117.25
411.578	119.25
411.802	122.25
412.025	106.25
412.249	105.25
412.472	113.25
412.695	105.25
412.919	113.25
413.142	118.25
413.365	101.25
413.589	113.25
413.812	119.25
414.035	121.25
414.258	106.25
414.482	104.25
414.705	120.25
414.928	115.25
415.151	116.25
415.374	126.25
415.597	118.25
415.821	131.25
416.044	121.25
416.267	107.25
416.49	99.25
416.713	121.25
416.936	119.25
417.159	118.25
417.382	108.25
417.605	108.25
417.828	101.25
418.051	118.25
418.274	121.25
418.497	141.25
418.72	116.25
418.943	125.25
419.166	128.25
419.389	133.25
419.611	135.25
419.834	119.25
420.057	120.25
420.28	115.25
420.503	129.25
420.726	119.25
420.948	110.25
421.171	125.25
421.394	125.25
421.617	116.25
421.839	117.25
422.062	105.25
422.285	115.25
422.507	99.25
422.73	107.25
422.953	111.25
423.175	125.25
423.398	122.25
423.621	122.25
423.843	119.25
424.066	117.25
424.288	122.25
424.511	118.25
424.733	110.25
424.956	118.25
425.178	107.25
425.401	122.25
425.623	124.25
425.846	125.25
426.068	114.25
426.291	113.25
426.513	117.25
426.735	126.25
426.958	128.25
427.18	105.25
427.402	125.25
427.625	118.25
427.847	108.25
428.069	93.25
428.292	104.25
428.514	103.25
428.736	102.25
428.958	110.25
429.181	117.25
429.403	120.25
429.625	115.25
429.847	116.25
430.069	110.25
430.292	122.25
430.514	114.25
430.736	129.25
430.958	112.25
431.18	123.25
431.402	118.25
431.624	117.25
431.846	106.25
432.068	112.25
432.29	129.25
432.512	101.25
432.734	115.25
432.956	121.25
433.178	113.25
433.4	122.25
433.622	121.25
433.844	105.25
434.066	107.25
434.287	117.25
434.509	99.25
434.731	114.25
434.953	111.25
435.175	131.25
435.397	130.25
435.618	131.25
435.84	113.25
436.062	113.25
436.284	116.25
436.505	138.25
436.727	113.25
436.949	112.25
437.17	122.25
437.392	111.25
437.614	100.25
437.835	111.25
438.057	105.25
438.278	104.25
438.5	102.25
438.721	115.25
438.943	114.25
439.165	117.25
439.386	111.25
439.608	113.25
439.829	118.25
440.05	125.25
440.272	119.25
440.493	126.25
440.715	127.25
440.936	120.25
441.158	137.25
441.379	136.25
441.6	129.25
441.822	129.25
442.043	117.25
442.264	114.25
442.486	118.25
442.707	114.25
442.928	120.25
443.149	120.25
443.371	123.25
443.592	127.25
443.813	117.25
444.034	117.25
444.255	124.25
444.476	121.25
444.698	134.25
444.919	135.25
445.14	253.25
445.361	182.25
445.582	129.25
445.803	137.25
446.024	123.25
446.245	128.25
446.466	139.25
446.687	145.25
446.908	133.25
447.129	130.25
447.35	123.25
447.571	122.25
447.792	137.25
448.013	123.25
448.234	120.25
448.455	120.25
448.675	117.25
448.896	106.25
449.117	121.25
449.338	104.25
449.559	115.25
449.779	118.25
450	119.25
450.221	113.25
450.442	113.25
450.662	118.25
450.883	119.25
451.104	113.25
451.324	124.25
451.545	104.25
451.766	124.25
451.986	119.25
452.207	119.25
452.428	110.25
452.648	113.25
452.869	113.25
453.089	113.25
453.31	112.25
453.53	108.25
453.751	100.25
453.971	112.25
454.192	111.25
454.412	109.25
454.633	108.25
454.853	106.25
455.073	105.25
455.294	102.25
455.514	104.25
455.734	102.25
455.955	113.25
456.175	105.25
456.395	103.25
456.616	102.25
456.836	95.25
457.056	107.25
457.276	107.25
457.497	96.25
457.717	102.25
457.937	115.25
458.157	89.25
458.377	104.25
458.598	122.25
458.818	119.25
459.038	110.25
459.258	105.25
459.478	89.25
459.698	108.25
459.918	114.25
460.138	113.25
460.358	114.25
460.578	127.25
460.798	113.25
461.018	121.25
461.238	130.25
461.458	121.25
461.678	117.25
461.898	131.25
462.118	117.25
462.338	112.25
462.558	116.25
462.777	126.25
462.997	120.25
463.217	121.25
463.437	123.25
463.657	128.25
463.876	117.25
464.096	119.25
464.316	120.25
464.536	123.25
464.755	109.25
464.975	112.25
465.195	120.25
465.414	114.25
465.634	119.25
465.854	116.25
466.073	123.25
466.293	136.25
466.512	127.25
466.732	129.25
466.951	128.25
467.171	119.25
467.391	113.25
467.61	119.25
467.829	111.25
468.049	124.25
468.268	111.25
468.488	119.25
468.707	120.25
468.927	123.25
469.146	130.25
469.365	132.25
469.585	123.25
469.804	134.25
470.023	125.25
470.243	124.25
470.462	121.25
470.681	122.25
470.901	118.25
471.12	113.25
471.339	133.25
471.558	121.25
471.777	113.25
471.997	134.25
472.216	119.25
472.435	116.25
472.654	108.25
472.873	100.25
473.092	116.25
473.311	118.25
473.53	112.25
473.749	118.25
473.968	124.25
474.187	113.25
474.406	111.25
474.625	114.25
474.844	121.25
475.063	113.25
475.282	121.25
475.501	108.25
475.72	127.25
475.939	127.25
476.158	120.25
476.377	117.25
476.596	125.25
476.814	122.25
477.033	114.25
477.252	118.25
477.471	114.25
477.69	118.25
477.908	121.25
478.127	127.25
478.346	118.25
478.564	132.25
478.783	122.25
479.002	131.25
479.22	129.25
479.439	138.25
479.658	129.25
479.876	131.25
480.095	134.25
480.313	136.25
480.532	131.25
480.751	123.25
480.969	115.25
481.188	119.25
481.406	100.25
481.624	127.25
481.843	123.25
482.061	105.25
482.28	121.25
482.498	121.25
482.717	113.25
482.935	116.25
483.153	139.25
483.372	125.25
483.59	125.25
483.808	132.25
484.027	117.25
484.245	128.25
484.463	116.25
484.681	118.25
484.9	135.25
485.118	140.25
485.336	125.25
485.554	123.25
485.772	117.25
485.99	110.25
486.209	121.25
486.427	127.25
486.645	133.25
486.863	130.25
487.081	143.25
487.299	116.25
487.517	129.25
487.735	150.25
487.953	140.25
488.171	153.25
488.389	136.25
488.607	125.25
488.825	127.25
489.043	119.25
489.261	131.25
489.479	135.25
489.696	128.25
489.914	148.25
490.132	141.25
490.35	141.25
490.568	125.25
490.786	150.25
491.003	161.25
491.221	141.25
491.439	163.25
491.657	156.25
491.874	170.25
492.092	173.25
492.31	175.25
492.527	146.25
492.745	157.25
492.963	160.25
493.18	159.25
493.398	155.25
493.615	149.25
493.833	162.25
494.05	142.25
494.268	140.25
494.485	145.25
494.703	152.25
494.92	166.25
495.138	152.25
495.355	146.25
495.573	153.25
495.79	135.25
496.008	151.25
496.225	148.25
496.442	151.25
496.66	151.25
496.877	137.25
497.094	165.25
497.312	155.25
497.529	152.25
497.746	147.25
497.963	140.25
498.181	151.25
498.398	126.25
498.615	141.25
498.832	138.25
499.049	147.25
499.267	147.25
499.484	169.25
499.701	175.25
499.918	187.25
500.135	212.25
500.352	216.25
500.569	214.25
500.786	222.25
501.003	208.25
501.22	207.25
501.437	176.25
501.654	183.25
501.871	180.25
502.088	157.25
502.305	156.25
502.522	151.25
502.739	153.25
502.956	140.25
503.172	124.25
503.389	132.25
503.606	153.25
503.823	142.25
504.04	141.25
504.256	124.25
504.473	142.25
504.69	155.25
504.907	149.25
505.123	134.25
505.34	145.25
505.557	121.25
505.773	127.25
505.99	121.25
506.207	127.25
506.423	131.25
506.64	128.25
506.856	127.25
507.073	117.25
507.289	120.25
507.506	133.25
507.722	118.25
507.939	119.25
508.155	132.25
508.372	137.25
508.588	127.25
508.805	125.25
509.021	111.25
509.238	129.25
509.454	119.25
509.67	111.25
509.887	131.25
510.103	124.25
510.319	120.25
510.536	112.25
510.752	113.25
510.968	123.25
511.184	112.25
511.401	114.25
