Data from StandardFe(NO3)3.TAE.3%Agarose.FlatLispGreen.Lamp.Energy10.07252019_HRD10591_11-54-26-440.txt Node
Date: Thu Jul 25 11:54:26 EDT 2019
User: cochatt
Spectrometer: HR+D1059
Trigger mode: 1
Integration Time (sec): 1.000000E-1
Scans to average: 1
Electric dark correction enabled: true
Nonlinearity correction enabled: false
Boxcar width: 0
XAxis mode: Wavelengths
Number of Pixels in Spectrum: 2048
>>>>>Begin Spectral Data<<<<<
223.165	-20.19
223.4	-20.19
223.635	-20.19
223.869	-16.19
224.104	-21.19
224.338	-16.19
224.573	-5.19
224.808	-17.19
225.042	-2.19
225.277	-2.19
225.511	-9.19
225.746	0.81
225.98	14.81
226.215	21.81
226.449	10.81
226.683	20.81
226.918	13.81
227.152	26.81
227.387	28.81
227.621	37.81
227.856	41.81
228.09	39.81
228.324	45.81
228.559	54.81
228.793	67.81
229.027	79.81
229.262	60.81
229.496	55.81
229.73	70.81
229.964	83.81
230.199	82.81
230.433	55.81
230.667	80.81
230.901	84.81
231.136	57.81
231.37	87.81
231.604	103.81
231.838	83.81
232.072	72.81
232.306	78.81
232.541	80.81
232.775	91.81
233.009	82.81
233.243	77.81
233.477	79.81
233.711	77.81
233.945	81.81
234.179	71.81
234.413	74.81
234.647	80.81
234.881	81.81
235.115	78.81
235.349	86.81
235.583	73.81
235.817	88.81
236.051	67.81
236.285	74.81
236.519	89.81
236.753	83.81
236.987	82.81
237.221	72.81
237.455	82.81
237.689	91.81
237.922	90.81
238.156	78.81
238.39	87.81
238.624	75.81
238.858	76.81
239.091	68.81
239.325	79.81
239.559	77.81
239.793	75.81
240.027	78.81
240.26	79.81
240.494	68.81
240.728	80.81
240.961	70.81
241.195	76.81
241.429	72.81
241.662	78.81
241.896	75.81
242.13	80.81
242.363	71.81
242.597	80.81
242.83	79.81
243.064	73.81
243.298	95.81
243.531	75.81
243.765	80.81
243.998	65.81
244.232	81.81
244.465	68.81
244.699	64.81
244.932	94.81
245.166	78.81
245.399	87.81
245.633	78.81
245.866	72.81
246.099	82.81
246.333	78.81
246.566	79.81
246.8	96.81
247.033	77.81
247.266	87.81
247.5	63.81
247.733	81.81
247.966	68.81
248.2	80.81
248.433	76.81
248.666	74.81
248.899	76.81
249.133	91.81
249.366	88.81
249.599	84.81
249.832	90.81
250.066	85.81
250.299	79.81
250.532	76.81
250.765	76.81
250.998	85.81
251.231	93.81
251.465	99.81
251.698	95.81
251.931	87.81
252.164	86.81
252.397	72.81
252.63	89.81
252.863	73.81
253.096	71.81
253.329	80.81
253.562	75.81
253.795	87.81
254.028	88.81
254.261	78.81
254.494	78.81
254.727	77.81
254.96	77.81
255.193	84.81
255.426	76.81
255.659	75.81
255.892	93.81
256.124	88.81
256.357	87.81
256.59	55.81
256.823	75.81
257.056	91.81
257.289	78.81
257.521	78.81
257.754	75.81
257.987	77.81
258.22	83.81
258.452	91.81
258.685	74.81
258.918	87.81
259.151	90.81
259.383	86.81
259.616	80.81
259.849	89.81
260.081	76.81
260.314	74.81
260.547	89.81
260.779	90.81
261.012	87.81
261.244	79.81
261.477	90.81
261.71	91.81
261.942	88.81
262.175	92.81
262.407	84.81
262.64	79.81
262.872	72.81
263.105	76.81
263.337	98.81
263.57	88.81
263.802	68.81
264.035	99.81
264.267	85.81
264.499	93.81
264.732	80.81
264.964	76.81
265.197	72.81
265.429	87.81
265.661	75.81
265.894	78.81
266.126	84.81
266.358	85.81
266.591	69.81
266.823	83.81
267.055	84.81
267.287	94.81
267.52	94.81
267.752	85.81
267.984	79.81
268.216	90.81
268.448	95.81
268.681	90.81
268.913	89.81
269.145	73.81
269.377	80.81
269.609	78.81
269.841	80.81
270.073	93.81
270.306	97.81
270.538	79.81
270.77	86.81
271.002	88.81
271.234	83.81
271.466	98.81
271.698	82.81
271.93	94.81
272.162	90.81
272.394	90.81
272.626	91.81
272.858	64.81
273.09	82.81
273.322	84.81
273.553	74.81
273.785	88.81
274.017	90.81
274.249	95.81
274.481	92.81
274.713	75.81
274.945	80.81
275.176	75.81
275.408	96.81
275.64	79.81
275.872	107.81
276.104	86.81
276.335	76.81
276.567	100.81
276.799	79.81
277.031	82.81
277.262	86.81
277.494	95.81
277.726	98.81
277.957	80.81
278.189	89.81
278.421	86.81
278.652	79.81
278.884	87.81
279.115	81.81
279.347	91.81
279.579	90.81
279.81	86.81
280.042	59.81
280.273	91.81
280.505	88.81
280.736	76.81
280.968	84.81
281.199	95.81
281.431	80.81
281.662	83.81
281.894	98.81
282.125	86.81
282.356	76.81
282.588	82.81
282.819	79.81
283.051	92.81
283.282	75.81
283.513	79.81
283.745	83.81
283.976	101.81
284.207	88.81
284.439	91.81
284.67	85.81
284.901	76.81
285.132	89.81
285.364	79.81
285.595	93.81
285.826	86.81
286.057	78.81
286.288	82.81
286.52	102.81
286.751	86.81
286.982	88.81
287.213	85.81
287.444	90.81
287.675	91.81
287.906	90.81
288.138	77.81
288.369	88.81
288.6	96.81
288.831	86.81
289.062	77.81
289.293	73.81
289.524	81.81
289.755	86.81
289.986	85.81
290.217	89.81
290.448	80.81
290.679	94.81
290.91	90.81
291.141	79.81
291.371	79.81
291.602	84.81
291.833	92.81
292.064	84.81
292.295	88.81
292.526	82.81
292.757	85.81
292.987	86.81
293.218	74.81
293.449	82.81
293.68	92.81
293.91	87.81
294.141	87.81
294.372	85.81
294.603	88.81
294.833	89.81
295.064	92.81
295.295	93.81
295.525	86.81
295.756	95.81
295.987	86.81
296.217	90.81
296.448	99.81
296.679	89.81
296.909	96.81
297.14	84.81
297.37	96.81
297.601	100.81
297.831	94.81
298.062	85.81
298.292	87.81
298.523	85.81
298.753	79.81
298.984	82.81
299.214	85.81
299.445	90.81
299.675	87.81
299.905	77.81
300.136	89.81
300.366	102.81
300.597	91.81
300.827	76.81
301.057	90.81
301.288	80.81
301.518	76.81
301.748	89.81
301.979	90.81
302.209	94.81
302.439	90.81
302.669	87.81
302.9	98.81
303.13	86.81
303.36	95.81
303.59	84.81
303.82	94.81
304.051	79.81
304.281	95.81
304.511	84.81
304.741	91.81
304.971	89.81
305.201	88.81
305.431	86.81
305.661	78.81
305.891	94.81
306.121	81.81
306.352	80.81
306.582	100.81
306.812	90.81
307.042	96.81
307.272	93.81
307.502	96.81
307.731	94.81
307.961	77.81
308.191	93.81
308.421	88.81
308.651	88.81
308.881	91.81
309.111	81.81
309.341	91.81
309.571	96.81
309.8	81.81
310.03	81.81
310.26	75.81
310.49	93.81
310.72	81.81
310.949	79.81
311.179	66.81
311.409	81.81
311.639	84.81
311.868	85.81
312.098	82.81
312.328	77.81
312.557	87.81
312.787	104.81
313.017	100.81
313.246	79.81
313.476	79.81
313.706	79.81
313.935	79.81
314.165	81.81
314.394	85.81
314.624	83.81
314.853	93.81
315.083	77.81
315.312	80.81
315.542	88.81
315.771	76.81
316.001	98.81
316.23	101.81
316.46	91.81
316.689	82.81
316.919	83.81
317.148	91.81
317.377	87.81
317.607	74.81
317.836	92.81
318.065	88.81
318.295	72.81
318.524	99.81
318.753	88.81
318.983	83.81
319.212	93.81
319.441	86.81
319.67	61.81
319.9	90.81
320.129	82.81
320.358	87.81
320.587	86.81
320.816	85.81
321.046	78.81
321.275	98.81
321.504	83.81
321.733	73.81
321.962	87.81
322.191	88.81
322.42	78.81
322.649	98.81
322.878	82.81
323.108	86.81
323.337	89.81
323.566	96.81
323.795	87.81
324.024	102.81
324.253	96.81
324.482	87.81
324.71	95.81
324.939	99.81
325.168	75.81
325.397	96.81
325.626	90.81
325.855	81.81
326.084	88.81
326.313	89.81
326.542	90.81
326.77	75.81
326.999	87.81
327.228	90.81
327.457	86.81
327.686	93.81
327.914	95.81
328.143	85.81
328.372	76.81
328.6	91.81
328.829	88.81
329.058	89.81
329.287	85.81
329.515	92.81
329.744	94.81
329.972	88.81
330.201	83.81
330.43	87.81
330.658	87.81
330.887	83.81
331.115	90.81
331.344	76.81
331.572	93.81
331.801	96.81
332.03	94.81
332.258	72.81
332.486	86.81
332.715	95.81
332.943	91.81
333.172	87.81
333.4	87.81
333.629	72.81
333.857	90.81
334.085	100.81
334.314	95.81
334.542	103.81
334.771	90.81
334.999	88.81
335.227	94.81
335.455	82.81
335.684	99.81
335.912	82.81
336.14	87.81
336.369	88.81
336.597	93.81
336.825	73.81
337.053	84.81
337.281	83.81
337.51	89.81
337.738	78.81
337.966	83.81
338.194	88.81
338.422	88.81
338.65	88.81
338.878	97.81
339.106	82.81
339.334	88.81
339.562	93.81
339.79	101.81
340.018	89.81
340.246	84.81
340.474	90.81
340.702	85.81
340.93	81.81
341.158	78.81
341.386	101.81
341.614	98.81
341.842	79.81
342.07	97.81
342.298	76.81
342.526	93.81
342.754	91.81
342.981	92.81
343.209	90.81
343.437	105.81
343.665	76.81
343.893	81.81
344.12	90.81
344.348	98.81
344.576	99.81
344.804	98.81
345.031	88.81
345.259	99.81
345.487	92.81
345.714	86.81
345.942	88.81
346.17	93.81
346.397	99.81
346.625	84.81
346.853	92.81
347.08	84.81
347.308	79.81
347.535	87.81
347.763	82.81
347.99	92.81
348.218	85.81
348.445	95.81
348.673	87.81
348.9	83.81
349.128	99.81
349.355	92.81
349.583	83.81
349.81	87.81
350.037	84.81
350.265	92.81
350.492	82.81
350.72	85.81
350.947	90.81
351.174	99.81
351.402	93.81
351.629	106.81
351.856	101.81
352.083	91.81
352.311	89.81
352.538	82.81
352.765	87.81
352.992	99.81
353.22	96.81
353.447	86.81
353.674	102.81
353.901	85.81
354.128	91.81
354.355	78.81
354.583	80.81
354.81	79.81
355.037	89.81
355.264	84.81
355.491	85.81
355.718	84.81
355.945	85.81
356.172	87.81
356.399	92.81
356.626	98.81
356.853	86.81
357.08	81.81
357.307	96.81
357.534	90.81
357.761	93.81
357.988	77.81
358.215	88.81
358.441	85.81
358.668	114.81
358.895	79.81
359.122	104.81
359.349	103.81
359.576	99.81
359.802	84.81
360.029	81.81
360.256	91.81
360.483	91.81
360.709	94.81
360.936	112.81
361.163	92.81
361.39	87.81
361.616	86.81
361.843	87.81
362.07	85.81
362.296	92.81
362.523	92.81
362.749	97.81
362.976	81.81
363.203	91.81
363.429	86.81
363.656	106.81
363.882	84.81
364.109	89.81
364.335	90.81
364.562	95.81
364.788	73.81
365.015	78.81
365.241	89.81
365.468	96.81
365.694	93.81
365.92	86.81
366.147	87.81
366.373	99.81
366.599	77.81
366.826	95.81
367.052	78.81
367.278	83.81
367.505	82.81
367.731	92.81
367.957	94.81
368.184	99.81
368.41	84.81
368.636	84.81
368.862	88.81
369.089	102.81
369.315	98.81
369.541	92.81
369.767	82.81
369.993	86.81
370.219	91.81
370.445	86.81
370.672	89.81
370.898	95.81
371.124	105.81
371.35	80.81
371.576	86.81
371.802	97.81
372.028	84.81
372.254	92.81
372.48	92.81
372.706	104.81
372.932	96.81
373.158	106.81
373.384	98.81
373.61	93.81
373.835	93.81
374.061	87.81
374.287	93.81
374.513	94.81
374.739	91.81
374.965	103.81
375.191	96.81
375.416	99.81
375.642	90.81
375.868	88.81
376.094	91.81
376.319	89.81
376.545	83.81
376.771	99.81
376.997	87.81
377.222	79.81
377.448	95.81
377.674	83.81
377.899	78.81
378.125	92.81
378.35	101.81
378.576	109.81
378.802	89.81
379.027	90.81
379.253	90.81
379.478	94.81
379.704	75.81
379.929	85.81
380.155	93.81
380.38	84.81
380.606	90.81
380.831	75.81
381.057	104.81
381.282	93.81
381.507	94.81
381.733	102.81
381.958	102.81
382.184	90.81
382.409	90.81
382.634	88.81
382.86	90.81
383.085	87.81
383.31	100.81
383.535	94.81
383.761	102.81
383.986	95.81
384.211	103.81
384.436	93.81
384.662	106.81
384.887	100.81
385.112	86.81
385.337	106.81
385.562	115.81
385.787	82.81
386.013	106.81
386.238	88.81
386.463	101.81
386.688	105.81
386.913	103.81
387.138	107.81
387.363	98.81
387.588	93.81
387.813	109.81
388.038	105.81
388.263	95.81
388.488	95.81
388.713	104.81
388.938	98.81
389.163	86.81
389.387	88.81
389.612	96.81
389.837	88.81
390.062	89.81
390.287	90.81
390.512	87.81
390.736	103.81
390.961	86.81
391.186	96.81
391.411	96.81
391.636	107.81
391.86	93.81
392.085	104.81
392.31	103.81
392.534	96.81
392.759	116.81
392.984	91.81
393.208	102.81
393.433	109.81
393.658	104.81
393.882	103.81
394.107	99.81
394.331	106.81
394.556	94.81
394.78	126.81
395.005	113.81
395.229	93.81
395.454	107.81
395.678	117.81
395.903	102.81
396.127	107.81
396.352	101.81
396.576	91.81
396.801	94.81
397.025	92.81
397.249	95.81
397.474	103.81
397.698	111.81
397.922	110.81
398.147	107.81
398.371	103.81
398.595	106.81
398.82	124.81
399.044	109.81
399.268	102.81
399.492	114.81
399.717	110.81
399.941	134.81
400.165	118.81
400.389	98.81
400.613	108.81
400.837	109.81
401.062	86.81
401.286	120.81
401.51	101.81
401.734	110.81
401.958	106.81
402.182	96.81
402.406	116.81
402.63	112.81
402.854	120.81
403.078	101.81
403.302	80.81
403.526	121.81
403.75	105.81
403.974	105.81
404.198	98.81
404.422	111.81
404.645	112.81
404.869	101.81
405.093	120.81
405.317	105.81
405.541	114.81
405.765	117.81
405.988	117.81
406.212	105.81
406.436	105.81
406.66	124.81
406.883	98.81
407.107	98.81
407.331	104.81
407.555	102.81
407.778	111.81
408.002	125.81
408.226	109.81
408.449	116.81
408.673	106.81
408.896	111.81
409.12	116.81
409.344	114.81
409.567	112.81
409.791	124.81
410.014	92.81
410.238	116.81
410.461	106.81
410.685	130.81
410.908	119.81
411.132	110.81
411.355	124.81
411.578	111.81
411.802	114.81
412.025	106.81
412.249	107.81
412.472	125.81
412.695	107.81
412.919	101.81
413.142	96.81
413.365	108.81
413.589	122.81
413.812	115.81
414.035	117.81
414.258	111.81
414.482	105.81
414.705	114.81
414.928	99.81
415.151	116.81
415.374	114.81
415.597	116.81
415.821	108.81
416.044	102.81
416.267	101.81
416.49	124.81
416.713	114.81
416.936	118.81
417.159	122.81
417.382	104.81
417.605	106.81
417.828	108.81
418.051	105.81
418.274	115.81
418.497	115.81
418.72	110.81
418.943	119.81
419.166	104.81
419.389	128.81
419.611	109.81
419.834	121.81
420.057	113.81
420.28	125.81
420.503	124.81
420.726	117.81
420.948	114.81
421.171	111.81
421.394	103.81
421.617	118.81
421.839	130.81
422.062	121.81
422.285	123.81
422.507	120.81
422.73	127.81
422.953	111.81
423.175	118.81
423.398	128.81
423.621	130.81
423.843	116.81
424.066	128.81
424.288	116.81
424.511	109.81
424.733	121.81
424.956	123.81
425.178	119.81
425.401	112.81
425.623	111.81
425.846	121.81
426.068	114.81
426.291	112.81
426.513	106.81
426.735	121.81
426.958	108.81
427.18	120.81
427.402	108.81
427.625	118.81
427.847	118.81
428.069	108.81
428.292	111.81
428.514	116.81
428.736	110.81
428.958	132.81
429.181	108.81
429.403	119.81
429.625	111.81
429.847	134.81
430.069	123.81
430.292	126.81
430.514	107.81
430.736	118.81
430.958	114.81
431.18	125.81
431.402	111.81
431.624	107.81
431.846	120.81
432.068	104.81
432.29	126.81
432.512	110.81
432.734	110.81
432.956	118.81
433.178	120.81
433.4	103.81
433.622	106.81
433.844	121.81
434.066	113.81
434.287	109.81
434.509	102.81
434.731	93.81
434.953	106.81
435.175	109.81
435.397	117.81
435.618	100.81
435.84	102.81
436.062	101.81
436.284	99.81
436.505	123.81
436.727	112.81
436.949	119.81
437.17	128.81
437.392	112.81
437.614	121.81
437.835	106.81
438.057	105.81
438.278	108.81
438.5	119.81
438.721	104.81
438.943	122.81
439.165	116.81
439.386	103.81
439.608	146.81
439.829	107.81
440.05	109.81
440.272	122.81
440.493	125.81
440.715	120.81
440.936	119.81
441.158	126.81
441.379	132.81
441.6	127.81
441.822	136.81
442.043	119.81
442.264	123.81
442.486	110.81
442.707	96.81
442.928	134.81
443.149	119.81
443.371	119.81
443.592	125.81
443.813	112.81
444.034	102.81
444.255	115.81
444.476	120.81
444.698	139.81
444.919	132.81
445.14	227.81
445.361	160.81
445.582	116.81
445.803	125.81
446.024	122.81
446.245	124.81
446.466	123.81
446.687	109.81
446.908	112.81
447.129	134.81
447.35	115.81
447.571	120.81
447.792	129.81
448.013	121.81
448.234	111.81
448.455	108.81
448.675	116.81
448.896	118.81
449.117	110.81
449.338	104.81
449.559	107.81
449.779	122.81
450	108.81
450.221	132.81
450.442	123.81
450.662	108.81
450.883	119.81
451.104	117.81
451.324	108.81
451.545	102.81
451.766	128.81
451.986	134.81
452.207	109.81
452.428	106.81
452.648	122.81
452.869	107.81
453.089	119.81
453.31	109.81
453.53	102.81
453.751	103.81
453.971	108.81
454.192	102.81
454.412	112.81
454.633	101.81
454.853	106.81
455.073	107.81
455.294	98.81
455.514	125.81
455.734	118.81
455.955	106.81
456.175	105.81
456.395	97.81
456.616	109.81
456.836	111.81
457.056	120.81
457.276	103.81
457.497	107.81
457.717	115.81
457.937	106.81
458.157	106.81
458.377	105.81
458.598	97.81
458.818	102.81
459.038	118.81
459.258	103.81
459.478	106.81
459.698	99.81
459.918	114.81
460.138	92.81
460.358	123.81
460.578	115.81
460.798	124.81
461.018	107.81
461.238	122.81
461.458	123.81
461.678	124.81
461.898	114.81
462.118	111.81
462.338	111.81
462.558	126.81
462.777	120.81
462.997	134.81
463.217	140.81
463.437	140.81
463.657	117.81
463.876	130.81
464.096	101.81
464.316	116.81
464.536	130.81
464.755	116.81
464.975	122.81
465.195	113.81
465.414	109.81
465.634	110.81
465.854	107.81
466.073	104.81
466.293	109.81
466.512	116.81
466.732	107.81
466.951	96.81
467.171	120.81
467.391	116.81
467.61	108.81
467.829	122.81
468.049	113.81
468.268	125.81
468.488	118.81
468.707	125.81
468.927	140.81
469.146	111.81
469.365	120.81
469.585	128.81
469.804	129.81
470.023	124.81
470.243	123.81
470.462	150.81
470.681	131.81
470.901	123.81
471.12	128.81
471.339	120.81
471.558	117.81
471.777	111.81
471.997	119.81
472.216	135.81
472.435	117.81
472.654	121.81
472.873	102.81
473.092	117.81
473.311	118.81
473.53	116.81
473.749	106.81
473.968	136.81
474.187	111.81
474.406	101.81
474.625	106.81
474.844	112.81
475.063	119.81
475.282	108.81
475.501	124.81
475.72	117.81
475.939	123.81
476.158	109.81
476.377	109.81
476.596	108.81
476.814	114.81
477.033	127.81
477.252	116.81
477.471	117.81
477.69	110.81
477.908	125.81
478.127	135.81
478.346	130.81
478.564	127.81
478.783	127.81
479.002	131.81
479.22	132.81
479.439	115.81
479.658	111.81
479.876	126.81
480.095	124.81
480.313	142.81
480.532	118.81
480.751	124.81
480.969	119.81
481.188	120.81
481.406	95.81
481.624	92.81
481.843	107.81
482.061	121.81
482.28	109.81
482.498	121.81
482.717	121.81
482.935	122.81
483.153	127.81
483.372	126.81
483.59	126.81
483.808	135.81
484.027	122.81
484.245	118.81
484.463	121.81
484.681	124.81
484.9	120.81
485.118	133.81
485.336	109.81
485.554	100.81
485.772	104.81
485.99	130.81
486.209	124.81
486.427	132.81
486.645	126.81
486.863	124.81
487.081	122.81
487.299	114.81
487.517	124.81
487.735	130.81
487.953	137.81
488.171	139.81
488.389	133.81
488.607	134.81
488.825	121.81
489.043	134.81
489.261	122.81
489.479	132.81
489.696	140.81
489.914	128.81
490.132	143.81
490.35	151.81
490.568	140.81
490.786	134.81
491.003	153.81
491.221	148.81
491.439	153.81
491.657	150.81
491.874	138.81
492.092	164.81
492.31	167.81
492.527	153.81
492.745	150.81
492.963	146.81
493.18	144.81
493.398	141.81
493.615	158.81
493.833	150.81
494.05	150.81
494.268	157.81
494.485	152.81
494.703	155.81
494.92	155.81
495.138	161.81
495.355	151.81
495.573	136.81
495.79	163.81
496.008	156.81
496.225	141.81
496.442	153.81
496.66	153.81
496.877	134.81
497.094	152.81
497.312	130.81
497.529	152.81
497.746	142.81
497.963	142.81
498.181	131.81
498.398	140.81
498.615	138.81
498.832	151.81
499.049	156.81
499.267	160.81
499.484	166.81
499.701	170.81
499.918	179.81
500.135	197.81
500.352	207.81
500.569	218.81
500.786	219.81
501.003	209.81
501.22	186.81
501.437	179.81
501.654	171.81
501.871	167.81
502.088	138.81
502.305	157.81
502.522	139.81
502.739	147.81
502.956	154.81
503.172	150.81
503.389	137.81
503.606	122.81
503.823	119.81
504.04	145.81
504.256	142.81
504.473	124.81
504.69	141.81
504.907	135.81
505.123	119.81
505.34	134.81
505.557	144.81
505.773	134.81
505.99	126.81
506.207	125.81
506.423	106.81
506.64	138.81
506.856	112.81
507.073	111.81
507.289	126.81
507.506	136.81
507.722	117.81
507.939	124.81
508.155	143.81
508.372	114.81
508.588	116.81
508.805	126.81
509.021	119.81
509.238	121.81
509.454	120.81
509.67	95.81
509.887	115.81
510.103	120.81
510.319	94.81
510.536	106.81
510.752	107.81
510.968	101.81
511.184	121.81
