Data from StandardFe(NO3)3.TAE.3%Agarose.FlatLispGreen.Lamp.Energy10.07252019_HRD10591_11-56-04-442.txt Node
Date: Thu Jul 25 11:56:04 EDT 2019
User: cochatt
Spectrometer: HR+D1059
Trigger mode: 1
Integration Time (sec): 1.000000E-1
Scans to average: 1
Electric dark correction enabled: true
Nonlinearity correction enabled: false
Boxcar width: 0
XAxis mode: Wavelengths
Number of Pixels in Spectrum: 2048
>>>>>Begin Spectral Data<<<<<
223.165	-15.25
223.4	-15.25
223.635	-15.25
223.869	-23.25
224.104	-28.25
224.338	-10.25
224.573	-13.25
224.808	-12.25
225.042	-11.25
225.277	-10.25
225.511	5.75
225.746	2.75
225.98	6.75
226.215	8.75
226.449	16.75
226.683	22.75
226.918	20.75
227.152	39.75
227.387	36.75
227.621	44.75
227.856	47.75
228.09	46.75
228.324	75.75
228.559	59.75
228.793	76.75
229.027	68.75
229.262	55.75
229.496	78.75
229.73	57.75
229.964	79.75
230.199	63.75
230.433	67.75
230.667	88.75
230.901	76.75
231.136	85.75
231.37	80.75
231.604	87.75
231.838	93.75
232.072	73.75
232.306	88.75
232.541	78.75
232.775	69.75
233.009	78.75
233.243	86.75
233.477	76.75
233.711	84.75
233.945	78.75
234.179	80.75
234.413	92.75
234.647	91.75
234.881	87.75
235.115	71.75
235.349	86.75
235.583	70.75
235.817	79.75
236.051	85.75
236.285	65.75
236.519	74.75
236.753	86.75
236.987	80.75
237.221	81.75
237.455	95.75
237.689	78.75
237.922	95.75
238.156	87.75
238.39	67.75
238.624	78.75
238.858	64.75
239.091	86.75
239.325	69.75
239.559	88.75
239.793	78.75
240.027	94.75
240.26	75.75
240.494	84.75
240.728	84.75
240.961	80.75
241.195	78.75
241.429	88.75
241.662	87.75
241.896	94.75
242.13	87.75
242.363	87.75
242.597	86.75
242.83	80.75
243.064	80.75
243.298	78.75
243.531	77.75
243.765	76.75
243.998	86.75
244.232	86.75
244.465	79.75
244.699	78.75
244.932	89.75
245.166	78.75
245.399	90.75
245.633	70.75
245.866	85.75
246.099	87.75
246.333	91.75
246.566	75.75
246.8	83.75
247.033	76.75
247.266	81.75
247.5	71.75
247.733	78.75
247.966	77.75
248.2	71.75
248.433	86.75
248.666	82.75
248.899	74.75
249.133	83.75
249.366	91.75
249.599	81.75
249.832	78.75
250.066	98.75
250.299	101.75
250.532	85.75
250.765	83.75
250.998	73.75
251.231	83.75
251.465	88.75
251.698	80.75
251.931	82.75
252.164	94.75
252.397	83.75
252.63	82.75
252.863	91.75
253.096	74.75
253.329	88.75
253.562	79.75
253.795	86.75
254.028	86.75
254.261	75.75
254.494	80.75
254.727	82.75
254.96	96.75
255.193	84.75
255.426	75.75
255.659	84.75
255.892	95.75
256.124	79.75
256.357	85.75
256.59	102.75
256.823	77.75
257.056	77.75
257.289	77.75
257.521	75.75
257.754	83.75
257.987	71.75
258.22	88.75
258.452	93.75
258.685	94.75
258.918	65.75
259.151	75.75
259.383	84.75
259.616	71.75
259.849	81.75
260.081	84.75
260.314	78.75
260.547	82.75
260.779	71.75
261.012	68.75
261.244	77.75
261.477	93.75
261.71	80.75
261.942	75.75
262.175	86.75
262.407	69.75
262.64	68.75
262.872	76.75
263.105	87.75
263.337	92.75
263.57	88.75
263.802	91.75
264.035	88.75
264.267	83.75
264.499	72.75
264.732	79.75
264.964	86.75
265.197	86.75
265.429	89.75
265.661	83.75
265.894	87.75
266.126	93.75
266.358	86.75
266.591	79.75
266.823	84.75
267.055	74.75
267.287	81.75
267.52	84.75
267.752	79.75
267.984	84.75
268.216	82.75
268.448	92.75
268.681	92.75
268.913	75.75
269.145	93.75
269.377	77.75
269.609	86.75
269.841	85.75
270.073	75.75
270.306	88.75
270.538	78.75
270.77	82.75
271.002	87.75
271.234	73.75
271.466	82.75
271.698	79.75
271.93	89.75
272.162	96.75
272.394	99.75
272.626	99.75
272.858	100.75
273.09	85.75
273.322	77.75
273.553	73.75
273.785	83.75
274.017	82.75
274.249	83.75
274.481	86.75
274.713	94.75
274.945	75.75
275.176	70.75
275.408	84.75
275.64	93.75
275.872	87.75
276.104	80.75
276.335	88.75
276.567	82.75
276.799	82.75
277.031	78.75
277.262	78.75
277.494	87.75
277.726	98.75
277.957	91.75
278.189	84.75
278.421	83.75
278.652	87.75
278.884	98.75
279.115	93.75
279.347	88.75
279.579	95.75
279.81	73.75
280.042	84.75
280.273	78.75
280.505	82.75
280.736	95.75
280.968	103.75
281.199	87.75
281.431	85.75
281.662	80.75
281.894	95.75
282.125	92.75
282.356	98.75
282.588	90.75
282.819	68.75
283.051	85.75
283.282	79.75
283.513	78.75
283.745	92.75
283.976	85.75
284.207	86.75
284.439	91.75
284.67	98.75
284.901	82.75
285.132	88.75
285.364	76.75
285.595	83.75
285.826	85.75
286.057	83.75
286.288	85.75
286.52	79.75
286.751	92.75
286.982	80.75
287.213	75.75
287.444	83.75
287.675	77.75
287.906	84.75
288.138	90.75
288.369	92.75
288.6	96.75
288.831	92.75
289.062	81.75
289.293	81.75
289.524	78.75
289.755	64.75
289.986	89.75
290.217	78.75
290.448	72.75
290.679	92.75
290.91	91.75
291.141	86.75
291.371	89.75
291.602	79.75
291.833	79.75
292.064	99.75
292.295	93.75
292.526	71.75
292.757	83.75
292.987	83.75
293.218	74.75
293.449	81.75
293.68	76.75
293.91	89.75
294.141	84.75
294.372	80.75
294.603	85.75
294.833	76.75
295.064	82.75
295.295	92.75
295.525	94.75
295.756	76.75
295.987	88.75
296.217	79.75
296.448	79.75
296.679	80.75
296.909	75.75
297.14	81.75
297.37	90.75
297.601	85.75
297.831	73.75
298.062	82.75
298.292	88.75
298.523	90.75
298.753	80.75
298.984	86.75
299.214	104.75
299.445	91.75
299.675	99.75
299.905	79.75
300.136	94.75
300.366	78.75
300.597	82.75
300.827	83.75
301.057	98.75
301.288	86.75
301.518	91.75
301.748	71.75
301.979	83.75
302.209	92.75
302.439	85.75
302.669	90.75
302.9	76.75
303.13	90.75
303.36	94.75
303.59	78.75
303.82	80.75
304.051	98.75
304.281	96.75
304.511	87.75
304.741	94.75
304.971	88.75
305.201	91.75
305.431	89.75
305.661	84.75
305.891	106.75
306.121	74.75
306.352	79.75
306.582	77.75
306.812	88.75
307.042	76.75
307.272	92.75
307.502	85.75
307.731	93.75
307.961	87.75
308.191	87.75
308.421	104.75
308.651	92.75
308.881	74.75
309.111	90.75
309.341	93.75
309.571	93.75
309.8	75.75
310.03	92.75
310.26	86.75
310.49	86.75
310.72	79.75
310.949	88.75
311.179	88.75
311.409	84.75
311.639	88.75
311.868	76.75
312.098	82.75
312.328	83.75
312.557	86.75
312.787	93.75
313.017	78.75
313.246	85.75
313.476	91.75
313.706	75.75
313.935	81.75
314.165	87.75
314.394	84.75
314.624	80.75
314.853	78.75
315.083	91.75
315.312	91.75
315.542	94.75
315.771	81.75
316.001	80.75
316.23	78.75
316.46	85.75
316.689	80.75
316.919	78.75
317.148	102.75
317.377	86.75
317.607	80.75
317.836	85.75
318.065	78.75
318.295	79.75
318.524	85.75
318.753	85.75
318.983	69.75
319.212	73.75
319.441	87.75
319.67	83.75
319.9	93.75
320.129	81.75
320.358	89.75
320.587	86.75
320.816	87.75
321.046	91.75
321.275	91.75
321.504	87.75
321.733	88.75
321.962	110.75
322.191	77.75
322.42	89.75
322.649	94.75
322.878	80.75
323.108	74.75
323.337	76.75
323.566	93.75
323.795	89.75
324.024	84.75
324.253	85.75
324.482	101.75
324.71	79.75
324.939	71.75
325.168	87.75
325.397	85.75
325.626	82.75
325.855	77.75
326.084	82.75
326.313	99.75
326.542	76.75
326.77	83.75
326.999	77.75
327.228	85.75
327.457	80.75
327.686	90.75
327.914	102.75
328.143	87.75
328.372	79.75
328.6	79.75
328.829	88.75
329.058	79.75
329.287	83.75
329.515	92.75
329.744	85.75
329.972	84.75
330.201	85.75
330.43	91.75
330.658	78.75
330.887	86.75
331.115	92.75
331.344	84.75
331.572	81.75
331.801	89.75
332.03	90.75
332.258	83.75
332.486	86.75
332.715	84.75
332.943	90.75
333.172	78.75
333.4	98.75
333.629	83.75
333.857	78.75
334.085	72.75
334.314	93.75
334.542	91.75
334.771	75.75
334.999	79.75
335.227	86.75
335.455	87.75
335.684	95.75
335.912	74.75
336.14	78.75
336.369	79.75
336.597	77.75
336.825	86.75
337.053	90.75
337.281	88.75
337.51	82.75
337.738	92.75
337.966	87.75
338.194	83.75
338.422	77.75
338.65	98.75
338.878	72.75
339.106	93.75
339.334	82.75
339.562	88.75
339.79	87.75
340.018	101.75
340.246	88.75
340.474	73.75
340.702	85.75
340.93	94.75
341.158	90.75
341.386	90.75
341.614	93.75
341.842	90.75
342.07	83.75
342.298	78.75
342.526	78.75
342.754	92.75
342.981	86.75
343.209	95.75
343.437	93.75
343.665	93.75
343.893	82.75
344.12	89.75
344.348	86.75
344.576	86.75
344.804	87.75
345.031	77.75
345.259	78.75
345.487	100.75
345.714	78.75
345.942	87.75
346.17	94.75
346.397	95.75
346.625	105.75
346.853	104.75
347.08	100.75
347.308	94.75
347.535	92.75
347.763	87.75
347.99	74.75
348.218	101.75
348.445	84.75
348.673	84.75
348.9	69.75
349.128	84.75
349.355	93.75
349.583	88.75
349.81	81.75
350.037	84.75
350.265	85.75
350.492	95.75
350.72	78.75
350.947	86.75
351.174	78.75
351.402	82.75
351.629	78.75
351.856	97.75
352.083	82.75
352.311	88.75
352.538	88.75
352.765	85.75
352.992	80.75
353.22	91.75
353.447	92.75
353.674	73.75
353.901	85.75
354.128	95.75
354.355	78.75
354.583	89.75
354.81	71.75
355.037	86.75
355.264	95.75
355.491	84.75
355.718	101.75
355.945	91.75
356.172	97.75
356.399	92.75
356.626	94.75
356.853	80.75
357.08	102.75
357.307	87.75
357.534	96.75
357.761	95.75
357.988	89.75
358.215	87.75
358.441	83.75
358.668	96.75
358.895	84.75
359.122	76.75
359.349	75.75
359.576	90.75
359.802	99.75
360.029	98.75
360.256	98.75
360.483	85.75
360.709	90.75
360.936	81.75
361.163	82.75
361.39	88.75
361.616	90.75
361.843	99.75
362.07	103.75
362.296	89.75
362.523	80.75
362.749	73.75
362.976	84.75
363.203	93.75
363.429	95.75
363.656	100.75
363.882	87.75
364.109	76.75
364.335	82.75
364.562	90.75
364.788	84.75
365.015	96.75
365.241	86.75
365.468	100.75
365.694	94.75
365.92	90.75
366.147	92.75
366.373	79.75
366.599	104.75
366.826	81.75
367.052	85.75
367.278	83.75
367.505	93.75
367.731	94.75
367.957	92.75
368.184	88.75
368.41	82.75
368.636	86.75
368.862	98.75
369.089	90.75
369.315	84.75
369.541	96.75
369.767	84.75
369.993	107.75
370.219	97.75
370.445	96.75
370.672	95.75
370.898	96.75
371.124	87.75
371.35	89.75
371.576	83.75
371.802	83.75
372.028	79.75
372.254	99.75
372.48	96.75
372.706	87.75
372.932	89.75
373.158	93.75
373.384	97.75
373.61	84.75
373.835	93.75
374.061	78.75
374.287	76.75
374.513	91.75
374.739	91.75
374.965	87.75
375.191	88.75
375.416	92.75
375.642	92.75
375.868	95.75
376.094	86.75
376.319	89.75
376.545	88.75
376.771	78.75
376.997	81.75
377.222	87.75
377.448	85.75
377.674	93.75
377.899	75.75
378.125	88.75
378.35	79.75
378.576	95.75
378.802	85.75
379.027	91.75
379.253	95.75
379.478	78.75
379.704	105.75
379.929	77.75
380.155	90.75
380.38	88.75
380.606	99.75
380.831	81.75
381.057	98.75
381.282	92.75
381.507	83.75
381.733	90.75
381.958	95.75
382.184	89.75
382.409	87.75
382.634	87.75
382.86	94.75
383.085	94.75
383.31	94.75
383.535	91.75
383.761	99.75
383.986	98.75
384.211	101.75
384.436	81.75
384.662	95.75
384.887	94.75
385.112	90.75
385.337	106.75
385.562	103.75
385.787	99.75
386.013	107.75
386.238	109.75
386.463	98.75
386.688	91.75
386.913	85.75
387.138	104.75
387.363	93.75
387.588	108.75
387.813	99.75
388.038	82.75
388.263	89.75
388.488	90.75
388.713	108.75
388.938	80.75
389.163	99.75
389.387	98.75
389.612	106.75
389.837	100.75
390.062	112.75
390.287	89.75
390.512	97.75
390.736	99.75
390.961	95.75
391.186	107.75
391.411	102.75
391.636	101.75
391.86	90.75
392.085	88.75
392.31	101.75
392.534	94.75
392.759	105.75
392.984	85.75
393.208	92.75
393.433	92.75
393.658	94.75
393.882	104.75
394.107	96.75
394.331	97.75
394.556	107.75
394.78	101.75
395.005	106.75
395.229	107.75
395.454	114.75
395.678	108.75
395.903	92.75
396.127	118.75
396.352	114.75
396.576	89.75
396.801	111.75
397.025	99.75
397.249	107.75
397.474	104.75
397.698	119.75
397.922	110.75
398.147	95.75
398.371	99.75
398.595	110.75
398.82	96.75
399.044	114.75
399.268	106.75
399.492	110.75
399.717	120.75
399.941	109.75
400.165	125.75
400.389	123.75
400.613	105.75
400.837	108.75
401.062	94.75
401.286	115.75
401.51	111.75
401.734	112.75
401.958	116.75
402.182	93.75
402.406	110.75
402.63	101.75
402.854	96.75
403.078	103.75
403.302	109.75
403.526	121.75
403.75	100.75
403.974	103.75
404.198	98.75
404.422	108.75
404.645	107.75
404.869	109.75
405.093	114.75
405.317	118.75
405.541	120.75
405.765	99.75
405.988	109.75
406.212	123.75
406.436	117.75
406.66	110.75
406.883	112.75
407.107	102.75
407.331	114.75
407.555	116.75
407.778	98.75
408.002	119.75
408.226	110.75
408.449	118.75
408.673	118.75
408.896	115.75
409.12	108.75
409.344	116.75
409.567	111.75
409.791	112.75
410.014	111.75
410.238	111.75
410.461	112.75
410.685	109.75
410.908	105.75
411.132	114.75
411.355	104.75
411.578	122.75
411.802	122.75
412.025	112.75
412.249	111.75
412.472	116.75
412.695	122.75
412.919	118.75
413.142	109.75
413.365	110.75
413.589	106.75
413.812	92.75
414.035	115.75
414.258	107.75
414.482	116.75
414.705	107.75
414.928	104.75
415.151	108.75
415.374	115.75
415.597	104.75
415.821	114.75
416.044	100.75
416.267	127.75
416.49	115.75
416.713	110.75
416.936	119.75
417.159	118.75
417.382	121.75
417.605	126.75
417.828	104.75
418.051	110.75
418.274	118.75
418.497	120.75
418.72	102.75
418.943	119.75
419.166	116.75
419.389	122.75
419.611	112.75
419.834	125.75
420.057	111.75
420.28	120.75
420.503	118.75
420.726	115.75
420.948	106.75
421.171	120.75
421.394	130.75
421.617	106.75
421.839	127.75
422.062	124.75
422.285	114.75
422.507	124.75
422.73	110.75
422.953	117.75
423.175	114.75
423.398	112.75
423.621	112.75
423.843	117.75
424.066	109.75
424.288	110.75
424.511	126.75
424.733	127.75
424.956	119.75
425.178	128.75
425.401	118.75
425.623	100.75
425.846	116.75
426.068	125.75
426.291	104.75
426.513	130.75
426.735	114.75
426.958	123.75
427.18	118.75
427.402	107.75
427.625	135.75
427.847	116.75
428.069	121.75
428.292	106.75
428.514	117.75
428.736	124.75
428.958	127.75
429.181	128.75
429.403	108.75
429.625	114.75
429.847	114.75
430.069	104.75
430.292	126.75
430.514	103.75
430.736	107.75
430.958	121.75
431.18	102.75
431.402	106.75
431.624	106.75
431.846	118.75
432.068	104.75
432.29	91.75
432.512	106.75
432.734	112.75
432.956	102.75
433.178	122.75
433.4	109.75
433.622	103.75
433.844	117.75
434.066	119.75
434.287	110.75
434.509	105.75
434.731	93.75
434.953	115.75
435.175	111.75
435.397	117.75
435.618	108.75
435.84	107.75
436.062	100.75
436.284	102.75
436.505	109.75
436.727	119.75
436.949	116.75
437.17	119.75
437.392	122.75
437.614	102.75
437.835	109.75
438.057	98.75
438.278	111.75
438.5	103.75
438.721	103.75
438.943	104.75
439.165	112.75
439.386	116.75
439.608	118.75
439.829	119.75
440.05	131.75
440.272	126.75
440.493	120.75
440.715	126.75
440.936	112.75
441.158	113.75
441.379	119.75
441.6	108.75
441.822	123.75
442.043	138.75
442.264	116.75
442.486	122.75
442.707	121.75
442.928	126.75
443.149	123.75
443.371	101.75
443.592	107.75
443.813	133.75
444.034	116.75
444.255	108.75
444.476	122.75
444.698	120.75
444.919	123.75
445.14	276.75
445.361	186.75
445.582	119.75
445.803	126.75
446.024	105.75
446.245	123.75
446.466	130.75
446.687	120.75
446.908	131.75
447.129	124.75
447.35	114.75
447.571	119.75
447.792	112.75
448.013	108.75
448.234	109.75
448.455	109.75
448.675	117.75
448.896	131.75
449.117	132.75
449.338	104.75
449.559	99.75
449.779	104.75
450	114.75
450.221	109.75
450.442	106.75
450.662	110.75
450.883	118.75
451.104	115.75
451.324	117.75
451.545	112.75
451.766	123.75
451.986	114.75
452.207	104.75
452.428	102.75
452.648	113.75
452.869	102.75
453.089	112.75
453.31	111.75
453.53	105.75
453.751	118.75
453.971	107.75
454.192	103.75
454.412	104.75
454.633	102.75
454.853	96.75
455.073	105.75
455.294	114.75
455.514	105.75
455.734	120.75
455.955	117.75
456.175	110.75
456.395	108.75
456.616	110.75
456.836	102.75
457.056	122.75
457.276	109.75
457.497	96.75
457.717	92.75
457.937	101.75
458.157	105.75
458.377	112.75
458.598	87.75
458.818	114.75
459.038	120.75
459.258	120.75
459.478	126.75
459.698	84.75
459.918	104.75
460.138	100.75
460.358	96.75
460.578	115.75
460.798	114.75
461.018	136.75
461.238	119.75
461.458	113.75
461.678	111.75
461.898	122.75
462.118	114.75
462.338	109.75
462.558	117.75
462.777	135.75
462.997	128.75
463.217	134.75
463.437	134.75
463.657	127.75
463.876	115.75
464.096	123.75
464.316	108.75
464.536	122.75
464.755	130.75
464.975	118.75
465.195	112.75
465.414	128.75
465.634	119.75
465.854	117.75
466.073	104.75
466.293	114.75
466.512	114.75
466.732	134.75
466.951	130.75
467.171	122.75
467.391	114.75
467.61	121.75
467.829	124.75
468.049	112.75
468.268	115.75
468.488	112.75
468.707	136.75
468.927	122.75
469.146	109.75
469.365	132.75
469.585	127.75
469.804	122.75
470.023	120.75
470.243	127.75
470.462	120.75
470.681	130.75
470.901	92.75
471.12	116.75
471.339	115.75
471.558	124.75
471.777	118.75
471.997	124.75
472.216	109.75
472.435	114.75
472.654	96.75
472.873	109.75
473.092	120.75
473.311	114.75
473.53	116.75
473.749	123.75
473.968	114.75
474.187	116.75
474.406	120.75
474.625	125.75
474.844	133.75
475.063	120.75
475.282	106.75
475.501	110.75
475.72	101.75
475.939	128.75
476.158	128.75
476.377	115.75
476.596	116.75
476.814	106.75
477.033	124.75
477.252	114.75
477.471	100.75
477.69	123.75
477.908	122.75
478.127	123.75
478.346	122.75
478.564	124.75
478.783	124.75
479.002	125.75
479.22	130.75
479.439	122.75
479.658	126.75
479.876	117.75
480.095	125.75
480.313	125.75
480.532	124.75
480.751	146.75
480.969	125.75
481.188	118.75
481.406	103.75
481.624	131.75
481.843	125.75
482.061	122.75
482.28	107.75
482.498	127.75
482.717	112.75
482.935	124.75
483.153	126.75
483.372	119.75
483.59	131.75
483.808	149.75
484.027	122.75
484.245	124.75
484.463	119.75
484.681	132.75
484.9	126.75
485.118	139.75
485.336	128.75
485.554	132.75
485.772	128.75
485.99	117.75
486.209	139.75
486.427	126.75
486.645	137.75
486.863	135.75
487.081	131.75
487.299	128.75
487.517	121.75
487.735	150.75
487.953	141.75
488.171	149.75
488.389	145.75
488.607	151.75
488.825	131.75
489.043	129.75
489.261	123.75
489.479	141.75
489.696	126.75
489.914	141.75
490.132	122.75
490.35	143.75
490.568	134.75
490.786	148.75
491.003	142.75
491.221	129.75
491.439	149.75
491.657	164.75
491.874	152.75
492.092	160.75
492.31	168.75
492.527	172.75
492.745	167.75
492.963	166.75
493.18	150.75
493.398	159.75
493.615	164.75
493.833	157.75
494.05	136.75
494.268	150.75
494.485	136.75
494.703	146.75
494.92	141.75
495.138	157.75
495.355	155.75
495.573	154.75
495.79	143.75
496.008	158.75
496.225	149.75
496.442	158.75
496.66	145.75
496.877	150.75
497.094	150.75
497.312	129.75
497.529	150.75
497.746	149.75
497.963	152.75
498.181	138.75
498.398	150.75
498.615	130.75
498.832	138.75
499.049	152.75
499.267	156.75
499.484	157.75
499.701	174.75
499.918	181.75
500.135	199.75
500.352	227.75
500.569	229.75
500.786	230.75
501.003	192.75
501.22	210.75
501.437	180.75
501.654	172.75
501.871	156.75
502.088	163.75
502.305	154.75
502.522	151.75
502.739	139.75
502.956	144.75
503.172	142.75
503.389	143.75
503.606	134.75
503.823	149.75
504.04	126.75
504.256	130.75
504.473	143.75
504.69	137.75
504.907	129.75
505.123	143.75
505.34	124.75
505.557	132.75
505.773	139.75
505.99	125.75
506.207	136.75
506.423	118.75
506.64	130.75
506.856	122.75
507.073	128.75
507.289	126.75
507.506	119.75
507.722	128.75
507.939	130.75
508.155	126.75
508.372	122.75
508.588	126.75
508.805	119.75
509.021	118.75
509.238	118.75
509.454	122.75
509.67	138.75
509.887	124.75
510.103	132.75
510.319	110.75
510.536	122.75
510.752	130.75
510.968	109.75
511.184	110.75
511.401	116.75
