Data from StandardFe(NO3)3.TAE.3%Agarose.FlatLispGreen.Lamp.Energy10.07252019_HRD10591_11-54-11-440.txt Node
Date: Thu Jul 25 11:54:11 EDT 2019
User: cochatt
Spectrometer: HR+D1059
Trigger mode: 1
Integration Time (sec): 1.000000E-1
Scans to average: 1
Electric dark correction enabled: true
Nonlinearity correction enabled: false
Boxcar width: 0
XAxis mode: Wavelengths
Number of Pixels in Spectrum: 2048
>>>>>Begin Spectral Data<<<<<
223.165	-8.81
223.4	-8.81
223.635	-8.81
223.869	-14.81
224.104	-27.81
224.338	-20.81
224.573	2.19
224.808	-1.81
225.042	-1.81
225.277	-3.81
225.511	1.19
225.746	18.19
225.98	-1.81
226.215	8.19
226.449	-0.81
226.683	8.19
226.918	22.19
227.152	22.19
227.387	39.19
227.621	23.19
227.856	35.19
228.09	49.19
228.324	44.19
228.559	55.19
228.793	65.19
229.027	67.19
229.262	56.19
229.496	79.19
229.73	60.19
229.964	62.19
230.199	67.19
230.433	58.19
230.667	63.19
230.901	69.19
231.136	69.19
231.37	73.19
231.604	73.19
231.838	86.19
232.072	72.19
232.306	75.19
232.541	78.19
232.775	89.19
233.009	77.19
233.243	75.19
233.477	90.19
233.711	78.19
233.945	77.19
234.179	76.19
234.413	89.19
234.647	63.19
234.881	81.19
235.115	79.19
235.349	72.19
235.583	72.19
235.817	84.19
236.051	78.19
236.285	73.19
236.519	66.19
236.753	64.19
236.987	91.19
237.221	83.19
237.455	79.19
237.689	76.19
237.922	86.19
238.156	72.19
238.39	79.19
238.624	72.19
238.858	91.19
239.091	82.19
239.325	68.19
239.559	73.19
239.793	80.19
240.027	56.19
240.26	70.19
240.494	52.19
240.728	80.19
240.961	67.19
241.195	72.19
241.429	79.19
241.662	76.19
241.896	77.19
242.13	81.19
242.363	70.19
242.597	66.19
242.83	67.19
243.064	91.19
243.298	72.19
243.531	73.19
243.765	75.19
243.998	67.19
244.232	75.19
244.465	86.19
244.699	80.19
244.932	72.19
245.166	78.19
245.399	70.19
245.633	79.19
245.866	75.19
246.099	65.19
246.333	68.19
246.566	70.19
246.8	83.19
247.033	67.19
247.266	79.19
247.5	67.19
247.733	73.19
247.966	64.19
248.2	74.19
248.433	82.19
248.666	82.19
248.899	72.19
249.133	85.19
249.366	83.19
249.599	79.19
249.832	68.19
250.066	63.19
250.299	75.19
250.532	73.19
250.765	60.19
250.998	75.19
251.231	83.19
251.465	79.19
251.698	81.19
251.931	82.19
252.164	81.19
252.397	81.19
252.63	78.19
252.863	88.19
253.096	69.19
253.329	79.19
253.562	69.19
253.795	83.19
254.028	75.19
254.261	81.19
254.494	76.19
254.727	72.19
254.96	87.19
255.193	87.19
255.426	71.19
255.659	82.19
255.892	81.19
256.124	66.19
256.357	71.19
256.59	82.19
256.823	73.19
257.056	73.19
257.289	80.19
257.521	83.19
257.754	75.19
257.987	90.19
258.22	65.19
258.452	79.19
258.685	63.19
258.918	80.19
259.151	71.19
259.383	89.19
259.616	75.19
259.849	83.19
260.081	82.19
260.314	83.19
260.547	81.19
260.779	76.19
261.012	77.19
261.244	81.19
261.477	87.19
261.71	75.19
261.942	84.19
262.175	95.19
262.407	73.19
262.64	84.19
262.872	78.19
263.105	82.19
263.337	82.19
263.57	72.19
263.802	86.19
264.035	75.19
264.267	87.19
264.499	79.19
264.732	81.19
264.964	73.19
265.197	79.19
265.429	70.19
265.661	78.19
265.894	70.19
266.126	85.19
266.358	80.19
266.591	78.19
266.823	78.19
267.055	70.19
267.287	72.19
267.52	70.19
267.752	73.19
267.984	81.19
268.216	70.19
268.448	84.19
268.681	90.19
268.913	96.19
269.145	76.19
269.377	86.19
269.609	88.19
269.841	75.19
270.073	73.19
270.306	77.19
270.538	75.19
270.77	83.19
271.002	95.19
271.234	71.19
271.466	87.19
271.698	77.19
271.93	93.19
272.162	87.19
272.394	80.19
272.626	65.19
272.858	88.19
273.09	76.19
273.322	82.19
273.553	66.19
273.785	86.19
274.017	74.19
274.249	98.19
274.481	90.19
274.713	76.19
274.945	83.19
275.176	74.19
275.408	71.19
275.64	79.19
275.872	73.19
276.104	86.19
276.335	81.19
276.567	85.19
276.799	81.19
277.031	88.19
277.262	81.19
277.494	79.19
277.726	87.19
277.957	82.19
278.189	78.19
278.421	77.19
278.652	85.19
278.884	89.19
279.115	81.19
279.347	64.19
279.579	90.19
279.81	94.19
280.042	100.19
280.273	100.19
280.505	83.19
280.736	72.19
280.968	78.19
281.199	88.19
281.431	89.19
281.662	90.19
281.894	67.19
282.125	69.19
282.356	89.19
282.588	74.19
282.819	86.19
283.051	78.19
283.282	75.19
283.513	94.19
283.745	70.19
283.976	75.19
284.207	88.19
284.439	97.19
284.67	89.19
284.901	90.19
285.132	85.19
285.364	73.19
285.595	76.19
285.826	85.19
286.057	71.19
286.288	87.19
286.52	80.19
286.751	78.19
286.982	91.19
287.213	68.19
287.444	87.19
287.675	86.19
287.906	76.19
288.138	71.19
288.369	81.19
288.6	71.19
288.831	71.19
289.062	89.19
289.293	74.19
289.524	78.19
289.755	82.19
289.986	78.19
290.217	82.19
290.448	81.19
290.679	81.19
290.91	88.19
291.141	84.19
291.371	70.19
291.602	86.19
291.833	78.19
292.064	72.19
292.295	88.19
292.526	88.19
292.757	89.19
292.987	93.19
293.218	78.19
293.449	94.19
293.68	70.19
293.91	79.19
294.141	96.19
294.372	91.19
294.603	82.19
294.833	81.19
295.064	78.19
295.295	71.19
295.525	77.19
295.756	85.19
295.987	82.19
296.217	74.19
296.448	80.19
296.679	78.19
296.909	92.19
297.14	92.19
297.37	78.19
297.601	71.19
297.831	81.19
298.062	81.19
298.292	86.19
298.523	74.19
298.753	83.19
298.984	72.19
299.214	70.19
299.445	88.19
299.675	86.19
299.905	92.19
300.136	83.19
300.366	79.19
300.597	80.19
300.827	89.19
301.057	74.19
301.288	88.19
301.518	71.19
301.748	88.19
301.979	81.19
302.209	87.19
302.439	70.19
302.669	90.19
302.9	71.19
303.13	78.19
303.36	96.19
303.59	74.19
303.82	84.19
304.051	90.19
304.281	98.19
304.511	110.19
304.741	96.19
304.971	77.19
305.201	85.19
305.431	83.19
305.661	73.19
305.891	87.19
306.121	89.19
306.352	95.19
306.582	81.19
306.812	86.19
307.042	77.19
307.272	77.19
307.502	91.19
307.731	90.19
307.961	66.19
308.191	80.19
308.421	82.19
308.651	74.19
308.881	90.19
309.111	78.19
309.341	78.19
309.571	77.19
309.8	78.19
310.03	83.19
310.26	77.19
310.49	78.19
310.72	69.19
310.949	80.19
311.179	86.19
311.409	93.19
311.639	74.19
311.868	74.19
312.098	68.19
312.328	93.19
312.557	77.19
312.787	89.19
313.017	75.19
313.246	75.19
313.476	80.19
313.706	89.19
313.935	94.19
314.165	89.19
314.394	74.19
314.624	92.19
314.853	73.19
315.083	89.19
315.312	72.19
315.542	93.19
315.771	84.19
316.001	70.19
316.23	77.19
316.46	79.19
316.689	75.19
316.919	91.19
317.148	73.19
317.377	84.19
317.607	86.19
317.836	94.19
318.065	88.19
318.295	90.19
318.524	95.19
318.753	70.19
318.983	96.19
319.212	85.19
319.441	89.19
319.67	87.19
319.9	98.19
320.129	85.19
320.358	76.19
320.587	73.19
320.816	86.19
321.046	92.19
321.275	88.19
321.504	83.19
321.733	85.19
321.962	85.19
322.191	81.19
322.42	93.19
322.649	91.19
322.878	90.19
323.108	80.19
323.337	74.19
323.566	75.19
323.795	85.19
324.024	82.19
324.253	73.19
324.482	88.19
324.71	84.19
324.939	80.19
325.168	77.19
325.397	90.19
325.626	88.19
325.855	89.19
326.084	91.19
326.313	87.19
326.542	94.19
326.77	87.19
326.999	84.19
327.228	65.19
327.457	79.19
327.686	75.19
327.914	83.19
328.143	82.19
328.372	81.19
328.6	86.19
328.829	95.19
329.058	80.19
329.287	73.19
329.515	75.19
329.744	85.19
329.972	78.19
330.201	93.19
330.43	81.19
330.658	83.19
330.887	90.19
331.115	81.19
331.344	82.19
331.572	105.19
331.801	79.19
332.03	78.19
332.258	91.19
332.486	75.19
332.715	77.19
332.943	86.19
333.172	77.19
333.4	88.19
333.629	84.19
333.857	79.19
334.085	61.19
334.314	77.19
334.542	82.19
334.771	65.19
334.999	75.19
335.227	63.19
335.455	96.19
335.684	88.19
335.912	71.19
336.14	87.19
336.369	91.19
336.597	73.19
336.825	84.19
337.053	74.19
337.281	77.19
337.51	80.19
337.738	79.19
337.966	74.19
338.194	84.19
338.422	86.19
338.65	83.19
338.878	90.19
339.106	90.19
339.334	82.19
339.562	79.19
339.79	75.19
340.018	89.19
340.246	78.19
340.474	84.19
340.702	91.19
340.93	80.19
341.158	88.19
341.386	77.19
341.614	71.19
341.842	83.19
342.07	83.19
342.298	90.19
342.526	55.19
342.754	80.19
342.981	79.19
343.209	86.19
343.437	78.19
343.665	84.19
343.893	76.19
344.12	78.19
344.348	83.19
344.576	89.19
344.804	80.19
345.031	71.19
345.259	85.19
345.487	74.19
345.714	74.19
345.942	82.19
346.17	95.19
346.397	76.19
346.625	93.19
346.853	85.19
347.08	86.19
347.308	80.19
347.535	92.19
347.763	80.19
347.99	86.19
348.218	79.19
348.445	79.19
348.673	78.19
348.9	76.19
349.128	86.19
349.355	85.19
349.583	84.19
349.81	79.19
350.037	75.19
350.265	91.19
350.492	78.19
350.72	93.19
350.947	100.19
351.174	85.19
351.402	88.19
351.629	77.19
351.856	81.19
352.083	75.19
352.311	76.19
352.538	90.19
352.765	88.19
352.992	85.19
353.22	84.19
353.447	87.19
353.674	68.19
353.901	85.19
354.128	75.19
354.355	72.19
354.583	74.19
354.81	66.19
355.037	69.19
355.264	73.19
355.491	83.19
355.718	83.19
355.945	82.19
356.172	86.19
356.399	95.19
356.626	78.19
356.853	80.19
357.08	89.19
357.307	97.19
357.534	87.19
357.761	79.19
357.988	79.19
358.215	80.19
358.441	70.19
358.668	83.19
358.895	83.19
359.122	81.19
359.349	78.19
359.576	93.19
359.802	83.19
360.029	77.19
360.256	90.19
360.483	76.19
360.709	68.19
360.936	85.19
361.163	81.19
361.39	100.19
361.616	76.19
361.843	88.19
362.07	75.19
362.296	84.19
362.523	85.19
362.749	73.19
362.976	77.19
363.203	95.19
363.429	83.19
363.656	85.19
363.882	74.19
364.109	88.19
364.335	79.19
364.562	70.19
364.788	63.19
365.015	92.19
365.241	83.19
365.468	84.19
365.694	76.19
365.92	82.19
366.147	86.19
366.373	79.19
366.599	97.19
366.826	86.19
367.052	72.19
367.278	78.19
367.505	105.19
367.731	98.19
367.957	83.19
368.184	71.19
368.41	87.19
368.636	94.19
368.862	85.19
369.089	72.19
369.315	89.19
369.541	80.19
369.767	79.19
369.993	94.19
370.219	78.19
370.445	71.19
370.672	92.19
370.898	97.19
371.124	86.19
371.35	86.19
371.576	98.19
371.802	96.19
372.028	74.19
372.254	90.19
372.48	78.19
372.706	83.19
372.932	82.19
373.158	98.19
373.384	79.19
373.61	87.19
373.835	79.19
374.061	81.19
374.287	85.19
374.513	85.19
374.739	86.19
374.965	83.19
375.191	87.19
375.416	82.19
375.642	78.19
375.868	85.19
376.094	87.19
376.319	82.19
376.545	92.19
376.771	97.19
376.997	89.19
377.222	81.19
377.448	81.19
377.674	88.19
377.899	75.19
378.125	93.19
378.35	106.19
378.576	86.19
378.802	84.19
379.027	83.19
379.253	91.19
379.478	88.19
379.704	86.19
379.929	82.19
380.155	89.19
380.38	89.19
380.606	76.19
380.831	79.19
381.057	88.19
381.282	88.19
381.507	90.19
381.733	86.19
381.958	82.19
382.184	80.19
382.409	83.19
382.634	100.19
382.86	86.19
383.085	100.19
383.31	80.19
383.535	76.19
383.761	75.19
383.986	91.19
384.211	89.19
384.436	90.19
384.662	92.19
384.887	91.19
385.112	78.19
385.337	94.19
385.562	90.19
385.787	97.19
386.013	102.19
386.238	89.19
386.463	99.19
386.688	104.19
386.913	94.19
387.138	92.19
387.363	99.19
387.588	80.19
387.813	85.19
388.038	89.19
388.263	106.19
388.488	94.19
388.713	107.19
388.938	95.19
389.163	91.19
389.387	84.19
389.612	91.19
389.837	106.19
390.062	86.19
390.287	96.19
390.512	86.19
390.736	97.19
390.961	98.19
391.186	95.19
391.411	103.19
391.636	88.19
391.86	98.19
392.085	102.19
392.31	106.19
392.534	103.19
392.759	110.19
392.984	95.19
393.208	97.19
393.433	113.19
393.658	90.19
393.882	89.19
394.107	91.19
394.331	97.19
394.556	93.19
394.78	102.19
395.005	92.19
395.229	91.19
395.454	107.19
395.678	90.19
395.903	96.19
396.127	101.19
396.352	92.19
396.576	103.19
396.801	96.19
397.025	104.19
397.249	98.19
397.474	97.19
397.698	98.19
397.922	106.19
398.147	94.19
398.371	97.19
398.595	103.19
398.82	97.19
399.044	81.19
399.268	95.19
399.492	121.19
399.717	126.19
399.941	121.19
400.165	106.19
400.389	108.19
400.613	100.19
400.837	114.19
401.062	99.19
401.286	109.19
401.51	111.19
401.734	93.19
401.958	91.19
402.182	105.19
402.406	118.19
402.63	107.19
402.854	109.19
403.078	104.19
403.302	95.19
403.526	113.19
403.75	103.19
403.974	115.19
404.198	105.19
404.422	115.19
404.645	122.19
404.869	112.19
405.093	96.19
405.317	105.19
405.541	101.19
405.765	100.19
405.988	107.19
406.212	96.19
406.436	110.19
406.66	110.19
406.883	94.19
407.107	103.19
407.331	120.19
407.555	115.19
407.778	112.19
408.002	113.19
408.226	115.19
408.449	127.19
408.673	112.19
408.896	113.19
409.12	105.19
409.344	108.19
409.567	106.19
409.791	115.19
410.014	119.19
410.238	101.19
410.461	115.19
410.685	93.19
410.908	113.19
411.132	103.19
411.355	118.19
411.578	102.19
411.802	103.19
412.025	110.19
412.249	100.19
412.472	103.19
412.695	107.19
412.919	110.19
413.142	98.19
413.365	113.19
413.589	103.19
413.812	92.19
414.035	114.19
414.258	107.19
414.482	97.19
414.705	105.19
414.928	104.19
415.151	103.19
415.374	98.19
415.597	110.19
415.821	113.19
416.044	101.19
416.267	119.19
416.49	115.19
416.713	118.19
416.936	113.19
417.159	101.19
417.382	102.19
417.605	109.19
417.828	102.19
418.051	111.19
418.274	104.19
418.497	107.19
418.72	115.19
418.943	119.19
419.166	107.19
419.389	117.19
419.611	115.19
419.834	113.19
420.057	118.19
420.28	119.19
420.503	121.19
420.726	112.19
420.948	126.19
421.171	123.19
421.394	122.19
421.617	118.19
421.839	115.19
422.062	109.19
422.285	122.19
422.507	115.19
422.73	109.19
422.953	99.19
423.175	106.19
423.398	104.19
423.621	119.19
423.843	128.19
424.066	123.19
424.288	110.19
424.511	112.19
424.733	121.19
424.956	126.19
425.178	119.19
425.401	120.19
425.623	115.19
425.846	128.19
426.068	96.19
426.291	102.19
426.513	115.19
426.735	90.19
426.958	113.19
427.18	99.19
427.402	116.19
427.625	102.19
427.847	111.19
428.069	117.19
428.292	102.19
428.514	119.19
428.736	105.19
428.958	106.19
429.181	111.19
429.403	95.19
429.625	112.19
429.847	115.19
430.069	113.19
430.292	100.19
430.514	112.19
430.736	118.19
430.958	98.19
431.18	113.19
431.402	101.19
431.624	95.19
431.846	107.19
432.068	98.19
432.29	104.19
432.512	108.19
432.734	109.19
432.956	102.19
433.178	122.19
433.4	111.19
433.622	111.19
433.844	121.19
434.066	113.19
434.287	109.19
434.509	115.19
434.731	133.19
434.953	120.19
435.175	111.19
435.397	112.19
435.618	89.19
435.84	96.19
436.062	103.19
436.284	104.19
436.505	112.19
436.727	105.19
436.949	92.19
437.17	119.19
437.392	114.19
437.614	100.19
437.835	109.19
438.057	105.19
438.278	112.19
438.5	111.19
438.721	115.19
438.943	119.19
439.165	107.19
439.386	111.19
439.608	107.19
439.829	125.19
440.05	125.19
440.272	110.19
440.493	125.19
440.715	122.19
440.936	131.19
441.158	124.19
441.379	119.19
441.6	122.19
441.822	130.19
442.043	121.19
442.264	114.19
442.486	118.19
442.707	129.19
442.928	117.19
443.149	121.19
443.371	122.19
443.592	129.19
443.813	123.19
444.034	122.19
444.255	124.19
444.476	118.19
444.698	118.19
444.919	122.19
445.14	240.19
445.361	173.19
445.582	125.19
445.803	103.19
446.024	119.19
446.245	114.19
446.466	110.19
446.687	114.19
446.908	111.19
447.129	105.19
447.35	129.19
447.571	112.19
447.792	131.19
448.013	114.19
448.234	119.19
448.455	106.19
448.675	122.19
448.896	119.19
449.117	112.19
449.338	113.19
449.559	119.19
449.779	98.19
450	125.19
450.221	102.19
450.442	121.19
450.662	106.19
450.883	117.19
451.104	105.19
451.324	104.19
451.545	126.19
451.766	112.19
451.986	104.19
452.207	114.19
452.428	111.19
452.648	108.19
452.869	120.19
453.089	106.19
453.31	107.19
453.53	102.19
453.751	106.19
453.971	102.19
454.192	113.19
454.412	98.19
454.633	100.19
454.853	97.19
455.073	97.19
455.294	97.19
455.514	113.19
455.734	107.19
455.955	101.19
456.175	121.19
456.395	113.19
456.616	110.19
456.836	111.19
457.056	104.19
457.276	100.19
457.497	106.19
457.717	104.19
457.937	90.19
458.157	101.19
458.377	107.19
458.598	98.19
458.818	100.19
459.038	94.19
459.258	100.19
459.478	101.19
459.698	106.19
459.918	91.19
460.138	109.19
460.358	106.19
460.578	124.19
460.798	124.19
461.018	124.19
461.238	123.19
461.458	109.19
461.678	119.19
461.898	115.19
462.118	105.19
462.338	119.19
462.558	112.19
462.777	117.19
462.997	134.19
463.217	131.19
463.437	126.19
463.657	129.19
463.876	122.19
464.096	109.19
464.316	122.19
464.536	105.19
464.755	117.19
464.975	120.19
465.195	107.19
465.414	122.19
465.634	116.19
465.854	109.19
466.073	111.19
466.293	117.19
466.512	112.19
466.732	117.19
466.951	119.19
467.171	115.19
467.391	127.19
467.61	112.19
467.829	104.19
468.049	121.19
468.268	125.19
468.488	123.19
468.707	110.19
468.927	113.19
469.146	121.19
469.365	116.19
469.585	122.19
469.804	121.19
470.023	114.19
470.243	133.19
470.462	137.19
470.681	117.19
470.901	119.19
471.12	129.19
471.339	117.19
471.558	122.19
471.777	115.19
471.997	120.19
472.216	107.19
472.435	103.19
472.654	111.19
472.873	112.19
473.092	94.19
473.311	117.19
473.53	117.19
473.749	103.19
473.968	105.19
474.187	104.19
474.406	112.19
474.625	123.19
474.844	120.19
475.063	96.19
475.282	112.19
475.501	99.19
475.72	111.19
475.939	107.19
476.158	100.19
476.377	127.19
476.596	121.19
476.814	110.19
477.033	117.19
477.252	123.19
477.471	113.19
477.69	115.19
477.908	123.19
478.127	114.19
478.346	129.19
478.564	127.19
478.783	117.19
479.002	119.19
479.22	112.19
479.439	129.19
479.658	140.19
479.876	116.19
480.095	121.19
480.313	144.19
480.532	121.19
480.751	127.19
480.969	105.19
481.188	114.19
481.406	112.19
481.624	114.19
481.843	106.19
482.061	119.19
482.28	121.19
482.498	117.19
482.717	91.19
482.935	121.19
483.153	129.19
483.372	119.19
483.59	137.19
483.808	136.19
484.027	124.19
484.245	134.19
484.463	123.19
484.681	123.19
484.9	107.19
485.118	127.19
485.336	133.19
485.554	108.19
485.772	110.19
485.99	110.19
486.209	117.19
486.427	121.19
486.645	129.19
486.863	117.19
487.081	121.19
487.299	135.19
487.517	123.19
487.735	137.19
487.953	148.19
488.171	139.19
488.389	143.19
488.607	131.19
488.825	124.19
489.043	127.19
489.261	132.19
489.479	133.19
489.696	125.19
489.914	121.19
490.132	136.19
490.35	129.19
490.568	142.19
490.786	137.19
491.003	153.19
491.221	140.19
491.439	144.19
491.657	144.19
491.874	162.19
492.092	157.19
492.31	161.19
492.527	165.19
492.745	146.19
492.963	154.19
493.18	169.19
493.398	159.19
493.615	145.19
493.833	160.19
494.05	147.19
494.268	139.19
494.485	147.19
494.703	154.19
494.92	152.19
495.138	134.19
495.355	141.19
495.573	137.19
495.79	157.19
496.008	131.19
496.225	143.19
496.442	124.19
496.66	139.19
496.877	146.19
497.094	147.19
497.312	149.19
497.529	153.19
497.746	122.19
497.963	123.19
498.181	125.19
498.398	129.19
498.615	150.19
498.832	145.19
499.049	147.19
499.267	158.19
499.484	145.19
499.701	159.19
499.918	200.19
500.135	184.19
500.352	216.19
500.569	202.19
500.786	219.19
501.003	221.19
501.22	215.19
501.437	175.19
501.654	155.19
501.871	163.19
502.088	152.19
502.305	156.19
502.522	137.19
502.739	136.19
502.956	139.19
503.172	145.19
503.389	149.19
503.606	134.19
503.823	134.19
504.04	140.19
504.256	125.19
504.473	126.19
504.69	138.19
504.907	125.19
505.123	131.19
505.34	121.19
505.557	122.19
505.773	122.19
505.99	125.19
506.207	129.19
506.423	122.19
506.64	131.19
506.856	131.19
507.073	118.19
507.289	125.19
507.506	118.19
507.722	126.19
507.939	123.19
508.155	138.19
508.372	115.19
508.588	120.19
508.805	122.19
509.021	113.19
509.238	118.19
509.454	99.19
509.67	125.19
509.887	122.19
510.103	115.19
510.319	128.19
510.536	126.19
510.752	110.19
510.968	112.19
511.184	117.19
511.401	102.19
511.617	117.19
511.833	106.19
512.049	116.19
