Data from StandardFe(NO3)3.TAE.3%Agarose.FlatLispGreen.Lamp.Energy10.07252019_HRD10591_11-55-34-441.txt Node
Date: Thu Jul 25 11:55:34 EDT 2019
User: cochatt
Spectrometer: HR+D1059
Trigger mode: 1
Integration Time (sec): 1.000000E-1
Scans to average: 1
Electric dark correction enabled: true
Nonlinearity correction enabled: false
Boxcar width: 0
XAxis mode: Wavelengths
Number of Pixels in Spectrum: 2048
>>>>>Begin Spectral Data<<<<<
223.165	-22.19
223.4	-22.19
223.635	-22.19
223.869	-15.19
224.104	-15.19
224.338	-22.19
224.573	-15.19
224.808	-14.19
225.042	-9.19
225.277	-0.19
225.511	0.81
225.746	8.81
225.98	4.81
226.215	20.81
226.449	14.81
226.683	20.81
226.918	12.81
227.152	29.81
227.387	20.81
227.621	24.81
227.856	39.81
228.09	40.81
228.324	48.81
228.559	61.81
228.793	54.81
229.027	55.81
229.262	58.81
229.496	75.81
229.73	61.81
229.964	65.81
230.199	69.81
230.433	74.81
230.667	74.81
230.901	72.81
231.136	80.81
231.37	78.81
231.604	79.81
231.838	84.81
232.072	81.81
232.306	70.81
232.541	75.81
232.775	85.81
233.009	77.81
233.243	80.81
233.477	70.81
233.711	75.81
233.945	80.81
234.179	67.81
234.413	75.81
234.647	79.81
234.881	84.81
235.115	73.81
235.349	83.81
235.583	77.81
235.817	72.81
236.051	64.81
236.285	71.81
236.519	71.81
236.753	78.81
236.987	78.81
237.221	69.81
237.455	72.81
237.689	72.81
237.922	81.81
238.156	74.81
238.39	76.81
238.624	60.81
238.858	70.81
239.091	57.81
239.325	62.81
239.559	71.81
239.793	72.81
240.027	80.81
240.26	59.81
240.494	85.81
240.728	62.81
240.961	90.81
241.195	86.81
241.429	64.81
241.662	75.81
241.896	74.81
242.13	80.81
242.363	77.81
242.597	62.81
242.83	69.81
243.064	71.81
243.298	71.81
243.531	87.81
243.765	71.81
243.998	65.81
244.232	78.81
244.465	72.81
244.699	81.81
244.932	79.81
245.166	67.81
245.399	62.81
245.633	83.81
245.866	73.81
246.099	70.81
246.333	84.81
246.566	71.81
246.8	80.81
247.033	80.81
247.266	76.81
247.5	68.81
247.733	71.81
247.966	74.81
248.2	74.81
248.433	71.81
248.666	74.81
248.899	74.81
249.133	80.81
249.366	70.81
249.599	78.81
249.832	72.81
250.066	66.81
250.299	69.81
250.532	75.81
250.765	72.81
250.998	83.81
251.231	70.81
251.465	74.81
251.698	74.81
251.931	87.81
252.164	89.81
252.397	74.81
252.63	75.81
252.863	77.81
253.096	79.81
253.329	81.81
253.562	83.81
253.795	87.81
254.028	83.81
254.261	89.81
254.494	72.81
254.727	76.81
254.96	76.81
255.193	67.81
255.426	71.81
255.659	64.81
255.892	69.81
256.124	68.81
256.357	80.81
256.59	84.81
256.823	78.81
257.056	92.81
257.289	84.81
257.521	64.81
257.754	72.81
257.987	83.81
258.22	75.81
258.452	74.81
258.685	79.81
258.918	75.81
259.151	75.81
259.383	82.81
259.616	69.81
259.849	87.81
260.081	80.81
260.314	80.81
260.547	71.81
260.779	84.81
261.012	87.81
261.244	96.81
261.477	82.81
261.71	85.81
261.942	86.81
262.175	79.81
262.407	56.81
262.64	82.81
262.872	70.81
263.105	73.81
263.337	85.81
263.57	66.81
263.802	90.81
264.035	93.81
264.267	77.81
264.499	84.81
264.732	81.81
264.964	87.81
265.197	89.81
265.429	75.81
265.661	79.81
265.894	84.81
266.126	69.81
266.358	82.81
266.591	78.81
266.823	64.81
267.055	76.81
267.287	83.81
267.52	94.81
267.752	85.81
267.984	82.81
268.216	96.81
268.448	87.81
268.681	71.81
268.913	84.81
269.145	81.81
269.377	88.81
269.609	72.81
269.841	71.81
270.073	91.81
270.306	78.81
270.538	69.81
270.77	70.81
271.002	74.81
271.234	73.81
271.466	95.81
271.698	89.81
271.93	85.81
272.162	72.81
272.394	86.81
272.626	73.81
272.858	84.81
273.09	83.81
273.322	74.81
273.553	78.81
273.785	79.81
274.017	86.81
274.249	78.81
274.481	86.81
274.713	85.81
274.945	93.81
275.176	83.81
275.408	97.81
275.64	87.81
275.872	84.81
276.104	73.81
276.335	81.81
276.567	81.81
276.799	83.81
277.031	89.81
277.262	75.81
277.494	78.81
277.726	89.81
277.957	89.81
278.189	73.81
278.421	77.81
278.652	88.81
278.884	76.81
279.115	94.81
279.347	80.81
279.579	76.81
279.81	89.81
280.042	83.81
280.273	84.81
280.505	73.81
280.736	81.81
280.968	81.81
281.199	89.81
281.431	87.81
281.662	74.81
281.894	73.81
282.125	76.81
282.356	85.81
282.588	79.81
282.819	101.81
283.051	76.81
283.282	81.81
283.513	85.81
283.745	82.81
283.976	83.81
284.207	87.81
284.439	90.81
284.67	82.81
284.901	86.81
285.132	83.81
285.364	54.81
285.595	65.81
285.826	87.81
286.057	88.81
286.288	72.81
286.52	80.81
286.751	97.81
286.982	69.81
287.213	71.81
287.444	84.81
287.675	80.81
287.906	81.81
288.138	75.81
288.369	93.81
288.6	83.81
288.831	75.81
289.062	98.81
289.293	83.81
289.524	89.81
289.755	84.81
289.986	85.81
290.217	93.81
290.448	71.81
290.679	84.81
290.91	81.81
291.141	76.81
291.371	74.81
291.602	74.81
291.833	84.81
292.064	76.81
292.295	95.81
292.526	92.81
292.757	80.81
292.987	88.81
293.218	80.81
293.449	71.81
293.68	81.81
293.91	87.81
294.141	85.81
294.372	103.81
294.603	74.81
294.833	69.81
295.064	84.81
295.295	83.81
295.525	88.81
295.756	85.81
295.987	80.81
296.217	76.81
296.448	78.81
296.679	77.81
296.909	77.81
297.14	77.81
297.37	90.81
297.601	80.81
297.831	87.81
298.062	84.81
298.292	87.81
298.523	93.81
298.753	85.81
298.984	89.81
299.214	69.81
299.445	75.81
299.675	70.81
299.905	93.81
300.136	81.81
300.366	81.81
300.597	75.81
300.827	85.81
301.057	71.81
301.288	94.81
301.518	89.81
301.748	87.81
301.979	80.81
302.209	93.81
302.439	75.81
302.669	71.81
302.9	74.81
303.13	92.81
303.36	82.81
303.59	77.81
303.82	82.81
304.051	78.81
304.281	79.81
304.511	91.81
304.741	86.81
304.971	72.81
305.201	93.81
305.431	81.81
305.661	83.81
305.891	93.81
306.121	73.81
306.352	92.81
306.582	94.81
306.812	94.81
307.042	87.81
307.272	92.81
307.502	83.81
307.731	88.81
307.961	87.81
308.191	90.81
308.421	95.81
308.651	78.81
308.881	84.81
309.111	88.81
309.341	75.81
309.571	78.81
309.8	80.81
310.03	71.81
310.26	91.81
310.49	77.81
310.72	65.81
310.949	87.81
311.179	81.81
311.409	83.81
311.639	79.81
311.868	88.81
312.098	75.81
312.328	87.81
312.557	73.81
312.787	89.81
313.017	87.81
313.246	88.81
313.476	74.81
313.706	81.81
313.935	88.81
314.165	62.81
314.394	88.81
314.624	91.81
314.853	76.81
315.083	76.81
315.312	81.81
315.542	77.81
315.771	88.81
316.001	71.81
316.23	82.81
316.46	82.81
316.689	79.81
316.919	78.81
317.148	74.81
317.377	75.81
317.607	82.81
317.836	81.81
318.065	74.81
318.295	79.81
318.524	90.81
318.753	89.81
318.983	78.81
319.212	87.81
319.441	90.81
319.67	86.81
319.9	93.81
320.129	104.81
320.358	79.81
320.587	91.81
320.816	80.81
321.046	77.81
321.275	98.81
321.504	90.81
321.733	87.81
321.962	87.81
322.191	80.81
322.42	66.81
322.649	79.81
322.878	88.81
323.108	70.81
323.337	84.81
323.566	84.81
323.795	87.81
324.024	84.81
324.253	78.81
324.482	85.81
324.71	74.81
324.939	79.81
325.168	82.81
325.397	82.81
325.626	74.81
325.855	85.81
326.084	84.81
326.313	82.81
326.542	74.81
326.77	83.81
326.999	91.81
327.228	87.81
327.457	69.81
327.686	78.81
327.914	76.81
328.143	68.81
328.372	85.81
328.6	85.81
328.829	81.81
329.058	85.81
329.287	83.81
329.515	81.81
329.744	90.81
329.972	84.81
330.201	92.81
330.43	85.81
330.658	79.81
330.887	81.81
331.115	80.81
331.344	85.81
331.572	84.81
331.801	89.81
332.03	77.81
332.258	69.81
332.486	80.81
332.715	69.81
332.943	77.81
333.172	82.81
333.4	89.81
333.629	74.81
333.857	99.81
334.085	82.81
334.314	96.81
334.542	79.81
334.771	76.81
334.999	87.81
335.227	81.81
335.455	79.81
335.684	70.81
335.912	84.81
336.14	80.81
336.369	71.81
336.597	79.81
336.825	84.81
337.053	93.81
337.281	74.81
337.51	80.81
337.738	89.81
337.966	85.81
338.194	82.81
338.422	80.81
338.65	97.81
338.878	70.81
339.106	80.81
339.334	92.81
339.562	86.81
339.79	104.81
340.018	86.81
340.246	89.81
340.474	86.81
340.702	87.81
340.93	90.81
341.158	80.81
341.386	81.81
341.614	85.81
341.842	73.81
342.07	81.81
342.298	79.81
342.526	65.81
342.754	83.81
342.981	86.81
343.209	79.81
343.437	84.81
343.665	85.81
343.893	78.81
344.12	76.81
344.348	82.81
344.576	77.81
344.804	78.81
345.031	83.81
345.259	95.81
345.487	89.81
345.714	85.81
345.942	73.81
346.17	89.81
346.397	82.81
346.625	90.81
346.853	88.81
347.08	73.81
347.308	85.81
347.535	76.81
347.763	80.81
347.99	89.81
348.218	87.81
348.445	75.81
348.673	97.81
348.9	88.81
349.128	77.81
349.355	80.81
349.583	78.81
349.81	68.81
350.037	78.81
350.265	76.81
350.492	81.81
350.72	95.81
350.947	76.81
351.174	89.81
351.402	76.81
351.629	81.81
351.856	83.81
352.083	69.81
352.311	90.81
352.538	94.81
352.765	70.81
352.992	87.81
353.22	80.81
353.447	87.81
353.674	87.81
353.901	75.81
354.128	74.81
354.355	85.81
354.583	86.81
354.81	67.81
355.037	92.81
355.264	86.81
355.491	96.81
355.718	74.81
355.945	79.81
356.172	81.81
356.399	86.81
356.626	82.81
356.853	82.81
357.08	67.81
357.307	77.81
357.534	87.81
357.761	88.81
357.988	79.81
358.215	74.81
358.441	77.81
358.668	83.81
358.895	85.81
359.122	91.81
359.349	82.81
359.576	82.81
359.802	84.81
360.029	75.81
360.256	69.81
360.483	86.81
360.709	84.81
360.936	86.81
361.163	86.81
361.39	88.81
361.616	81.81
361.843	71.81
362.07	79.81
362.296	77.81
362.523	79.81
362.749	76.81
362.976	88.81
363.203	89.81
363.429	77.81
363.656	84.81
363.882	83.81
364.109	84.81
364.335	82.81
364.562	89.81
364.788	81.81
365.015	80.81
365.241	77.81
365.468	112.81
365.694	77.81
365.92	79.81
366.147	100.81
366.373	75.81
366.599	84.81
366.826	76.81
367.052	82.81
367.278	93.81
367.505	90.81
367.731	69.81
367.957	82.81
368.184	85.81
368.41	85.81
368.636	87.81
368.862	81.81
369.089	80.81
369.315	93.81
369.541	80.81
369.767	93.81
369.993	79.81
370.219	75.81
370.445	78.81
370.672	89.81
370.898	92.81
371.124	78.81
371.35	82.81
371.576	99.81
371.802	79.81
372.028	74.81
372.254	87.81
372.48	89.81
372.706	80.81
372.932	80.81
373.158	91.81
373.384	85.81
373.61	93.81
373.835	88.81
374.061	77.81
374.287	78.81
374.513	82.81
374.739	83.81
374.965	80.81
375.191	88.81
375.416	92.81
375.642	79.81
375.868	92.81
376.094	100.81
376.319	93.81
376.545	83.81
376.771	80.81
376.997	79.81
377.222	88.81
377.448	80.81
377.674	85.81
377.899	84.81
378.125	94.81
378.35	94.81
378.576	86.81
378.802	75.81
379.027	92.81
379.253	85.81
379.478	85.81
379.704	94.81
379.929	80.81
380.155	84.81
380.38	94.81
380.606	86.81
380.831	83.81
381.057	73.81
381.282	81.81
381.507	85.81
381.733	99.81
381.958	89.81
382.184	98.81
382.409	98.81
382.634	88.81
382.86	69.81
383.085	100.81
383.31	97.81
383.535	87.81
383.761	82.81
383.986	95.81
384.211	86.81
384.436	77.81
384.662	79.81
384.887	101.81
385.112	92.81
385.337	86.81
385.562	76.81
385.787	94.81
386.013	104.81
386.238	77.81
386.463	104.81
386.688	92.81
386.913	92.81
387.138	85.81
387.363	91.81
387.588	83.81
387.813	94.81
388.038	101.81
388.263	84.81
388.488	91.81
388.713	81.81
388.938	73.81
389.163	91.81
389.387	87.81
389.612	95.81
389.837	92.81
390.062	98.81
390.287	73.81
390.512	98.81
390.736	88.81
390.961	101.81
391.186	101.81
391.411	96.81
391.636	95.81
391.86	105.81
392.085	96.81
392.31	87.81
392.534	96.81
392.759	102.81
392.984	93.81
393.208	84.81
393.433	105.81
393.658	96.81
393.882	92.81
394.107	89.81
394.331	104.81
394.556	100.81
394.78	93.81
395.005	94.81
395.229	98.81
395.454	99.81
395.678	95.81
395.903	102.81
396.127	106.81
396.352	112.81
396.576	93.81
396.801	104.81
397.025	92.81
397.249	98.81
397.474	98.81
397.698	100.81
397.922	96.81
398.147	86.81
398.371	110.81
398.595	95.81
398.82	88.81
399.044	101.81
399.268	116.81
399.492	100.81
399.717	96.81
399.941	103.81
400.165	117.81
400.389	102.81
400.613	110.81
400.837	104.81
401.062	96.81
401.286	114.81
401.51	115.81
401.734	89.81
401.958	84.81
402.182	102.81
402.406	100.81
402.63	102.81
402.854	93.81
403.078	104.81
403.302	104.81
403.526	110.81
403.75	88.81
403.974	102.81
404.198	103.81
404.422	95.81
404.645	112.81
404.869	113.81
405.093	101.81
405.317	116.81
405.541	120.81
405.765	106.81
405.988	111.81
406.212	108.81
406.436	94.81
406.66	107.81
406.883	93.81
407.107	101.81
407.331	119.81
407.555	110.81
407.778	112.81
408.002	111.81
408.226	120.81
408.449	102.81
408.673	116.81
408.896	99.81
409.12	105.81
409.344	111.81
409.567	99.81
409.791	118.81
410.014	86.81
410.238	106.81
410.461	103.81
410.685	109.81
410.908	114.81
411.132	111.81
411.355	92.81
411.578	111.81
411.802	102.81
412.025	95.81
412.249	92.81
412.472	91.81
412.695	103.81
412.919	101.81
413.142	96.81
413.365	98.81
413.589	102.81
413.812	111.81
414.035	111.81
414.258	105.81
414.482	98.81
414.705	108.81
414.928	112.81
415.151	101.81
415.374	110.81
415.597	97.81
415.821	104.81
416.044	93.81
416.267	100.81
416.49	121.81
416.713	100.81
416.936	114.81
417.159	119.81
417.382	103.81
417.605	110.81
417.828	110.81
418.051	104.81
418.274	112.81
418.497	104.81
418.72	101.81
418.943	109.81
419.166	111.81
419.389	103.81
419.611	116.81
419.834	100.81
420.057	108.81
420.28	114.81
420.503	97.81
420.726	118.81
420.948	108.81
421.171	113.81
421.394	103.81
421.617	108.81
421.839	105.81
422.062	115.81
422.285	115.81
422.507	108.81
422.73	100.81
422.953	93.81
423.175	110.81
423.398	102.81
423.621	99.81
423.843	118.81
424.066	118.81
424.288	118.81
424.511	109.81
424.733	126.81
424.956	111.81
425.178	111.81
425.401	111.81
425.623	112.81
425.846	115.81
426.068	103.81
426.291	114.81
426.513	104.81
426.735	105.81
426.958	113.81
427.18	114.81
427.402	101.81
427.625	106.81
427.847	89.81
428.069	112.81
428.292	99.81
428.514	106.81
428.736	101.81
428.958	84.81
429.181	102.81
429.403	112.81
429.625	112.81
429.847	109.81
430.069	104.81
430.292	98.81
430.514	95.81
430.736	105.81
430.958	104.81
431.18	103.81
431.402	109.81
431.624	101.81
431.846	100.81
432.068	90.81
432.29	89.81
432.512	93.81
432.734	98.81
432.956	112.81
433.178	111.81
433.4	105.81
433.622	115.81
433.844	114.81
434.066	103.81
434.287	108.81
434.509	112.81
434.731	93.81
434.953	95.81
435.175	113.81
435.397	114.81
435.618	110.81
435.84	102.81
436.062	113.81
436.284	106.81
436.505	115.81
436.727	116.81
436.949	120.81
437.17	97.81
437.392	114.81
437.614	95.81
437.835	112.81
438.057	103.81
438.278	96.81
438.5	114.81
438.721	112.81
438.943	105.81
439.165	109.81
439.386	96.81
439.608	102.81
439.829	121.81
440.05	114.81
440.272	118.81
440.493	125.81
440.715	122.81
440.936	122.81
441.158	121.81
441.379	118.81
441.6	125.81
441.822	127.81
442.043	118.81
442.264	120.81
442.486	116.81
442.707	99.81
442.928	100.81
443.149	104.81
443.371	119.81
443.592	96.81
443.813	123.81
444.034	108.81
444.255	116.81
444.476	97.81
444.698	101.81
444.919	118.81
445.14	252.81
445.361	183.81
445.582	120.81
445.803	103.81
446.024	120.81
446.245	123.81
446.466	94.81
446.687	111.81
446.908	117.81
447.129	118.81
447.35	113.81
447.571	100.81
447.792	112.81
448.013	104.81
448.234	96.81
448.455	110.81
448.675	112.81
448.896	117.81
449.117	105.81
449.338	97.81
449.559	109.81
449.779	95.81
450	109.81
450.221	100.81
450.442	106.81
450.662	118.81
450.883	109.81
451.104	102.81
451.324	112.81
451.545	125.81
451.766	112.81
451.986	108.81
452.207	100.81
452.428	116.81
452.648	110.81
452.869	102.81
453.089	92.81
453.31	109.81
453.53	110.81
453.751	91.81
453.971	98.81
454.192	98.81
454.412	93.81
454.633	95.81
454.853	95.81
455.073	101.81
455.294	103.81
455.514	88.81
455.734	108.81
455.955	96.81
456.175	94.81
456.395	98.81
456.616	118.81
456.836	97.81
457.056	102.81
457.276	96.81
457.497	85.81
457.717	88.81
457.937	98.81
458.157	98.81
458.377	103.81
458.598	89.81
458.818	93.81
459.038	83.81
459.258	89.81
459.478	89.81
459.698	92.81
459.918	102.81
460.138	102.81
460.358	110.81
460.578	102.81
460.798	102.81
461.018	111.81
461.238	93.81
461.458	93.81
461.678	130.81
461.898	124.81
462.118	114.81
462.338	104.81
462.558	104.81
462.777	125.81
462.997	118.81
463.217	118.81
463.437	114.81
463.657	117.81
463.876	118.81
464.096	117.81
464.316	126.81
464.536	106.81
464.755	100.81
464.975	112.81
465.195	122.81
465.414	112.81
465.634	105.81
465.854	113.81
466.073	104.81
466.293	102.81
466.512	106.81
466.732	104.81
466.951	116.81
467.171	124.81
467.391	109.81
467.61	110.81
467.829	111.81
468.049	103.81
468.268	105.81
468.488	108.81
468.707	116.81
468.927	105.81
469.146	111.81
469.365	108.81
469.585	105.81
469.804	101.81
470.023	121.81
470.243	120.81
470.462	117.81
470.681	120.81
470.901	117.81
471.12	116.81
471.339	105.81
471.558	103.81
471.777	128.81
471.997	122.81
472.216	122.81
472.435	102.81
472.654	111.81
472.873	108.81
473.092	100.81
473.311	101.81
473.53	103.81
473.749	108.81
473.968	100.81
474.187	109.81
474.406	115.81
474.625	117.81
474.844	112.81
475.063	99.81
475.282	114.81
475.501	108.81
475.72	108.81
475.939	110.81
476.158	109.81
476.377	99.81
476.596	108.81
476.814	110.81
477.033	111.81
477.252	94.81
477.471	119.81
477.69	121.81
477.908	119.81
478.127	122.81
478.346	108.81
478.564	114.81
478.783	112.81
479.002	118.81
479.22	114.81
479.439	125.81
479.658	106.81
479.876	114.81
480.095	115.81
480.313	115.81
480.532	118.81
480.751	116.81
480.969	108.81
481.188	104.81
481.406	112.81
481.624	101.81
481.843	108.81
482.061	100.81
482.28	105.81
482.498	112.81
482.717	107.81
482.935	110.81
483.153	115.81
483.372	119.81
483.59	114.81
483.808	122.81
484.027	117.81
484.245	128.81
484.463	124.81
484.681	117.81
484.9	118.81
485.118	108.81
485.336	127.81
485.554	121.81
485.772	118.81
485.99	119.81
486.209	128.81
486.427	126.81
486.645	112.81
486.863	121.81
487.081	112.81
487.299	119.81
487.517	121.81
487.735	125.81
487.953	133.81
488.171	131.81
488.389	141.81
488.607	135.81
488.825	118.81
489.043	126.81
489.261	132.81
489.479	117.81
489.696	118.81
489.914	124.81
490.132	136.81
490.35	124.81
490.568	128.81
490.786	125.81
491.003	136.81
491.221	144.81
491.439	141.81
491.657	152.81
491.874	150.81
492.092	148.81
492.31	156.81
492.527	161.81
492.745	162.81
492.963	144.81
493.18	142.81
493.398	142.81
493.615	145.81
493.833	142.81
494.05	133.81
494.268	123.81
494.485	140.81
494.703	149.81
494.92	147.81
495.138	137.81
495.355	135.81
495.573	131.81
495.79	150.81
496.008	146.81
496.225	145.81
496.442	128.81
496.66	130.81
496.877	146.81
497.094	146.81
497.312	123.81
497.529	158.81
497.746	144.81
497.963	120.81
498.181	144.81
498.398	130.81
498.615	136.81
498.832	150.81
499.049	136.81
499.267	144.81
499.484	160.81
499.701	158.81
499.918	161.81
500.135	187.81
500.352	198.81
500.569	193.81
500.786	200.81
501.003	196.81
501.22	173.81
501.437	180.81
501.654	158.81
501.871	144.81
502.088	138.81
502.305	133.81
502.522	134.81
502.739	158.81
502.956	150.81
503.172	143.81
503.389	133.81
503.606	129.81
503.823	130.81
504.04	129.81
504.256	118.81
504.473	129.81
504.69	130.81
504.907	123.81
505.123	132.81
505.34	126.81
505.557	120.81
505.773	120.81
505.99	109.81
506.207	117.81
506.423	113.81
506.64	122.81
506.856	121.81
507.073	120.81
507.289	114.81
507.506	122.81
507.722	117.81
507.939	113.81
508.155	129.81
508.372	117.81
508.588	117.81
508.805	128.81
509.021	121.81
509.238	122.81
509.454	113.81
509.67	114.81
509.887	101.81
510.103	106.81
510.319	112.81
510.536	120.81
510.752	103.81
510.968	112.81
511.184	92.81
511.401	103.81
511.617	116.81
511.833	109.81
512.049	126.81
512.265	111.81
512.481	112.81
