Data from StandardFe(NO3)3.TAE.3%Agarose.FlatLispGreen.Lamp.Energy10.07252019_HRD10591_11-54-28-440.txt Node
Date: Thu Jul 25 11:54:28 EDT 2019
User: cochatt
Spectrometer: HR+D1059
Trigger mode: 1
Integration Time (sec): 1.000000E-1
Scans to average: 1
Electric dark correction enabled: true
Nonlinearity correction enabled: false
Boxcar width: 0
XAxis mode: Wavelengths
Number of Pixels in Spectrum: 2048
>>>>>Begin Spectral Data<<<<<
223.165	-22.5
223.4	-22.5
223.635	-22.5
223.869	-8.5
224.104	-6.5
224.338	-16.5
224.573	-3.5
224.808	-11.5
225.042	-12.5
225.277	-9.5
225.511	-11.5
225.746	-19.5
225.98	7.5
226.215	10.5
226.449	18.5
226.683	20.5
226.918	32.5
227.152	32.5
227.387	32.5
227.621	44.5
227.856	32.5
228.09	46.5
228.324	58.5
228.559	54.5
228.793	63.5
229.027	62.5
229.262	57.5
229.496	51.5
229.73	79.5
229.964	80.5
230.199	75.5
230.433	70.5
230.667	72.5
230.901	85.5
231.136	79.5
231.37	75.5
231.604	82.5
231.838	87.5
232.072	75.5
232.306	92.5
232.541	75.5
232.775	76.5
233.009	87.5
233.243	69.5
233.477	88.5
233.711	80.5
233.945	84.5
234.179	65.5
234.413	73.5
234.647	74.5
234.881	82.5
235.115	80.5
235.349	80.5
235.583	75.5
235.817	72.5
236.051	74.5
236.285	69.5
236.519	71.5
236.753	85.5
236.987	75.5
237.221	66.5
237.455	69.5
237.689	71.5
237.922	66.5
238.156	67.5
238.39	70.5
238.624	71.5
238.858	76.5
239.091	63.5
239.325	70.5
239.559	75.5
239.793	84.5
240.027	64.5
240.26	87.5
240.494	82.5
240.728	71.5
240.961	76.5
241.195	90.5
241.429	86.5
241.662	80.5
241.896	75.5
242.13	72.5
242.363	81.5
242.597	66.5
242.83	90.5
243.064	83.5
243.298	81.5
243.531	73.5
243.765	90.5
243.998	60.5
244.232	74.5
244.465	84.5
244.699	83.5
244.932	75.5
245.166	71.5
245.399	84.5
245.633	70.5
245.866	78.5
246.099	70.5
246.333	89.5
246.566	79.5
246.8	75.5
247.033	71.5
247.266	68.5
247.5	84.5
247.733	80.5
247.966	90.5
248.2	86.5
248.433	69.5
248.666	76.5
248.899	69.5
249.133	80.5
249.366	86.5
249.599	83.5
249.832	75.5
250.066	92.5
250.299	79.5
250.532	86.5
250.765	84.5
250.998	74.5
251.231	84.5
251.465	70.5
251.698	73.5
251.931	71.5
252.164	80.5
252.397	78.5
252.63	87.5
252.863	71.5
253.096	82.5
253.329	73.5
253.562	60.5
253.795	71.5
254.028	74.5
254.261	77.5
254.494	75.5
254.727	79.5
254.96	80.5
255.193	87.5
255.426	88.5
255.659	89.5
255.892	86.5
256.124	91.5
256.357	69.5
256.59	82.5
256.823	80.5
257.056	75.5
257.289	83.5
257.521	73.5
257.754	80.5
257.987	76.5
258.22	80.5
258.452	73.5
258.685	80.5
258.918	80.5
259.151	72.5
259.383	80.5
259.616	94.5
259.849	72.5
260.081	75.5
260.314	60.5
260.547	74.5
260.779	78.5
261.012	90.5
261.244	75.5
261.477	75.5
261.71	72.5
261.942	79.5
262.175	77.5
262.407	73.5
262.64	70.5
262.872	88.5
263.105	74.5
263.337	77.5
263.57	84.5
263.802	72.5
264.035	78.5
264.267	79.5
264.499	75.5
264.732	94.5
264.964	75.5
265.197	83.5
265.429	65.5
265.661	85.5
265.894	76.5
266.126	80.5
266.358	82.5
266.591	80.5
266.823	78.5
267.055	70.5
267.287	78.5
267.52	87.5
267.752	87.5
267.984	82.5
268.216	89.5
268.448	80.5
268.681	85.5
268.913	90.5
269.145	86.5
269.377	71.5
269.609	87.5
269.841	88.5
270.073	80.5
270.306	78.5
270.538	75.5
270.77	85.5
271.002	73.5
271.234	78.5
271.466	85.5
271.698	89.5
271.93	81.5
272.162	75.5
272.394	95.5
272.626	79.5
272.858	85.5
273.09	84.5
273.322	76.5
273.553	75.5
273.785	84.5
274.017	77.5
274.249	85.5
274.481	73.5
274.713	78.5
274.945	84.5
275.176	80.5
275.408	79.5
275.64	81.5
275.872	86.5
276.104	90.5
276.335	80.5
276.567	84.5
276.799	84.5
277.031	75.5
277.262	88.5
277.494	93.5
277.726	72.5
277.957	82.5
278.189	77.5
278.421	86.5
278.652	75.5
278.884	76.5
279.115	94.5
279.347	90.5
279.579	70.5
279.81	71.5
280.042	79.5
280.273	64.5
280.505	84.5
280.736	92.5
280.968	91.5
281.199	91.5
281.431	68.5
281.662	84.5
281.894	89.5
282.125	87.5
282.356	101.5
282.588	74.5
282.819	90.5
283.051	75.5
283.282	76.5
283.513	84.5
283.745	81.5
283.976	77.5
284.207	72.5
284.439	73.5
284.67	108.5
284.901	86.5
285.132	98.5
285.364	75.5
285.595	83.5
285.826	89.5
286.057	100.5
286.288	83.5
286.52	99.5
286.751	82.5
286.982	90.5
287.213	80.5
287.444	89.5
287.675	87.5
287.906	87.5
288.138	78.5
288.369	77.5
288.6	83.5
288.831	86.5
289.062	80.5
289.293	83.5
289.524	87.5
289.755	74.5
289.986	88.5
290.217	90.5
290.448	78.5
290.679	80.5
290.91	86.5
291.141	87.5
291.371	91.5
291.602	97.5
291.833	78.5
292.064	85.5
292.295	90.5
292.526	73.5
292.757	67.5
292.987	79.5
293.218	84.5
293.449	87.5
293.68	96.5
293.91	78.5
294.141	88.5
294.372	88.5
294.603	89.5
294.833	95.5
295.064	72.5
295.295	72.5
295.525	91.5
295.756	76.5
295.987	71.5
296.217	73.5
296.448	77.5
296.679	77.5
296.909	84.5
297.14	74.5
297.37	71.5
297.601	89.5
297.831	92.5
298.062	100.5
298.292	87.5
298.523	72.5
298.753	79.5
298.984	83.5
299.214	76.5
299.445	87.5
299.675	78.5
299.905	83.5
300.136	76.5
300.366	76.5
300.597	84.5
300.827	76.5
301.057	75.5
301.288	83.5
301.518	81.5
301.748	77.5
301.979	84.5
302.209	88.5
302.439	86.5
302.669	92.5
302.9	89.5
303.13	105.5
303.36	91.5
303.59	94.5
303.82	96.5
304.051	91.5
304.281	81.5
304.511	80.5
304.741	89.5
304.971	83.5
305.201	92.5
305.431	88.5
305.661	66.5
305.891	98.5
306.121	68.5
306.352	83.5
306.582	80.5
306.812	95.5
307.042	81.5
307.272	84.5
307.502	80.5
307.731	74.5
307.961	84.5
308.191	75.5
308.421	87.5
308.651	80.5
308.881	79.5
309.111	83.5
309.341	96.5
309.571	82.5
309.8	71.5
310.03	91.5
310.26	92.5
310.49	70.5
310.72	82.5
310.949	86.5
311.179	82.5
311.409	83.5
311.639	69.5
311.868	79.5
312.098	79.5
312.328	73.5
312.557	81.5
312.787	75.5
313.017	93.5
313.246	89.5
313.476	89.5
313.706	87.5
313.935	79.5
314.165	78.5
314.394	93.5
314.624	99.5
314.853	90.5
315.083	87.5
315.312	94.5
315.542	88.5
315.771	69.5
316.001	81.5
316.23	86.5
316.46	76.5
316.689	93.5
316.919	82.5
317.148	84.5
317.377	91.5
317.607	86.5
317.836	81.5
318.065	80.5
318.295	95.5
318.524	78.5
318.753	80.5
318.983	87.5
319.212	87.5
319.441	71.5
319.67	76.5
319.9	82.5
320.129	75.5
320.358	82.5
320.587	76.5
320.816	88.5
321.046	96.5
321.275	85.5
321.504	87.5
321.733	83.5
321.962	87.5
322.191	68.5
322.42	85.5
322.649	88.5
322.878	68.5
323.108	85.5
323.337	79.5
323.566	88.5
323.795	95.5
324.024	93.5
324.253	82.5
324.482	85.5
324.71	102.5
324.939	96.5
325.168	78.5
325.397	83.5
325.626	81.5
325.855	68.5
326.084	80.5
326.313	85.5
326.542	77.5
326.77	74.5
326.999	82.5
327.228	80.5
327.457	96.5
327.686	87.5
327.914	76.5
328.143	86.5
328.372	82.5
328.6	82.5
328.829	81.5
329.058	74.5
329.287	82.5
329.515	86.5
329.744	88.5
329.972	87.5
330.201	94.5
330.43	64.5
330.658	85.5
330.887	72.5
331.115	89.5
331.344	97.5
331.572	79.5
331.801	90.5
332.03	79.5
332.258	75.5
332.486	85.5
332.715	91.5
332.943	81.5
333.172	90.5
333.4	90.5
333.629	85.5
333.857	91.5
334.085	83.5
334.314	95.5
334.542	86.5
334.771	96.5
334.999	76.5
335.227	84.5
335.455	86.5
335.684	72.5
335.912	89.5
336.14	90.5
336.369	87.5
336.597	89.5
336.825	85.5
337.053	82.5
337.281	91.5
337.51	82.5
337.738	86.5
337.966	84.5
338.194	87.5
338.422	87.5
338.65	83.5
338.878	98.5
339.106	88.5
339.334	88.5
339.562	88.5
339.79	91.5
340.018	75.5
340.246	90.5
340.474	76.5
340.702	74.5
340.93	85.5
341.158	89.5
341.386	90.5
341.614	68.5
341.842	79.5
342.07	87.5
342.298	81.5
342.526	93.5
342.754	91.5
342.981	87.5
343.209	79.5
343.437	75.5
343.665	99.5
343.893	96.5
344.12	86.5
344.348	91.5
344.576	83.5
344.804	100.5
345.031	85.5
345.259	79.5
345.487	88.5
345.714	83.5
345.942	72.5
346.17	96.5
346.397	79.5
346.625	91.5
346.853	76.5
347.08	82.5
347.308	80.5
347.535	72.5
347.763	76.5
347.99	77.5
348.218	101.5
348.445	90.5
348.673	76.5
348.9	76.5
349.128	80.5
349.355	74.5
349.583	84.5
349.81	83.5
350.037	68.5
350.265	88.5
350.492	95.5
350.72	87.5
350.947	85.5
351.174	90.5
351.402	83.5
351.629	86.5
351.856	91.5
352.083	76.5
352.311	78.5
352.538	74.5
352.765	101.5
352.992	88.5
353.22	88.5
353.447	88.5
353.674	84.5
353.901	87.5
354.128	89.5
354.355	96.5
354.583	86.5
354.81	88.5
355.037	75.5
355.264	84.5
355.491	74.5
355.718	60.5
355.945	91.5
356.172	93.5
356.399	78.5
356.626	84.5
356.853	84.5
357.08	78.5
357.307	88.5
357.534	98.5
357.761	78.5
357.988	83.5
358.215	95.5
358.441	76.5
358.668	87.5
358.895	83.5
359.122	81.5
359.349	64.5
359.576	91.5
359.802	85.5
360.029	87.5
360.256	76.5
360.483	82.5
360.709	74.5
360.936	93.5
361.163	79.5
361.39	79.5
361.616	87.5
361.843	80.5
362.07	78.5
362.296	88.5
362.523	92.5
362.749	73.5
362.976	83.5
363.203	86.5
363.429	78.5
363.656	87.5
363.882	89.5
364.109	68.5
364.335	83.5
364.562	80.5
364.788	67.5
365.015	92.5
365.241	91.5
365.468	82.5
365.694	84.5
365.92	91.5
366.147	104.5
366.373	94.5
366.599	81.5
366.826	87.5
367.052	94.5
367.278	87.5
367.505	82.5
367.731	85.5
367.957	94.5
368.184	83.5
368.41	95.5
368.636	92.5
368.862	86.5
369.089	84.5
369.315	86.5
369.541	88.5
369.767	76.5
369.993	80.5
370.219	86.5
370.445	72.5
370.672	89.5
370.898	82.5
371.124	70.5
371.35	83.5
371.576	76.5
371.802	81.5
372.028	86.5
372.254	94.5
372.48	87.5
372.706	97.5
372.932	83.5
373.158	90.5
373.384	86.5
373.61	90.5
373.835	87.5
374.061	87.5
374.287	80.5
374.513	96.5
374.739	88.5
374.965	87.5
375.191	99.5
375.416	89.5
375.642	94.5
375.868	76.5
376.094	87.5
376.319	81.5
376.545	75.5
376.771	86.5
376.997	79.5
377.222	81.5
377.448	79.5
377.674	92.5
377.899	89.5
378.125	100.5
378.35	86.5
378.576	92.5
378.802	95.5
379.027	87.5
379.253	79.5
379.478	100.5
379.704	106.5
379.929	97.5
380.155	89.5
380.38	88.5
380.606	91.5
380.831	100.5
381.057	103.5
381.282	74.5
381.507	83.5
381.733	97.5
381.958	83.5
382.184	97.5
382.409	102.5
382.634	99.5
382.86	93.5
383.085	89.5
383.31	89.5
383.535	90.5
383.761	93.5
383.986	91.5
384.211	96.5
384.436	96.5
384.662	82.5
384.887	89.5
385.112	87.5
385.337	95.5
385.562	83.5
385.787	88.5
386.013	112.5
386.238	95.5
386.463	110.5
386.688	93.5
386.913	90.5
387.138	104.5
387.363	100.5
387.588	89.5
387.813	96.5
388.038	100.5
388.263	102.5
388.488	110.5
388.713	90.5
388.938	102.5
389.163	115.5
389.387	88.5
389.612	95.5
389.837	90.5
390.062	99.5
390.287	84.5
390.512	94.5
390.736	99.5
390.961	96.5
391.186	108.5
391.411	93.5
391.636	107.5
391.86	91.5
392.085	102.5
392.31	90.5
392.534	96.5
392.759	95.5
392.984	83.5
393.208	110.5
393.433	97.5
393.658	98.5
393.882	91.5
394.107	89.5
394.331	98.5
394.556	110.5
394.78	96.5
395.005	94.5
395.229	74.5
395.454	97.5
395.678	89.5
395.903	102.5
396.127	89.5
396.352	114.5
396.576	92.5
396.801	92.5
397.025	107.5
397.249	112.5
397.474	101.5
397.698	104.5
397.922	123.5
398.147	114.5
398.371	92.5
398.595	96.5
398.82	100.5
399.044	100.5
399.268	121.5
399.492	132.5
399.717	132.5
399.941	121.5
400.165	107.5
400.389	111.5
400.613	98.5
400.837	106.5
401.062	98.5
401.286	103.5
401.51	111.5
401.734	95.5
401.958	115.5
402.182	107.5
402.406	99.5
402.63	120.5
402.854	99.5
403.078	98.5
403.302	102.5
403.526	116.5
403.75	108.5
403.974	104.5
404.198	116.5
404.422	108.5
404.645	105.5
404.869	103.5
405.093	117.5
405.317	112.5
405.541	117.5
405.765	96.5
405.988	113.5
406.212	113.5
406.436	102.5
406.66	101.5
406.883	114.5
407.107	115.5
407.331	118.5
407.555	111.5
407.778	115.5
408.002	119.5
408.226	105.5
408.449	112.5
408.673	110.5
408.896	106.5
409.12	98.5
409.344	115.5
409.567	113.5
409.791	115.5
410.014	110.5
410.238	96.5
410.461	110.5
410.685	113.5
410.908	110.5
411.132	106.5
411.355	122.5
411.578	121.5
411.802	130.5
412.025	127.5
412.249	106.5
412.472	116.5
412.695	112.5
412.919	101.5
413.142	112.5
413.365	121.5
413.589	112.5
413.812	113.5
414.035	118.5
414.258	115.5
414.482	119.5
414.705	114.5
414.928	117.5
415.151	103.5
415.374	116.5
415.597	126.5
415.821	112.5
416.044	107.5
416.267	110.5
416.49	110.5
416.713	113.5
416.936	122.5
417.159	115.5
417.382	115.5
417.605	118.5
417.828	112.5
418.051	115.5
418.274	116.5
418.497	111.5
418.72	114.5
418.943	113.5
419.166	116.5
419.389	117.5
419.611	115.5
419.834	112.5
420.057	128.5
420.28	116.5
420.503	111.5
420.726	128.5
420.948	113.5
421.171	114.5
421.394	105.5
421.617	118.5
421.839	122.5
422.062	119.5
422.285	112.5
422.507	113.5
422.73	114.5
422.953	120.5
423.175	121.5
423.398	122.5
423.621	117.5
423.843	93.5
424.066	121.5
424.288	107.5
424.511	103.5
424.733	131.5
424.956	115.5
425.178	120.5
425.401	123.5
425.623	117.5
425.846	116.5
426.068	106.5
426.291	124.5
426.513	104.5
426.735	103.5
426.958	112.5
427.18	94.5
427.402	124.5
427.625	100.5
427.847	110.5
428.069	113.5
428.292	117.5
428.514	111.5
428.736	96.5
428.958	114.5
429.181	106.5
429.403	97.5
429.625	111.5
429.847	103.5
430.069	119.5
430.292	115.5
430.514	105.5
430.736	102.5
430.958	118.5
431.18	111.5
431.402	105.5
431.624	112.5
431.846	116.5
432.068	91.5
432.29	102.5
432.512	96.5
432.734	115.5
432.956	120.5
433.178	112.5
433.4	117.5
433.622	110.5
433.844	112.5
434.066	108.5
434.287	105.5
434.509	101.5
434.731	98.5
434.953	95.5
435.175	111.5
435.397	126.5
435.618	119.5
435.84	98.5
436.062	118.5
436.284	104.5
436.505	120.5
436.727	107.5
436.949	115.5
437.17	124.5
437.392	93.5
437.614	105.5
437.835	94.5
438.057	92.5
438.278	105.5
438.5	119.5
438.721	117.5
438.943	112.5
439.165	120.5
439.386	111.5
439.608	115.5
439.829	108.5
440.05	118.5
440.272	112.5
440.493	119.5
440.715	121.5
440.936	114.5
441.158	121.5
441.379	116.5
441.6	111.5
441.822	114.5
442.043	114.5
442.264	103.5
442.486	115.5
442.707	121.5
442.928	126.5
443.149	128.5
443.371	121.5
443.592	123.5
443.813	119.5
444.034	121.5
444.255	129.5
444.476	123.5
444.698	131.5
444.919	126.5
445.14	243.5
445.361	179.5
445.582	126.5
445.803	126.5
446.024	122.5
446.245	124.5
446.466	115.5
446.687	132.5
446.908	124.5
447.129	103.5
447.35	121.5
447.571	112.5
447.792	105.5
448.013	113.5
448.234	117.5
448.455	108.5
448.675	118.5
448.896	104.5
449.117	123.5
449.338	123.5
449.559	123.5
449.779	116.5
450	102.5
450.221	112.5
450.442	120.5
450.662	114.5
450.883	104.5
451.104	128.5
451.324	113.5
451.545	116.5
451.766	118.5
451.986	112.5
452.207	120.5
452.428	123.5
452.648	122.5
452.869	98.5
453.089	116.5
453.31	107.5
453.53	118.5
453.751	105.5
453.971	96.5
454.192	98.5
454.412	102.5
454.633	106.5
454.853	103.5
455.073	102.5
455.294	116.5
455.514	103.5
455.734	107.5
455.955	125.5
456.175	116.5
456.395	116.5
456.616	117.5
456.836	114.5
457.056	108.5
457.276	106.5
457.497	105.5
457.717	115.5
457.937	102.5
458.157	110.5
458.377	108.5
458.598	118.5
458.818	103.5
459.038	96.5
459.258	100.5
459.478	105.5
459.698	107.5
459.918	114.5
460.138	110.5
460.358	111.5
460.578	124.5
460.798	130.5
461.018	120.5
461.238	124.5
461.458	123.5
461.678	103.5
461.898	117.5
462.118	122.5
462.338	115.5
462.558	122.5
462.777	121.5
462.997	120.5
463.217	117.5
463.437	130.5
463.657	126.5
463.876	130.5
464.096	126.5
464.316	126.5
464.536	101.5
464.755	115.5
464.975	114.5
465.195	124.5
465.414	126.5
465.634	116.5
465.854	106.5
466.073	116.5
466.293	117.5
466.512	114.5
466.732	116.5
466.951	119.5
467.171	125.5
467.391	123.5
467.61	117.5
467.829	111.5
468.049	102.5
468.268	122.5
468.488	111.5
468.707	114.5
468.927	114.5
469.146	118.5
469.365	113.5
469.585	105.5
469.804	131.5
470.023	120.5
470.243	122.5
470.462	119.5
470.681	125.5
470.901	121.5
471.12	126.5
471.339	117.5
471.558	118.5
471.777	107.5
471.997	112.5
472.216	118.5
472.435	113.5
472.654	107.5
472.873	106.5
473.092	121.5
473.311	122.5
473.53	112.5
473.749	116.5
473.968	119.5
474.187	118.5
474.406	114.5
474.625	115.5
474.844	124.5
475.063	115.5
475.282	125.5
475.501	123.5
475.72	123.5
475.939	106.5
476.158	110.5
476.377	94.5
476.596	103.5
476.814	103.5
477.033	121.5
477.252	118.5
477.471	113.5
477.69	118.5
477.908	128.5
478.127	120.5
478.346	125.5
478.564	130.5
478.783	127.5
479.002	112.5
479.22	123.5
479.439	130.5
479.658	122.5
479.876	126.5
480.095	122.5
480.313	112.5
480.532	133.5
480.751	117.5
480.969	118.5
481.188	102.5
481.406	115.5
481.624	100.5
481.843	102.5
482.061	118.5
482.28	116.5
482.498	111.5
482.717	105.5
482.935	126.5
483.153	139.5
483.372	125.5
483.59	126.5
483.808	117.5
484.027	128.5
484.245	130.5
484.463	120.5
484.681	134.5
484.9	124.5
485.118	113.5
485.336	130.5
485.554	133.5
485.772	114.5
485.99	112.5
486.209	122.5
486.427	109.5
486.645	122.5
486.863	128.5
487.081	118.5
487.299	120.5
487.517	131.5
487.735	144.5
487.953	137.5
488.171	148.5
488.389	140.5
488.607	117.5
488.825	127.5
489.043	135.5
489.261	137.5
489.479	122.5
489.696	124.5
489.914	140.5
490.132	138.5
490.35	132.5
490.568	138.5
490.786	143.5
491.003	137.5
491.221	133.5
491.439	152.5
491.657	142.5
491.874	156.5
492.092	177.5
492.31	180.5
492.527	154.5
492.745	159.5
492.963	156.5
493.18	154.5
493.398	137.5
493.615	147.5
493.833	146.5
494.05	142.5
494.268	145.5
494.485	153.5
494.703	160.5
494.92	141.5
495.138	144.5
495.355	150.5
495.573	138.5
495.79	144.5
496.008	147.5
496.225	152.5
496.442	152.5
496.66	155.5
496.877	158.5
497.094	152.5
497.312	156.5
497.529	153.5
497.746	142.5
497.963	129.5
498.181	144.5
498.398	144.5
498.615	146.5
498.832	144.5
499.049	142.5
499.267	164.5
499.484	180.5
499.701	174.5
499.918	176.5
500.135	193.5
500.352	212.5
500.569	233.5
500.786	215.5
501.003	203.5
501.22	186.5
501.437	170.5
501.654	174.5
501.871	165.5
502.088	153.5
502.305	164.5
502.522	162.5
502.739	158.5
502.956	152.5
503.172	136.5
503.389	126.5
503.606	139.5
503.823	132.5
504.04	119.5
504.256	143.5
504.473	143.5
504.69	151.5
504.907	137.5
505.123	109.5
505.34	117.5
505.557	117.5
505.773	120.5
505.99	126.5
506.207	121.5
506.423	132.5
506.64	121.5
506.856	122.5
507.073	129.5
507.289	126.5
507.506	130.5
507.722	123.5
507.939	118.5
508.155	128.5
508.372	123.5
508.588	119.5
508.805	136.5
509.021	124.5
509.238	126.5
509.454	126.5
509.67	111.5
509.887	114.5
510.103	113.5
510.319	114.5
510.536	117.5
510.752	107.5
510.968	104.5
511.184	102.5
511.401	106.5
511.617	106.5
511.833	108.5
512.049	128.5
512.265	133.5
512.481	126.5
512.698	126.5
512.914	106.5
513.13	106.5
513.346	99.5
513.562	105.5
513.778	107.5
513.994	119.5
514.21	118.5
514.426	123.5
514.642	102.5
514.858	111.5
515.074	114.5
515.29	122.5
515.506	128.5
515.721	119.5
515.937	116.5
516.153	133.5
516.369	108.5
516.585	128.5
516.801	115.5
517.016	125.5
517.232	108.5
517.448	115.5
517.664	147.5
517.879	127.5
518.095	134.5
518.311	132.5
518.527	141.5
518.742	135.5
518.958	105.5
519.173	124.5
519.389	118.5
519.605	123.5
519.82	117.5
520.036	119.5
520.251	114.5
520.467	116.5
520.682	118.5
520.898	114.5
521.113	97.5
521.329	112.5
521.544	116.5
521.76	121.5
521.975	105.5
522.19	106.5
522.406	113.5
522.621	112.5
522.836	116.5
523.052	124.5
523.267	101.5
523.482	120.5
523.698	117.5
523.913	118.5
524.128	100.5
524.343	119.5
524.559	115.5
524.774	112.5
524.989	119.5
525.204	121.5
525.419	123.5
525.634	114.5
525.849	102.5
526.064	124.5
526.28	106.5
526.495	101.5
526.71	96.5
526.925	122.5
527.14	96.5
527.355	110.5
527.57	92.5
527.785	112.5
527.999	114.5
528.214	103.5
528.429	122.5
528.644	110.5
528.859	114.5
529.074	121.5
529.289	141.5
529.503	117.5
529.718	125.5
529.933	124.5
530.148	116.5
