Data from StandardFe(NO3)3.TAE.3%Agarose.FlatLispGreen.Lamp.Energy10.07252019_HRD10591_11-54-18-440.txt Node
Date: Thu Jul 25 11:54:18 EDT 2019
User: cochatt
Spectrometer: HR+D1059
Trigger mode: 1
Integration Time (sec): 1.000000E-1
Scans to average: 1
Electric dark correction enabled: true
Nonlinearity correction enabled: false
Boxcar width: 0
XAxis mode: Wavelengths
Number of Pixels in Spectrum: 2048
>>>>>Begin Spectral Data<<<<<
223.165	-18.88
223.4	-18.88
223.635	-18.88
223.869	-11.88
224.104	-10.88
224.338	-21.88
224.573	-17.88
224.808	-13.88
225.042	-15.88
225.277	-14.88
225.511	14.12
225.746	6.12
225.98	8.12
226.215	16.12
226.449	0.12
226.683	15.12
226.918	29.12
227.152	37.12
227.387	20.12
227.621	29.12
227.856	41.12
228.09	47.12
228.324	51.12
228.559	47.12
228.793	48.12
229.027	51.12
229.262	71.12
229.496	79.12
229.73	86.12
229.964	74.12
230.199	75.12
230.433	70.12
230.667	78.12
230.901	69.12
231.136	61.12
231.37	80.12
231.604	79.12
231.838	99.12
232.072	80.12
232.306	88.12
232.541	90.12
232.775	86.12
233.009	75.12
233.243	75.12
233.477	89.12
233.711	80.12
233.945	76.12
234.179	73.12
234.413	79.12
234.647	75.12
234.881	82.12
235.115	56.12
235.349	88.12
235.583	81.12
235.817	76.12
236.051	71.12
236.285	69.12
236.519	73.12
236.753	83.12
236.987	70.12
237.221	77.12
237.455	82.12
237.689	74.12
237.922	70.12
238.156	83.12
238.39	78.12
238.624	83.12
238.858	70.12
239.091	68.12
239.325	66.12
239.559	65.12
239.793	70.12
240.027	68.12
240.26	69.12
240.494	72.12
240.728	67.12
240.961	81.12
241.195	67.12
241.429	81.12
241.662	76.12
241.896	82.12
242.13	55.12
242.363	64.12
242.597	62.12
242.83	80.12
243.064	86.12
243.298	85.12
243.531	76.12
243.765	70.12
243.998	68.12
244.232	77.12
244.465	75.12
244.699	71.12
244.932	84.12
245.166	79.12
245.399	84.12
245.633	64.12
245.866	80.12
246.099	71.12
246.333	87.12
246.566	88.12
246.8	90.12
247.033	72.12
247.266	75.12
247.5	70.12
247.733	66.12
247.966	82.12
248.2	65.12
248.433	86.12
248.666	80.12
248.899	82.12
249.133	79.12
249.366	75.12
249.599	97.12
249.832	78.12
250.066	96.12
250.299	75.12
250.532	84.12
250.765	85.12
250.998	83.12
251.231	88.12
251.465	74.12
251.698	86.12
251.931	80.12
252.164	77.12
252.397	82.12
252.63	80.12
252.863	77.12
253.096	69.12
253.329	90.12
253.562	75.12
253.795	74.12
254.028	73.12
254.261	80.12
254.494	81.12
254.727	78.12
254.96	87.12
255.193	87.12
255.426	86.12
255.659	93.12
255.892	70.12
256.124	87.12
256.357	83.12
256.59	77.12
256.823	71.12
257.056	75.12
257.289	83.12
257.521	64.12
257.754	71.12
257.987	63.12
258.22	74.12
258.452	82.12
258.685	73.12
258.918	67.12
259.151	83.12
259.383	91.12
259.616	88.12
259.849	84.12
260.081	74.12
260.314	80.12
260.547	88.12
260.779	88.12
261.012	91.12
261.244	66.12
261.477	88.12
261.71	89.12
261.942	95.12
262.175	84.12
262.407	81.12
262.64	94.12
262.872	85.12
263.105	65.12
263.337	67.12
263.57	77.12
263.802	79.12
264.035	76.12
264.267	71.12
264.499	93.12
264.732	80.12
264.964	78.12
265.197	73.12
265.429	83.12
265.661	58.12
265.894	100.12
266.126	74.12
266.358	96.12
266.591	89.12
266.823	83.12
267.055	80.12
267.287	61.12
267.52	90.12
267.752	81.12
267.984	88.12
268.216	85.12
268.448	90.12
268.681	74.12
268.913	82.12
269.145	66.12
269.377	96.12
269.609	85.12
269.841	77.12
270.073	89.12
270.306	72.12
270.538	84.12
270.77	73.12
271.002	75.12
271.234	67.12
271.466	73.12
271.698	70.12
271.93	89.12
272.162	79.12
272.394	87.12
272.626	90.12
272.858	75.12
273.09	84.12
273.322	81.12
273.553	75.12
273.785	87.12
274.017	74.12
274.249	91.12
274.481	93.12
274.713	98.12
274.945	90.12
275.176	85.12
275.408	80.12
275.64	82.12
275.872	87.12
276.104	82.12
276.335	81.12
276.567	70.12
276.799	84.12
277.031	77.12
277.262	90.12
277.494	91.12
277.726	74.12
277.957	67.12
278.189	79.12
278.421	78.12
278.652	90.12
278.884	76.12
279.115	88.12
279.347	82.12
279.579	84.12
279.81	83.12
280.042	77.12
280.273	80.12
280.505	82.12
280.736	82.12
280.968	90.12
281.199	89.12
281.431	82.12
281.662	78.12
281.894	65.12
282.125	86.12
282.356	84.12
282.588	73.12
282.819	82.12
283.051	81.12
283.282	94.12
283.513	88.12
283.745	81.12
283.976	74.12
284.207	82.12
284.439	81.12
284.67	66.12
284.901	78.12
285.132	73.12
285.364	64.12
285.595	92.12
285.826	82.12
286.057	75.12
286.288	85.12
286.52	77.12
286.751	65.12
286.982	74.12
287.213	88.12
287.444	89.12
287.675	66.12
287.906	77.12
288.138	81.12
288.369	93.12
288.6	82.12
288.831	72.12
289.062	82.12
289.293	85.12
289.524	93.12
289.755	73.12
289.986	85.12
290.217	85.12
290.448	87.12
290.679	86.12
290.91	89.12
291.141	83.12
291.371	84.12
291.602	85.12
291.833	102.12
292.064	70.12
292.295	84.12
292.526	90.12
292.757	86.12
292.987	75.12
293.218	75.12
293.449	91.12
293.68	79.12
293.91	85.12
294.141	80.12
294.372	87.12
294.603	85.12
294.833	80.12
295.064	77.12
295.295	82.12
295.525	85.12
295.756	77.12
295.987	79.12
296.217	91.12
296.448	92.12
296.679	64.12
296.909	92.12
297.14	100.12
297.37	92.12
297.601	77.12
297.831	79.12
298.062	88.12
298.292	81.12
298.523	88.12
298.753	82.12
298.984	95.12
299.214	89.12
299.445	87.12
299.675	82.12
299.905	93.12
300.136	74.12
300.366	75.12
300.597	81.12
300.827	86.12
301.057	74.12
301.288	86.12
301.518	80.12
301.748	74.12
301.979	81.12
302.209	79.12
302.439	90.12
302.669	87.12
302.9	91.12
303.13	88.12
303.36	77.12
303.59	81.12
303.82	75.12
304.051	90.12
304.281	70.12
304.511	77.12
304.741	77.12
304.971	76.12
305.201	67.12
305.431	87.12
305.661	86.12
305.891	80.12
306.121	80.12
306.352	81.12
306.582	78.12
306.812	90.12
307.042	96.12
307.272	70.12
307.502	86.12
307.731	74.12
307.961	75.12
308.191	80.12
308.421	87.12
308.651	78.12
308.881	74.12
309.111	85.12
309.341	75.12
309.571	80.12
309.8	84.12
310.03	86.12
310.26	95.12
310.49	87.12
310.72	97.12
310.949	70.12
311.179	79.12
311.409	85.12
311.639	93.12
311.868	83.12
312.098	102.12
312.328	95.12
312.557	77.12
312.787	79.12
313.017	93.12
313.246	72.12
313.476	68.12
313.706	87.12
313.935	77.12
314.165	84.12
314.394	73.12
314.624	90.12
314.853	90.12
315.083	72.12
315.312	80.12
315.542	76.12
315.771	81.12
316.001	81.12
316.23	76.12
316.46	78.12
316.689	85.12
316.919	81.12
317.148	79.12
317.377	84.12
317.607	92.12
317.836	89.12
318.065	84.12
318.295	78.12
318.524	80.12
318.753	88.12
318.983	96.12
319.212	88.12
319.441	90.12
319.67	84.12
319.9	87.12
320.129	83.12
320.358	76.12
320.587	79.12
320.816	82.12
321.046	72.12
321.275	88.12
321.504	88.12
321.733	94.12
321.962	82.12
322.191	63.12
322.42	79.12
322.649	85.12
322.878	71.12
323.108	88.12
323.337	90.12
323.566	89.12
323.795	83.12
324.024	96.12
324.253	80.12
324.482	75.12
324.71	82.12
324.939	95.12
325.168	73.12
325.397	97.12
325.626	83.12
325.855	83.12
326.084	80.12
326.313	71.12
326.542	74.12
326.77	95.12
326.999	87.12
327.228	91.12
327.457	85.12
327.686	94.12
327.914	95.12
328.143	83.12
328.372	86.12
328.6	74.12
328.829	67.12
329.058	77.12
329.287	87.12
329.515	89.12
329.744	90.12
329.972	94.12
330.201	71.12
330.43	84.12
330.658	85.12
330.887	84.12
331.115	82.12
331.344	82.12
331.572	78.12
331.801	79.12
332.03	95.12
332.258	94.12
332.486	86.12
332.715	84.12
332.943	75.12
333.172	86.12
333.4	93.12
333.629	86.12
333.857	73.12
334.085	79.12
334.314	80.12
334.542	79.12
334.771	93.12
334.999	82.12
335.227	94.12
335.455	93.12
335.684	82.12
335.912	87.12
336.14	93.12
336.369	79.12
336.597	88.12
336.825	75.12
337.053	77.12
337.281	69.12
337.51	84.12
337.738	79.12
337.966	70.12
338.194	75.12
338.422	77.12
338.65	87.12
338.878	90.12
339.106	90.12
339.334	85.12
339.562	76.12
339.79	84.12
340.018	82.12
340.246	86.12
340.474	79.12
340.702	95.12
340.93	82.12
341.158	87.12
341.386	72.12
341.614	86.12
341.842	87.12
342.07	75.12
342.298	94.12
342.526	86.12
342.754	74.12
342.981	81.12
343.209	82.12
343.437	72.12
343.665	76.12
343.893	87.12
344.12	88.12
344.348	84.12
344.576	79.12
344.804	85.12
345.031	89.12
345.259	70.12
345.487	74.12
345.714	72.12
345.942	87.12
346.17	93.12
346.397	92.12
346.625	69.12
346.853	84.12
347.08	94.12
347.308	89.12
347.535	94.12
347.763	84.12
347.99	85.12
348.218	85.12
348.445	82.12
348.673	75.12
348.9	93.12
349.128	81.12
349.355	81.12
349.583	78.12
349.81	90.12
350.037	71.12
350.265	71.12
350.492	84.12
350.72	82.12
350.947	82.12
351.174	79.12
351.402	81.12
351.629	74.12
351.856	77.12
352.083	94.12
352.311	67.12
352.538	76.12
352.765	84.12
352.992	72.12
353.22	78.12
353.447	82.12
353.674	82.12
353.901	85.12
354.128	76.12
354.355	83.12
354.583	79.12
354.81	86.12
355.037	84.12
355.264	72.12
355.491	100.12
355.718	89.12
355.945	80.12
356.172	86.12
356.399	93.12
356.626	81.12
356.853	76.12
357.08	109.12
357.307	87.12
357.534	93.12
357.761	82.12
357.988	80.12
358.215	78.12
358.441	71.12
358.668	89.12
358.895	93.12
359.122	82.12
359.349	100.12
359.576	90.12
359.802	87.12
360.029	73.12
360.256	80.12
360.483	88.12
360.709	89.12
360.936	91.12
361.163	79.12
361.39	90.12
361.616	88.12
361.843	100.12
362.07	69.12
362.296	74.12
362.523	77.12
362.749	86.12
362.976	85.12
363.203	87.12
363.429	97.12
363.656	84.12
363.882	77.12
364.109	82.12
364.335	92.12
364.562	81.12
364.788	91.12
365.015	87.12
365.241	80.12
365.468	70.12
365.694	78.12
365.92	75.12
366.147	79.12
366.373	78.12
366.599	78.12
366.826	86.12
367.052	99.12
367.278	76.12
367.505	72.12
367.731	73.12
367.957	81.12
368.184	80.12
368.41	90.12
368.636	90.12
368.862	82.12
369.089	105.12
369.315	92.12
369.541	100.12
369.767	94.12
369.993	88.12
370.219	88.12
370.445	81.12
370.672	81.12
370.898	85.12
371.124	86.12
371.35	89.12
371.576	89.12
371.802	82.12
372.028	88.12
372.254	88.12
372.48	72.12
372.706	81.12
372.932	76.12
373.158	83.12
373.384	89.12
373.61	91.12
373.835	87.12
374.061	79.12
374.287	77.12
374.513	87.12
374.739	90.12
374.965	83.12
375.191	83.12
375.416	75.12
375.642	92.12
375.868	85.12
376.094	78.12
376.319	85.12
376.545	89.12
376.771	91.12
376.997	87.12
377.222	90.12
377.448	82.12
377.674	86.12
377.899	94.12
378.125	86.12
378.35	87.12
378.576	88.12
378.802	98.12
379.027	97.12
379.253	109.12
379.478	85.12
379.704	81.12
379.929	65.12
380.155	90.12
380.38	90.12
380.606	86.12
380.831	91.12
381.057	101.12
381.282	74.12
381.507	86.12
381.733	100.12
381.958	75.12
382.184	98.12
382.409	104.12
382.634	80.12
382.86	91.12
383.085	90.12
383.31	85.12
383.535	90.12
383.761	88.12
383.986	77.12
384.211	84.12
384.436	86.12
384.662	87.12
384.887	85.12
385.112	91.12
385.337	84.12
385.562	88.12
385.787	84.12
386.013	88.12
386.238	79.12
386.463	95.12
386.688	101.12
386.913	100.12
387.138	96.12
387.363	102.12
387.588	106.12
387.813	92.12
388.038	87.12
388.263	110.12
388.488	108.12
388.713	92.12
388.938	97.12
389.163	94.12
389.387	96.12
389.612	93.12
389.837	103.12
390.062	90.12
390.287	83.12
390.512	100.12
390.736	111.12
390.961	82.12
391.186	88.12
391.411	89.12
391.636	92.12
391.86	93.12
392.085	85.12
392.31	97.12
392.534	93.12
392.759	103.12
392.984	108.12
393.208	93.12
393.433	86.12
393.658	92.12
393.882	96.12
394.107	99.12
394.331	89.12
394.556	109.12
394.78	92.12
395.005	94.12
395.229	109.12
395.454	101.12
395.678	87.12
395.903	98.12
396.127	87.12
396.352	100.12
396.576	96.12
396.801	101.12
397.025	95.12
397.249	101.12
397.474	99.12
397.698	97.12
397.922	98.12
398.147	96.12
398.371	96.12
398.595	101.12
398.82	106.12
399.044	103.12
399.268	103.12
399.492	102.12
399.717	117.12
399.941	111.12
400.165	100.12
400.389	111.12
400.613	106.12
400.837	109.12
401.062	117.12
401.286	109.12
401.51	109.12
401.734	96.12
401.958	111.12
402.182	107.12
402.406	97.12
402.63	110.12
402.854	97.12
403.078	89.12
403.302	92.12
403.526	107.12
403.75	102.12
403.974	114.12
404.198	105.12
404.422	109.12
404.645	97.12
404.869	83.12
405.093	125.12
405.317	113.12
405.541	110.12
405.765	104.12
405.988	116.12
406.212	104.12
406.436	115.12
406.66	113.12
406.883	116.12
407.107	107.12
407.331	122.12
407.555	108.12
407.778	109.12
408.002	102.12
408.226	111.12
408.449	103.12
408.673	114.12
408.896	113.12
409.12	106.12
409.344	113.12
409.567	94.12
409.791	103.12
410.014	112.12
410.238	109.12
410.461	118.12
410.685	112.12
410.908	111.12
411.132	114.12
411.355	115.12
411.578	114.12
411.802	107.12
412.025	116.12
412.249	102.12
412.472	103.12
412.695	110.12
412.919	107.12
413.142	97.12
413.365	96.12
413.589	108.12
413.812	91.12
414.035	100.12
414.258	104.12
414.482	99.12
414.705	104.12
414.928	114.12
415.151	97.12
415.374	113.12
415.597	118.12
415.821	109.12
416.044	103.12
416.267	99.12
416.49	104.12
416.713	89.12
416.936	101.12
417.159	104.12
417.382	95.12
417.605	98.12
417.828	119.12
418.051	111.12
418.274	114.12
418.497	106.12
418.72	108.12
418.943	114.12
419.166	114.12
419.389	116.12
419.611	120.12
419.834	99.12
420.057	113.12
420.28	127.12
420.503	108.12
420.726	114.12
420.948	115.12
421.171	118.12
421.394	113.12
421.617	113.12
421.839	119.12
422.062	116.12
422.285	114.12
422.507	107.12
422.73	117.12
422.953	115.12
423.175	103.12
423.398	105.12
423.621	123.12
423.843	100.12
424.066	111.12
424.288	108.12
424.511	112.12
424.733	120.12
424.956	120.12
425.178	132.12
425.401	130.12
425.623	117.12
425.846	104.12
426.068	100.12
426.291	117.12
426.513	120.12
426.735	113.12
426.958	105.12
427.18	115.12
427.402	113.12
427.625	105.12
427.847	114.12
428.069	114.12
428.292	115.12
428.514	116.12
428.736	117.12
428.958	111.12
429.181	105.12
429.403	111.12
429.625	115.12
429.847	120.12
430.069	115.12
430.292	119.12
430.514	127.12
430.736	97.12
430.958	83.12
431.18	110.12
431.402	85.12
431.624	109.12
431.846	113.12
432.068	90.12
432.29	102.12
432.512	118.12
432.734	104.12
432.956	121.12
433.178	114.12
433.4	127.12
433.622	121.12
433.844	110.12
434.066	94.12
434.287	97.12
434.509	96.12
434.731	101.12
434.953	103.12
435.175	117.12
435.397	123.12
435.618	109.12
435.84	109.12
436.062	112.12
436.284	119.12
436.505	97.12
436.727	109.12
436.949	122.12
437.17	107.12
437.392	117.12
437.614	115.12
437.835	104.12
438.057	109.12
438.278	102.12
438.5	111.12
438.721	138.12
438.943	120.12
439.165	117.12
439.386	114.12
439.608	106.12
439.829	104.12
440.05	113.12
440.272	104.12
440.493	118.12
440.715	116.12
440.936	115.12
441.158	140.12
441.379	123.12
441.6	117.12
441.822	116.12
442.043	120.12
442.264	122.12
442.486	129.12
442.707	124.12
442.928	128.12
443.149	112.12
443.371	113.12
443.592	107.12
443.813	118.12
444.034	122.12
444.255	122.12
444.476	127.12
444.698	117.12
444.919	123.12
445.14	239.12
445.361	170.12
445.582	135.12
445.803	110.12
446.024	120.12
446.245	125.12
446.466	128.12
446.687	111.12
446.908	98.12
447.129	117.12
447.35	118.12
447.571	125.12
447.792	102.12
448.013	115.12
448.234	115.12
448.455	117.12
448.675	119.12
448.896	84.12
449.117	111.12
449.338	114.12
449.559	112.12
449.779	118.12
450	125.12
450.221	103.12
450.442	120.12
450.662	111.12
450.883	119.12
451.104	106.12
451.324	117.12
451.545	103.12
451.766	125.12
451.986	111.12
452.207	109.12
452.428	102.12
452.648	104.12
452.869	100.12
453.089	104.12
453.31	97.12
453.53	126.12
453.751	113.12
453.971	106.12
454.192	87.12
454.412	92.12
454.633	90.12
454.853	93.12
455.073	111.12
455.294	105.12
455.514	115.12
455.734	109.12
455.955	109.12
456.175	105.12
456.395	99.12
456.616	98.12
456.836	121.12
457.056	98.12
457.276	102.12
457.497	103.12
457.717	88.12
457.937	101.12
458.157	111.12
458.377	104.12
458.598	89.12
458.818	95.12
459.038	110.12
459.258	105.12
459.478	96.12
459.698	100.12
459.918	105.12
460.138	125.12
460.358	120.12
460.578	115.12
460.798	115.12
461.018	122.12
461.238	123.12
461.458	124.12
461.678	110.12
461.898	113.12
462.118	100.12
462.338	105.12
462.558	118.12
462.777	108.12
462.997	121.12
463.217	125.12
463.437	125.12
463.657	113.12
463.876	117.12
464.096	126.12
464.316	114.12
464.536	124.12
464.755	117.12
464.975	111.12
465.195	134.12
465.414	117.12
465.634	126.12
465.854	109.12
466.073	118.12
466.293	116.12
466.512	109.12
466.732	119.12
466.951	120.12
467.171	129.12
467.391	119.12
467.61	115.12
467.829	115.12
468.049	117.12
468.268	106.12
468.488	103.12
468.707	121.12
468.927	118.12
469.146	117.12
469.365	121.12
469.585	114.12
469.804	129.12
470.023	125.12
470.243	128.12
470.462	129.12
470.681	125.12
470.901	118.12
471.12	125.12
471.339	129.12
471.558	115.12
471.777	130.12
471.997	131.12
472.216	115.12
472.435	102.12
472.654	121.12
472.873	113.12
473.092	109.12
473.311	119.12
473.53	112.12
473.749	98.12
473.968	113.12
474.187	113.12
474.406	111.12
474.625	113.12
474.844	115.12
475.063	114.12
475.282	111.12
475.501	94.12
475.72	107.12
475.939	110.12
476.158	119.12
476.377	115.12
476.596	114.12
476.814	109.12
477.033	111.12
477.252	120.12
477.471	118.12
477.69	132.12
477.908	121.12
478.127	126.12
478.346	120.12
478.564	133.12
478.783	138.12
479.002	121.12
479.22	140.12
479.439	124.12
479.658	109.12
479.876	128.12
480.095	123.12
480.313	111.12
480.532	119.12
480.751	120.12
480.969	120.12
481.188	109.12
481.406	122.12
481.624	118.12
481.843	103.12
482.061	100.12
482.28	119.12
482.498	109.12
482.717	106.12
482.935	120.12
483.153	114.12
483.372	130.12
483.59	128.12
483.808	128.12
484.027	121.12
484.245	111.12
484.463	131.12
484.681	132.12
484.9	114.12
485.118	123.12
485.336	121.12
485.554	125.12
485.772	113.12
485.99	112.12
486.209	134.12
486.427	127.12
486.645	128.12
486.863	122.12
487.081	130.12
487.299	138.12
487.517	116.12
487.735	154.12
487.953	137.12
488.171	144.12
488.389	146.12
488.607	129.12
488.825	121.12
489.043	121.12
489.261	119.12
489.479	114.12
489.696	136.12
489.914	128.12
490.132	133.12
490.35	137.12
490.568	134.12
490.786	152.12
491.003	151.12
491.221	143.12
491.439	128.12
491.657	136.12
491.874	160.12
492.092	167.12
492.31	173.12
492.527	172.12
492.745	162.12
492.963	155.12
493.18	153.12
493.398	152.12
493.615	146.12
493.833	145.12
494.05	160.12
494.268	140.12
494.485	145.12
494.703	149.12
494.92	139.12
495.138	157.12
495.355	140.12
495.573	141.12
495.79	153.12
496.008	149.12
496.225	151.12
496.442	143.12
496.66	139.12
496.877	161.12
497.094	131.12
497.312	122.12
497.529	158.12
497.746	141.12
497.963	141.12
498.181	158.12
498.398	145.12
498.615	145.12
498.832	134.12
499.049	138.12
499.267	150.12
499.484	165.12
499.701	180.12
499.918	179.12
500.135	192.12
500.352	224.12
500.569	210.12
500.786	202.12
501.003	188.12
501.22	190.12
501.437	178.12
501.654	169.12
501.871	164.12
502.088	130.12
502.305	156.12
502.522	159.12
502.739	151.12
502.956	131.12
503.172	147.12
503.389	137.12
503.606	133.12
503.823	129.12
504.04	134.12
504.256	152.12
504.473	148.12
504.69	127.12
504.907	154.12
505.123	140.12
505.34	138.12
505.557	127.12
505.773	124.12
505.99	138.12
506.207	127.12
506.423	125.12
506.64	131.12
506.856	122.12
507.073	132.12
507.289	147.12
507.506	115.12
507.722	118.12
507.939	122.12
508.155	128.12
508.372	125.12
508.588	135.12
508.805	125.12
509.021	112.12
509.238	123.12
509.454	119.12
509.67	121.12
509.887	103.12
510.103	114.12
510.319	117.12
510.536	114.12
510.752	115.12
510.968	130.12
511.184	107.12
511.401	113.12
511.617	121.12
511.833	109.12
512.049	117.12
