Data from StandardFe(NO3)3.TAE.3%Agarose.FlatLispGreen.Lamp.Energy10.07252019_HRD10591_11-53-44-439.txt Node
Date: Thu Jul 25 11:53:44 EDT 2019
User: cochatt
Spectrometer: HR+D1059
Trigger mode: 1
Integration Time (sec): 1.000000E-1
Scans to average: 1
Electric dark correction enabled: true
Nonlinearity correction enabled: false
Boxcar width: 0
XAxis mode: Wavelengths
Number of Pixels in Spectrum: 2048
>>>>>Begin Spectral Data<<<<<
223.165	-9.44
223.4	-9.44
223.635	-9.44
223.869	-27.44
224.104	-1.44
224.338	-14.44
224.573	-15.44
224.808	-2.44
225.042	-12.44
225.277	-8.44
225.511	-5.44
225.746	-4.44
225.98	7.56
226.215	18.56
226.449	18.56
226.683	22.56
226.918	14.56
227.152	19.56
227.387	49.56
227.621	53.56
227.856	47.56
228.09	48.56
228.324	60.56
228.559	56.56
228.793	47.56
229.027	66.56
229.262	54.56
229.496	60.56
229.73	72.56
229.964	69.56
230.199	74.56
230.433	74.56
230.667	64.56
230.901	70.56
231.136	83.56
231.37	89.56
231.604	80.56
231.838	73.56
232.072	82.56
232.306	71.56
232.541	91.56
232.775	80.56
233.009	83.56
233.243	89.56
233.477	88.56
233.711	85.56
233.945	70.56
234.179	77.56
234.413	80.56
234.647	79.56
234.881	79.56
235.115	80.56
235.349	72.56
235.583	81.56
235.817	78.56
236.051	81.56
236.285	88.56
236.519	75.56
236.753	75.56
236.987	79.56
237.221	72.56
237.455	90.56
237.689	85.56
237.922	73.56
238.156	73.56
238.39	80.56
238.624	84.56
238.858	85.56
239.091	64.56
239.325	72.56
239.559	74.56
239.793	85.56
240.027	68.56
240.26	76.56
240.494	78.56
240.728	79.56
240.961	69.56
241.195	82.56
241.429	75.56
241.662	73.56
241.896	98.56
242.13	79.56
242.363	71.56
242.597	77.56
242.83	99.56
243.064	74.56
243.298	75.56
243.531	87.56
243.765	83.56
243.998	78.56
244.232	77.56
244.465	74.56
244.699	82.56
244.932	79.56
245.166	79.56
245.399	89.56
245.633	74.56
245.866	63.56
246.099	70.56
246.333	76.56
246.566	82.56
246.8	81.56
247.033	77.56
247.266	76.56
247.5	80.56
247.733	87.56
247.966	64.56
248.2	80.56
248.433	88.56
248.666	93.56
248.899	88.56
249.133	85.56
249.366	56.56
249.599	71.56
249.832	68.56
250.066	98.56
250.299	72.56
250.532	90.56
250.765	72.56
250.998	90.56
251.231	75.56
251.465	71.56
251.698	78.56
251.931	74.56
252.164	77.56
252.397	77.56
252.63	67.56
252.863	83.56
253.096	67.56
253.329	84.56
253.562	70.56
253.795	74.56
254.028	84.56
254.261	71.56
254.494	87.56
254.727	75.56
254.96	78.56
255.193	76.56
255.426	78.56
255.659	87.56
255.892	80.56
256.124	94.56
256.357	73.56
256.59	82.56
256.823	79.56
257.056	87.56
257.289	89.56
257.521	90.56
257.754	86.56
257.987	85.56
258.22	77.56
258.452	84.56
258.685	83.56
258.918	81.56
259.151	87.56
259.383	88.56
259.616	74.56
259.849	88.56
260.081	88.56
260.314	85.56
260.547	74.56
260.779	79.56
261.012	91.56
261.244	88.56
261.477	100.56
261.71	89.56
261.942	74.56
262.175	84.56
262.407	88.56
262.64	78.56
262.872	84.56
263.105	97.56
263.337	88.56
263.57	94.56
263.802	86.56
264.035	91.56
264.267	77.56
264.499	80.56
264.732	84.56
264.964	81.56
265.197	82.56
265.429	95.56
265.661	105.56
265.894	82.56
266.126	81.56
266.358	81.56
266.591	80.56
266.823	91.56
267.055	93.56
267.287	87.56
267.52	91.56
267.752	90.56
267.984	85.56
268.216	71.56
268.448	84.56
268.681	98.56
268.913	81.56
269.145	83.56
269.377	101.56
269.609	81.56
269.841	76.56
270.073	87.56
270.306	93.56
270.538	92.56
270.77	99.56
271.002	85.56
271.234	75.56
271.466	86.56
271.698	89.56
271.93	83.56
272.162	92.56
272.394	76.56
272.626	87.56
272.858	85.56
273.09	83.56
273.322	85.56
273.553	92.56
273.785	83.56
274.017	86.56
274.249	93.56
274.481	88.56
274.713	82.56
274.945	80.56
275.176	89.56
275.408	96.56
275.64	100.56
275.872	78.56
276.104	89.56
276.335	78.56
276.567	101.56
276.799	86.56
277.031	78.56
277.262	94.56
277.494	78.56
277.726	90.56
277.957	90.56
278.189	83.56
278.421	84.56
278.652	84.56
278.884	80.56
279.115	90.56
279.347	83.56
279.579	91.56
279.81	70.56
280.042	102.56
280.273	85.56
280.505	85.56
280.736	88.56
280.968	71.56
281.199	83.56
281.431	70.56
281.662	82.56
281.894	88.56
282.125	91.56
282.356	76.56
282.588	91.56
282.819	96.56
283.051	94.56
283.282	88.56
283.513	89.56
283.745	85.56
283.976	83.56
284.207	80.56
284.439	70.56
284.67	103.56
284.901	85.56
285.132	89.56
285.364	70.56
285.595	74.56
285.826	88.56
286.057	97.56
286.288	75.56
286.52	73.56
286.751	87.56
286.982	95.56
287.213	83.56
287.444	79.56
287.675	81.56
287.906	77.56
288.138	88.56
288.369	94.56
288.6	102.56
288.831	76.56
289.062	96.56
289.293	99.56
289.524	82.56
289.755	81.56
289.986	91.56
290.217	91.56
290.448	78.56
290.679	78.56
290.91	90.56
291.141	89.56
291.371	69.56
291.602	95.56
291.833	89.56
292.064	77.56
292.295	98.56
292.526	90.56
292.757	88.56
292.987	89.56
293.218	85.56
293.449	86.56
293.68	88.56
293.91	81.56
294.141	84.56
294.372	93.56
294.603	83.56
294.833	93.56
295.064	75.56
295.295	75.56
295.525	86.56
295.756	70.56
295.987	79.56
296.217	74.56
296.448	83.56
296.679	97.56
296.909	76.56
297.14	74.56
297.37	92.56
297.601	88.56
297.831	91.56
298.062	100.56
298.292	92.56
298.523	88.56
298.753	82.56
298.984	90.56
299.214	91.56
299.445	88.56
299.675	77.56
299.905	91.56
300.136	78.56
300.366	85.56
300.597	88.56
300.827	87.56
301.057	85.56
301.288	88.56
301.518	87.56
301.748	81.56
301.979	90.56
302.209	75.56
302.439	85.56
302.669	107.56
302.9	85.56
303.13	87.56
303.36	103.56
303.59	86.56
303.82	84.56
304.051	89.56
304.281	83.56
304.511	92.56
304.741	88.56
304.971	89.56
305.201	86.56
305.431	95.56
305.661	83.56
305.891	94.56
306.121	93.56
306.352	83.56
306.582	87.56
306.812	104.56
307.042	88.56
307.272	81.56
307.502	84.56
307.731	81.56
307.961	92.56
308.191	86.56
308.421	94.56
308.651	87.56
308.881	82.56
309.111	83.56
309.341	79.56
309.571	86.56
309.8	85.56
310.03	95.56
310.26	94.56
310.49	103.56
310.72	89.56
310.949	82.56
311.179	90.56
311.409	89.56
311.639	89.56
311.868	79.56
312.098	85.56
312.328	81.56
312.557	84.56
312.787	78.56
313.017	99.56
313.246	84.56
313.476	91.56
313.706	66.56
313.935	92.56
314.165	83.56
314.394	82.56
314.624	77.56
314.853	99.56
315.083	78.56
315.312	78.56
315.542	86.56
315.771	98.56
316.001	88.56
316.23	86.56
316.46	84.56
316.689	95.56
316.919	84.56
317.148	78.56
317.377	93.56
317.607	90.56
317.836	80.56
318.065	82.56
318.295	86.56
318.524	95.56
318.753	81.56
318.983	93.56
319.212	95.56
319.441	88.56
319.67	88.56
319.9	84.56
320.129	84.56
320.358	87.56
320.587	90.56
320.816	102.56
321.046	86.56
321.275	95.56
321.504	88.56
321.733	85.56
321.962	88.56
322.191	91.56
322.42	91.56
322.649	84.56
322.878	84.56
323.108	84.56
323.337	94.56
323.566	96.56
323.795	85.56
324.024	97.56
324.253	88.56
324.482	79.56
324.71	83.56
324.939	83.56
325.168	90.56
325.397	87.56
325.626	83.56
325.855	87.56
326.084	85.56
326.313	79.56
326.542	93.56
326.77	84.56
326.999	91.56
327.228	85.56
327.457	82.56
327.686	80.56
327.914	88.56
328.143	80.56
328.372	82.56
328.6	87.56
328.829	85.56
329.058	85.56
329.287	97.56
329.515	84.56
329.744	100.56
329.972	81.56
330.201	88.56
330.43	84.56
330.658	95.56
330.887	74.56
331.115	95.56
331.344	94.56
331.572	93.56
331.801	93.56
332.03	70.56
332.258	89.56
332.486	92.56
332.715	85.56
332.943	75.56
333.172	85.56
333.4	104.56
333.629	75.56
333.857	78.56
334.085	83.56
334.314	95.56
334.542	82.56
334.771	90.56
334.999	98.56
335.227	88.56
335.455	84.56
335.684	87.56
335.912	77.56
336.14	91.56
336.369	78.56
336.597	80.56
336.825	87.56
337.053	90.56
337.281	91.56
337.51	88.56
337.738	81.56
337.966	88.56
338.194	90.56
338.422	100.56
338.65	79.56
338.878	90.56
339.106	97.56
339.334	85.56
339.562	81.56
339.79	84.56
340.018	92.56
340.246	93.56
340.474	80.56
340.702	90.56
340.93	83.56
341.158	71.56
341.386	74.56
341.614	82.56
341.842	88.56
342.07	89.56
342.298	84.56
342.526	84.56
342.754	82.56
342.981	77.56
343.209	89.56
343.437	77.56
343.665	90.56
343.893	80.56
344.12	94.56
344.348	97.56
344.576	79.56
344.804	96.56
345.031	99.56
345.259	91.56
345.487	76.56
345.714	86.56
345.942	81.56
346.17	85.56
346.397	82.56
346.625	90.56
346.853	86.56
347.08	88.56
347.308	93.56
347.535	100.56
347.763	83.56
347.99	93.56
348.218	79.56
348.445	95.56
348.673	95.56
348.9	91.56
349.128	98.56
349.355	76.56
349.583	79.56
349.81	91.56
350.037	77.56
350.265	88.56
350.492	80.56
350.72	90.56
350.947	71.56
351.174	91.56
351.402	90.56
351.629	95.56
351.856	84.56
352.083	76.56
352.311	73.56
352.538	80.56
352.765	91.56
352.992	84.56
353.22	71.56
353.447	85.56
353.674	75.56
353.901	95.56
354.128	82.56
354.355	99.56
354.583	75.56
354.81	81.56
355.037	95.56
355.264	89.56
355.491	82.56
355.718	87.56
355.945	99.56
356.172	92.56
356.399	97.56
356.626	83.56
356.853	90.56
357.08	85.56
357.307	91.56
357.534	91.56
357.761	89.56
357.988	82.56
358.215	77.56
358.441	89.56
358.668	94.56
358.895	85.56
359.122	95.56
359.349	84.56
359.576	90.56
359.802	93.56
360.029	76.56
360.256	96.56
360.483	96.56
360.709	72.56
360.936	95.56
361.163	91.56
361.39	79.56
361.616	77.56
361.843	88.56
362.07	90.56
362.296	94.56
362.523	89.56
362.749	85.56
362.976	98.56
363.203	94.56
363.429	82.56
363.656	88.56
363.882	79.56
364.109	78.56
364.335	104.56
364.562	83.56
364.788	84.56
365.015	80.56
365.241	88.56
365.468	90.56
365.694	88.56
365.92	76.56
366.147	86.56
366.373	81.56
366.599	85.56
366.826	96.56
367.052	91.56
367.278	87.56
367.505	83.56
367.731	91.56
367.957	93.56
368.184	83.56
368.41	80.56
368.636	95.56
368.862	86.56
369.089	80.56
369.315	81.56
369.541	100.56
369.767	89.56
369.993	100.56
370.219	94.56
370.445	106.56
370.672	102.56
370.898	88.56
371.124	90.56
371.35	87.56
371.576	80.56
371.802	91.56
372.028	84.56
372.254	98.56
372.48	91.56
372.706	80.56
372.932	81.56
373.158	107.56
373.384	88.56
373.61	102.56
373.835	98.56
374.061	94.56
374.287	92.56
374.513	99.56
374.739	99.56
374.965	92.56
375.191	81.56
375.416	83.56
375.642	78.56
375.868	95.56
376.094	91.56
376.319	92.56
376.545	100.56
376.771	96.56
376.997	75.56
377.222	82.56
377.448	92.56
377.674	89.56
377.899	99.56
378.125	92.56
378.35	95.56
378.576	89.56
378.802	93.56
379.027	87.56
379.253	95.56
379.478	96.56
379.704	103.56
379.929	82.56
380.155	94.56
380.38	91.56
380.606	105.56
380.831	99.56
381.057	97.56
381.282	105.56
381.507	79.56
381.733	105.56
381.958	96.56
382.184	104.56
382.409	84.56
382.634	77.56
382.86	96.56
383.085	89.56
383.31	83.56
383.535	92.56
383.761	90.56
383.986	85.56
384.211	99.56
384.436	95.56
384.662	93.56
384.887	96.56
385.112	92.56
385.337	92.56
385.562	103.56
385.787	101.56
386.013	102.56
386.238	113.56
386.463	100.56
386.688	99.56
386.913	107.56
387.138	80.56
387.363	90.56
387.588	105.56
387.813	99.56
388.038	102.56
388.263	85.56
388.488	94.56
388.713	92.56
388.938	96.56
389.163	105.56
389.387	90.56
389.612	91.56
389.837	104.56
390.062	98.56
390.287	86.56
390.512	97.56
390.736	93.56
390.961	90.56
391.186	94.56
391.411	100.56
391.636	100.56
391.86	90.56
392.085	106.56
392.31	120.56
392.534	91.56
392.759	103.56
392.984	108.56
393.208	81.56
393.433	92.56
393.658	96.56
393.882	103.56
394.107	88.56
394.331	92.56
394.556	103.56
394.78	103.56
395.005	103.56
395.229	88.56
395.454	103.56
395.678	102.56
395.903	91.56
396.127	94.56
396.352	107.56
396.576	104.56
396.801	101.56
397.025	103.56
397.249	93.56
397.474	109.56
397.698	105.56
397.922	100.56
398.147	105.56
398.371	103.56
398.595	111.56
398.82	91.56
399.044	93.56
399.268	116.56
399.492	115.56
399.717	112.56
399.941	101.56
400.165	115.56
400.389	128.56
400.613	115.56
400.837	95.56
401.062	99.56
401.286	113.56
401.51	92.56
401.734	100.56
401.958	115.56
402.182	108.56
402.406	96.56
402.63	108.56
402.854	116.56
403.078	104.56
403.302	111.56
403.526	113.56
403.75	107.56
403.974	121.56
404.198	111.56
404.422	106.56
404.645	111.56
404.869	105.56
405.093	108.56
405.317	108.56
405.541	107.56
405.765	116.56
405.988	111.56
406.212	107.56
406.436	105.56
406.66	99.56
406.883	119.56
407.107	102.56
407.331	129.56
407.555	125.56
407.778	104.56
408.002	124.56
408.226	116.56
408.449	107.56
408.673	119.56
408.896	115.56
409.12	118.56
409.344	125.56
409.567	116.56
409.791	107.56
410.014	113.56
410.238	114.56
410.461	109.56
410.685	114.56
410.908	112.56
411.132	104.56
411.355	123.56
411.578	118.56
411.802	97.56
412.025	109.56
412.249	95.56
412.472	112.56
412.695	99.56
412.919	102.56
413.142	109.56
413.365	107.56
413.589	108.56
413.812	112.56
414.035	119.56
414.258	116.56
414.482	117.56
414.705	115.56
414.928	116.56
415.151	111.56
415.374	124.56
415.597	117.56
415.821	108.56
416.044	108.56
416.267	115.56
416.49	111.56
416.713	115.56
416.936	116.56
417.159	108.56
417.382	115.56
417.605	120.56
417.828	109.56
418.051	111.56
418.274	121.56
418.497	119.56
418.72	129.56
418.943	119.56
419.166	113.56
419.389	105.56
419.611	120.56
419.834	113.56
420.057	105.56
420.28	117.56
420.503	103.56
420.726	115.56
420.948	127.56
421.171	118.56
421.394	130.56
421.617	124.56
421.839	121.56
422.062	112.56
422.285	117.56
422.507	114.56
422.73	119.56
422.953	101.56
423.175	118.56
423.398	113.56
423.621	103.56
423.843	120.56
424.066	123.56
424.288	115.56
424.511	112.56
424.733	133.56
424.956	117.56
425.178	106.56
425.401	111.56
425.623	121.56
425.846	117.56
426.068	130.56
426.291	126.56
426.513	127.56
426.735	121.56
426.958	120.56
427.18	107.56
427.402	121.56
427.625	111.56
427.847	122.56
428.069	121.56
428.292	104.56
428.514	116.56
428.736	111.56
428.958	104.56
429.181	117.56
429.403	108.56
429.625	117.56
429.847	97.56
430.069	115.56
430.292	131.56
430.514	117.56
430.736	112.56
430.958	118.56
431.18	96.56
431.402	107.56
431.624	82.56
431.846	100.56
432.068	119.56
432.29	104.56
432.512	113.56
432.734	115.56
432.956	116.56
433.178	116.56
433.4	108.56
433.622	121.56
433.844	124.56
434.066	107.56
434.287	119.56
434.509	119.56
434.731	113.56
434.953	117.56
435.175	97.56
435.397	106.56
435.618	103.56
435.84	116.56
436.062	121.56
436.284	115.56
436.505	120.56
436.727	113.56
436.949	115.56
437.17	107.56
437.392	118.56
437.614	101.56
437.835	91.56
438.057	101.56
438.278	97.56
438.5	123.56
438.721	117.56
438.943	122.56
439.165	116.56
439.386	113.56
439.608	121.56
439.829	130.56
440.05	132.56
440.272	117.56
440.493	122.56
440.715	133.56
440.936	149.56
441.158	119.56
441.379	110.56
441.6	130.56
441.822	111.56
442.043	126.56
442.264	114.56
442.486	128.56
442.707	125.56
442.928	117.56
443.149	122.56
443.371	107.56
443.592	123.56
443.813	113.56
444.034	116.56
444.255	137.56
444.476	125.56
444.698	126.56
444.919	124.56
445.14	232.56
445.361	184.56
445.582	126.56
445.803	117.56
446.024	122.56
446.245	123.56
446.466	111.56
446.687	112.56
446.908	114.56
447.129	115.56
447.35	124.56
447.571	128.56
447.792	118.56
448.013	118.56
448.234	129.56
448.455	111.56
448.675	117.56
448.896	105.56
449.117	114.56
449.338	126.56
449.559	103.56
449.779	125.56
450	111.56
450.221	106.56
450.442	116.56
450.662	107.56
450.883	116.56
451.104	107.56
451.324	109.56
451.545	109.56
451.766	106.56
451.986	116.56
452.207	121.56
452.428	110.56
452.648	109.56
452.869	85.56
453.089	113.56
453.31	111.56
453.53	99.56
453.751	92.56
453.971	114.56
454.192	101.56
454.412	130.56
454.633	101.56
454.853	98.56
455.073	97.56
455.294	106.56
455.514	106.56
455.734	97.56
455.955	100.56
456.175	115.56
456.395	101.56
456.616	103.56
456.836	105.56
457.056	105.56
457.276	107.56
457.497	113.56
457.717	107.56
457.937	92.56
458.157	111.56
458.377	92.56
458.598	99.56
458.818	114.56
459.038	95.56
459.258	110.56
459.478	122.56
459.698	107.56
459.918	108.56
460.138	107.56
460.358	109.56
460.578	112.56
460.798	120.56
461.018	121.56
461.238	119.56
461.458	115.56
461.678	117.56
461.898	111.56
462.118	133.56
462.338	132.56
462.558	114.56
462.777	105.56
462.997	117.56
463.217	134.56
463.437	154.56
463.657	116.56
463.876	122.56
464.096	118.56
464.316	120.56
464.536	105.56
464.755	138.56
464.975	116.56
465.195	103.56
465.414	131.56
465.634	109.56
465.854	120.56
466.073	102.56
466.293	111.56
466.512	105.56
466.732	119.56
466.951	117.56
467.171	119.56
467.391	130.56
467.61	115.56
467.829	117.56
468.049	127.56
468.268	117.56
468.488	102.56
468.707	121.56
468.927	121.56
469.146	109.56
469.365	130.56
469.585	117.56
469.804	123.56
470.023	115.56
470.243	124.56
470.462	109.56
470.681	131.56
470.901	112.56
471.12	126.56
471.339	132.56
471.558	122.56
471.777	128.56
471.997	122.56
472.216	119.56
472.435	102.56
472.654	107.56
472.873	126.56
473.092	123.56
473.311	127.56
473.53	122.56
473.749	121.56
473.968	122.56
474.187	113.56
474.406	111.56
474.625	112.56
474.844	127.56
475.063	118.56
475.282	126.56
475.501	135.56
475.72	123.56
475.939	104.56
476.158	102.56
476.377	110.56
476.596	119.56
476.814	105.56
477.033	104.56
477.252	116.56
477.471	124.56
477.69	121.56
477.908	141.56
478.127	129.56
478.346	121.56
478.564	132.56
478.783	117.56
479.002	121.56
479.22	129.56
479.439	139.56
479.658	131.56
479.876	123.56
480.095	129.56
480.313	120.56
480.532	112.56
480.751	131.56
480.969	106.56
481.188	111.56
481.406	116.56
481.624	119.56
481.843	115.56
482.061	125.56
482.28	105.56
482.498	123.56
482.717	128.56
482.935	125.56
483.153	123.56
483.372	139.56
483.59	123.56
483.808	125.56
484.027	123.56
484.245	125.56
484.463	135.56
484.681	132.56
484.9	138.56
485.118	126.56
485.336	125.56
485.554	103.56
485.772	107.56
485.99	113.56
486.209	106.56
486.427	118.56
486.645	119.56
486.863	125.56
487.081	145.56
487.299	114.56
487.517	126.56
487.735	138.56
487.953	140.56
488.171	139.56
488.389	135.56
488.607	137.56
488.825	146.56
489.043	142.56
489.261	128.56
489.479	124.56
489.696	127.56
489.914	145.56
490.132	133.56
490.35	132.56
490.568	136.56
490.786	152.56
491.003	130.56
491.221	159.56
491.439	146.56
491.657	157.56
491.874	157.56
492.092	169.56
492.31	171.56
492.527	171.56
492.745	161.56
492.963	157.56
493.18	171.56
493.398	156.56
493.615	140.56
493.833	127.56
494.05	150.56
494.268	157.56
494.485	156.56
494.703	135.56
494.92	141.56
495.138	147.56
495.355	150.56
495.573	155.56
495.79	162.56
496.008	164.56
496.225	133.56
496.442	130.56
496.66	153.56
496.877	156.56
497.094	149.56
497.312	138.56
497.529	143.56
497.746	161.56
497.963	148.56
498.181	141.56
498.398	146.56
498.615	127.56
498.832	147.56
499.049	145.56
499.267	164.56
499.484	151.56
499.701	159.56
499.918	181.56
500.135	200.56
500.352	217.56
500.569	220.56
500.786	228.56
501.003	213.56
501.22	199.56
501.437	179.56
501.654	172.56
501.871	159.56
502.088	142.56
502.305	145.56
502.522	142.56
502.739	125.56
502.956	131.56
503.172	153.56
503.389	136.56
503.606	138.56
503.823	131.56
504.04	141.56
504.256	136.56
504.473	127.56
504.69	136.56
504.907	135.56
505.123	134.56
505.34	133.56
505.557	134.56
505.773	142.56
505.99	141.56
506.207	129.56
506.423	119.56
506.64	117.56
506.856	122.56
507.073	120.56
507.289	120.56
507.506	118.56
507.722	131.56
507.939	116.56
508.155	129.56
508.372	131.56
508.588	136.56
508.805	118.56
509.021	137.56
509.238	116.56
509.454	116.56
509.67	100.56
509.887	117.56
510.103	112.56
510.319	112.56
510.536	112.56
510.752	116.56
510.968	107.56
511.184	119.56
511.401	129.56
