Data from StandardFe(NO3)3.TAE.3%Agarose.FlatLispGreen.Lamp.Energy10.07252019_HRD10591_11-54-33-440.txt Node
Date: Thu Jul 25 11:54:33 EDT 2019
User: cochatt
Spectrometer: HR+D1059
Trigger mode: 1
Integration Time (sec): 1.000000E-1
Scans to average: 1
Electric dark correction enabled: true
Nonlinearity correction enabled: false
Boxcar width: 0
XAxis mode: Wavelengths
Number of Pixels in Spectrum: 2048
>>>>>Begin Spectral Data<<<<<
223.165	-6.5
223.4	-6.5
223.635	-6.5
223.869	-15.5
224.104	-27.5
224.338	-8.5
224.573	-7.5
224.808	-17.5
225.042	-10.5
225.277	-15.5
225.511	2.5
225.746	-1.5
225.98	17.5
226.215	7.5
226.449	13.5
226.683	23.5
226.918	21.5
227.152	24.5
227.387	44.5
227.621	53.5
227.856	38.5
228.09	49.5
228.324	55.5
228.559	65.5
228.793	60.5
229.027	73.5
229.262	68.5
229.496	67.5
229.73	76.5
229.964	75.5
230.199	77.5
230.433	70.5
230.667	77.5
230.901	74.5
231.136	97.5
231.37	87.5
231.604	71.5
231.838	82.5
232.072	75.5
232.306	97.5
232.541	77.5
232.775	94.5
233.009	83.5
233.243	89.5
233.477	103.5
233.711	87.5
233.945	77.5
234.179	87.5
234.413	65.5
234.647	80.5
234.881	84.5
235.115	80.5
235.349	79.5
235.583	75.5
235.817	78.5
236.051	59.5
236.285	84.5
236.519	87.5
236.753	78.5
236.987	73.5
237.221	87.5
237.455	69.5
237.689	76.5
237.922	95.5
238.156	83.5
238.39	85.5
238.624	87.5
238.858	79.5
239.091	84.5
239.325	68.5
239.559	82.5
239.793	75.5
240.027	92.5
240.26	73.5
240.494	82.5
240.728	88.5
240.961	89.5
241.195	64.5
241.429	79.5
241.662	90.5
241.896	88.5
242.13	92.5
242.363	90.5
242.597	91.5
242.83	65.5
243.064	80.5
243.298	83.5
243.531	79.5
243.765	71.5
243.998	85.5
244.232	86.5
244.465	93.5
244.699	88.5
244.932	75.5
245.166	71.5
245.399	89.5
245.633	77.5
245.866	79.5
246.099	100.5
246.333	98.5
246.566	86.5
246.8	77.5
247.033	77.5
247.266	76.5
247.5	65.5
247.733	78.5
247.966	82.5
248.2	72.5
248.433	73.5
248.666	88.5
248.899	78.5
249.133	84.5
249.366	85.5
249.599	92.5
249.832	82.5
250.066	89.5
250.299	84.5
250.532	74.5
250.765	77.5
250.998	76.5
251.231	75.5
251.465	89.5
251.698	79.5
251.931	88.5
252.164	87.5
252.397	91.5
252.63	85.5
252.863	86.5
253.096	78.5
253.329	74.5
253.562	84.5
253.795	69.5
254.028	84.5
254.261	84.5
254.494	83.5
254.727	75.5
254.96	85.5
255.193	74.5
255.426	84.5
255.659	97.5
255.892	78.5
256.124	83.5
256.357	95.5
256.59	84.5
256.823	92.5
257.056	93.5
257.289	67.5
257.521	75.5
257.754	90.5
257.987	78.5
258.22	94.5
258.452	90.5
258.685	72.5
258.918	86.5
259.151	88.5
259.383	78.5
259.616	84.5
259.849	79.5
260.081	66.5
260.314	87.5
260.547	75.5
260.779	85.5
261.012	103.5
261.244	81.5
261.477	90.5
261.71	85.5
261.942	89.5
262.175	78.5
262.407	90.5
262.64	90.5
262.872	89.5
263.105	93.5
263.337	89.5
263.57	100.5
263.802	87.5
264.035	84.5
264.267	88.5
264.499	86.5
264.732	90.5
264.964	80.5
265.197	89.5
265.429	78.5
265.661	91.5
265.894	85.5
266.126	83.5
266.358	91.5
266.591	91.5
266.823	89.5
267.055	83.5
267.287	80.5
267.52	85.5
267.752	85.5
267.984	85.5
268.216	96.5
268.448	85.5
268.681	73.5
268.913	89.5
269.145	99.5
269.377	83.5
269.609	92.5
269.841	81.5
270.073	94.5
270.306	78.5
270.538	86.5
270.77	103.5
271.002	81.5
271.234	88.5
271.466	86.5
271.698	72.5
271.93	95.5
272.162	93.5
272.394	89.5
272.626	110.5
272.858	87.5
273.09	79.5
273.322	90.5
273.553	83.5
273.785	78.5
274.017	88.5
274.249	89.5
274.481	100.5
274.713	79.5
274.945	75.5
275.176	92.5
275.408	96.5
275.64	97.5
275.872	92.5
276.104	89.5
276.335	97.5
276.567	95.5
276.799	80.5
277.031	79.5
277.262	80.5
277.494	81.5
277.726	84.5
277.957	73.5
278.189	84.5
278.421	85.5
278.652	85.5
278.884	70.5
279.115	96.5
279.347	93.5
279.579	87.5
279.81	80.5
280.042	75.5
280.273	79.5
280.505	90.5
280.736	92.5
280.968	87.5
281.199	95.5
281.431	81.5
281.662	81.5
281.894	81.5
282.125	88.5
282.356	92.5
282.588	91.5
282.819	91.5
283.051	89.5
283.282	79.5
283.513	78.5
283.745	85.5
283.976	95.5
284.207	91.5
284.439	64.5
284.67	92.5
284.901	92.5
285.132	93.5
285.364	80.5
285.595	95.5
285.826	92.5
286.057	97.5
286.288	107.5
286.52	95.5
286.751	92.5
286.982	92.5
287.213	94.5
287.444	85.5
287.675	84.5
287.906	81.5
288.138	86.5
288.369	87.5
288.6	79.5
288.831	97.5
289.062	95.5
289.293	88.5
289.524	71.5
289.755	73.5
289.986	90.5
290.217	89.5
290.448	81.5
290.679	85.5
290.91	87.5
291.141	75.5
291.371	95.5
291.602	89.5
291.833	96.5
292.064	80.5
292.295	96.5
292.526	85.5
292.757	94.5
292.987	77.5
293.218	75.5
293.449	87.5
293.68	103.5
293.91	85.5
294.141	108.5
294.372	83.5
294.603	80.5
294.833	93.5
295.064	80.5
295.295	91.5
295.525	73.5
295.756	89.5
295.987	82.5
296.217	87.5
296.448	113.5
296.679	93.5
296.909	101.5
297.14	84.5
297.37	94.5
297.601	84.5
297.831	83.5
298.062	97.5
298.292	97.5
298.523	93.5
298.753	100.5
298.984	97.5
299.214	85.5
299.445	86.5
299.675	101.5
299.905	93.5
300.136	84.5
300.366	89.5
300.597	79.5
300.827	79.5
301.057	103.5
301.288	75.5
301.518	93.5
301.748	83.5
301.979	83.5
302.209	100.5
302.439	108.5
302.669	88.5
302.9	72.5
303.13	97.5
303.36	102.5
303.59	88.5
303.82	87.5
304.051	87.5
304.281	92.5
304.511	88.5
304.741	96.5
304.971	82.5
305.201	97.5
305.431	87.5
305.661	93.5
305.891	84.5
306.121	86.5
306.352	94.5
306.582	105.5
306.812	90.5
307.042	98.5
307.272	83.5
307.502	74.5
307.731	91.5
307.961	88.5
308.191	87.5
308.421	98.5
308.651	96.5
308.881	104.5
309.111	92.5
309.341	89.5
309.571	92.5
309.8	79.5
310.03	94.5
310.26	87.5
310.49	100.5
310.72	97.5
310.949	93.5
311.179	84.5
311.409	101.5
311.639	87.5
311.868	95.5
312.098	80.5
312.328	81.5
312.557	86.5
312.787	87.5
313.017	89.5
313.246	91.5
313.476	83.5
313.706	88.5
313.935	85.5
314.165	88.5
314.394	88.5
314.624	84.5
314.853	81.5
315.083	75.5
315.312	92.5
315.542	104.5
315.771	79.5
316.001	96.5
316.23	100.5
316.46	107.5
316.689	78.5
316.919	104.5
317.148	99.5
317.377	89.5
317.607	91.5
317.836	91.5
318.065	96.5
318.295	90.5
318.524	72.5
318.753	89.5
318.983	91.5
319.212	80.5
319.441	92.5
319.67	91.5
319.9	89.5
320.129	88.5
320.358	93.5
320.587	78.5
320.816	107.5
321.046	100.5
321.275	92.5
321.504	78.5
321.733	90.5
321.962	82.5
322.191	95.5
322.42	90.5
322.649	95.5
322.878	86.5
323.108	88.5
323.337	96.5
323.566	79.5
323.795	101.5
324.024	84.5
324.253	93.5
324.482	89.5
324.71	97.5
324.939	100.5
325.168	92.5
325.397	96.5
325.626	84.5
325.855	81.5
326.084	87.5
326.313	84.5
326.542	92.5
326.77	92.5
326.999	84.5
327.228	94.5
327.457	64.5
327.686	85.5
327.914	92.5
328.143	84.5
328.372	77.5
328.6	93.5
328.829	89.5
329.058	83.5
329.287	92.5
329.515	92.5
329.744	88.5
329.972	92.5
330.201	97.5
330.43	99.5
330.658	92.5
330.887	85.5
331.115	93.5
331.344	95.5
331.572	102.5
331.801	94.5
332.03	98.5
332.258	86.5
332.486	74.5
332.715	80.5
332.943	79.5
333.172	77.5
333.4	90.5
333.629	81.5
333.857	97.5
334.085	87.5
334.314	91.5
334.542	85.5
334.771	83.5
334.999	90.5
335.227	103.5
335.455	84.5
335.684	99.5
335.912	73.5
336.14	92.5
336.369	91.5
336.597	85.5
336.825	87.5
337.053	91.5
337.281	99.5
337.51	97.5
337.738	84.5
337.966	79.5
338.194	97.5
338.422	86.5
338.65	100.5
338.878	91.5
339.106	93.5
339.334	88.5
339.562	85.5
339.79	87.5
340.018	86.5
340.246	100.5
340.474	109.5
340.702	90.5
340.93	99.5
341.158	85.5
341.386	85.5
341.614	85.5
341.842	90.5
342.07	96.5
342.298	89.5
342.526	92.5
342.754	85.5
342.981	78.5
343.209	91.5
343.437	78.5
343.665	92.5
343.893	88.5
344.12	91.5
344.348	91.5
344.576	89.5
344.804	88.5
345.031	89.5
345.259	83.5
345.487	86.5
345.714	80.5
345.942	100.5
346.17	88.5
346.397	80.5
346.625	91.5
346.853	96.5
347.08	94.5
347.308	89.5
347.535	84.5
347.763	81.5
347.99	89.5
348.218	90.5
348.445	92.5
348.673	101.5
348.9	87.5
349.128	96.5
349.355	86.5
349.583	91.5
349.81	97.5
350.037	81.5
350.265	84.5
350.492	96.5
350.72	95.5
350.947	87.5
351.174	95.5
351.402	82.5
351.629	85.5
351.856	97.5
352.083	95.5
352.311	86.5
352.538	88.5
352.765	94.5
352.992	92.5
353.22	79.5
353.447	92.5
353.674	73.5
353.901	98.5
354.128	105.5
354.355	88.5
354.583	81.5
354.81	86.5
355.037	82.5
355.264	105.5
355.491	73.5
355.718	83.5
355.945	96.5
356.172	90.5
356.399	102.5
356.626	97.5
356.853	100.5
357.08	86.5
357.307	94.5
357.534	93.5
357.761	82.5
357.988	87.5
358.215	96.5
358.441	78.5
358.668	94.5
358.895	80.5
359.122	99.5
359.349	84.5
359.576	88.5
359.802	87.5
360.029	97.5
360.256	108.5
360.483	90.5
360.709	91.5
360.936	88.5
361.163	98.5
361.39	101.5
361.616	81.5
361.843	80.5
362.07	94.5
362.296	95.5
362.523	82.5
362.749	81.5
362.976	87.5
363.203	80.5
363.429	83.5
363.656	82.5
363.882	104.5
364.109	83.5
364.335	89.5
364.562	85.5
364.788	83.5
365.015	110.5
365.241	91.5
365.468	72.5
365.694	72.5
365.92	77.5
366.147	102.5
366.373	78.5
366.599	101.5
366.826	92.5
367.052	84.5
367.278	88.5
367.505	86.5
367.731	88.5
367.957	72.5
368.184	94.5
368.41	93.5
368.636	89.5
368.862	99.5
369.089	93.5
369.315	87.5
369.541	94.5
369.767	75.5
369.993	82.5
370.219	89.5
370.445	73.5
370.672	88.5
370.898	95.5
371.124	91.5
371.35	80.5
371.576	83.5
371.802	89.5
372.028	83.5
372.254	87.5
372.48	88.5
372.706	87.5
372.932	93.5
373.158	106.5
373.384	96.5
373.61	89.5
373.835	94.5
374.061	87.5
374.287	91.5
374.513	95.5
374.739	92.5
374.965	100.5
375.191	93.5
375.416	95.5
375.642	94.5
375.868	104.5
376.094	91.5
376.319	97.5
376.545	108.5
376.771	98.5
376.997	86.5
377.222	94.5
377.448	84.5
377.674	95.5
377.899	102.5
378.125	91.5
378.35	107.5
378.576	80.5
378.802	97.5
379.027	89.5
379.253	95.5
379.478	90.5
379.704	91.5
379.929	98.5
380.155	95.5
380.38	93.5
380.606	95.5
380.831	91.5
381.057	111.5
381.282	93.5
381.507	85.5
381.733	94.5
381.958	102.5
382.184	95.5
382.409	109.5
382.634	109.5
382.86	97.5
383.085	108.5
383.31	92.5
383.535	99.5
383.761	95.5
383.986	91.5
384.211	102.5
384.436	97.5
384.662	95.5
384.887	94.5
385.112	97.5
385.337	103.5
385.562	96.5
385.787	96.5
386.013	103.5
386.238	93.5
386.463	101.5
386.688	98.5
386.913	99.5
387.138	108.5
387.363	101.5
387.588	100.5
387.813	103.5
388.038	96.5
388.263	111.5
388.488	91.5
388.713	95.5
388.938	95.5
389.163	92.5
389.387	95.5
389.612	97.5
389.837	104.5
390.062	104.5
390.287	104.5
390.512	97.5
390.736	91.5
390.961	116.5
391.186	95.5
391.411	107.5
391.636	110.5
391.86	101.5
392.085	105.5
392.31	104.5
392.534	108.5
392.759	100.5
392.984	94.5
393.208	111.5
393.433	105.5
393.658	106.5
393.882	116.5
394.107	101.5
394.331	117.5
394.556	100.5
394.78	103.5
395.005	102.5
395.229	105.5
395.454	113.5
395.678	100.5
395.903	104.5
396.127	106.5
396.352	120.5
396.576	90.5
396.801	91.5
397.025	109.5
397.249	104.5
397.474	102.5
397.698	116.5
397.922	110.5
398.147	91.5
398.371	103.5
398.595	113.5
398.82	117.5
399.044	109.5
399.268	117.5
399.492	128.5
399.717	111.5
399.941	106.5
400.165	110.5
400.389	109.5
400.613	109.5
400.837	104.5
401.062	112.5
401.286	102.5
401.51	115.5
401.734	115.5
401.958	112.5
402.182	108.5
402.406	107.5
402.63	111.5
402.854	104.5
403.078	95.5
403.302	107.5
403.526	103.5
403.75	113.5
403.974	117.5
404.198	119.5
404.422	102.5
404.645	107.5
404.869	104.5
405.093	100.5
405.317	111.5
405.541	135.5
405.765	126.5
405.988	129.5
406.212	118.5
406.436	117.5
406.66	95.5
406.883	121.5
407.107	122.5
407.331	127.5
407.555	107.5
407.778	109.5
408.002	93.5
408.226	112.5
408.449	123.5
408.673	121.5
408.896	123.5
409.12	121.5
409.344	107.5
409.567	123.5
409.791	110.5
410.014	117.5
410.238	128.5
410.461	95.5
410.685	110.5
410.908	124.5
411.132	126.5
411.355	112.5
411.578	117.5
411.802	129.5
412.025	113.5
412.249	108.5
412.472	110.5
412.695	116.5
412.919	104.5
413.142	121.5
413.365	121.5
413.589	121.5
413.812	107.5
414.035	119.5
414.258	113.5
414.482	111.5
414.705	110.5
414.928	112.5
415.151	124.5
415.374	110.5
415.597	120.5
415.821	117.5
416.044	111.5
416.267	108.5
416.49	115.5
416.713	120.5
416.936	120.5
417.159	115.5
417.382	109.5
417.605	99.5
417.828	107.5
418.051	112.5
418.274	121.5
418.497	114.5
418.72	116.5
418.943	127.5
419.166	120.5
419.389	119.5
419.611	120.5
419.834	120.5
420.057	118.5
420.28	104.5
420.503	105.5
420.726	118.5
420.948	103.5
421.171	108.5
421.394	122.5
421.617	109.5
421.839	125.5
422.062	134.5
422.285	116.5
422.507	120.5
422.73	132.5
422.953	118.5
423.175	121.5
423.398	128.5
423.621	129.5
423.843	116.5
424.066	116.5
424.288	120.5
424.511	134.5
424.733	122.5
424.956	135.5
425.178	126.5
425.401	122.5
425.623	128.5
425.846	116.5
426.068	119.5
426.291	115.5
426.513	120.5
426.735	115.5
426.958	112.5
427.18	115.5
427.402	105.5
427.625	115.5
427.847	129.5
428.069	135.5
428.292	118.5
428.514	113.5
428.736	103.5
428.958	115.5
429.181	110.5
429.403	110.5
429.625	117.5
429.847	115.5
430.069	112.5
430.292	110.5
430.514	116.5
430.736	118.5
430.958	112.5
431.18	121.5
431.402	110.5
431.624	133.5
431.846	121.5
432.068	118.5
432.29	121.5
432.512	106.5
432.734	120.5
432.956	129.5
433.178	112.5
433.4	126.5
433.622	113.5
433.844	117.5
434.066	101.5
434.287	102.5
434.509	100.5
434.731	111.5
434.953	121.5
435.175	121.5
435.397	125.5
435.618	128.5
435.84	92.5
436.062	117.5
436.284	109.5
436.505	108.5
436.727	111.5
436.949	117.5
437.17	123.5
437.392	121.5
437.614	131.5
437.835	104.5
438.057	117.5
438.278	107.5
438.5	113.5
438.721	98.5
438.943	103.5
439.165	121.5
439.386	127.5
439.608	134.5
439.829	133.5
440.05	126.5
440.272	120.5
440.493	103.5
440.715	119.5
440.936	117.5
441.158	130.5
441.379	107.5
441.6	135.5
441.822	121.5
442.043	127.5
442.264	119.5
442.486	131.5
442.707	122.5
442.928	118.5
443.149	122.5
443.371	132.5
443.592	123.5
443.813	135.5
444.034	120.5
444.255	128.5
444.476	129.5
444.698	115.5
444.919	110.5
445.14	254.5
445.361	201.5
445.582	131.5
445.803	125.5
446.024	133.5
446.245	141.5
446.466	127.5
446.687	133.5
446.908	127.5
447.129	127.5
447.35	110.5
447.571	135.5
447.792	123.5
448.013	104.5
448.234	129.5
448.455	117.5
448.675	106.5
448.896	119.5
449.117	127.5
449.338	113.5
449.559	123.5
449.779	119.5
450	112.5
450.221	114.5
450.442	121.5
450.662	113.5
450.883	124.5
451.104	122.5
451.324	125.5
451.545	103.5
451.766	109.5
451.986	108.5
452.207	124.5
452.428	133.5
452.648	113.5
452.869	118.5
453.089	133.5
453.31	123.5
453.53	107.5
453.751	123.5
453.971	123.5
454.192	109.5
454.412	123.5
454.633	117.5
454.853	111.5
455.073	107.5
455.294	98.5
455.514	119.5
455.734	101.5
455.955	115.5
456.175	106.5
456.395	120.5
456.616	111.5
456.836	104.5
457.056	105.5
457.276	100.5
457.497	122.5
457.717	101.5
457.937	107.5
458.157	95.5
458.377	116.5
458.598	108.5
458.818	102.5
459.038	101.5
459.258	112.5
459.478	97.5
459.698	119.5
459.918	108.5
460.138	122.5
460.358	106.5
460.578	112.5
460.798	120.5
461.018	124.5
461.238	112.5
461.458	118.5
461.678	128.5
461.898	142.5
462.118	132.5
462.338	123.5
462.558	118.5
462.777	117.5
462.997	138.5
463.217	141.5
463.437	119.5
463.657	131.5
463.876	120.5
464.096	127.5
464.316	128.5
464.536	138.5
464.755	124.5
464.975	124.5
465.195	117.5
465.414	132.5
465.634	111.5
465.854	131.5
466.073	126.5
466.293	116.5
466.512	112.5
466.732	123.5
466.951	126.5
467.171	133.5
467.391	105.5
467.61	122.5
467.829	121.5
468.049	131.5
468.268	125.5
468.488	124.5
468.707	115.5
468.927	131.5
469.146	112.5
469.365	125.5
469.585	131.5
469.804	128.5
470.023	123.5
470.243	133.5
470.462	131.5
470.681	125.5
470.901	133.5
471.12	124.5
471.339	126.5
471.558	127.5
471.777	127.5
471.997	123.5
472.216	115.5
472.435	103.5
472.654	109.5
472.873	105.5
473.092	108.5
473.311	119.5
473.53	127.5
473.749	139.5
473.968	118.5
474.187	122.5
474.406	119.5
474.625	118.5
474.844	117.5
475.063	135.5
475.282	116.5
475.501	122.5
475.72	123.5
475.939	115.5
476.158	102.5
476.377	127.5
476.596	129.5
476.814	127.5
477.033	104.5
477.252	111.5
477.471	135.5
477.69	121.5
477.908	138.5
478.127	123.5
478.346	122.5
478.564	124.5
478.783	127.5
479.002	111.5
479.22	132.5
479.439	130.5
479.658	118.5
479.876	127.5
480.095	120.5
480.313	133.5
480.532	144.5
480.751	122.5
480.969	107.5
481.188	127.5
481.406	119.5
481.624	110.5
481.843	109.5
482.061	117.5
482.28	115.5
482.498	138.5
482.717	145.5
482.935	135.5
483.153	135.5
483.372	131.5
483.59	142.5
483.808	144.5
484.027	133.5
484.245	131.5
484.463	132.5
484.681	138.5
484.9	133.5
485.118	133.5
485.336	145.5
485.554	130.5
485.772	123.5
485.99	128.5
486.209	125.5
486.427	123.5
486.645	121.5
486.863	133.5
487.081	133.5
487.299	140.5
487.517	136.5
487.735	142.5
487.953	142.5
488.171	135.5
488.389	148.5
488.607	123.5
488.825	119.5
489.043	124.5
489.261	137.5
489.479	143.5
489.696	132.5
489.914	131.5
490.132	137.5
490.35	124.5
490.568	157.5
490.786	161.5
491.003	156.5
491.221	155.5
491.439	157.5
491.657	184.5
491.874	153.5
492.092	167.5
492.31	187.5
492.527	172.5
492.745	159.5
492.963	151.5
493.18	153.5
493.398	160.5
493.615	166.5
493.833	147.5
494.05	171.5
494.268	160.5
494.485	152.5
494.703	149.5
494.92	155.5
495.138	157.5
495.355	143.5
495.573	164.5
495.79	142.5
496.008	155.5
496.225	163.5
496.442	147.5
496.66	158.5
496.877	159.5
497.094	163.5
497.312	157.5
497.529	146.5
497.746	157.5
497.963	146.5
498.181	133.5
498.398	161.5
498.615	151.5
498.832	144.5
499.049	148.5
499.267	148.5
499.484	173.5
499.701	185.5
499.918	179.5
500.135	216.5
500.352	238.5
500.569	217.5
500.786	211.5
501.003	212.5
501.22	204.5
501.437	167.5
501.654	177.5
501.871	179.5
502.088	163.5
502.305	161.5
502.522	160.5
502.739	163.5
502.956	139.5
503.172	159.5
503.389	130.5
503.606	148.5
503.823	159.5
504.04	137.5
504.256	153.5
504.473	142.5
504.69	138.5
504.907	136.5
505.123	131.5
505.34	137.5
505.557	136.5
505.773	144.5
505.99	142.5
506.207	124.5
506.423	129.5
506.64	137.5
506.856	122.5
507.073	134.5
507.289	135.5
507.506	125.5
507.722	127.5
507.939	139.5
508.155	126.5
508.372	127.5
508.588	127.5
508.805	135.5
509.021	125.5
509.238	126.5
509.454	132.5
509.67	129.5
509.887	119.5
510.103	121.5
510.319	120.5
510.536	126.5
510.752	126.5
510.968	127.5
511.184	94.5
511.401	111.5
511.617	118.5
511.833	123.5
512.049	130.5
512.265	107.5
512.481	105.5
512.698	118.5
512.914	119.5
513.13	138.5
513.346	117.5
513.562	124.5
513.778	119.5
513.994	121.5
514.21	119.5
514.426	132.5
514.642	122.5
514.858	130.5
515.074	117.5
515.29	126.5
515.506	108.5
515.721	105.5
515.937	123.5
516.153	127.5
516.369	123.5
516.585	123.5
516.801	110.5
517.016	125.5
517.232	121.5
517.448	134.5
517.664	131.5
517.879	129.5
518.095	131.5
518.311	121.5
518.527	140.5
518.742	125.5
518.958	125.5
519.173	123.5
519.389	117.5
519.605	116.5
519.82	123.5
520.036	127.5
520.251	115.5
520.467	124.5
520.682	132.5
520.898	127.5
521.113	129.5
521.329	112.5
521.544	131.5
521.76	117.5
521.975	126.5
522.19	112.5
522.406	104.5
522.621	121.5
522.836	128.5
523.052	134.5
523.267	125.5
523.482	122.5
523.698	116.5
523.913	113.5
524.128	123.5
524.343	123.5
524.559	125.5
524.774	130.5
524.989	129.5
525.204	119.5
525.419	111.5
525.634	135.5
525.849	129.5
526.064	130.5
526.28	119.5
526.495	115.5
526.71	115.5
526.925	117.5
527.14	104.5
527.355	110.5
527.57	116.5
527.785	121.5
527.999	123.5
528.214	116.5
528.429	112.5
528.644	122.5
528.859	125.5
529.074	119.5
