Data from StandardFe(NO3)3.TAE.3%Agarose.FlatLispGreen.Lamp.Energy10.07252019_HRD10591_11-54-04-440.txt Node
Date: Thu Jul 25 11:54:04 EDT 2019
User: cochatt
Spectrometer: HR+D1059
Trigger mode: 1
Integration Time (sec): 1.000000E-1
Scans to average: 1
Electric dark correction enabled: true
Nonlinearity correction enabled: false
Boxcar width: 0
XAxis mode: Wavelengths
Number of Pixels in Spectrum: 2048
>>>>>Begin Spectral Data<<<<<
223.165	-12.69
223.4	-12.69
223.635	-12.69
223.869	-13.69
224.104	-24.69
224.338	-33.69
224.573	-16.69
224.808	-7.69
225.042	3.31
225.277	-10.69
225.511	2.31
225.746	-4.69
225.98	-4.69
226.215	13.31
226.449	20.31
226.683	21.31
226.918	30.31
227.152	38.31
227.387	39.31
227.621	37.31
227.856	48.31
228.09	50.31
228.324	55.31
228.559	56.31
228.793	62.31
229.027	66.31
229.262	61.31
229.496	57.31
229.73	72.31
229.964	65.31
230.199	58.31
230.433	88.31
230.667	79.31
230.901	76.31
231.136	65.31
231.37	84.31
231.604	80.31
231.838	72.31
232.072	85.31
232.306	78.31
232.541	91.31
232.775	76.31
233.009	83.31
233.243	89.31
233.477	79.31
233.711	83.31
233.945	87.31
234.179	84.31
234.413	74.31
234.647	79.31
234.881	84.31
235.115	71.31
235.349	86.31
235.583	96.31
235.817	94.31
236.051	76.31
236.285	71.31
236.519	68.31
236.753	75.31
236.987	76.31
237.221	92.31
237.455	78.31
237.689	78.31
237.922	76.31
238.156	80.31
238.39	76.31
238.624	74.31
238.858	74.31
239.091	59.31
239.325	66.31
239.559	74.31
239.793	75.31
240.027	72.31
240.26	76.31
240.494	71.31
240.728	83.31
240.961	80.31
241.195	74.31
241.429	89.31
241.662	69.31
241.896	77.31
242.13	88.31
242.363	73.31
242.597	69.31
242.83	74.31
243.064	62.31
243.298	56.31
243.531	79.31
243.765	82.31
243.998	86.31
244.232	90.31
244.465	65.31
244.699	81.31
244.932	66.31
245.166	74.31
245.399	70.31
245.633	74.31
245.866	75.31
246.099	86.31
246.333	77.31
246.566	71.31
246.8	77.31
247.033	74.31
247.266	88.31
247.5	75.31
247.733	90.31
247.966	92.31
248.2	72.31
248.433	79.31
248.666	64.31
248.899	80.31
249.133	73.31
249.366	82.31
249.599	87.31
249.832	68.31
250.066	86.31
250.299	70.31
250.532	82.31
250.765	66.31
250.998	81.31
251.231	87.31
251.465	76.31
251.698	75.31
251.931	68.31
252.164	79.31
252.397	75.31
252.63	86.31
252.863	74.31
253.096	61.31
253.329	78.31
253.562	81.31
253.795	82.31
254.028	83.31
254.261	87.31
254.494	79.31
254.727	80.31
254.96	92.31
255.193	91.31
255.426	96.31
255.659	78.31
255.892	71.31
256.124	61.31
256.357	82.31
256.59	68.31
256.823	76.31
257.056	75.31
257.289	83.31
257.521	70.31
257.754	72.31
257.987	94.31
258.22	78.31
258.452	93.31
258.685	78.31
258.918	88.31
259.151	91.31
259.383	73.31
259.616	92.31
259.849	82.31
260.081	81.31
260.314	92.31
260.547	76.31
260.779	79.31
261.012	82.31
261.244	69.31
261.477	90.31
261.71	68.31
261.942	85.31
262.175	64.31
262.407	72.31
262.64	90.31
262.872	78.31
263.105	68.31
263.337	94.31
263.57	67.31
263.802	83.31
264.035	81.31
264.267	79.31
264.499	76.31
264.732	78.31
264.964	84.31
265.197	82.31
265.429	75.31
265.661	85.31
265.894	88.31
266.126	90.31
266.358	78.31
266.591	83.31
266.823	76.31
267.055	85.31
267.287	82.31
267.52	84.31
267.752	85.31
267.984	82.31
268.216	75.31
268.448	89.31
268.681	72.31
268.913	87.31
269.145	74.31
269.377	87.31
269.609	73.31
269.841	90.31
270.073	67.31
270.306	85.31
270.538	78.31
270.77	76.31
271.002	92.31
271.234	61.31
271.466	86.31
271.698	81.31
271.93	74.31
272.162	95.31
272.394	73.31
272.626	70.31
272.858	77.31
273.09	86.31
273.322	84.31
273.553	98.31
273.785	82.31
274.017	90.31
274.249	97.31
274.481	90.31
274.713	95.31
274.945	81.31
275.176	82.31
275.408	90.31
275.64	78.31
275.872	87.31
276.104	73.31
276.335	73.31
276.567	67.31
276.799	75.31
277.031	83.31
277.262	84.31
277.494	90.31
277.726	76.31
277.957	82.31
278.189	87.31
278.421	80.31
278.652	72.31
278.884	81.31
279.115	88.31
279.347	86.31
279.579	80.31
279.81	100.31
280.042	83.31
280.273	78.31
280.505	81.31
280.736	78.31
280.968	76.31
281.199	78.31
281.431	87.31
281.662	72.31
281.894	90.31
282.125	85.31
282.356	89.31
282.588	86.31
282.819	82.31
283.051	87.31
283.282	71.31
283.513	92.31
283.745	75.31
283.976	79.31
284.207	86.31
284.439	86.31
284.67	88.31
284.901	75.31
285.132	82.31
285.364	77.31
285.595	88.31
285.826	90.31
286.057	65.31
286.288	99.31
286.52	82.31
286.751	76.31
286.982	83.31
287.213	82.31
287.444	85.31
287.675	91.31
287.906	78.31
288.138	86.31
288.369	75.31
288.6	74.31
288.831	85.31
289.062	80.31
289.293	90.31
289.524	93.31
289.755	75.31
289.986	85.31
290.217	74.31
290.448	92.31
290.679	92.31
290.91	80.31
291.141	84.31
291.371	83.31
291.602	86.31
291.833	104.31
292.064	83.31
292.295	68.31
292.526	74.31
292.757	81.31
292.987	93.31
293.218	81.31
293.449	94.31
293.68	83.31
293.91	88.31
294.141	83.31
294.372	88.31
294.603	89.31
294.833	76.31
295.064	85.31
295.295	82.31
295.525	82.31
295.756	90.31
295.987	87.31
296.217	91.31
296.448	96.31
296.679	82.31
296.909	90.31
297.14	83.31
297.37	81.31
297.601	90.31
297.831	93.31
298.062	82.31
298.292	83.31
298.523	86.31
298.753	74.31
298.984	82.31
299.214	87.31
299.445	95.31
299.675	80.31
299.905	77.31
300.136	79.31
300.366	83.31
300.597	75.31
300.827	82.31
301.057	85.31
301.288	82.31
301.518	80.31
301.748	70.31
301.979	89.31
302.209	85.31
302.439	98.31
302.669	75.31
302.9	74.31
303.13	82.31
303.36	83.31
303.59	77.31
303.82	83.31
304.051	84.31
304.281	87.31
304.511	76.31
304.741	78.31
304.971	75.31
305.201	91.31
305.431	84.31
305.661	86.31
305.891	91.31
306.121	86.31
306.352	84.31
306.582	84.31
306.812	79.31
307.042	85.31
307.272	84.31
307.502	88.31
307.731	84.31
307.961	82.31
308.191	74.31
308.421	83.31
308.651	95.31
308.881	88.31
309.111	78.31
309.341	82.31
309.571	85.31
309.8	76.31
310.03	86.31
310.26	83.31
310.49	70.31
310.72	82.31
310.949	85.31
311.179	87.31
311.409	98.31
311.639	90.31
311.868	110.31
312.098	82.31
312.328	93.31
312.557	95.31
312.787	65.31
313.017	81.31
313.246	78.31
313.476	87.31
313.706	87.31
313.935	98.31
314.165	87.31
314.394	78.31
314.624	94.31
314.853	85.31
315.083	86.31
315.312	81.31
315.542	72.31
315.771	95.31
316.001	74.31
316.23	80.31
316.46	71.31
316.689	78.31
316.919	71.31
317.148	91.31
317.377	81.31
317.607	79.31
317.836	75.31
318.065	86.31
318.295	79.31
318.524	78.31
318.753	90.31
318.983	75.31
319.212	71.31
319.441	80.31
319.67	79.31
319.9	86.31
320.129	83.31
320.358	81.31
320.587	97.31
320.816	80.31
321.046	89.31
321.275	86.31
321.504	91.31
321.733	76.31
321.962	97.31
322.191	82.31
322.42	83.31
322.649	80.31
322.878	74.31
323.108	83.31
323.337	79.31
323.566	77.31
323.795	86.31
324.024	82.31
324.253	85.31
324.482	86.31
324.71	84.31
324.939	102.31
325.168	77.31
325.397	79.31
325.626	71.31
325.855	85.31
326.084	90.31
326.313	83.31
326.542	96.31
326.77	73.31
326.999	80.31
327.228	87.31
327.457	83.31
327.686	67.31
327.914	90.31
328.143	81.31
328.372	76.31
328.6	90.31
328.829	74.31
329.058	72.31
329.287	91.31
329.515	84.31
329.744	81.31
329.972	89.31
330.201	75.31
330.43	82.31
330.658	91.31
330.887	85.31
331.115	75.31
331.344	86.31
331.572	80.31
331.801	87.31
332.03	80.31
332.258	94.31
332.486	87.31
332.715	74.31
332.943	83.31
333.172	74.31
333.4	78.31
333.629	97.31
333.857	79.31
334.085	92.31
334.314	94.31
334.542	97.31
334.771	70.31
334.999	101.31
335.227	84.31
335.455	81.31
335.684	91.31
335.912	82.31
336.14	84.31
336.369	97.31
336.597	87.31
336.825	95.31
337.053	92.31
337.281	96.31
337.51	82.31
337.738	85.31
337.966	80.31
338.194	72.31
338.422	100.31
338.65	86.31
338.878	90.31
339.106	89.31
339.334	88.31
339.562	86.31
339.79	94.31
340.018	81.31
340.246	85.31
340.474	82.31
340.702	84.31
340.93	81.31
341.158	91.31
341.386	88.31
341.614	95.31
341.842	96.31
342.07	80.31
342.298	83.31
342.526	74.31
342.754	72.31
342.981	76.31
343.209	84.31
343.437	99.31
343.665	90.31
343.893	76.31
344.12	87.31
344.348	81.31
344.576	75.31
344.804	82.31
345.031	84.31
345.259	107.31
345.487	100.31
345.714	78.31
345.942	94.31
346.17	88.31
346.397	89.31
346.625	85.31
346.853	92.31
347.08	97.31
347.308	78.31
347.535	75.31
347.763	66.31
347.99	81.31
348.218	84.31
348.445	81.31
348.673	81.31
348.9	80.31
349.128	76.31
349.355	63.31
349.583	82.31
349.81	89.31
350.037	77.31
350.265	82.31
350.492	83.31
350.72	86.31
350.947	76.31
351.174	77.31
351.402	85.31
351.629	86.31
351.856	80.31
352.083	76.31
352.311	87.31
352.538	94.31
352.765	90.31
352.992	104.31
353.22	86.31
353.447	97.31
353.674	92.31
353.901	75.31
354.128	80.31
354.355	84.31
354.583	87.31
354.81	92.31
355.037	82.31
355.264	84.31
355.491	84.31
355.718	85.31
355.945	85.31
356.172	89.31
356.399	98.31
356.626	95.31
356.853	69.31
357.08	93.31
357.307	91.31
357.534	82.31
357.761	83.31
357.988	81.31
358.215	79.31
358.441	85.31
358.668	97.31
358.895	85.31
359.122	72.31
359.349	79.31
359.576	88.31
359.802	86.31
360.029	77.31
360.256	88.31
360.483	73.31
360.709	92.31
360.936	88.31
361.163	80.31
361.39	87.31
361.616	86.31
361.843	82.31
362.07	79.31
362.296	89.31
362.523	81.31
362.749	92.31
362.976	88.31
363.203	83.31
363.429	88.31
363.656	99.31
363.882	79.31
364.109	98.31
364.335	81.31
364.562	82.31
364.788	75.31
365.015	94.31
365.241	98.31
365.468	81.31
365.694	89.31
365.92	97.31
366.147	81.31
366.373	78.31
366.599	79.31
366.826	84.31
367.052	91.31
367.278	76.31
367.505	77.31
367.731	78.31
367.957	98.31
368.184	88.31
368.41	80.31
368.636	83.31
368.862	83.31
369.089	79.31
369.315	83.31
369.541	86.31
369.767	77.31
369.993	97.31
370.219	74.31
370.445	90.31
370.672	97.31
370.898	86.31
371.124	94.31
371.35	81.31
371.576	73.31
371.802	70.31
372.028	87.31
372.254	92.31
372.48	82.31
372.706	89.31
372.932	85.31
373.158	83.31
373.384	82.31
373.61	82.31
373.835	90.31
374.061	91.31
374.287	74.31
374.513	81.31
374.739	93.31
374.965	91.31
375.191	85.31
375.416	80.31
375.642	84.31
375.868	92.31
376.094	79.31
376.319	98.31
376.545	99.31
376.771	90.31
376.997	83.31
377.222	80.31
377.448	88.31
377.674	84.31
377.899	86.31
378.125	91.31
378.35	96.31
378.576	84.31
378.802	94.31
379.027	80.31
379.253	79.31
379.478	96.31
379.704	81.31
379.929	95.31
380.155	77.31
380.38	90.31
380.606	103.31
380.831	81.31
381.057	90.31
381.282	94.31
381.507	86.31
381.733	95.31
381.958	98.31
382.184	86.31
382.409	94.31
382.634	103.31
382.86	92.31
383.085	95.31
383.31	90.31
383.535	100.31
383.761	92.31
383.986	87.31
384.211	92.31
384.436	92.31
384.662	91.31
384.887	93.31
385.112	97.31
385.337	104.31
385.562	91.31
385.787	83.31
386.013	99.31
386.238	99.31
386.463	80.31
386.688	85.31
386.913	99.31
387.138	85.31
387.363	96.31
387.588	92.31
387.813	95.31
388.038	101.31
388.263	96.31
388.488	96.31
388.713	95.31
388.938	90.31
389.163	95.31
389.387	95.31
389.612	92.31
389.837	99.31
390.062	93.31
390.287	106.31
390.512	101.31
390.736	104.31
390.961	89.31
391.186	87.31
391.411	93.31
391.636	107.31
391.86	98.31
392.085	100.31
392.31	94.31
392.534	89.31
392.759	99.31
392.984	100.31
393.208	96.31
393.433	112.31
393.658	90.31
393.882	86.31
394.107	92.31
394.331	96.31
394.556	92.31
394.78	94.31
395.005	98.31
395.229	100.31
395.454	89.31
395.678	99.31
395.903	98.31
396.127	110.31
396.352	111.31
396.576	109.31
396.801	94.31
397.025	92.31
397.249	107.31
397.474	102.31
397.698	107.31
397.922	106.31
398.147	100.31
398.371	77.31
398.595	105.31
398.82	110.31
399.044	105.31
399.268	102.31
399.492	102.31
399.717	113.31
399.941	111.31
400.165	101.31
400.389	115.31
400.613	97.31
400.837	111.31
401.062	99.31
401.286	109.31
401.51	108.31
401.734	116.31
401.958	106.31
402.182	90.31
402.406	105.31
402.63	113.31
402.854	90.31
403.078	103.31
403.302	116.31
403.526	119.31
403.75	111.31
403.974	95.31
404.198	108.31
404.422	109.31
404.645	122.31
404.869	101.31
405.093	116.31
405.317	129.31
405.541	103.31
405.765	98.31
405.988	104.31
406.212	120.31
406.436	97.31
406.66	126.31
406.883	103.31
407.107	112.31
407.331	107.31
407.555	119.31
407.778	108.31
408.002	98.31
408.226	113.31
408.449	117.31
408.673	104.31
408.896	118.31
409.12	111.31
409.344	119.31
409.567	97.31
409.791	108.31
410.014	104.31
410.238	111.31
410.461	110.31
410.685	115.31
410.908	100.31
411.132	99.31
411.355	102.31
411.578	112.31
411.802	124.31
412.025	113.31
412.249	114.31
412.472	91.31
412.695	103.31
412.919	95.31
413.142	104.31
413.365	113.31
413.589	114.31
413.812	121.31
414.035	111.31
414.258	121.31
414.482	114.31
414.705	120.31
414.928	123.31
415.151	120.31
415.374	114.31
415.597	111.31
415.821	123.31
416.044	123.31
416.267	114.31
416.49	128.31
416.713	111.31
416.936	98.31
417.159	115.31
417.382	116.31
417.605	107.31
417.828	117.31
418.051	115.31
418.274	112.31
418.497	127.31
418.72	107.31
418.943	118.31
419.166	118.31
419.389	130.31
419.611	112.31
419.834	105.31
420.057	107.31
420.28	122.31
420.503	111.31
420.726	112.31
420.948	108.31
421.171	124.31
421.394	120.31
421.617	120.31
421.839	113.31
422.062	121.31
422.285	101.31
422.507	111.31
422.73	112.31
422.953	116.31
423.175	120.31
423.398	110.31
423.621	130.31
423.843	126.31
424.066	123.31
424.288	123.31
424.511	115.31
424.733	108.31
424.956	107.31
425.178	123.31
425.401	132.31
425.623	113.31
425.846	100.31
426.068	106.31
426.291	116.31
426.513	121.31
426.735	119.31
426.958	127.31
427.18	111.31
427.402	117.31
427.625	108.31
427.847	114.31
428.069	107.31
428.292	113.31
428.514	102.31
428.736	107.31
428.958	117.31
429.181	94.31
429.403	110.31
429.625	119.31
429.847	100.31
430.069	124.31
430.292	130.31
430.514	102.31
430.736	116.31
430.958	119.31
431.18	110.31
431.402	114.31
431.624	113.31
431.846	106.31
432.068	119.31
432.29	96.31
432.512	108.31
432.734	91.31
432.956	96.31
433.178	122.31
433.4	126.31
433.622	118.31
433.844	114.31
434.066	106.31
434.287	112.31
434.509	113.31
434.731	105.31
434.953	105.31
435.175	107.31
435.397	115.31
435.618	105.31
435.84	98.31
436.062	105.31
436.284	113.31
436.505	102.31
436.727	122.31
436.949	106.31
437.17	117.31
437.392	107.31
437.614	112.31
437.835	120.31
438.057	121.31
438.278	109.31
438.5	120.31
438.721	118.31
438.943	115.31
439.165	118.31
439.386	112.31
439.608	119.31
439.829	122.31
440.05	118.31
440.272	115.31
440.493	125.31
440.715	126.31
440.936	113.31
441.158	121.31
441.379	140.31
441.6	124.31
441.822	145.31
442.043	129.31
442.264	118.31
442.486	119.31
442.707	131.31
442.928	123.31
443.149	113.31
443.371	112.31
443.592	132.31
443.813	124.31
444.034	107.31
444.255	122.31
444.476	133.31
444.698	111.31
444.919	134.31
445.14	233.31
445.361	163.31
445.582	120.31
445.803	120.31
446.024	106.31
446.245	117.31
446.466	112.31
446.687	114.31
446.908	121.31
447.129	129.31
447.35	132.31
447.571	125.31
447.792	122.31
448.013	114.31
448.234	113.31
448.455	114.31
448.675	113.31
448.896	119.31
449.117	118.31
449.338	102.31
449.559	109.31
449.779	102.31
450	114.31
450.221	112.31
450.442	114.31
450.662	122.31
450.883	119.31
451.104	112.31
451.324	125.31
451.545	123.31
451.766	98.31
451.986	126.31
452.207	116.31
452.428	117.31
452.648	114.31
452.869	107.31
453.089	101.31
453.31	115.31
453.53	112.31
453.751	96.31
453.971	114.31
454.192	103.31
454.412	96.31
454.633	114.31
454.853	107.31
455.073	104.31
455.294	117.31
455.514	107.31
455.734	101.31
455.955	90.31
456.175	103.31
456.395	105.31
456.616	104.31
456.836	103.31
457.056	104.31
457.276	112.31
457.497	104.31
457.717	102.31
457.937	111.31
458.157	124.31
458.377	111.31
458.598	106.31
458.818	106.31
459.038	96.31
459.258	101.31
459.478	117.31
459.698	93.31
459.918	128.31
460.138	104.31
460.358	110.31
460.578	103.31
460.798	115.31
461.018	117.31
461.238	112.31
461.458	121.31
461.678	113.31
461.898	124.31
462.118	114.31
462.338	117.31
462.558	122.31
462.777	121.31
462.997	116.31
463.217	129.31
463.437	133.31
463.657	123.31
463.876	118.31
464.096	120.31
464.316	112.31
464.536	119.31
464.755	109.31
464.975	113.31
465.195	107.31
465.414	108.31
465.634	112.31
465.854	116.31
466.073	125.31
466.293	106.31
466.512	111.31
466.732	120.31
466.951	134.31
467.171	107.31
467.391	110.31
467.61	114.31
467.829	119.31
468.049	117.31
468.268	127.31
468.488	122.31
468.707	118.31
468.927	110.31
469.146	116.31
469.365	114.31
469.585	115.31
469.804	118.31
470.023	116.31
470.243	126.31
470.462	133.31
470.681	124.31
470.901	129.31
471.12	115.31
471.339	123.31
471.558	123.31
471.777	116.31
471.997	125.31
472.216	104.31
472.435	109.31
472.654	118.31
472.873	107.31
473.092	98.31
473.311	109.31
473.53	122.31
473.749	108.31
473.968	110.31
474.187	122.31
474.406	114.31
474.625	121.31
474.844	122.31
475.063	120.31
475.282	107.31
475.501	120.31
475.72	122.31
475.939	112.31
476.158	125.31
476.377	120.31
476.596	116.31
476.814	120.31
477.033	115.31
477.252	121.31
477.471	126.31
477.69	121.31
477.908	140.31
478.127	133.31
478.346	120.31
478.564	118.31
478.783	133.31
479.002	124.31
479.22	142.31
479.439	135.31
479.658	116.31
479.876	116.31
480.095	114.31
480.313	129.31
480.532	122.31
480.751	117.31
480.969	116.31
481.188	108.31
481.406	110.31
481.624	120.31
481.843	105.31
482.061	110.31
482.28	126.31
482.498	124.31
482.717	126.31
482.935	120.31
483.153	126.31
483.372	126.31
483.59	141.31
483.808	131.31
484.027	132.31
484.245	140.31
484.463	127.31
484.681	134.31
484.9	139.31
485.118	126.31
485.336	126.31
485.554	112.31
485.772	121.31
485.99	132.31
486.209	116.31
486.427	111.31
486.645	126.31
486.863	130.31
487.081	136.31
487.299	123.31
487.517	122.31
487.735	147.31
487.953	153.31
488.171	139.31
488.389	141.31
488.607	134.31
488.825	115.31
489.043	123.31
489.261	122.31
489.479	124.31
489.696	132.31
489.914	115.31
490.132	134.31
490.35	135.31
490.568	130.31
490.786	130.31
491.003	149.31
491.221	151.31
491.439	147.31
491.657	147.31
491.874	145.31
492.092	155.31
492.31	169.31
492.527	161.31
492.745	164.31
492.963	160.31
493.18	164.31
493.398	156.31
493.615	148.31
493.833	165.31
494.05	151.31
494.268	155.31
494.485	174.31
494.703	147.31
494.92	160.31
495.138	141.31
495.355	147.31
495.573	150.31
495.79	160.31
496.008	152.31
496.225	152.31
496.442	159.31
496.66	150.31
496.877	146.31
497.094	139.31
497.312	130.31
497.529	148.31
497.746	151.31
497.963	134.31
498.181	143.31
498.398	144.31
498.615	148.31
498.832	136.31
499.049	154.31
499.267	152.31
499.484	159.31
499.701	190.31
499.918	195.31
500.135	198.31
500.352	223.31
500.569	215.31
500.786	224.31
501.003	210.31
501.22	183.31
501.437	190.31
501.654	179.31
501.871	159.31
502.088	137.31
502.305	154.31
502.522	142.31
502.739	158.31
502.956	141.31
503.172	139.31
503.389	146.31
503.606	136.31
503.823	128.31
504.04	128.31
504.256	140.31
504.473	122.31
504.69	131.31
504.907	144.31
505.123	133.31
505.34	135.31
505.557	123.31
505.773	123.31
505.99	120.31
506.207	128.31
506.423	143.31
506.64	130.31
506.856	138.31
507.073	115.31
507.289	115.31
507.506	117.31
507.722	127.31
507.939	120.31
508.155	129.31
508.372	126.31
508.588	111.31
508.805	122.31
509.021	115.31
509.238	110.31
509.454	113.31
509.67	131.31
509.887	112.31
510.103	119.31
510.319	122.31
510.536	113.31
510.752	96.31
510.968	101.31
511.184	112.31
511.401	100.31
511.617	115.31
511.833	108.31
