Data from StandardFe(NO3)3.TAE.3%Agarose.FlatLispGreen.Lamp.Energy10.07252019_HRD10591_11-54-24-440.txt Node
Date: Thu Jul 25 11:54:24 EDT 2019
User: cochatt
Spectrometer: HR+D1059
Trigger mode: 1
Integration Time (sec): 1.000000E-1
Scans to average: 1
Electric dark correction enabled: true
Nonlinearity correction enabled: false
Boxcar width: 0
XAxis mode: Wavelengths
Number of Pixels in Spectrum: 2048
>>>>>Begin Spectral Data<<<<<
223.165	-14
223.4	-14
223.635	-14
223.869	-14
224.104	-24
224.338	-24
224.573	-19
224.808	-5
225.042	-10
225.277	0
225.511	-11
225.746	-4
225.98	22
226.215	12
226.449	20
226.683	17
226.918	16
227.152	38
227.387	22
227.621	31
227.856	56
228.09	28
228.324	53
228.559	55
228.793	41
229.027	57
229.262	59
229.496	64
229.73	67
229.964	72
230.199	78
230.433	65
230.667	81
230.901	73
231.136	80
231.37	68
231.604	95
231.838	92
232.072	75
232.306	67
232.541	72
232.775	76
233.009	86
233.243	74
233.477	80
233.711	82
233.945	75
234.179	75
234.413	77
234.647	75
234.881	87
235.115	69
235.349	62
235.583	73
235.817	75
236.051	92
236.285	68
236.519	73
236.753	58
236.987	66
237.221	65
237.455	63
237.689	83
237.922	78
238.156	78
238.39	83
238.624	91
238.858	67
239.091	62
239.325	75
239.559	73
239.793	79
240.027	71
240.26	62
240.494	80
240.728	77
240.961	70
241.195	90
241.429	80
241.662	83
241.896	61
242.13	70
242.363	70
242.597	71
242.83	72
243.064	76
243.298	67
243.531	67
243.765	82
243.998	68
244.232	77
244.465	84
244.699	73
244.932	71
245.166	74
245.399	80
245.633	88
245.866	96
246.099	82
246.333	74
246.566	73
246.8	59
247.033	91
247.266	76
247.5	73
247.733	95
247.966	74
248.2	74
248.433	71
248.666	84
248.899	84
249.133	82
249.366	79
249.599	75
249.832	81
250.066	91
250.299	74
250.532	68
250.765	75
250.998	80
251.231	90
251.465	71
251.698	76
251.931	66
252.164	77
252.397	87
252.63	80
252.863	82
253.096	64
253.329	85
253.562	78
253.795	82
254.028	82
254.261	83
254.494	78
254.727	72
254.96	87
255.193	60
255.426	75
255.659	80
255.892	75
256.124	86
256.357	88
256.59	86
256.823	92
257.056	70
257.289	85
257.521	83
257.754	71
257.987	81
258.22	75
258.452	89
258.685	72
258.918	93
259.151	67
259.383	79
259.616	78
259.849	80
260.081	91
260.314	91
260.547	89
260.779	83
261.012	70
261.244	77
261.477	89
261.71	95
261.942	86
262.175	78
262.407	71
262.64	96
262.872	93
263.105	78
263.337	84
263.57	81
263.802	82
264.035	68
264.267	84
264.499	81
264.732	72
264.964	82
265.197	87
265.429	81
265.661	84
265.894	86
266.126	95
266.358	92
266.591	83
266.823	74
267.055	69
267.287	82
267.52	87
267.752	79
267.984	74
268.216	66
268.448	101
268.681	84
268.913	92
269.145	85
269.377	77
269.609	76
269.841	73
270.073	79
270.306	69
270.538	90
270.77	90
271.002	70
271.234	79
271.466	78
271.698	92
271.93	85
272.162	83
272.394	78
272.626	72
272.858	76
273.09	83
273.322	77
273.553	81
273.785	80
274.017	84
274.249	82
274.481	89
274.713	84
274.945	96
275.176	81
275.408	86
275.64	82
275.872	82
276.104	71
276.335	83
276.567	75
276.799	89
277.031	94
277.262	85
277.494	84
277.726	84
277.957	71
278.189	94
278.421	80
278.652	83
278.884	85
279.115	71
279.347	91
279.579	82
279.81	90
280.042	84
280.273	82
280.505	87
280.736	96
280.968	85
281.199	86
281.431	78
281.662	82
281.894	90
282.125	86
282.356	83
282.588	82
282.819	79
283.051	82
283.282	88
283.513	91
283.745	96
283.976	89
284.207	96
284.439	83
284.67	90
284.901	78
285.132	80
285.364	60
285.595	83
285.826	74
286.057	74
286.288	85
286.52	86
286.751	88
286.982	71
287.213	87
287.444	80
287.675	75
287.906	89
288.138	86
288.369	54
288.6	100
288.831	81
289.062	75
289.293	82
289.524	81
289.755	75
289.986	86
290.217	89
290.448	81
290.679	79
290.91	84
291.141	100
291.371	91
291.602	77
291.833	108
292.064	88
292.295	73
292.526	90
292.757	91
292.987	75
293.218	76
293.449	78
293.68	81
293.91	73
294.141	81
294.372	96
294.603	89
294.833	84
295.064	80
295.295	79
295.525	79
295.756	75
295.987	82
296.217	75
296.448	88
296.679	104
296.909	90
297.14	72
297.37	85
297.601	90
297.831	81
298.062	75
298.292	92
298.523	87
298.753	88
298.984	80
299.214	78
299.445	86
299.675	86
299.905	80
300.136	86
300.366	83
300.597	84
300.827	93
301.057	86
301.288	86
301.518	85
301.748	91
301.979	82
302.209	83
302.439	84
302.669	91
302.9	95
303.13	76
303.36	82
303.59	78
303.82	73
304.051	88
304.281	86
304.511	71
304.741	77
304.971	87
305.201	98
305.431	74
305.661	74
305.891	89
306.121	96
306.352	85
306.582	90
306.812	87
307.042	90
307.272	82
307.502	72
307.731	92
307.961	83
308.191	86
308.421	86
308.651	76
308.881	88
309.111	83
309.341	80
309.571	75
309.8	76
310.03	100
310.26	82
310.49	73
310.72	72
310.949	77
311.179	82
311.409	101
311.639	76
311.868	79
312.098	89
312.328	82
312.557	82
312.787	96
313.017	77
313.246	86
313.476	91
313.706	76
313.935	81
314.165	88
314.394	75
314.624	91
314.853	85
315.083	89
315.312	83
315.542	87
315.771	91
316.001	77
316.23	90
316.46	80
316.689	83
316.919	84
317.148	72
317.377	91
317.607	94
317.836	81
318.065	98
318.295	85
318.524	83
318.753	90
318.983	75
319.212	89
319.441	89
319.67	83
319.9	85
320.129	86
320.358	85
320.587	87
320.816	91
321.046	96
321.275	84
321.504	74
321.733	78
321.962	71
322.191	86
322.42	89
322.649	78
322.878	87
323.108	81
323.337	90
323.566	71
323.795	86
324.024	92
324.253	85
324.482	74
324.71	81
324.939	84
325.168	75
325.397	80
325.626	74
325.855	77
326.084	92
326.313	86
326.542	79
326.77	83
326.999	72
327.228	59
327.457	83
327.686	65
327.914	87
328.143	91
328.372	97
328.6	72
328.829	99
329.058	87
329.287	77
329.515	86
329.744	83
329.972	95
330.201	81
330.43	88
330.658	58
330.887	82
331.115	88
331.344	83
331.572	90
331.801	79
332.03	90
332.258	86
332.486	75
332.715	70
332.943	81
333.172	96
333.4	77
333.629	89
333.857	82
334.085	87
334.314	82
334.542	75
334.771	81
334.999	84
335.227	94
335.455	80
335.684	89
335.912	79
336.14	84
336.369	93
336.597	79
336.825	73
337.053	94
337.281	83
337.51	73
337.738	87
337.966	77
338.194	85
338.422	95
338.65	77
338.878	82
339.106	79
339.334	75
339.562	67
339.79	88
340.018	70
340.246	87
340.474	91
340.702	84
340.93	83
341.158	74
341.386	81
341.614	81
341.842	85
342.07	94
342.298	75
342.526	75
342.754	88
342.981	96
343.209	81
343.437	101
343.665	97
343.893	80
344.12	82
344.348	84
344.576	85
344.804	102
345.031	74
345.259	63
345.487	94
345.714	80
345.942	73
346.17	83
346.397	81
346.625	77
346.853	89
347.08	90
347.308	88
347.535	92
347.763	87
347.99	87
348.218	89
348.445	99
348.673	80
348.9	94
349.128	86
349.355	92
349.583	93
349.81	88
350.037	83
350.265	96
350.492	82
350.72	79
350.947	73
351.174	94
351.402	87
351.629	86
351.856	81
352.083	89
352.311	69
352.538	95
352.765	79
352.992	79
353.22	82
353.447	88
353.674	66
353.901	81
354.128	72
354.355	84
354.583	83
354.81	75
355.037	82
355.264	80
355.491	79
355.718	98
355.945	73
356.172	89
356.399	82
356.626	83
356.853	79
357.08	87
357.307	105
357.534	94
357.761	90
357.988	100
358.215	82
358.441	73
358.668	63
358.895	78
359.122	71
359.349	84
359.576	98
359.802	94
360.029	93
360.256	89
360.483	76
360.709	78
360.936	92
361.163	98
361.39	100
361.616	71
361.843	82
362.07	89
362.296	91
362.523	88
362.749	77
362.976	99
363.203	87
363.429	90
363.656	82
363.882	82
364.109	102
364.335	83
364.562	76
364.788	67
365.015	72
365.241	71
365.468	87
365.694	69
365.92	79
366.147	87
366.373	88
366.599	82
366.826	80
367.052	77
367.278	89
367.505	80
367.731	88
367.957	73
368.184	90
368.41	87
368.636	88
368.862	97
369.089	83
369.315	90
369.541	81
369.767	89
369.993	84
370.219	80
370.445	79
370.672	86
370.898	88
371.124	91
371.35	85
371.576	80
371.802	94
372.028	82
372.254	87
372.48	90
372.706	81
372.932	71
373.158	86
373.384	92
373.61	86
373.835	80
374.061	88
374.287	82
374.513	94
374.739	87
374.965	99
375.191	82
375.416	89
375.642	82
375.868	80
376.094	86
376.319	67
376.545	86
376.771	83
376.997	85
377.222	97
377.448	99
377.674	86
377.899	77
378.125	90
378.35	99
378.576	88
378.802	87
379.027	80
379.253	88
379.478	91
379.704	83
379.929	88
380.155	91
380.38	82
380.606	79
380.831	82
381.057	79
381.282	75
381.507	93
381.733	84
381.958	85
382.184	98
382.409	91
382.634	90
382.86	98
383.085	88
383.31	93
383.535	98
383.761	90
383.986	88
384.211	96
384.436	75
384.662	75
384.887	87
385.112	96
385.337	85
385.562	94
385.787	87
386.013	86
386.238	86
386.463	88
386.688	90
386.913	101
387.138	99
387.363	96
387.588	98
387.813	76
388.038	92
388.263	99
388.488	98
388.713	90
388.938	84
389.163	99
389.387	91
389.612	102
389.837	93
390.062	84
390.287	104
390.512	94
390.736	95
390.961	104
391.186	88
391.411	101
391.636	97
391.86	102
392.085	94
392.31	91
392.534	104
392.759	95
392.984	103
393.208	95
393.433	85
393.658	98
393.882	90
394.107	109
394.331	96
394.556	98
394.78	97
395.005	94
395.229	105
395.454	96
395.678	105
395.903	100
396.127	99
396.352	99
396.576	90
396.801	107
397.025	103
397.249	90
397.474	105
397.698	106
397.922	111
398.147	87
398.371	90
398.595	98
398.82	94
399.044	108
399.268	99
399.492	100
399.717	116
399.941	107
400.165	110
400.389	106
400.613	103
400.837	119
401.062	118
401.286	80
401.51	107
401.734	103
401.958	100
402.182	100
402.406	99
402.63	103
402.854	113
403.078	108
403.302	105
403.526	93
403.75	106
403.974	103
404.198	114
404.422	104
404.645	102
404.869	115
405.093	104
405.317	103
405.541	102
405.765	107
405.988	100
406.212	109
406.436	101
406.66	107
406.883	120
407.107	119
407.331	130
407.555	114
407.778	111
408.002	105
408.226	106
408.449	111
408.673	102
408.896	104
409.12	118
409.344	95
409.567	103
409.791	113
410.014	98
410.238	110
410.461	103
410.685	114
410.908	118
411.132	115
411.355	110
411.578	116
411.802	113
412.025	119
412.249	103
412.472	105
412.695	117
412.919	91
413.142	109
413.365	117
413.589	117
413.812	121
414.035	101
414.258	113
414.482	100
414.705	105
414.928	107
415.151	124
415.374	120
415.597	119
415.821	105
416.044	114
416.267	118
416.49	95
416.713	96
416.936	114
417.159	110
417.382	113
417.605	123
417.828	122
418.051	123
418.274	103
418.497	100
418.72	111
418.943	133
419.166	109
419.389	117
419.611	107
419.834	107
420.057	110
420.28	119
420.503	98
420.726	114
420.948	119
421.171	100
421.394	118
421.617	114
421.839	108
422.062	119
422.285	102
422.507	114
422.73	103
422.953	120
423.175	114
423.398	105
423.621	120
423.843	120
424.066	106
424.288	130
424.511	105
424.733	122
424.956	119
425.178	121
425.401	108
425.623	124
425.846	117
426.068	109
426.291	111
426.513	121
426.735	114
426.958	121
427.18	110
427.402	119
427.625	120
427.847	118
428.069	104
428.292	107
428.514	119
428.736	107
428.958	103
429.181	103
429.403	96
429.625	107
429.847	96
430.069	111
430.292	112
430.514	107
430.736	103
430.958	111
431.18	121
431.402	121
431.624	91
431.846	93
432.068	101
432.29	99
432.512	115
432.734	97
432.956	106
433.178	106
433.4	112
433.622	116
433.844	121
434.066	105
434.287	104
434.509	105
434.731	108
434.953	110
435.175	110
435.397	119
435.618	106
435.84	95
436.062	113
436.284	108
436.505	104
436.727	112
436.949	119
437.17	98
437.392	120
437.614	115
437.835	108
438.057	121
438.278	98
438.5	123
438.721	104
438.943	119
439.165	114
439.386	124
439.608	122
439.829	117
440.05	112
440.272	110
440.493	122
440.715	110
440.936	114
441.158	127
441.379	136
441.6	127
441.822	129
442.043	129
442.264	117
442.486	114
442.707	108
442.928	106
443.149	124
443.371	124
443.592	124
443.813	118
444.034	136
444.255	141
444.476	122
444.698	129
444.919	134
445.14	242
445.361	182
445.582	114
445.803	125
446.024	121
446.245	120
446.466	123
446.687	102
446.908	119
447.129	120
447.35	119
447.571	107
447.792	117
448.013	118
448.234	128
448.455	110
448.675	116
448.896	112
449.117	102
449.338	103
449.559	113
449.779	106
450	120
450.221	122
450.442	120
450.662	100
450.883	117
451.104	107
451.324	135
451.545	113
451.766	118
451.986	116
452.207	111
452.428	118
452.648	110
452.869	112
453.089	85
453.31	104
453.53	115
453.751	102
453.971	106
454.192	106
454.412	116
454.633	105
454.853	102
455.073	103
455.294	108
455.514	100
455.734	109
455.955	96
456.175	92
456.395	112
456.616	95
456.836	112
457.056	101
457.276	89
457.497	90
457.717	105
457.937	100
458.157	112
458.377	107
458.598	105
458.818	104
459.038	104
459.258	113
459.478	90
459.698	96
459.918	119
460.138	110
460.358	123
460.578	109
460.798	116
461.018	121
461.238	122
461.458	113
461.678	102
461.898	116
462.118	123
462.338	110
462.558	118
462.777	101
462.997	126
463.217	124
463.437	132
463.657	137
463.876	122
464.096	122
464.316	130
464.536	128
464.755	113
464.975	130
465.195	123
465.414	116
465.634	121
465.854	121
466.073	103
466.293	118
466.512	114
466.732	122
466.951	106
467.171	108
467.391	114
467.61	93
467.829	122
468.049	134
468.268	116
468.488	129
468.707	112
468.927	120
469.146	125
469.365	126
469.585	110
469.804	116
470.023	118
470.243	134
470.462	129
470.681	119
470.901	119
471.12	129
471.339	123
471.558	113
471.777	102
471.997	118
472.216	123
472.435	95
472.654	104
472.873	106
473.092	106
473.311	116
473.53	121
473.749	111
473.968	124
474.187	104
474.406	104
474.625	119
474.844	121
475.063	123
475.282	107
475.501	112
475.72	121
475.939	116
476.158	132
476.377	116
476.596	110
476.814	116
477.033	104
477.252	124
477.471	101
477.69	103
477.908	135
478.127	130
478.346	114
478.564	125
478.783	118
479.002	135
479.22	138
479.439	107
479.658	136
479.876	109
480.095	116
480.313	124
480.532	124
480.751	125
480.969	115
481.188	115
481.406	116
481.624	114
481.843	99
482.061	117
482.28	122
482.498	110
482.717	122
482.935	131
483.153	118
483.372	132
483.59	118
483.808	128
484.027	121
484.245	130
484.463	133
484.681	122
484.9	113
485.118	122
485.336	121
485.554	116
485.772	121
485.99	110
486.209	119
486.427	118
486.645	105
486.863	123
487.081	127
487.299	123
487.517	132
487.735	137
487.953	150
488.171	146
488.389	139
488.607	138
488.825	116
489.043	121
489.261	121
489.479	130
489.696	153
489.914	140
490.132	141
490.35	134
490.568	138
490.786	147
491.003	135
491.221	166
491.439	162
491.657	165
491.874	155
492.092	148
492.31	156
492.527	163
492.745	156
492.963	156
493.18	155
493.398	157
493.615	155
493.833	158
494.05	158
494.268	152
494.485	137
494.703	158
494.92	163
495.138	159
495.355	149
495.573	160
495.79	130
496.008	151
496.225	151
496.442	152
496.66	137
496.877	158
497.094	166
497.312	132
497.529	139
497.746	148
497.963	132
498.181	137
498.398	158
498.615	143
498.832	135
499.049	139
499.267	162
499.484	158
499.701	178
499.918	188
500.135	184
500.352	213
500.569	223
500.786	224
501.003	224
501.22	210
501.437	174
501.654	161
501.871	156
502.088	165
502.305	155
502.522	144
502.739	150
502.956	125
503.172	141
503.389	127
503.606	112
503.823	139
504.04	136
504.256	124
504.473	144
504.69	144
504.907	143
505.123	132
505.34	136
505.557	138
505.773	135
505.99	122
506.207	116
506.423	122
506.64	130
506.856	135
507.073	127
507.289	118
507.506	125
507.722	126
507.939	113
508.155	118
508.372	133
508.588	100
508.805	118
509.021	114
509.238	122
509.454	116
509.67	126
509.887	120
510.103	119
510.319	129
510.536	94
510.752	112
510.968	99
511.184	110
511.401	113
511.617	102
511.833	116
512.049	117
512.265	106
512.481	123
512.698	115
512.914	111
513.13	122
513.346	130
513.562	117
513.778	119
513.994	114
514.21	121
514.426	116
514.642	110
514.858	117
515.074	102
515.29	118
515.506	115
515.721	121
515.937	127
516.153	94
516.369	101
516.585	118
516.801	125
517.016	121
517.232	118
517.448	107
517.664	123
517.879	114
518.095	119
518.311	126
518.527	116
518.742	120
518.958	102
519.173	120
519.389	116
519.605	115
519.82	115
520.036	126
520.251	118
520.467	126
520.682	116
520.898	113
521.113	117
521.329	114
521.544	139
521.76	112
521.975	137
522.19	107
522.406	119
522.621	107
522.836	124
523.052	119
523.267	110
523.482	110
523.698	124
523.913	112
524.128	122
524.343	91
524.559	124
524.774	134
524.989	121
525.204	130
525.419	117
525.634	120
525.849	122
526.064	117
526.28	123
526.495	114
526.71	118
526.925	98
527.14	107
527.355	100
527.57	108
527.785	114
527.999	118
528.214	116
528.429	111
528.644	109
528.859	123
529.074	113
529.289	136
529.503	135
529.718	118
529.933	113
530.148	122
530.363	100
530.577	103
530.792	119
531.007	102
531.221	104
531.436	101
531.651	112
531.865	108
532.08	103
532.295	84
532.509	102
532.724	101
532.938	111
533.153	104
533.367	130
533.582	115
533.796	114
534.011	122
534.225	129
534.44	115
534.654	113
534.868	114
535.083	108
535.297	108
535.511	110
535.726	116
535.94	102
536.154	114
536.369	110
536.583	108
536.797	106
537.011	101
537.225	102
537.44	113
537.654	97
537.868	119
538.082	110
538.296	105
538.51	107
538.724	111
538.938	107
539.153	101
539.367	132
539.581	120
539.795	111
540.009	112
540.222	107
540.436	114
540.65	114
540.864	116
541.078	103
541.292	138
541.506	130
541.72	139
541.934	143
542.147	140
542.361	155
542.575	128
542.789	126
543.002	122
543.216	119
543.43	114
543.644	126
543.857	123
544.071	141
544.285	130
544.498	141
544.712	126
544.925	148
545.139	142
545.352	133
545.566	133
545.779	139
545.993	133
546.206	136
546.42	120
546.633	130
546.847	130
547.06	122
547.274	150
547.487	132
547.7	135
547.914	133
548.127	141
548.34	130
548.554	135
548.767	130
548.98	135
549.193	132
549.407	137
549.62	126
549.833	131
550.046	133
550.259	128
550.473	119
550.686	131
550.899	130
551.112	130
551.325	137
551.538	118
551.751	122
551.964	113
552.177	107
552.39	119
552.603	128
552.816	139
553.029	127
553.242	136
553.455	126
553.667	132
553.88	136
554.093	120
554.306	123
554.519	126
554.732	141
554.944	119
555.157	114
555.37	119
555.583	119
555.795	115
556.008	115
556.221	115
556.433	120
556.646	126
556.859	112
557.071	130
557.284	112
557.496	121
557.709	124
557.921	114
558.134	127
558.346	116
558.559	127
558.771	119
558.984	135
559.196	113
559.409	101
559.621	121
559.833	120
560.046	115
560.258	116
560.47	114
560.683	118
560.895	96
561.107	106
561.32	106
561.532	110
561.744	107
561.956	106
562.168	114
562.381	114
562.593	116
562.805	104
563.017	97
563.229	118
563.441	120
563.653	97
563.865	112
564.077	102
564.289	96
564.501	100
564.713	111
564.925	110
565.137	105
565.349	103
565.561	95
565.773	117
565.985	126
566.197	120
566.408	109
566.62	108
566.832	112
567.044	122
567.255	118
567.467	116
567.679	136
567.891	110
568.102	114
568.314	117
568.526	100
568.737	103
568.949	120
569.161	102
569.372	97
569.584	102
569.795	111
570.007	99
570.218	107
570.43	96
570.641	109
570.853	98
571.064	104
571.276	102
571.487	98
571.698	90
571.91	101
572.121	99
572.333	99
572.544	103
572.755	87
572.966	112
573.178	97
573.389	82
573.6	103
573.811	92
574.023	98
574.234	96
574.445	92
574.656	103
574.867	100
575.078	95
575.289	99
575.501	97
575.712	92
575.923	94
