Data from StandardFe(NO3)3.TAE.3%Agarose.FlatLispGreen.Lamp.Energy10.07252019_HRD10591_11-53-15-439.txt Node
Date: Thu Jul 25 11:53:15 EDT 2019
User: cochatt
Spectrometer: HR+D1059
Trigger mode: 1
Integration Time (sec): 1.000000E-1
Scans to average: 1
Electric dark correction enabled: true
Nonlinearity correction enabled: false
Boxcar width: 0
XAxis mode: Wavelengths
Number of Pixels in Spectrum: 2048
>>>>>Begin Spectral Data<<<<<
223.165	-20.06
223.4	-20.06
223.635	-20.06
223.869	-16.06
224.104	-19.06
224.338	-7.06
224.573	-25.06
224.808	-5.06
225.042	-8.06
225.277	2.94
225.511	0.94
225.746	-1.06
225.98	-1.06
226.215	27.94
226.449	0.94
226.683	10.94
226.918	33.94
227.152	24.94
227.387	26.94
227.621	39.94
227.856	42.94
228.09	45.94
228.324	44.94
228.559	54.94
228.793	58.94
229.027	70.94
229.262	56.94
229.496	67.94
229.73	56.94
229.964	72.94
230.199	77.94
230.433	92.94
230.667	69.94
230.901	80.94
231.136	73.94
231.37	77.94
231.604	94.94
231.838	84.94
232.072	69.94
232.306	78.94
232.541	79.94
232.775	90.94
233.009	85.94
233.243	94.94
233.477	91.94
233.711	91.94
233.945	84.94
234.179	103.94
234.413	80.94
234.647	76.94
234.881	89.94
235.115	77.94
235.349	74.94
235.583	90.94
235.817	81.94
236.051	89.94
236.285	83.94
236.519	72.94
236.753	74.94
236.987	77.94
237.221	84.94
237.455	78.94
237.689	76.94
237.922	79.94
238.156	75.94
238.39	75.94
238.624	62.94
238.858	65.94
239.091	75.94
239.325	83.94
239.559	76.94
239.793	71.94
240.027	86.94
240.26	83.94
240.494	72.94
240.728	89.94
240.961	52.94
241.195	73.94
241.429	70.94
241.662	65.94
241.896	82.94
242.13	79.94
242.363	72.94
242.597	88.94
242.83	75.94
243.064	86.94
243.298	73.94
243.531	82.94
243.765	75.94
243.998	72.94
244.232	79.94
244.465	81.94
244.699	79.94
244.932	65.94
245.166	75.94
245.399	71.94
245.633	66.94
245.866	76.94
246.099	77.94
246.333	78.94
246.566	67.94
246.8	59.94
247.033	70.94
247.266	85.94
247.5	77.94
247.733	77.94
247.966	78.94
248.2	69.94
248.433	74.94
248.666	75.94
248.899	72.94
249.133	77.94
249.366	90.94
249.599	64.94
249.832	77.94
250.066	82.94
250.299	86.94
250.532	83.94
250.765	85.94
250.998	75.94
251.231	78.94
251.465	80.94
251.698	74.94
251.931	82.94
252.164	76.94
252.397	72.94
252.63	89.94
252.863	83.94
253.096	85.94
253.329	86.94
253.562	72.94
253.795	73.94
254.028	77.94
254.261	95.94
254.494	96.94
254.727	79.94
254.96	73.94
255.193	90.94
255.426	91.94
255.659	84.94
255.892	85.94
256.124	92.94
256.357	84.94
256.59	92.94
256.823	77.94
257.056	87.94
257.289	86.94
257.521	64.94
257.754	72.94
257.987	68.94
258.22	83.94
258.452	72.94
258.685	80.94
258.918	87.94
259.151	72.94
259.383	72.94
259.616	76.94
259.849	72.94
260.081	88.94
260.314	88.94
260.547	87.94
260.779	75.94
261.012	86.94
261.244	81.94
261.477	93.94
261.71	71.94
261.942	92.94
262.175	72.94
262.407	80.94
262.64	82.94
262.872	72.94
263.105	95.94
263.337	75.94
263.57	75.94
263.802	80.94
264.035	79.94
264.267	83.94
264.499	89.94
264.732	88.94
264.964	87.94
265.197	85.94
265.429	75.94
265.661	92.94
265.894	91.94
266.126	88.94
266.358	72.94
266.591	79.94
266.823	77.94
267.055	65.94
267.287	81.94
267.52	83.94
267.752	69.94
267.984	95.94
268.216	69.94
268.448	82.94
268.681	70.94
268.913	71.94
269.145	78.94
269.377	78.94
269.609	77.94
269.841	90.94
270.073	78.94
270.306	85.94
270.538	75.94
270.77	74.94
271.002	88.94
271.234	87.94
271.466	78.94
271.698	67.94
271.93	73.94
272.162	95.94
272.394	88.94
272.626	82.94
272.858	91.94
273.09	89.94
273.322	81.94
273.553	91.94
273.785	76.94
274.017	89.94
274.249	82.94
274.481	91.94
274.713	86.94
274.945	64.94
275.176	82.94
275.408	77.94
275.64	88.94
275.872	92.94
276.104	83.94
276.335	85.94
276.567	80.94
276.799	83.94
277.031	71.94
277.262	82.94
277.494	80.94
277.726	78.94
277.957	88.94
278.189	83.94
278.421	72.94
278.652	95.94
278.884	76.94
279.115	75.94
279.347	89.94
279.579	87.94
279.81	81.94
280.042	81.94
280.273	70.94
280.505	78.94
280.736	104.94
280.968	96.94
281.199	81.94
281.431	80.94
281.662	80.94
281.894	84.94
282.125	81.94
282.356	88.94
282.588	95.94
282.819	79.94
283.051	81.94
283.282	81.94
283.513	84.94
283.745	75.94
283.976	78.94
284.207	86.94
284.439	87.94
284.67	86.94
284.901	73.94
285.132	87.94
285.364	83.94
285.595	92.94
285.826	95.94
286.057	87.94
286.288	76.94
286.52	79.94
286.751	87.94
286.982	85.94
287.213	96.94
287.444	85.94
287.675	77.94
287.906	85.94
288.138	90.94
288.369	86.94
288.6	81.94
288.831	73.94
289.062	82.94
289.293	74.94
289.524	84.94
289.755	85.94
289.986	75.94
290.217	70.94
290.448	76.94
290.679	77.94
290.91	81.94
291.141	95.94
291.371	85.94
291.602	87.94
291.833	81.94
292.064	78.94
292.295	75.94
292.526	84.94
292.757	86.94
292.987	88.94
293.218	68.94
293.449	78.94
293.68	91.94
293.91	88.94
294.141	93.94
294.372	87.94
294.603	85.94
294.833	92.94
295.064	70.94
295.295	86.94
295.525	77.94
295.756	95.94
295.987	87.94
296.217	85.94
296.448	76.94
296.679	89.94
296.909	81.94
297.14	84.94
297.37	91.94
297.601	80.94
297.831	80.94
298.062	90.94
298.292	93.94
298.523	98.94
298.753	70.94
298.984	84.94
299.214	93.94
299.445	94.94
299.675	91.94
299.905	79.94
300.136	90.94
300.366	76.94
300.597	70.94
300.827	91.94
301.057	76.94
301.288	67.94
301.518	63.94
301.748	83.94
301.979	88.94
302.209	70.94
302.439	75.94
302.669	70.94
302.9	73.94
303.13	76.94
303.36	89.94
303.59	75.94
303.82	85.94
304.051	77.94
304.281	86.94
304.511	80.94
304.741	85.94
304.971	89.94
305.201	103.94
305.431	85.94
305.661	90.94
305.891	78.94
306.121	97.94
306.352	78.94
306.582	72.94
306.812	68.94
307.042	70.94
307.272	93.94
307.502	81.94
307.731	81.94
307.961	92.94
308.191	84.94
308.421	88.94
308.651	99.94
308.881	94.94
309.111	82.94
309.341	84.94
309.571	80.94
309.8	85.94
310.03	85.94
310.26	87.94
310.49	86.94
310.72	74.94
310.949	83.94
311.179	78.94
311.409	85.94
311.639	95.94
311.868	80.94
312.098	67.94
312.328	86.94
312.557	91.94
312.787	93.94
313.017	81.94
313.246	87.94
313.476	79.94
313.706	81.94
313.935	83.94
314.165	79.94
314.394	82.94
314.624	93.94
314.853	94.94
315.083	84.94
315.312	80.94
315.542	87.94
315.771	87.94
316.001	103.94
316.23	93.94
316.46	81.94
316.689	71.94
316.919	89.94
317.148	91.94
317.377	94.94
317.607	78.94
317.836	95.94
318.065	76.94
318.295	68.94
318.524	79.94
318.753	100.94
318.983	81.94
319.212	94.94
319.441	94.94
319.67	82.94
319.9	86.94
320.129	78.94
320.358	94.94
320.587	75.94
320.816	74.94
321.046	82.94
321.275	78.94
321.504	81.94
321.733	82.94
321.962	68.94
322.191	77.94
322.42	81.94
322.649	91.94
322.878	88.94
323.108	84.94
323.337	70.94
323.566	75.94
323.795	84.94
324.024	84.94
324.253	83.94
324.482	80.94
324.71	89.94
324.939	83.94
325.168	68.94
325.397	80.94
325.626	76.94
325.855	80.94
326.084	82.94
326.313	85.94
326.542	75.94
326.77	91.94
326.999	84.94
327.228	79.94
327.457	87.94
327.686	77.94
327.914	89.94
328.143	89.94
328.372	86.94
328.6	86.94
328.829	86.94
329.058	80.94
329.287	77.94
329.515	84.94
329.744	88.94
329.972	78.94
330.201	89.94
330.43	90.94
330.658	72.94
330.887	82.94
331.115	82.94
331.344	92.94
331.572	84.94
331.801	66.94
332.03	89.94
332.258	87.94
332.486	97.94
332.715	70.94
332.943	59.94
333.172	81.94
333.4	83.94
333.629	83.94
333.857	92.94
334.085	78.94
334.314	72.94
334.542	76.94
334.771	73.94
334.999	86.94
335.227	77.94
335.455	87.94
335.684	81.94
335.912	98.94
336.14	81.94
336.369	79.94
336.597	80.94
336.825	75.94
337.053	88.94
337.281	100.94
337.51	96.94
337.738	83.94
337.966	85.94
338.194	77.94
338.422	88.94
338.65	84.94
338.878	79.94
339.106	91.94
339.334	90.94
339.562	77.94
339.79	97.94
340.018	81.94
340.246	74.94
340.474	72.94
340.702	79.94
340.93	76.94
341.158	71.94
341.386	76.94
341.614	87.94
341.842	87.94
342.07	73.94
342.298	90.94
342.526	85.94
342.754	73.94
342.981	74.94
343.209	75.94
343.437	78.94
343.665	86.94
343.893	96.94
344.12	84.94
344.348	91.94
344.576	92.94
344.804	80.94
345.031	83.94
345.259	94.94
345.487	76.94
345.714	78.94
345.942	77.94
346.17	82.94
346.397	72.94
346.625	86.94
346.853	70.94
347.08	66.94
347.308	82.94
347.535	71.94
347.763	89.94
347.99	91.94
348.218	72.94
348.445	83.94
348.673	80.94
348.9	87.94
349.128	91.94
349.355	77.94
349.583	81.94
349.81	73.94
350.037	91.94
350.265	81.94
350.492	85.94
350.72	88.94
350.947	82.94
351.174	90.94
351.402	95.94
351.629	96.94
351.856	91.94
352.083	76.94
352.311	87.94
352.538	81.94
352.765	83.94
352.992	87.94
353.22	86.94
353.447	77.94
353.674	87.94
353.901	79.94
354.128	85.94
354.355	87.94
354.583	94.94
354.81	81.94
355.037	87.94
355.264	78.94
355.491	79.94
355.718	88.94
355.945	81.94
356.172	87.94
356.399	82.94
356.626	70.94
356.853	73.94
357.08	80.94
357.307	87.94
357.534	97.94
357.761	77.94
357.988	94.94
358.215	91.94
358.441	86.94
358.668	83.94
358.895	92.94
359.122	85.94
359.349	76.94
359.576	77.94
359.802	81.94
360.029	84.94
360.256	95.94
360.483	84.94
360.709	84.94
360.936	97.94
361.163	91.94
361.39	82.94
361.616	87.94
361.843	84.94
362.07	83.94
362.296	93.94
362.523	88.94
362.749	82.94
362.976	91.94
363.203	91.94
363.429	86.94
363.656	83.94
363.882	93.94
364.109	90.94
364.335	85.94
364.562	84.94
364.788	83.94
365.015	73.94
365.241	83.94
365.468	85.94
365.694	83.94
365.92	104.94
366.147	87.94
366.373	86.94
366.599	81.94
366.826	81.94
367.052	84.94
367.278	103.94
367.505	95.94
367.731	93.94
367.957	86.94
368.184	87.94
368.41	89.94
368.636	87.94
368.862	78.94
369.089	90.94
369.315	83.94
369.541	92.94
369.767	89.94
369.993	94.94
370.219	92.94
370.445	87.94
370.672	80.94
370.898	99.94
371.124	80.94
371.35	70.94
371.576	106.94
371.802	90.94
372.028	66.94
372.254	101.94
372.48	95.94
372.706	82.94
372.932	97.94
373.158	85.94
373.384	81.94
373.61	78.94
373.835	79.94
374.061	92.94
374.287	100.94
374.513	87.94
374.739	90.94
374.965	86.94
375.191	96.94
375.416	107.94
375.642	91.94
375.868	95.94
376.094	91.94
376.319	94.94
376.545	90.94
376.771	90.94
376.997	82.94
377.222	85.94
377.448	94.94
377.674	87.94
377.899	82.94
378.125	102.94
378.35	77.94
378.576	80.94
378.802	87.94
379.027	81.94
379.253	76.94
379.478	89.94
379.704	106.94
379.929	91.94
380.155	101.94
380.38	89.94
380.606	84.94
380.831	91.94
381.057	106.94
381.282	83.94
381.507	88.94
381.733	95.94
381.958	92.94
382.184	94.94
382.409	101.94
382.634	101.94
382.86	98.94
383.085	97.94
383.31	93.94
383.535	90.94
383.761	98.94
383.986	83.94
384.211	95.94
384.436	86.94
384.662	80.94
384.887	89.94
385.112	90.94
385.337	86.94
385.562	83.94
385.787	101.94
386.013	115.94
386.238	88.94
386.463	86.94
386.688	103.94
386.913	96.94
387.138	102.94
387.363	101.94
387.588	93.94
387.813	90.94
388.038	103.94
388.263	97.94
388.488	95.94
388.713	90.94
388.938	95.94
389.163	87.94
389.387	92.94
389.612	108.94
389.837	105.94
390.062	105.94
390.287	107.94
390.512	103.94
390.736	102.94
390.961	87.94
391.186	102.94
391.411	95.94
391.636	105.94
391.86	106.94
392.085	101.94
392.31	103.94
392.534	90.94
392.759	102.94
392.984	96.94
393.208	97.94
393.433	98.94
393.658	89.94
393.882	103.94
394.107	93.94
394.331	116.94
394.556	96.94
394.78	86.94
395.005	84.94
395.229	92.94
395.454	113.94
395.678	98.94
395.903	90.94
396.127	105.94
396.352	97.94
396.576	83.94
396.801	101.94
397.025	89.94
397.249	102.94
397.474	108.94
397.698	89.94
397.922	92.94
398.147	100.94
398.371	116.94
398.595	104.94
398.82	100.94
399.044	96.94
399.268	93.94
399.492	134.94
399.717	120.94
399.941	106.94
400.165	115.94
400.389	103.94
400.613	104.94
400.837	106.94
401.062	103.94
401.286	94.94
401.51	114.94
401.734	105.94
401.958	91.94
402.182	105.94
402.406	108.94
402.63	108.94
402.854	103.94
403.078	114.94
403.302	114.94
403.526	114.94
403.75	109.94
403.974	107.94
404.198	104.94
404.422	112.94
404.645	118.94
404.869	108.94
405.093	123.94
405.317	115.94
405.541	111.94
405.765	111.94
405.988	114.94
406.212	114.94
406.436	111.94
406.66	108.94
406.883	115.94
407.107	114.94
407.331	124.94
407.555	102.94
407.778	114.94
408.002	120.94
408.226	118.94
408.449	115.94
408.673	103.94
408.896	105.94
409.12	109.94
409.344	118.94
409.567	94.94
409.791	103.94
410.014	117.94
410.238	114.94
410.461	97.94
410.685	118.94
410.908	104.94
411.132	112.94
411.355	111.94
411.578	111.94
411.802	110.94
412.025	110.94
412.249	114.94
412.472	110.94
412.695	102.94
412.919	100.94
413.142	105.94
413.365	110.94
413.589	105.94
413.812	103.94
414.035	101.94
414.258	114.94
414.482	118.94
414.705	119.94
414.928	120.94
415.151	118.94
415.374	105.94
415.597	123.94
415.821	116.94
416.044	115.94
416.267	118.94
416.49	112.94
416.713	118.94
416.936	112.94
417.159	107.94
417.382	99.94
417.605	104.94
417.828	107.94
418.051	124.94
418.274	115.94
418.497	121.94
418.72	110.94
418.943	126.94
419.166	122.94
419.389	117.94
419.611	110.94
419.834	136.94
420.057	124.94
420.28	108.94
420.503	122.94
420.726	119.94
420.948	124.94
421.171	113.94
421.394	124.94
421.617	109.94
421.839	115.94
422.062	115.94
422.285	132.94
422.507	119.94
422.73	113.94
422.953	110.94
423.175	113.94
423.398	117.94
423.621	124.94
423.843	104.94
424.066	129.94
424.288	123.94
424.511	110.94
424.733	123.94
424.956	123.94
425.178	128.94
425.401	118.94
425.623	123.94
425.846	103.94
426.068	120.94
426.291	110.94
426.513	123.94
426.735	115.94
426.958	114.94
427.18	111.94
427.402	107.94
427.625	110.94
427.847	113.94
428.069	105.94
428.292	102.94
428.514	104.94
428.736	94.94
428.958	110.94
429.181	108.94
429.403	116.94
429.625	116.94
429.847	125.94
430.069	108.94
430.292	113.94
430.514	110.94
430.736	113.94
430.958	130.94
431.18	110.94
431.402	109.94
431.624	111.94
431.846	103.94
432.068	89.94
432.29	111.94
432.512	110.94
432.734	104.94
432.956	120.94
433.178	131.94
433.4	121.94
433.622	110.94
433.844	115.94
434.066	105.94
434.287	99.94
434.509	102.94
434.731	85.94
434.953	113.94
435.175	128.94
435.397	110.94
435.618	132.94
435.84	104.94
436.062	111.94
436.284	116.94
436.505	108.94
436.727	120.94
436.949	122.94
437.17	113.94
437.392	121.94
437.614	114.94
437.835	119.94
438.057	117.94
438.278	109.94
438.5	117.94
438.721	123.94
438.943	122.94
439.165	112.94
439.386	115.94
439.608	118.94
439.829	121.94
440.05	110.94
440.272	116.94
440.493	105.94
440.715	122.94
440.936	112.94
441.158	114.94
441.379	129.94
441.6	133.94
441.822	99.94
442.043	100.94
442.264	114.94
442.486	138.94
442.707	119.94
442.928	128.94
443.149	124.94
443.371	113.94
443.592	128.94
443.813	118.94
444.034	124.94
444.255	130.94
444.476	116.94
444.698	128.94
444.919	138.94
445.14	257.94
445.361	174.94
445.582	105.94
445.803	115.94
446.024	122.94
446.245	121.94
446.466	112.94
446.687	122.94
446.908	134.94
447.129	134.94
447.35	126.94
447.571	119.94
447.792	124.94
448.013	114.94
448.234	114.94
448.455	123.94
448.675	127.94
448.896	117.94
449.117	111.94
449.338	119.94
449.559	126.94
449.779	116.94
450	115.94
450.221	119.94
450.442	127.94
450.662	116.94
450.883	114.94
451.104	119.94
451.324	120.94
451.545	110.94
451.766	106.94
451.986	122.94
452.207	98.94
452.428	112.94
452.648	97.94
452.869	120.94
453.089	118.94
453.31	104.94
453.53	112.94
453.751	109.94
453.971	95.94
454.192	111.94
454.412	116.94
454.633	110.94
454.853	119.94
455.073	105.94
455.294	118.94
455.514	114.94
455.734	103.94
455.955	109.94
456.175	107.94
456.395	104.94
456.616	98.94
456.836	113.94
457.056	100.94
457.276	120.94
457.497	96.94
457.717	101.94
457.937	117.94
458.157	112.94
458.377	116.94
458.598	116.94
458.818	112.94
459.038	106.94
459.258	101.94
459.478	96.94
459.698	98.94
459.918	105.94
460.138	119.94
460.358	122.94
460.578	111.94
460.798	110.94
461.018	110.94
461.238	119.94
461.458	119.94
461.678	100.94
461.898	118.94
462.118	117.94
462.338	129.94
462.558	117.94
462.777	105.94
462.997	130.94
463.217	129.94
463.437	130.94
463.657	127.94
463.876	108.94
464.096	104.94
464.316	123.94
464.536	117.94
464.755	106.94
464.975	110.94
465.195	120.94
465.414	122.94
465.634	111.94
465.854	118.94
466.073	115.94
466.293	131.94
466.512	111.94
466.732	118.94
466.951	127.94
467.171	114.94
467.391	129.94
467.61	118.94
467.829	123.94
468.049	113.94
468.268	106.94
468.488	115.94
468.707	116.94
468.927	126.94
469.146	122.94
469.365	135.94
469.585	122.94
469.804	128.94
470.023	132.94
470.243	141.94
470.462	122.94
470.681	137.94
470.901	116.94
471.12	124.94
471.339	116.94
471.558	124.94
471.777	114.94
471.997	120.94
472.216	123.94
472.435	131.94
472.654	103.94
472.873	97.94
473.092	123.94
473.311	120.94
473.53	118.94
473.749	111.94
473.968	110.94
474.187	111.94
474.406	113.94
474.625	131.94
474.844	111.94
475.063	112.94
475.282	118.94
475.501	107.94
475.72	122.94
475.939	121.94
476.158	127.94
476.377	137.94
476.596	129.94
476.814	111.94
477.033	115.94
477.252	115.94
477.471	121.94
477.69	128.94
477.908	121.94
478.127	132.94
478.346	118.94
478.564	127.94
478.783	137.94
479.002	129.94
479.22	124.94
479.439	130.94
479.658	123.94
479.876	110.94
480.095	123.94
480.313	122.94
480.532	130.94
480.751	127.94
480.969	124.94
481.188	114.94
481.406	117.94
481.624	111.94
481.843	112.94
482.061	115.94
482.28	104.94
482.498	113.94
482.717	121.94
482.935	119.94
483.153	125.94
483.372	126.94
483.59	134.94
483.808	125.94
484.027	128.94
484.245	128.94
484.463	118.94
484.681	123.94
484.9	127.94
485.118	123.94
485.336	113.94
485.554	120.94
485.772	124.94
485.99	129.94
486.209	123.94
486.427	120.94
486.645	119.94
486.863	130.94
487.081	141.94
487.299	118.94
487.517	128.94
487.735	149.94
487.953	140.94
488.171	141.94
488.389	148.94
488.607	137.94
488.825	110.94
489.043	139.94
489.261	132.94
489.479	126.94
489.696	135.94
489.914	138.94
490.132	131.94
490.35	131.94
490.568	147.94
490.786	138.94
491.003	144.94
491.221	144.94
491.439	141.94
491.657	145.94
491.874	160.94
492.092	178.94
492.31	168.94
492.527	159.94
492.745	146.94
492.963	146.94
493.18	141.94
493.398	163.94
493.615	162.94
493.833	168.94
494.05	138.94
494.268	149.94
494.485	156.94
494.703	146.94
494.92	145.94
495.138	147.94
495.355	140.94
495.573	146.94
495.79	141.94
496.008	151.94
496.225	143.94
496.442	150.94
496.66	155.94
496.877	144.94
497.094	158.94
497.312	148.94
497.529	147.94
497.746	163.94
497.963	143.94
498.181	148.94
498.398	126.94
498.615	143.94
498.832	150.94
499.049	148.94
499.267	161.94
499.484	158.94
499.701	178.94
499.918	194.94
500.135	205.94
500.352	219.94
500.569	215.94
500.786	218.94
501.003	208.94
501.22	207.94
501.437	172.94
501.654	172.94
501.871	160.94
502.088	163.94
502.305	153.94
502.522	155.94
502.739	150.94
502.956	134.94
503.172	128.94
503.389	126.94
503.606	136.94
503.823	134.94
504.04	114.94
504.256	139.94
504.473	140.94
504.69	134.94
504.907	132.94
505.123	138.94
505.34	137.94
505.557	136.94
505.773	124.94
505.99	118.94
506.207	125.94
506.423	130.94
506.64	122.94
506.856	130.94
507.073	121.94
507.289	122.94
507.506	131.94
507.722	126.94
507.939	124.94
508.155	114.94
508.372	116.94
508.588	137.94
508.805	131.94
509.021	116.94
509.238	130.94
509.454	112.94
509.67	120.94
509.887	112.94
510.103	115.94
510.319	117.94
510.536	122.94
510.752	119.94
510.968	100.94
511.184	98.94
511.401	134.94
511.617	122.94
