Data from StandardFe(NO3)3.TAE.3%Agarose.FlatLispGreen.Lamp.Energy10.07252019_HRD10591_11-55-59-441.txt Node
Date: Thu Jul 25 11:55:59 EDT 2019
User: cochatt
Spectrometer: HR+D1059
Trigger mode: 1
Integration Time (sec): 1.000000E-1
Scans to average: 1
Electric dark correction enabled: true
Nonlinearity correction enabled: false
Boxcar width: 0
XAxis mode: Wavelengths
Number of Pixels in Spectrum: 2048
>>>>>Begin Spectral Data<<<<<
223.165	-15.69
223.4	-15.69
223.635	-15.69
223.869	-25.69
224.104	-12.69
224.338	-11.69
224.573	-8.69
224.808	-7.69
225.042	-9.69
225.277	-11.69
225.511	1.31
225.746	0.31
225.98	8.31
226.215	-5.69
226.449	16.31
226.683	20.31
226.918	31.31
227.152	31.31
227.387	36.31
227.621	22.31
227.856	48.31
228.09	56.31
228.324	62.31
228.559	50.31
228.793	60.31
229.027	64.31
229.262	76.31
229.496	86.31
229.73	60.31
229.964	60.31
230.199	71.31
230.433	80.31
230.667	77.31
230.901	56.31
231.136	82.31
231.37	75.31
231.604	78.31
231.838	89.31
232.072	88.31
232.306	79.31
232.541	88.31
232.775	78.31
233.009	77.31
233.243	90.31
233.477	90.31
233.711	72.31
233.945	99.31
234.179	93.31
234.413	93.31
234.647	85.31
234.881	81.31
235.115	92.31
235.349	87.31
235.583	77.31
235.817	80.31
236.051	78.31
236.285	78.31
236.519	90.31
236.753	75.31
236.987	84.31
237.221	73.31
237.455	78.31
237.689	80.31
237.922	90.31
238.156	69.31
238.39	69.31
238.624	67.31
238.858	74.31
239.091	73.31
239.325	94.31
239.559	75.31
239.793	80.31
240.027	76.31
240.26	67.31
240.494	64.31
240.728	67.31
240.961	70.31
241.195	81.31
241.429	82.31
241.662	78.31
241.896	75.31
242.13	70.31
242.363	75.31
242.597	69.31
242.83	88.31
243.064	89.31
243.298	75.31
243.531	78.31
243.765	79.31
243.998	98.31
244.232	79.31
244.465	72.31
244.699	83.31
244.932	68.31
245.166	75.31
245.399	70.31
245.633	87.31
245.866	85.31
246.099	73.31
246.333	96.31
246.566	73.31
246.8	73.31
247.033	76.31
247.266	75.31
247.5	96.31
247.733	87.31
247.966	76.31
248.2	88.31
248.433	66.31
248.666	68.31
248.899	87.31
249.133	74.31
249.366	90.31
249.599	86.31
249.832	90.31
250.066	86.31
250.299	82.31
250.532	90.31
250.765	87.31
250.998	90.31
251.231	80.31
251.465	93.31
251.698	77.31
251.931	77.31
252.164	89.31
252.397	88.31
252.63	81.31
252.863	72.31
253.096	75.31
253.329	84.31
253.562	78.31
253.795	84.31
254.028	76.31
254.261	78.31
254.494	75.31
254.727	85.31
254.96	62.31
255.193	80.31
255.426	87.31
255.659	83.31
255.892	81.31
256.124	88.31
256.357	75.31
256.59	77.31
256.823	79.31
257.056	75.31
257.289	77.31
257.521	81.31
257.754	85.31
257.987	90.31
258.22	80.31
258.452	85.31
258.685	76.31
258.918	76.31
259.151	72.31
259.383	67.31
259.616	87.31
259.849	72.31
260.081	77.31
260.314	63.31
260.547	79.31
260.779	89.31
261.012	95.31
261.244	80.31
261.477	89.31
261.71	85.31
261.942	86.31
262.175	85.31
262.407	80.31
262.64	75.31
262.872	84.31
263.105	90.31
263.337	92.31
263.57	92.31
263.802	84.31
264.035	76.31
264.267	88.31
264.499	86.31
264.732	72.31
264.964	76.31
265.197	78.31
265.429	92.31
265.661	90.31
265.894	90.31
266.126	75.31
266.358	92.31
266.591	79.31
266.823	95.31
267.055	86.31
267.287	85.31
267.52	76.31
267.752	82.31
267.984	82.31
268.216	82.31
268.448	83.31
268.681	92.31
268.913	66.31
269.145	84.31
269.377	89.31
269.609	86.31
269.841	72.31
270.073	93.31
270.306	85.31
270.538	76.31
270.77	88.31
271.002	82.31
271.234	96.31
271.466	90.31
271.698	75.31
271.93	95.31
272.162	91.31
272.394	82.31
272.626	98.31
272.858	90.31
273.09	83.31
273.322	86.31
273.553	78.31
273.785	82.31
274.017	84.31
274.249	88.31
274.481	100.31
274.713	89.31
274.945	100.31
275.176	88.31
275.408	81.31
275.64	74.31
275.872	91.31
276.104	79.31
276.335	90.31
276.567	85.31
276.799	90.31
277.031	79.31
277.262	72.31
277.494	79.31
277.726	104.31
277.957	86.31
278.189	90.31
278.421	88.31
278.652	88.31
278.884	85.31
279.115	90.31
279.347	90.31
279.579	86.31
279.81	88.31
280.042	90.31
280.273	77.31
280.505	83.31
280.736	80.31
280.968	64.31
281.199	93.31
281.431	89.31
281.662	79.31
281.894	92.31
282.125	83.31
282.356	85.31
282.588	90.31
282.819	72.31
283.051	85.31
283.282	83.31
283.513	85.31
283.745	85.31
283.976	81.31
284.207	81.31
284.439	87.31
284.67	92.31
284.901	92.31
285.132	86.31
285.364	95.31
285.595	91.31
285.826	72.31
286.057	83.31
286.288	70.31
286.52	82.31
286.751	94.31
286.982	79.31
287.213	82.31
287.444	81.31
287.675	78.31
287.906	99.31
288.138	67.31
288.369	77.31
288.6	74.31
288.831	85.31
289.062	80.31
289.293	80.31
289.524	76.31
289.755	88.31
289.986	88.31
290.217	78.31
290.448	93.31
290.679	97.31
290.91	87.31
291.141	77.31
291.371	85.31
291.602	78.31
291.833	82.31
292.064	87.31
292.295	82.31
292.526	79.31
292.757	83.31
292.987	84.31
293.218	93.31
293.449	93.31
293.68	83.31
293.91	88.31
294.141	75.31
294.372	95.31
294.603	72.31
294.833	99.31
295.064	84.31
295.295	81.31
295.525	85.31
295.756	77.31
295.987	70.31
296.217	96.31
296.448	109.31
296.679	87.31
296.909	83.31
297.14	81.31
297.37	96.31
297.601	87.31
297.831	88.31
298.062	103.31
298.292	82.31
298.523	71.31
298.753	86.31
298.984	99.31
299.214	88.31
299.445	93.31
299.675	94.31
299.905	82.31
300.136	84.31
300.366	78.31
300.597	90.31
300.827	87.31
301.057	86.31
301.288	86.31
301.518	85.31
301.748	85.31
301.979	90.31
302.209	79.31
302.439	90.31
302.669	91.31
302.9	93.31
303.13	96.31
303.36	90.31
303.59	89.31
303.82	86.31
304.051	86.31
304.281	104.31
304.511	95.31
304.741	86.31
304.971	75.31
305.201	89.31
305.431	88.31
305.661	102.31
305.891	94.31
306.121	87.31
306.352	101.31
306.582	95.31
306.812	84.31
307.042	96.31
307.272	97.31
307.502	96.31
307.731	90.31
307.961	92.31
308.191	88.31
308.421	95.31
308.651	80.31
308.881	90.31
309.111	82.31
309.341	83.31
309.571	94.31
309.8	99.31
310.03	83.31
310.26	72.31
310.49	105.31
310.72	79.31
310.949	98.31
311.179	100.31
311.409	97.31
311.639	102.31
311.868	93.31
312.098	79.31
312.328	81.31
312.557	81.31
312.787	89.31
313.017	80.31
313.246	94.31
313.476	91.31
313.706	68.31
313.935	89.31
314.165	98.31
314.394	82.31
314.624	79.31
314.853	88.31
315.083	88.31
315.312	89.31
315.542	84.31
315.771	73.31
316.001	85.31
316.23	87.31
316.46	73.31
316.689	87.31
316.919	78.31
317.148	82.31
317.377	99.31
317.607	98.31
317.836	83.31
318.065	89.31
318.295	80.31
318.524	94.31
318.753	70.31
318.983	90.31
319.212	89.31
319.441	76.31
319.67	80.31
319.9	85.31
320.129	89.31
320.358	89.31
320.587	92.31
320.816	88.31
321.046	84.31
321.275	90.31
321.504	95.31
321.733	88.31
321.962	71.31
322.191	91.31
322.42	91.31
322.649	89.31
322.878	70.31
323.108	89.31
323.337	86.31
323.566	88.31
323.795	91.31
324.024	88.31
324.253	96.31
324.482	99.31
324.71	77.31
324.939	78.31
325.168	85.31
325.397	86.31
325.626	99.31
325.855	94.31
326.084	92.31
326.313	85.31
326.542	77.31
326.77	82.31
326.999	86.31
327.228	85.31
327.457	87.31
327.686	81.31
327.914	72.31
328.143	86.31
328.372	99.31
328.6	80.31
328.829	79.31
329.058	81.31
329.287	78.31
329.515	81.31
329.744	96.31
329.972	94.31
330.201	90.31
330.43	96.31
330.658	87.31
330.887	86.31
331.115	101.31
331.344	87.31
331.572	82.31
331.801	81.31
332.03	77.31
332.258	88.31
332.486	88.31
332.715	84.31
332.943	102.31
333.172	105.31
333.4	94.31
333.629	96.31
333.857	88.31
334.085	90.31
334.314	91.31
334.542	92.31
334.771	83.31
334.999	84.31
335.227	93.31
335.455	84.31
335.684	89.31
335.912	89.31
336.14	102.31
336.369	84.31
336.597	86.31
336.825	85.31
337.053	75.31
337.281	98.31
337.51	74.31
337.738	79.31
337.966	83.31
338.194	83.31
338.422	92.31
338.65	89.31
338.878	76.31
339.106	84.31
339.334	91.31
339.562	86.31
339.79	93.31
340.018	92.31
340.246	100.31
340.474	89.31
340.702	79.31
340.93	102.31
341.158	68.31
341.386	84.31
341.614	75.31
341.842	84.31
342.07	93.31
342.298	92.31
342.526	84.31
342.754	81.31
342.981	95.31
343.209	83.31
343.437	91.31
343.665	93.31
343.893	85.31
344.12	81.31
344.348	85.31
344.576	90.31
344.804	98.31
345.031	82.31
345.259	84.31
345.487	76.31
345.714	86.31
345.942	71.31
346.17	74.31
346.397	98.31
346.625	74.31
346.853	93.31
347.08	84.31
347.308	78.31
347.535	78.31
347.763	97.31
347.99	81.31
348.218	85.31
348.445	88.31
348.673	94.31
348.9	93.31
349.128	100.31
349.355	75.31
349.583	85.31
349.81	86.31
350.037	94.31
350.265	85.31
350.492	91.31
350.72	88.31
350.947	70.31
351.174	86.31
351.402	86.31
351.629	87.31
351.856	77.31
352.083	81.31
352.311	90.31
352.538	83.31
352.765	95.31
352.992	89.31
353.22	80.31
353.447	83.31
353.674	80.31
353.901	84.31
354.128	73.31
354.355	89.31
354.583	88.31
354.81	82.31
355.037	80.31
355.264	82.31
355.491	86.31
355.718	97.31
355.945	92.31
356.172	79.31
356.399	83.31
356.626	72.31
356.853	97.31
357.08	77.31
357.307	93.31
357.534	74.31
357.761	73.31
357.988	88.31
358.215	91.31
358.441	81.31
358.668	94.31
358.895	79.31
359.122	74.31
359.349	86.31
359.576	70.31
359.802	94.31
360.029	81.31
360.256	70.31
360.483	87.31
360.709	86.31
360.936	91.31
361.163	90.31
361.39	78.31
361.616	85.31
361.843	82.31
362.07	109.31
362.296	110.31
362.523	90.31
362.749	79.31
362.976	96.31
363.203	82.31
363.429	97.31
363.656	92.31
363.882	95.31
364.109	82.31
364.335	90.31
364.562	85.31
364.788	99.31
365.015	82.31
365.241	84.31
365.468	90.31
365.694	86.31
365.92	92.31
366.147	74.31
366.373	102.31
366.599	80.31
366.826	83.31
367.052	94.31
367.278	80.31
367.505	81.31
367.731	94.31
367.957	84.31
368.184	94.31
368.41	83.31
368.636	85.31
368.862	97.31
369.089	84.31
369.315	101.31
369.541	90.31
369.767	76.31
369.993	79.31
370.219	109.31
370.445	98.31
370.672	93.31
370.898	84.31
371.124	91.31
371.35	96.31
371.576	97.31
371.802	73.31
372.028	98.31
372.254	74.31
372.48	93.31
372.706	89.31
372.932	80.31
373.158	82.31
373.384	82.31
373.61	84.31
373.835	98.31
374.061	80.31
374.287	65.31
374.513	103.31
374.739	86.31
374.965	86.31
375.191	82.31
375.416	92.31
375.642	94.31
375.868	88.31
376.094	92.31
376.319	84.31
376.545	92.31
376.771	88.31
376.997	80.31
377.222	95.31
377.448	94.31
377.674	85.31
377.899	80.31
378.125	102.31
378.35	87.31
378.576	91.31
378.802	98.31
379.027	87.31
379.253	71.31
379.478	102.31
379.704	86.31
379.929	78.31
380.155	94.31
380.38	89.31
380.606	84.31
380.831	87.31
381.057	79.31
381.282	88.31
381.507	84.31
381.733	104.31
381.958	77.31
382.184	76.31
382.409	99.31
382.634	87.31
382.86	85.31
383.085	94.31
383.31	97.31
383.535	81.31
383.761	92.31
383.986	98.31
384.211	105.31
384.436	100.31
384.662	108.31
384.887	96.31
385.112	100.31
385.337	103.31
385.562	97.31
385.787	88.31
386.013	116.31
386.238	93.31
386.463	77.31
386.688	107.31
386.913	85.31
387.138	97.31
387.363	81.31
387.588	100.31
387.813	85.31
388.038	96.31
388.263	106.31
388.488	93.31
388.713	95.31
388.938	88.31
389.163	93.31
389.387	96.31
389.612	98.31
389.837	99.31
390.062	107.31
390.287	88.31
390.512	83.31
390.736	90.31
390.961	97.31
391.186	102.31
391.411	99.31
391.636	91.31
391.86	116.31
392.085	100.31
392.31	107.31
392.534	99.31
392.759	114.31
392.984	107.31
393.208	88.31
393.433	90.31
393.658	97.31
393.882	90.31
394.107	97.31
394.331	94.31
394.556	93.31
394.78	102.31
395.005	94.31
395.229	103.31
395.454	115.31
395.678	91.31
395.903	98.31
396.127	103.31
396.352	105.31
396.576	95.31
396.801	96.31
397.025	99.31
397.249	89.31
397.474	108.31
397.698	103.31
397.922	102.31
398.147	115.31
398.371	103.31
398.595	93.31
398.82	96.31
399.044	107.31
399.268	112.31
399.492	104.31
399.717	115.31
399.941	122.31
400.165	106.31
400.389	112.31
400.613	105.31
400.837	101.31
401.062	112.31
401.286	101.31
401.51	109.31
401.734	121.31
401.958	103.31
402.182	100.31
402.406	99.31
402.63	105.31
402.854	96.31
403.078	99.31
403.302	107.31
403.526	100.31
403.75	100.31
403.974	115.31
404.198	105.31
404.422	113.31
404.645	105.31
404.869	120.31
405.093	93.31
405.317	122.31
405.541	107.31
405.765	107.31
405.988	104.31
406.212	106.31
406.436	109.31
406.66	102.31
406.883	113.31
407.107	103.31
407.331	106.31
407.555	127.31
407.778	114.31
408.002	103.31
408.226	117.31
408.449	116.31
408.673	121.31
408.896	113.31
409.12	105.31
409.344	109.31
409.567	102.31
409.791	111.31
410.014	107.31
410.238	104.31
410.461	110.31
410.685	112.31
410.908	103.31
411.132	98.31
411.355	107.31
411.578	93.31
411.802	109.31
412.025	108.31
412.249	101.31
412.472	103.31
412.695	103.31
412.919	117.31
413.142	120.31
413.365	103.31
413.589	104.31
413.812	110.31
414.035	116.31
414.258	120.31
414.482	113.31
414.705	106.31
414.928	121.31
415.151	96.31
415.374	112.31
415.597	102.31
415.821	113.31
416.044	117.31
416.267	104.31
416.49	104.31
416.713	108.31
416.936	118.31
417.159	106.31
417.382	118.31
417.605	102.31
417.828	110.31
418.051	121.31
418.274	106.31
418.497	104.31
418.72	104.31
418.943	113.31
419.166	122.31
419.389	122.31
419.611	109.31
419.834	120.31
420.057	117.31
420.28	108.31
420.503	126.31
420.726	122.31
420.948	120.31
421.171	114.31
421.394	109.31
421.617	110.31
421.839	116.31
422.062	118.31
422.285	116.31
422.507	105.31
422.73	109.31
422.953	111.31
423.175	104.31
423.398	107.31
423.621	103.31
423.843	120.31
424.066	122.31
424.288	109.31
424.511	119.31
424.733	108.31
424.956	106.31
425.178	117.31
425.401	109.31
425.623	100.31
425.846	122.31
426.068	120.31
426.291	112.31
426.513	124.31
426.735	119.31
426.958	100.31
427.18	110.31
427.402	100.31
427.625	118.31
427.847	116.31
428.069	112.31
428.292	99.31
428.514	104.31
428.736	109.31
428.958	104.31
429.181	107.31
429.403	112.31
429.625	124.31
429.847	89.31
430.069	108.31
430.292	124.31
430.514	119.31
430.736	123.31
430.958	111.31
431.18	115.31
431.402	100.31
431.624	100.31
431.846	121.31
432.068	115.31
432.29	114.31
432.512	89.31
432.734	114.31
432.956	108.31
433.178	111.31
433.4	115.31
433.622	125.31
433.844	106.31
434.066	107.31
434.287	114.31
434.509	114.31
434.731	112.31
434.953	107.31
435.175	106.31
435.397	104.31
435.618	117.31
435.84	108.31
436.062	126.31
436.284	106.31
436.505	120.31
436.727	104.31
436.949	124.31
437.17	109.31
437.392	115.31
437.614	94.31
437.835	107.31
438.057	106.31
438.278	105.31
438.5	116.31
438.721	106.31
438.943	109.31
439.165	108.31
439.386	117.31
439.608	106.31
439.829	116.31
440.05	112.31
440.272	117.31
440.493	101.31
440.715	114.31
440.936	98.31
441.158	129.31
441.379	98.31
441.6	109.31
441.822	115.31
442.043	108.31
442.264	121.31
442.486	108.31
442.707	118.31
442.928	114.31
443.149	118.31
443.371	110.31
443.592	122.31
443.813	126.31
444.034	118.31
444.255	133.31
444.476	119.31
444.698	136.31
444.919	107.31
445.14	252.31
445.361	185.31
445.582	130.31
445.803	116.31
446.024	106.31
446.245	118.31
446.466	122.31
446.687	125.31
446.908	120.31
447.129	113.31
447.35	117.31
447.571	126.31
447.792	104.31
448.013	123.31
448.234	114.31
448.455	124.31
448.675	122.31
448.896	118.31
449.117	98.31
449.338	106.31
449.559	107.31
449.779	104.31
450	113.31
450.221	101.31
450.442	124.31
450.662	121.31
450.883	105.31
451.104	109.31
451.324	120.31
451.545	111.31
451.766	128.31
451.986	113.31
452.207	115.31
452.428	97.31
452.648	116.31
452.869	112.31
453.089	107.31
453.31	108.31
453.53	105.31
453.751	99.31
453.971	100.31
454.192	104.31
454.412	117.31
454.633	97.31
454.853	90.31
455.073	108.31
455.294	110.31
455.514	115.31
455.734	105.31
455.955	101.31
456.175	107.31
456.395	90.31
456.616	105.31
456.836	105.31
457.056	104.31
457.276	107.31
457.497	91.31
457.717	87.31
457.937	111.31
458.157	89.31
458.377	98.31
458.598	102.31
458.818	120.31
459.038	101.31
459.258	119.31
459.478	88.31
459.698	96.31
459.918	110.31
460.138	112.31
460.358	108.31
460.578	116.31
460.798	100.31
461.018	122.31
461.238	120.31
461.458	113.31
461.678	105.31
461.898	113.31
462.118	111.31
462.338	112.31
462.558	128.31
462.777	109.31
462.997	122.31
463.217	132.31
463.437	120.31
463.657	117.31
463.876	119.31
464.096	123.31
464.316	106.31
464.536	120.31
464.755	111.31
464.975	129.31
465.195	126.31
465.414	118.31
465.634	109.31
465.854	107.31
466.073	119.31
466.293	102.31
466.512	112.31
466.732	110.31
466.951	105.31
467.171	110.31
467.391	124.31
467.61	114.31
467.829	116.31
468.049	120.31
468.268	120.31
468.488	107.31
468.707	105.31
468.927	120.31
469.146	106.31
469.365	122.31
469.585	112.31
469.804	116.31
470.023	120.31
470.243	106.31
470.462	123.31
470.681	113.31
470.901	117.31
471.12	131.31
471.339	127.31
471.558	113.31
471.777	114.31
471.997	117.31
472.216	128.31
472.435	119.31
472.654	106.31
472.873	107.31
473.092	111.31
473.311	108.31
473.53	108.31
473.749	114.31
473.968	122.31
474.187	112.31
474.406	113.31
474.625	121.31
474.844	124.31
475.063	112.31
475.282	109.31
475.501	118.31
475.72	117.31
475.939	110.31
476.158	118.31
476.377	135.31
476.596	120.31
476.814	108.31
477.033	110.31
477.252	121.31
477.471	117.31
477.69	124.31
477.908	127.31
478.127	120.31
478.346	125.31
478.564	137.31
478.783	119.31
479.002	128.31
479.22	114.31
479.439	128.31
479.658	111.31
479.876	122.31
480.095	128.31
480.313	119.31
480.532	119.31
480.751	118.31
480.969	118.31
481.188	112.31
481.406	102.31
481.624	115.31
481.843	112.31
482.061	99.31
482.28	113.31
482.498	100.31
482.717	123.31
482.935	114.31
483.153	124.31
483.372	134.31
483.59	122.31
483.808	138.31
484.027	123.31
484.245	118.31
484.463	123.31
484.681	123.31
484.9	119.31
485.118	128.31
485.336	125.31
485.554	124.31
485.772	127.31
485.99	121.31
486.209	128.31
486.427	121.31
486.645	130.31
486.863	132.31
487.081	135.31
487.299	126.31
487.517	118.31
487.735	130.31
487.953	151.31
488.171	149.31
488.389	141.31
488.607	135.31
488.825	132.31
489.043	142.31
489.261	125.31
489.479	134.31
489.696	138.31
489.914	140.31
490.132	127.31
490.35	136.31
490.568	133.31
490.786	124.31
491.003	142.31
491.221	147.31
491.439	138.31
491.657	148.31
491.874	147.31
492.092	151.31
492.31	173.31
492.527	144.31
492.745	157.31
492.963	161.31
493.18	146.31
493.398	133.31
493.615	141.31
493.833	139.31
494.05	145.31
494.268	148.31
494.485	149.31
494.703	154.31
494.92	142.31
495.138	131.31
495.355	133.31
495.573	162.31
495.79	153.31
496.008	166.31
496.225	142.31
496.442	137.31
496.66	144.31
496.877	133.31
497.094	148.31
497.312	135.31
497.529	156.31
497.746	132.31
497.963	142.31
498.181	153.31
498.398	140.31
498.615	148.31
498.832	153.31
499.049	136.31
499.267	153.31
499.484	150.31
499.701	169.31
499.918	185.31
500.135	197.31
500.352	196.31
500.569	220.31
500.786	209.31
501.003	210.31
501.22	192.31
501.437	167.31
501.654	170.31
501.871	164.31
502.088	145.31
502.305	160.31
502.522	148.31
502.739	140.31
502.956	137.31
503.172	130.31
503.389	137.31
503.606	152.31
503.823	125.31
504.04	132.31
504.256	146.31
504.473	130.31
504.69	142.31
504.907	143.31
505.123	136.31
505.34	126.31
505.557	124.31
505.773	123.31
505.99	125.31
506.207	129.31
506.423	120.31
506.64	134.31
506.856	126.31
507.073	117.31
507.289	129.31
507.506	120.31
507.722	117.31
507.939	132.31
508.155	130.31
508.372	132.31
508.588	131.31
508.805	135.31
509.021	110.31
509.238	115.31
509.454	114.31
509.67	119.31
509.887	123.31
510.103	122.31
510.319	122.31
510.536	115.31
510.752	106.31
510.968	109.31
511.184	99.31
511.401	94.31
511.617	122.31
