Data from StandardFe(NO3)3.TAE.3%Agarose.FlatLispGreen.Lamp.Energy10.07252019_HRD10591_11-56-01-441.txt Node
Date: Thu Jul 25 11:56:01 EDT 2019
User: cochatt
Spectrometer: HR+D1059
Trigger mode: 1
Integration Time (sec): 1.000000E-1
Scans to average: 1
Electric dark correction enabled: true
Nonlinearity correction enabled: false
Boxcar width: 0
XAxis mode: Wavelengths
Number of Pixels in Spectrum: 2048
>>>>>Begin Spectral Data<<<<<
223.165	-6.62
223.4	-6.62
223.635	-6.62
223.869	-10.62
224.104	-11.62
224.338	0.38
224.573	-28.62
224.808	-10.62
225.042	-5.62
225.277	-20.62
225.511	-7.62
225.746	13.38
225.98	-4.62
226.215	14.38
226.449	19.38
226.683	18.38
226.918	19.38
227.152	21.38
227.387	16.38
227.621	38.38
227.856	57.38
228.09	52.38
228.324	45.38
228.559	55.38
228.793	61.38
229.027	61.38
229.262	69.38
229.496	62.38
229.73	59.38
229.964	68.38
230.199	70.38
230.433	82.38
230.667	78.38
230.901	72.38
231.136	72.38
231.37	73.38
231.604	98.38
231.838	83.38
232.072	73.38
232.306	76.38
232.541	74.38
232.775	79.38
233.009	74.38
233.243	70.38
233.477	80.38
233.711	62.38
233.945	76.38
234.179	79.38
234.413	81.38
234.647	79.38
234.881	69.38
235.115	72.38
235.349	71.38
235.583	85.38
235.817	76.38
236.051	66.38
236.285	70.38
236.519	72.38
236.753	72.38
236.987	75.38
237.221	84.38
237.455	77.38
237.689	84.38
237.922	80.38
238.156	73.38
238.39	72.38
238.624	74.38
238.858	77.38
239.091	84.38
239.325	70.38
239.559	75.38
239.793	75.38
240.027	73.38
240.26	80.38
240.494	85.38
240.728	71.38
240.961	84.38
241.195	78.38
241.429	87.38
241.662	78.38
241.896	87.38
242.13	78.38
242.363	84.38
242.597	82.38
242.83	75.38
243.064	78.38
243.298	81.38
243.531	75.38
243.765	76.38
243.998	70.38
244.232	70.38
244.465	87.38
244.699	66.38
244.932	60.38
245.166	84.38
245.399	67.38
245.633	74.38
245.866	95.38
246.099	65.38
246.333	76.38
246.566	84.38
246.8	89.38
247.033	83.38
247.266	75.38
247.5	93.38
247.733	78.38
247.966	77.38
248.2	72.38
248.433	96.38
248.666	84.38
248.899	97.38
249.133	76.38
249.366	73.38
249.599	75.38
249.832	90.38
250.066	89.38
250.299	88.38
250.532	74.38
250.765	68.38
250.998	79.38
251.231	69.38
251.465	78.38
251.698	77.38
251.931	89.38
252.164	92.38
252.397	81.38
252.63	86.38
252.863	73.38
253.096	89.38
253.329	70.38
253.562	68.38
253.795	83.38
254.028	88.38
254.261	73.38
254.494	70.38
254.727	80.38
254.96	78.38
255.193	76.38
255.426	74.38
255.659	78.38
255.892	89.38
256.124	65.38
256.357	81.38
256.59	82.38
256.823	88.38
257.056	79.38
257.289	76.38
257.521	77.38
257.754	96.38
257.987	74.38
258.22	69.38
258.452	92.38
258.685	93.38
258.918	78.38
259.151	80.38
259.383	87.38
259.616	85.38
259.849	64.38
260.081	85.38
260.314	81.38
260.547	66.38
260.779	61.38
261.012	78.38
261.244	63.38
261.477	82.38
261.71	75.38
261.942	69.38
262.175	68.38
262.407	86.38
262.64	78.38
262.872	84.38
263.105	87.38
263.337	81.38
263.57	81.38
263.802	76.38
264.035	68.38
264.267	78.38
264.499	75.38
264.732	90.38
264.964	87.38
265.197	81.38
265.429	75.38
265.661	76.38
265.894	67.38
266.126	74.38
266.358	71.38
266.591	77.38
266.823	76.38
267.055	91.38
267.287	69.38
267.52	78.38
267.752	96.38
267.984	77.38
268.216	68.38
268.448	74.38
268.681	82.38
268.913	97.38
269.145	94.38
269.377	85.38
269.609	84.38
269.841	89.38
270.073	92.38
270.306	73.38
270.538	75.38
270.77	84.38
271.002	76.38
271.234	86.38
271.466	85.38
271.698	73.38
271.93	86.38
272.162	84.38
272.394	85.38
272.626	84.38
272.858	93.38
273.09	73.38
273.322	97.38
273.553	87.38
273.785	93.38
274.017	86.38
274.249	93.38
274.481	86.38
274.713	78.38
274.945	74.38
275.176	85.38
275.408	79.38
275.64	90.38
275.872	81.38
276.104	85.38
276.335	74.38
276.567	78.38
276.799	82.38
277.031	78.38
277.262	75.38
277.494	89.38
277.726	98.38
277.957	97.38
278.189	81.38
278.421	92.38
278.652	83.38
278.884	76.38
279.115	90.38
279.347	82.38
279.579	70.38
279.81	79.38
280.042	75.38
280.273	83.38
280.505	80.38
280.736	71.38
280.968	84.38
281.199	75.38
281.431	97.38
281.662	77.38
281.894	99.38
282.125	84.38
282.356	80.38
282.588	87.38
282.819	74.38
283.051	84.38
283.282	79.38
283.513	92.38
283.745	68.38
283.976	84.38
284.207	86.38
284.439	77.38
284.67	89.38
284.901	84.38
285.132	92.38
285.364	92.38
285.595	87.38
285.826	84.38
286.057	89.38
286.288	89.38
286.52	88.38
286.751	84.38
286.982	84.38
287.213	92.38
287.444	83.38
287.675	79.38
287.906	74.38
288.138	75.38
288.369	79.38
288.6	78.38
288.831	81.38
289.062	89.38
289.293	68.38
289.524	90.38
289.755	93.38
289.986	82.38
290.217	91.38
290.448	92.38
290.679	88.38
290.91	101.38
291.141	81.38
291.371	68.38
291.602	80.38
291.833	97.38
292.064	84.38
292.295	87.38
292.526	78.38
292.757	77.38
292.987	81.38
293.218	86.38
293.449	84.38
293.68	73.38
293.91	74.38
294.141	72.38
294.372	93.38
294.603	85.38
294.833	91.38
295.064	90.38
295.295	94.38
295.525	74.38
295.756	91.38
295.987	79.38
296.217	84.38
296.448	104.38
296.679	82.38
296.909	85.38
297.14	80.38
297.37	88.38
297.601	85.38
297.831	82.38
298.062	76.38
298.292	88.38
298.523	88.38
298.753	93.38
298.984	101.38
299.214	94.38
299.445	86.38
299.675	84.38
299.905	89.38
300.136	90.38
300.366	85.38
300.597	81.38
300.827	91.38
301.057	87.38
301.288	95.38
301.518	83.38
301.748	95.38
301.979	85.38
302.209	84.38
302.439	84.38
302.669	95.38
302.9	83.38
303.13	74.38
303.36	85.38
303.59	80.38
303.82	96.38
304.051	88.38
304.281	94.38
304.511	77.38
304.741	98.38
304.971	78.38
305.201	74.38
305.431	80.38
305.661	86.38
305.891	78.38
306.121	98.38
306.352	78.38
306.582	85.38
306.812	86.38
307.042	85.38
307.272	68.38
307.502	80.38
307.731	85.38
307.961	85.38
308.191	84.38
308.421	82.38
308.651	98.38
308.881	91.38
309.111	81.38
309.341	80.38
309.571	84.38
309.8	80.38
310.03	82.38
310.26	87.38
310.49	77.38
310.72	91.38
310.949	83.38
311.179	82.38
311.409	98.38
311.639	92.38
311.868	91.38
312.098	102.38
312.328	90.38
312.557	91.38
312.787	84.38
313.017	84.38
313.246	64.38
313.476	78.38
313.706	91.38
313.935	70.38
314.165	96.38
314.394	78.38
314.624	78.38
314.853	81.38
315.083	85.38
315.312	81.38
315.542	85.38
315.771	93.38
316.001	79.38
316.23	83.38
316.46	88.38
316.689	91.38
316.919	97.38
317.148	103.38
317.377	99.38
317.607	69.38
317.836	78.38
318.065	98.38
318.295	82.38
318.524	81.38
318.753	81.38
318.983	83.38
319.212	76.38
319.441	93.38
319.67	94.38
319.9	74.38
320.129	82.38
320.358	77.38
320.587	101.38
320.816	74.38
321.046	78.38
321.275	84.38
321.504	86.38
321.733	86.38
321.962	77.38
322.191	79.38
322.42	80.38
322.649	76.38
322.878	85.38
323.108	75.38
323.337	85.38
323.566	83.38
323.795	81.38
324.024	84.38
324.253	82.38
324.482	84.38
324.71	87.38
324.939	89.38
325.168	92.38
325.397	86.38
325.626	100.38
325.855	86.38
326.084	91.38
326.313	89.38
326.542	88.38
326.77	85.38
326.999	88.38
327.228	89.38
327.457	94.38
327.686	92.38
327.914	83.38
328.143	82.38
328.372	96.38
328.6	77.38
328.829	86.38
329.058	88.38
329.287	105.38
329.515	89.38
329.744	91.38
329.972	92.38
330.201	91.38
330.43	83.38
330.658	88.38
330.887	79.38
331.115	92.38
331.344	86.38
331.572	92.38
331.801	88.38
332.03	85.38
332.258	88.38
332.486	85.38
332.715	79.38
332.943	78.38
333.172	82.38
333.4	88.38
333.629	82.38
333.857	81.38
334.085	73.38
334.314	67.38
334.542	81.38
334.771	82.38
334.999	89.38
335.227	84.38
335.455	86.38
335.684	97.38
335.912	74.38
336.14	92.38
336.369	84.38
336.597	84.38
336.825	66.38
337.053	76.38
337.281	73.38
337.51	92.38
337.738	96.38
337.966	94.38
338.194	88.38
338.422	88.38
338.65	81.38
338.878	94.38
339.106	104.38
339.334	85.38
339.562	84.38
339.79	93.38
340.018	83.38
340.246	82.38
340.474	89.38
340.702	88.38
340.93	85.38
341.158	77.38
341.386	103.38
341.614	69.38
341.842	76.38
342.07	85.38
342.298	89.38
342.526	104.38
342.754	94.38
342.981	87.38
343.209	81.38
343.437	90.38
343.665	76.38
343.893	71.38
344.12	84.38
344.348	85.38
344.576	92.38
344.804	86.38
345.031	100.38
345.259	86.38
345.487	80.38
345.714	65.38
345.942	85.38
346.17	98.38
346.397	85.38
346.625	76.38
346.853	100.38
347.08	101.38
347.308	83.38
347.535	89.38
347.763	99.38
347.99	84.38
348.218	88.38
348.445	88.38
348.673	94.38
348.9	87.38
349.128	93.38
349.355	80.38
349.583	78.38
349.81	87.38
350.037	71.38
350.265	71.38
350.492	88.38
350.72	88.38
350.947	75.38
351.174	72.38
351.402	75.38
351.629	86.38
351.856	90.38
352.083	72.38
352.311	86.38
352.538	80.38
352.765	79.38
352.992	96.38
353.22	74.38
353.447	84.38
353.674	80.38
353.901	80.38
354.128	83.38
354.355	97.38
354.583	89.38
354.81	90.38
355.037	84.38
355.264	89.38
355.491	82.38
355.718	78.38
355.945	78.38
356.172	85.38
356.399	88.38
356.626	86.38
356.853	105.38
357.08	74.38
357.307	85.38
357.534	84.38
357.761	86.38
357.988	98.38
358.215	104.38
358.441	113.38
358.668	91.38
358.895	83.38
359.122	87.38
359.349	86.38
359.576	86.38
359.802	73.38
360.029	78.38
360.256	84.38
360.483	93.38
360.709	84.38
360.936	83.38
361.163	94.38
361.39	75.38
361.616	92.38
361.843	92.38
362.07	87.38
362.296	101.38
362.523	76.38
362.749	83.38
362.976	80.38
363.203	78.38
363.429	88.38
363.656	87.38
363.882	89.38
364.109	81.38
364.335	92.38
364.562	94.38
364.788	84.38
365.015	104.38
365.241	90.38
365.468	86.38
365.694	86.38
365.92	81.38
366.147	86.38
366.373	74.38
366.599	84.38
366.826	95.38
367.052	90.38
367.278	98.38
367.505	83.38
367.731	75.38
367.957	82.38
368.184	94.38
368.41	95.38
368.636	92.38
368.862	76.38
369.089	99.38
369.315	84.38
369.541	90.38
369.767	100.38
369.993	84.38
370.219	89.38
370.445	96.38
370.672	83.38
370.898	99.38
371.124	104.38
371.35	94.38
371.576	88.38
371.802	91.38
372.028	97.38
372.254	96.38
372.48	79.38
372.706	96.38
372.932	90.38
373.158	90.38
373.384	93.38
373.61	100.38
373.835	89.38
374.061	91.38
374.287	82.38
374.513	86.38
374.739	81.38
374.965	90.38
375.191	87.38
375.416	104.38
375.642	82.38
375.868	91.38
376.094	80.38
376.319	90.38
376.545	98.38
376.771	95.38
376.997	107.38
377.222	94.38
377.448	88.38
377.674	102.38
377.899	81.38
378.125	85.38
378.35	85.38
378.576	99.38
378.802	82.38
379.027	80.38
379.253	87.38
379.478	80.38
379.704	94.38
379.929	89.38
380.155	77.38
380.38	76.38
380.606	85.38
380.831	99.38
381.057	110.38
381.282	104.38
381.507	78.38
381.733	106.38
381.958	92.38
382.184	84.38
382.409	83.38
382.634	98.38
382.86	89.38
383.085	90.38
383.31	81.38
383.535	108.38
383.761	97.38
383.986	97.38
384.211	77.38
384.436	100.38
384.662	100.38
384.887	91.38
385.112	97.38
385.337	96.38
385.562	94.38
385.787	96.38
386.013	93.38
386.238	78.38
386.463	89.38
386.688	81.38
386.913	106.38
387.138	98.38
387.363	103.38
387.588	99.38
387.813	94.38
388.038	97.38
388.263	99.38
388.488	90.38
388.713	95.38
388.938	84.38
389.163	93.38
389.387	100.38
389.612	90.38
389.837	92.38
390.062	91.38
390.287	89.38
390.512	87.38
390.736	100.38
390.961	104.38
391.186	98.38
391.411	105.38
391.636	91.38
391.86	112.38
392.085	101.38
392.31	87.38
392.534	98.38
392.759	106.38
392.984	99.38
393.208	103.38
393.433	113.38
393.658	99.38
393.882	102.38
394.107	88.38
394.331	88.38
394.556	105.38
394.78	105.38
395.005	101.38
395.229	99.38
395.454	93.38
395.678	91.38
395.903	100.38
396.127	105.38
396.352	106.38
396.576	108.38
396.801	107.38
397.025	107.38
397.249	99.38
397.474	98.38
397.698	105.38
397.922	112.38
398.147	93.38
398.371	104.38
398.595	110.38
398.82	101.38
399.044	106.38
399.268	99.38
399.492	118.38
399.717	113.38
399.941	106.38
400.165	108.38
400.389	107.38
400.613	105.38
400.837	91.38
401.062	101.38
401.286	98.38
401.51	126.38
401.734	97.38
401.958	114.38
402.182	104.38
402.406	114.38
402.63	107.38
402.854	105.38
403.078	104.38
403.302	97.38
403.526	131.38
403.75	101.38
403.974	104.38
404.198	108.38
404.422	102.38
404.645	105.38
404.869	99.38
405.093	113.38
405.317	113.38
405.541	112.38
405.765	108.38
405.988	109.38
406.212	126.38
406.436	95.38
406.66	102.38
406.883	104.38
407.107	105.38
407.331	116.38
407.555	118.38
407.778	117.38
408.002	118.38
408.226	108.38
408.449	110.38
408.673	130.38
408.896	122.38
409.12	121.38
409.344	110.38
409.567	108.38
409.791	112.38
410.014	102.38
410.238	128.38
410.461	118.38
410.685	117.38
410.908	116.38
411.132	116.38
411.355	116.38
411.578	105.38
411.802	104.38
412.025	106.38
412.249	105.38
412.472	117.38
412.695	114.38
412.919	117.38
413.142	122.38
413.365	110.38
413.589	101.38
413.812	100.38
414.035	114.38
414.258	102.38
414.482	105.38
414.705	115.38
414.928	110.38
415.151	106.38
415.374	112.38
415.597	120.38
415.821	118.38
416.044	94.38
416.267	104.38
416.49	118.38
416.713	102.38
416.936	110.38
417.159	127.38
417.382	116.38
417.605	116.38
417.828	115.38
418.051	114.38
418.274	122.38
418.497	125.38
418.72	100.38
418.943	101.38
419.166	113.38
419.389	118.38
419.611	129.38
419.834	120.38
420.057	104.38
420.28	113.38
420.503	106.38
420.726	115.38
420.948	104.38
421.171	130.38
421.394	106.38
421.617	125.38
421.839	108.38
422.062	116.38
422.285	127.38
422.507	116.38
422.73	108.38
422.953	124.38
423.175	124.38
423.398	107.38
423.621	108.38
423.843	102.38
424.066	120.38
424.288	116.38
424.511	117.38
424.733	107.38
424.956	104.38
425.178	126.38
425.401	107.38
425.623	116.38
425.846	114.38
426.068	127.38
426.291	114.38
426.513	99.38
426.735	103.38
426.958	112.38
427.18	116.38
427.402	100.38
427.625	109.38
427.847	113.38
428.069	120.38
428.292	113.38
428.514	118.38
428.736	122.38
428.958	116.38
429.181	103.38
429.403	118.38
429.625	115.38
429.847	122.38
430.069	114.38
430.292	120.38
430.514	119.38
430.736	104.38
430.958	101.38
431.18	123.38
431.402	115.38
431.624	113.38
431.846	101.38
432.068	102.38
432.29	126.38
432.512	126.38
432.734	105.38
432.956	112.38
433.178	105.38
433.4	116.38
433.622	117.38
433.844	114.38
434.066	93.38
434.287	98.38
434.509	112.38
434.731	105.38
434.953	121.38
435.175	108.38
435.397	114.38
435.618	119.38
435.84	104.38
436.062	111.38
436.284	114.38
436.505	101.38
436.727	122.38
436.949	110.38
437.17	111.38
437.392	102.38
437.614	96.38
437.835	115.38
438.057	110.38
438.278	107.38
438.5	114.38
438.721	110.38
438.943	116.38
439.165	108.38
439.386	136.38
439.608	99.38
439.829	107.38
440.05	117.38
440.272	106.38
440.493	104.38
440.715	111.38
440.936	96.38
441.158	120.38
441.379	121.38
441.6	103.38
441.822	130.38
442.043	118.38
442.264	124.38
442.486	121.38
442.707	130.38
442.928	124.38
443.149	129.38
443.371	106.38
443.592	116.38
443.813	118.38
444.034	109.38
444.255	126.38
444.476	146.38
444.698	125.38
444.919	120.38
445.14	247.38
445.361	162.38
445.582	146.38
445.803	102.38
446.024	123.38
446.245	111.38
446.466	108.38
446.687	124.38
446.908	119.38
447.129	118.38
447.35	124.38
447.571	119.38
447.792	110.38
448.013	118.38
448.234	116.38
448.455	102.38
448.675	116.38
448.896	121.38
449.117	118.38
449.338	118.38
449.559	99.38
449.779	125.38
450	119.38
450.221	97.38
450.442	105.38
450.662	119.38
450.883	89.38
451.104	118.38
451.324	121.38
451.545	100.38
451.766	124.38
451.986	120.38
452.207	99.38
452.428	104.38
452.648	99.38
452.869	97.38
453.089	105.38
453.31	99.38
453.53	106.38
453.751	96.38
453.971	104.38
454.192	109.38
454.412	101.38
454.633	123.38
454.853	118.38
455.073	108.38
455.294	109.38
455.514	106.38
455.734	102.38
455.955	93.38
456.175	105.38
456.395	103.38
456.616	100.38
456.836	108.38
457.056	86.38
457.276	104.38
457.497	101.38
457.717	107.38
457.937	97.38
458.157	116.38
458.377	114.38
458.598	105.38
458.818	96.38
459.038	92.38
459.258	112.38
459.478	100.38
459.698	112.38
459.918	98.38
460.138	108.38
460.358	109.38
460.578	110.38
460.798	125.38
461.018	111.38
461.238	107.38
461.458	116.38
461.678	111.38
461.898	120.38
462.118	103.38
462.338	119.38
462.558	122.38
462.777	113.38
462.997	126.38
463.217	113.38
463.437	118.38
463.657	123.38
463.876	118.38
464.096	124.38
464.316	114.38
464.536	110.38
464.755	125.38
464.975	106.38
465.195	101.38
465.414	106.38
465.634	107.38
465.854	106.38
466.073	125.38
466.293	113.38
466.512	125.38
466.732	132.38
466.951	110.38
467.171	101.38
467.391	112.38
467.61	105.38
467.829	118.38
468.049	108.38
468.268	104.38
468.488	124.38
468.707	112.38
468.927	112.38
469.146	132.38
469.365	122.38
469.585	128.38
469.804	116.38
470.023	114.38
470.243	103.38
470.462	114.38
470.681	128.38
470.901	123.38
471.12	121.38
471.339	118.38
471.558	127.38
471.777	124.38
471.997	113.38
472.216	109.38
472.435	105.38
472.654	103.38
472.873	110.38
473.092	108.38
473.311	109.38
473.53	104.38
473.749	114.38
473.968	112.38
474.187	116.38
474.406	113.38
474.625	115.38
474.844	103.38
475.063	118.38
475.282	107.38
475.501	126.38
475.72	115.38
475.939	112.38
476.158	110.38
476.377	117.38
476.596	116.38
476.814	117.38
477.033	107.38
477.252	104.38
477.471	102.38
477.69	126.38
477.908	132.38
478.127	125.38
478.346	114.38
478.564	135.38
478.783	109.38
479.002	128.38
479.22	118.38
479.439	123.38
479.658	126.38
479.876	114.38
480.095	113.38
480.313	123.38
480.532	123.38
480.751	130.38
480.969	124.38
481.188	112.38
481.406	120.38
481.624	108.38
481.843	115.38
482.061	113.38
482.28	112.38
482.498	123.38
482.717	112.38
482.935	124.38
483.153	122.38
483.372	135.38
483.59	125.38
483.808	124.38
484.027	112.38
484.245	113.38
484.463	134.38
484.681	121.38
484.9	130.38
485.118	119.38
485.336	105.38
485.554	119.38
485.772	109.38
485.99	121.38
486.209	114.38
486.427	120.38
486.645	124.38
486.863	128.38
487.081	126.38
487.299	123.38
487.517	125.38
487.735	136.38
487.953	131.38
488.171	142.38
488.389	132.38
488.607	118.38
488.825	136.38
489.043	132.38
489.261	126.38
489.479	125.38
489.696	133.38
489.914	137.38
490.132	125.38
490.35	142.38
490.568	145.38
490.786	164.38
491.003	140.38
491.221	144.38
491.439	160.38
491.657	140.38
491.874	163.38
492.092	157.38
492.31	148.38
492.527	156.38
492.745	140.38
492.963	145.38
493.18	144.38
493.398	152.38
493.615	146.38
493.833	158.38
494.05	146.38
494.268	146.38
494.485	141.38
494.703	156.38
494.92	140.38
495.138	145.38
495.355	136.38
495.573	150.38
495.79	154.38
496.008	137.38
496.225	154.38
496.442	142.38
496.66	131.38
496.877	127.38
497.094	157.38
497.312	149.38
497.529	150.38
497.746	155.38
497.963	141.38
498.181	132.38
498.398	144.38
498.615	132.38
498.832	151.38
499.049	129.38
499.267	157.38
499.484	151.38
499.701	158.38
499.918	168.38
500.135	188.38
500.352	184.38
500.569	213.38
500.786	215.38
501.003	199.38
501.22	187.38
501.437	182.38
501.654	159.38
501.871	148.38
502.088	163.38
502.305	161.38
502.522	154.38
502.739	150.38
502.956	132.38
503.172	145.38
503.389	142.38
503.606	128.38
503.823	130.38
504.04	130.38
504.256	131.38
504.473	139.38
504.69	130.38
504.907	140.38
505.123	132.38
505.34	135.38
505.557	133.38
505.773	128.38
505.99	138.38
506.207	124.38
506.423	118.38
506.64	127.38
506.856	128.38
507.073	122.38
507.289	135.38
507.506	126.38
507.722	132.38
507.939	114.38
508.155	118.38
508.372	109.38
508.588	128.38
508.805	112.38
509.021	113.38
509.238	115.38
509.454	114.38
509.67	102.38
509.887	123.38
510.103	116.38
510.319	105.38
510.536	109.38
510.752	117.38
510.968	113.38
511.184	118.38
511.401	123.38
