Data from StandardFe(NO3)3.TAE.3%Agarose.FlatLispGreen.Lamp.Energy10.07252019_HRD10591_11-54-30-440.txt Node
Date: Thu Jul 25 11:54:30 EDT 2019
User: cochatt
Spectrometer: HR+D1059
Trigger mode: 1
Integration Time (sec): 1.000000E-1
Scans to average: 1
Electric dark correction enabled: true
Nonlinearity correction enabled: false
Boxcar width: 0
XAxis mode: Wavelengths
Number of Pixels in Spectrum: 2048
>>>>>Begin Spectral Data<<<<<
223.165	-18.94
223.4	-18.94
223.635	-18.94
223.869	-31.94
224.104	-2.94
224.338	-6.94
224.573	-17.94
224.808	-13.94
225.042	-3.94
225.277	-0.94
225.511	-1.94
225.746	-0.94
225.98	-9.94
226.215	12.06
226.449	14.06
226.683	24.06
226.918	30.06
227.152	30.06
227.387	42.06
227.621	49.06
227.856	50.06
228.09	42.06
228.324	54.06
228.559	64.06
228.793	48.06
229.027	56.06
229.262	60.06
229.496	56.06
229.73	73.06
229.964	54.06
230.199	61.06
230.433	69.06
230.667	81.06
230.901	65.06
231.136	83.06
231.37	80.06
231.604	83.06
231.838	76.06
232.072	87.06
232.306	79.06
232.541	86.06
232.775	82.06
233.009	81.06
233.243	80.06
233.477	81.06
233.711	76.06
233.945	83.06
234.179	79.06
234.413	75.06
234.647	82.06
234.881	93.06
235.115	78.06
235.349	68.06
235.583	59.06
235.817	71.06
236.051	70.06
236.285	81.06
236.519	81.06
236.753	82.06
236.987	76.06
237.221	85.06
237.455	72.06
237.689	70.06
237.922	83.06
238.156	88.06
238.39	77.06
238.624	72.06
238.858	75.06
239.091	84.06
239.325	86.06
239.559	85.06
239.793	91.06
240.027	76.06
240.26	75.06
240.494	76.06
240.728	81.06
240.961	62.06
241.195	87.06
241.429	96.06
241.662	81.06
241.896	73.06
242.13	81.06
242.363	73.06
242.597	75.06
242.83	85.06
243.064	62.06
243.298	78.06
243.531	84.06
243.765	89.06
243.998	81.06
244.232	89.06
244.465	61.06
244.699	65.06
244.932	81.06
245.166	77.06
245.399	82.06
245.633	93.06
245.866	72.06
246.099	72.06
246.333	69.06
246.566	76.06
246.8	76.06
247.033	71.06
247.266	94.06
247.5	75.06
247.733	93.06
247.966	82.06
248.2	67.06
248.433	74.06
248.666	70.06
248.899	86.06
249.133	85.06
249.366	81.06
249.599	73.06
249.832	72.06
250.066	81.06
250.299	70.06
250.532	85.06
250.765	77.06
250.998	82.06
251.231	82.06
251.465	89.06
251.698	72.06
251.931	73.06
252.164	82.06
252.397	68.06
252.63	81.06
252.863	81.06
253.096	75.06
253.329	88.06
253.562	83.06
253.795	76.06
254.028	86.06
254.261	86.06
254.494	78.06
254.727	90.06
254.96	79.06
255.193	76.06
255.426	75.06
255.659	84.06
255.892	103.06
256.124	82.06
256.357	84.06
256.59	81.06
256.823	69.06
257.056	84.06
257.289	80.06
257.521	89.06
257.754	81.06
257.987	81.06
258.22	85.06
258.452	85.06
258.685	69.06
258.918	85.06
259.151	85.06
259.383	91.06
259.616	89.06
259.849	84.06
260.081	75.06
260.314	73.06
260.547	68.06
260.779	76.06
261.012	66.06
261.244	88.06
261.477	86.06
261.71	78.06
261.942	73.06
262.175	85.06
262.407	77.06
262.64	86.06
262.872	95.06
263.105	84.06
263.337	75.06
263.57	71.06
263.802	71.06
264.035	80.06
264.267	76.06
264.499	82.06
264.732	83.06
264.964	79.06
265.197	70.06
265.429	80.06
265.661	76.06
265.894	82.06
266.126	79.06
266.358	87.06
266.591	72.06
266.823	82.06
267.055	84.06
267.287	99.06
267.52	84.06
267.752	77.06
267.984	68.06
268.216	90.06
268.448	73.06
268.681	74.06
268.913	88.06
269.145	81.06
269.377	88.06
269.609	94.06
269.841	69.06
270.073	73.06
270.306	63.06
270.538	85.06
270.77	80.06
271.002	87.06
271.234	75.06
271.466	86.06
271.698	69.06
271.93	84.06
272.162	78.06
272.394	74.06
272.626	81.06
272.858	96.06
273.09	91.06
273.322	87.06
273.553	72.06
273.785	84.06
274.017	82.06
274.249	80.06
274.481	73.06
274.713	79.06
274.945	77.06
275.176	94.06
275.408	83.06
275.64	92.06
275.872	67.06
276.104	80.06
276.335	69.06
276.567	90.06
276.799	85.06
277.031	84.06
277.262	75.06
277.494	103.06
277.726	87.06
277.957	90.06
278.189	99.06
278.421	81.06
278.652	85.06
278.884	74.06
279.115	84.06
279.347	83.06
279.579	90.06
279.81	98.06
280.042	79.06
280.273	64.06
280.505	91.06
280.736	85.06
280.968	69.06
281.199	84.06
281.431	92.06
281.662	80.06
281.894	76.06
282.125	88.06
282.356	85.06
282.588	84.06
282.819	73.06
283.051	86.06
283.282	84.06
283.513	67.06
283.745	81.06
283.976	68.06
284.207	76.06
284.439	92.06
284.67	78.06
284.901	87.06
285.132	76.06
285.364	67.06
285.595	89.06
285.826	74.06
286.057	94.06
286.288	84.06
286.52	84.06
286.751	83.06
286.982	82.06
287.213	83.06
287.444	99.06
287.675	91.06
287.906	92.06
288.138	67.06
288.369	76.06
288.6	76.06
288.831	86.06
289.062	83.06
289.293	71.06
289.524	93.06
289.755	87.06
289.986	68.06
290.217	88.06
290.448	84.06
290.679	74.06
290.91	90.06
291.141	95.06
291.371	75.06
291.602	86.06
291.833	72.06
292.064	75.06
292.295	86.06
292.526	85.06
292.757	77.06
292.987	76.06
293.218	79.06
293.449	88.06
293.68	93.06
293.91	92.06
294.141	87.06
294.372	74.06
294.603	83.06
294.833	84.06
295.064	85.06
295.295	86.06
295.525	83.06
295.756	80.06
295.987	76.06
296.217	78.06
296.448	84.06
296.679	92.06
296.909	77.06
297.14	74.06
297.37	76.06
297.601	87.06
297.831	80.06
298.062	83.06
298.292	89.06
298.523	85.06
298.753	90.06
298.984	93.06
299.214	91.06
299.445	104.06
299.675	95.06
299.905	87.06
300.136	91.06
300.366	86.06
300.597	86.06
300.827	91.06
301.057	91.06
301.288	78.06
301.518	93.06
301.748	92.06
301.979	88.06
302.209	81.06
302.439	80.06
302.669	73.06
302.9	85.06
303.13	75.06
303.36	89.06
303.59	96.06
303.82	86.06
304.051	90.06
304.281	71.06
304.511	106.06
304.741	87.06
304.971	78.06
305.201	79.06
305.431	81.06
305.661	83.06
305.891	79.06
306.121	83.06
306.352	84.06
306.582	93.06
306.812	94.06
307.042	90.06
307.272	96.06
307.502	91.06
307.731	98.06
307.961	82.06
308.191	87.06
308.421	89.06
308.651	92.06
308.881	77.06
309.111	84.06
309.341	92.06
309.571	68.06
309.8	82.06
310.03	90.06
310.26	73.06
310.49	77.06
310.72	78.06
310.949	99.06
311.179	85.06
311.409	83.06
311.639	85.06
311.868	82.06
312.098	100.06
312.328	97.06
312.557	84.06
312.787	93.06
313.017	91.06
313.246	96.06
313.476	92.06
313.706	84.06
313.935	79.06
314.165	89.06
314.394	92.06
314.624	84.06
314.853	77.06
315.083	77.06
315.312	69.06
315.542	88.06
315.771	86.06
316.001	86.06
316.23	81.06
316.46	72.06
316.689	84.06
316.919	82.06
317.148	92.06
317.377	80.06
317.607	87.06
317.836	84.06
318.065	86.06
318.295	79.06
318.524	78.06
318.753	89.06
318.983	85.06
319.212	93.06
319.441	89.06
319.67	82.06
319.9	110.06
320.129	99.06
320.358	97.06
320.587	107.06
320.816	90.06
321.046	81.06
321.275	76.06
321.504	78.06
321.733	76.06
321.962	74.06
322.191	90.06
322.42	91.06
322.649	81.06
322.878	99.06
323.108	96.06
323.337	101.06
323.566	75.06
323.795	84.06
324.024	72.06
324.253	78.06
324.482	89.06
324.71	79.06
324.939	78.06
325.168	69.06
325.397	84.06
325.626	82.06
325.855	77.06
326.084	76.06
326.313	88.06
326.542	95.06
326.77	93.06
326.999	79.06
327.228	98.06
327.457	103.06
327.686	104.06
327.914	80.06
328.143	77.06
328.372	75.06
328.6	100.06
328.829	96.06
329.058	85.06
329.287	82.06
329.515	69.06
329.744	69.06
329.972	92.06
330.201	77.06
330.43	81.06
330.658	80.06
330.887	93.06
331.115	86.06
331.344	85.06
331.572	81.06
331.801	77.06
332.03	94.06
332.258	90.06
332.486	84.06
332.715	84.06
332.943	69.06
333.172	84.06
333.4	83.06
333.629	93.06
333.857	89.06
334.085	89.06
334.314	89.06
334.542	86.06
334.771	86.06
334.999	77.06
335.227	75.06
335.455	81.06
335.684	83.06
335.912	94.06
336.14	90.06
336.369	89.06
336.597	73.06
336.825	75.06
337.053	90.06
337.281	83.06
337.51	98.06
337.738	86.06
337.966	89.06
338.194	83.06
338.422	85.06
338.65	97.06
338.878	94.06
339.106	86.06
339.334	73.06
339.562	74.06
339.79	80.06
340.018	81.06
340.246	100.06
340.474	86.06
340.702	87.06
340.93	77.06
341.158	87.06
341.386	83.06
341.614	84.06
341.842	85.06
342.07	66.06
342.298	91.06
342.526	78.06
342.754	87.06
342.981	82.06
343.209	89.06
343.437	84.06
343.665	77.06
343.893	83.06
344.12	90.06
344.348	84.06
344.576	92.06
344.804	81.06
345.031	91.06
345.259	76.06
345.487	87.06
345.714	81.06
345.942	88.06
346.17	88.06
346.397	91.06
346.625	92.06
346.853	86.06
347.08	79.06
347.308	71.06
347.535	77.06
347.763	92.06
347.99	76.06
348.218	78.06
348.445	84.06
348.673	85.06
348.9	97.06
349.128	78.06
349.355	93.06
349.583	93.06
349.81	74.06
350.037	87.06
350.265	92.06
350.492	93.06
350.72	83.06
350.947	77.06
351.174	85.06
351.402	87.06
351.629	82.06
351.856	76.06
352.083	76.06
352.311	75.06
352.538	76.06
352.765	83.06
352.992	68.06
353.22	77.06
353.447	85.06
353.674	92.06
353.901	85.06
354.128	88.06
354.355	85.06
354.583	76.06
354.81	108.06
355.037	85.06
355.264	90.06
355.491	85.06
355.718	78.06
355.945	86.06
356.172	88.06
356.399	83.06
356.626	103.06
356.853	80.06
357.08	82.06
357.307	72.06
357.534	82.06
357.761	85.06
357.988	76.06
358.215	90.06
358.441	82.06
358.668	94.06
358.895	98.06
359.122	72.06
359.349	85.06
359.576	79.06
359.802	74.06
360.029	89.06
360.256	91.06
360.483	90.06
360.709	95.06
360.936	99.06
361.163	81.06
361.39	92.06
361.616	84.06
361.843	75.06
362.07	88.06
362.296	88.06
362.523	78.06
362.749	97.06
362.976	90.06
363.203	84.06
363.429	75.06
363.656	78.06
363.882	95.06
364.109	77.06
364.335	87.06
364.562	76.06
364.788	78.06
365.015	90.06
365.241	97.06
365.468	85.06
365.694	90.06
365.92	82.06
366.147	90.06
366.373	94.06
366.599	88.06
366.826	94.06
367.052	93.06
367.278	85.06
367.505	91.06
367.731	81.06
367.957	96.06
368.184	93.06
368.41	80.06
368.636	76.06
368.862	82.06
369.089	81.06
369.315	80.06
369.541	100.06
369.767	91.06
369.993	82.06
370.219	84.06
370.445	80.06
370.672	88.06
370.898	82.06
371.124	96.06
371.35	84.06
371.576	90.06
371.802	84.06
372.028	91.06
372.254	91.06
372.48	99.06
372.706	80.06
372.932	92.06
373.158	80.06
373.384	90.06
373.61	85.06
373.835	74.06
374.061	100.06
374.287	86.06
374.513	83.06
374.739	84.06
374.965	91.06
375.191	96.06
375.416	80.06
375.642	93.06
375.868	95.06
376.094	95.06
376.319	78.06
376.545	84.06
376.771	88.06
376.997	83.06
377.222	89.06
377.448	94.06
377.674	88.06
377.899	88.06
378.125	84.06
378.35	100.06
378.576	98.06
378.802	86.06
379.027	84.06
379.253	81.06
379.478	78.06
379.704	82.06
379.929	81.06
380.155	89.06
380.38	92.06
380.606	83.06
380.831	92.06
381.057	92.06
381.282	91.06
381.507	97.06
381.733	89.06
381.958	89.06
382.184	98.06
382.409	97.06
382.634	96.06
382.86	88.06
383.085	96.06
383.31	96.06
383.535	84.06
383.761	98.06
383.986	99.06
384.211	99.06
384.436	100.06
384.662	75.06
384.887	84.06
385.112	100.06
385.337	102.06
385.562	91.06
385.787	85.06
386.013	87.06
386.238	89.06
386.463	80.06
386.688	81.06
386.913	96.06
387.138	104.06
387.363	101.06
387.588	104.06
387.813	97.06
388.038	93.06
388.263	81.06
388.488	93.06
388.713	97.06
388.938	91.06
389.163	84.06
389.387	93.06
389.612	88.06
389.837	79.06
390.062	90.06
390.287	95.06
390.512	98.06
390.736	86.06
390.961	90.06
391.186	109.06
391.411	103.06
391.636	99.06
391.86	96.06
392.085	92.06
392.31	99.06
392.534	101.06
392.759	93.06
392.984	92.06
393.208	90.06
393.433	113.06
393.658	91.06
393.882	91.06
394.107	89.06
394.331	96.06
394.556	109.06
394.78	98.06
395.005	84.06
395.229	102.06
395.454	105.06
395.678	116.06
395.903	106.06
396.127	116.06
396.352	102.06
396.576	99.06
396.801	93.06
397.025	112.06
397.249	87.06
397.474	107.06
397.698	91.06
397.922	76.06
398.147	96.06
398.371	108.06
398.595	99.06
398.82	104.06
399.044	101.06
399.268	92.06
399.492	108.06
399.717	108.06
399.941	92.06
400.165	115.06
400.389	121.06
400.613	96.06
400.837	114.06
401.062	99.06
401.286	112.06
401.51	104.06
401.734	108.06
401.958	97.06
402.182	87.06
402.406	97.06
402.63	113.06
402.854	98.06
403.078	110.06
403.302	99.06
403.526	104.06
403.75	114.06
403.974	97.06
404.198	115.06
404.422	114.06
404.645	101.06
404.869	95.06
405.093	113.06
405.317	114.06
405.541	117.06
405.765	114.06
405.988	100.06
406.212	96.06
406.436	113.06
406.66	112.06
406.883	113.06
407.107	108.06
407.331	119.06
407.555	122.06
407.778	109.06
408.002	126.06
408.226	109.06
408.449	122.06
408.673	106.06
408.896	112.06
409.12	117.06
409.344	107.06
409.567	118.06
409.791	105.06
410.014	117.06
410.238	114.06
410.461	125.06
410.685	115.06
410.908	105.06
411.132	117.06
411.355	112.06
411.578	116.06
411.802	110.06
412.025	107.06
412.249	107.06
412.472	93.06
412.695	108.06
412.919	94.06
413.142	110.06
413.365	102.06
413.589	118.06
413.812	105.06
414.035	106.06
414.258	106.06
414.482	103.06
414.705	103.06
414.928	117.06
415.151	95.06
415.374	121.06
415.597	116.06
415.821	105.06
416.044	114.06
416.267	100.06
416.49	107.06
416.713	109.06
416.936	113.06
417.159	114.06
417.382	109.06
417.605	111.06
417.828	124.06
418.051	98.06
418.274	113.06
418.497	102.06
418.72	121.06
418.943	128.06
419.166	123.06
419.389	117.06
419.611	121.06
419.834	121.06
420.057	117.06
420.28	119.06
420.503	108.06
420.726	129.06
420.948	112.06
421.171	107.06
421.394	96.06
421.617	103.06
421.839	112.06
422.062	124.06
422.285	117.06
422.507	121.06
422.73	113.06
422.953	106.06
423.175	110.06
423.398	122.06
423.621	112.06
423.843	124.06
424.066	115.06
424.288	113.06
424.511	121.06
424.733	121.06
424.956	116.06
425.178	113.06
425.401	101.06
425.623	119.06
425.846	122.06
426.068	108.06
426.291	115.06
426.513	115.06
426.735	108.06
426.958	105.06
427.18	105.06
427.402	97.06
427.625	116.06
427.847	104.06
428.069	112.06
428.292	120.06
428.514	108.06
428.736	127.06
428.958	120.06
429.181	121.06
429.403	117.06
429.625	107.06
429.847	109.06
430.069	111.06
430.292	120.06
430.514	98.06
430.736	120.06
430.958	97.06
431.18	108.06
431.402	108.06
431.624	117.06
431.846	109.06
432.068	101.06
432.29	99.06
432.512	107.06
432.734	97.06
432.956	105.06
433.178	123.06
433.4	116.06
433.622	108.06
433.844	107.06
434.066	121.06
434.287	107.06
434.509	99.06
434.731	109.06
434.953	121.06
435.175	108.06
435.397	109.06
435.618	106.06
435.84	120.06
436.062	101.06
436.284	93.06
436.505	118.06
436.727	114.06
436.949	108.06
437.17	118.06
437.392	125.06
437.614	108.06
437.835	106.06
438.057	109.06
438.278	97.06
438.5	112.06
438.721	108.06
438.943	99.06
439.165	98.06
439.386	106.06
439.608	118.06
439.829	120.06
440.05	112.06
440.272	105.06
440.493	99.06
440.715	116.06
440.936	123.06
441.158	120.06
441.379	115.06
441.6	118.06
441.822	133.06
442.043	124.06
442.264	128.06
442.486	126.06
442.707	136.06
442.928	122.06
443.149	118.06
443.371	115.06
443.592	121.06
443.813	110.06
444.034	127.06
444.255	108.06
444.476	126.06
444.698	105.06
444.919	130.06
445.14	248.06
445.361	175.06
445.582	126.06
445.803	118.06
446.024	126.06
446.245	124.06
446.466	132.06
446.687	121.06
446.908	124.06
447.129	124.06
447.35	121.06
447.571	118.06
447.792	106.06
448.013	113.06
448.234	116.06
448.455	101.06
448.675	114.06
448.896	99.06
449.117	104.06
449.338	114.06
449.559	121.06
449.779	89.06
450	107.06
450.221	117.06
450.442	116.06
450.662	101.06
450.883	110.06
451.104	117.06
451.324	114.06
451.545	125.06
451.766	115.06
451.986	114.06
452.207	117.06
452.428	107.06
452.648	93.06
452.869	95.06
453.089	104.06
453.31	106.06
453.53	113.06
453.751	111.06
453.971	93.06
454.192	108.06
454.412	93.06
454.633	96.06
454.853	114.06
455.073	109.06
455.294	105.06
455.514	108.06
455.734	111.06
455.955	108.06
456.175	115.06
456.395	107.06
456.616	94.06
456.836	110.06
457.056	121.06
457.276	102.06
457.497	113.06
457.717	108.06
457.937	93.06
458.157	94.06
458.377	103.06
458.598	96.06
458.818	103.06
459.038	84.06
459.258	84.06
459.478	88.06
459.698	121.06
459.918	107.06
460.138	95.06
460.358	122.06
460.578	109.06
460.798	128.06
461.018	118.06
461.238	106.06
461.458	116.06
461.678	104.06
461.898	103.06
462.118	104.06
462.338	113.06
462.558	96.06
462.777	118.06
462.997	124.06
463.217	122.06
463.437	118.06
463.657	127.06
463.876	116.06
464.096	122.06
464.316	128.06
464.536	117.06
464.755	120.06
464.975	122.06
465.195	109.06
465.414	121.06
465.634	115.06
465.854	113.06
466.073	113.06
466.293	100.06
466.512	118.06
466.732	112.06
466.951	116.06
467.171	125.06
467.391	105.06
467.61	122.06
467.829	109.06
468.049	122.06
468.268	112.06
468.488	113.06
468.707	89.06
468.927	107.06
469.146	107.06
469.365	112.06
469.585	124.06
469.804	113.06
470.023	115.06
470.243	111.06
470.462	104.06
470.681	123.06
470.901	120.06
471.12	109.06
471.339	108.06
471.558	123.06
471.777	123.06
471.997	116.06
472.216	126.06
472.435	121.06
472.654	105.06
472.873	108.06
473.092	123.06
473.311	118.06
473.53	120.06
473.749	112.06
473.968	123.06
474.187	100.06
474.406	112.06
474.625	114.06
474.844	118.06
475.063	113.06
475.282	117.06
475.501	100.06
475.72	126.06
475.939	125.06
476.158	127.06
476.377	118.06
476.596	113.06
476.814	114.06
477.033	110.06
477.252	113.06
477.471	132.06
477.69	116.06
477.908	123.06
478.127	116.06
478.346	125.06
478.564	125.06
478.783	133.06
479.002	121.06
479.22	119.06
479.439	114.06
479.658	118.06
479.876	119.06
480.095	122.06
480.313	128.06
480.532	116.06
480.751	117.06
480.969	117.06
481.188	117.06
481.406	122.06
481.624	109.06
481.843	119.06
482.061	113.06
482.28	117.06
482.498	119.06
482.717	122.06
482.935	126.06
483.153	124.06
483.372	126.06
483.59	131.06
483.808	133.06
484.027	119.06
484.245	120.06
484.463	120.06
484.681	123.06
484.9	124.06
485.118	125.06
485.336	124.06
485.554	118.06
485.772	114.06
485.99	116.06
486.209	109.06
486.427	115.06
486.645	117.06
486.863	124.06
487.081	129.06
487.299	124.06
487.517	115.06
487.735	149.06
487.953	147.06
488.171	135.06
488.389	148.06
488.607	139.06
488.825	137.06
489.043	126.06
489.261	117.06
489.479	116.06
489.696	121.06
489.914	130.06
490.132	132.06
490.35	136.06
490.568	140.06
490.786	152.06
491.003	146.06
491.221	161.06
491.439	151.06
491.657	146.06
491.874	158.06
492.092	169.06
492.31	176.06
492.527	166.06
492.745	164.06
492.963	159.06
493.18	147.06
493.398	151.06
493.615	162.06
493.833	152.06
494.05	153.06
494.268	135.06
494.485	161.06
494.703	159.06
494.92	156.06
495.138	139.06
495.355	146.06
495.573	140.06
495.79	146.06
496.008	143.06
496.225	147.06
496.442	139.06
496.66	150.06
496.877	141.06
497.094	135.06
497.312	137.06
497.529	152.06
497.746	142.06
497.963	140.06
498.181	124.06
498.398	137.06
498.615	141.06
498.832	144.06
499.049	138.06
499.267	160.06
499.484	167.06
499.701	178.06
499.918	193.06
500.135	205.06
500.352	215.06
500.569	203.06
500.786	212.06
501.003	204.06
501.22	194.06
501.437	178.06
501.654	167.06
501.871	157.06
502.088	172.06
502.305	153.06
502.522	133.06
502.739	142.06
502.956	126.06
503.172	139.06
503.389	135.06
503.606	145.06
503.823	134.06
504.04	126.06
504.256	152.06
504.473	149.06
504.69	140.06
504.907	120.06
505.123	131.06
505.34	120.06
505.557	130.06
505.773	138.06
505.99	127.06
506.207	126.06
506.423	116.06
506.64	123.06
506.856	136.06
507.073	125.06
507.289	122.06
507.506	125.06
507.722	114.06
507.939	105.06
508.155	132.06
508.372	118.06
508.588	112.06
508.805	107.06
509.021	109.06
509.238	118.06
509.454	103.06
509.67	120.06
509.887	114.06
510.103	118.06
510.319	124.06
510.536	123.06
510.752	119.06
510.968	112.06
511.184	125.06
511.401	112.06
511.617	125.06
511.833	120.06
512.049	115.06
