Data from StandardFe(NO3)3.TAE.3%Agarose.FlatLispGreen.Lamp.Energy10.07252019_HRD10591_11-56-08-442.txt Node
Date: Thu Jul 25 11:56:08 EDT 2019
User: cochatt
Spectrometer: HR+D1059
Trigger mode: 1
Integration Time (sec): 1.000000E-1
Scans to average: 1
Electric dark correction enabled: true
Nonlinearity correction enabled: false
Boxcar width: 0
XAxis mode: Wavelengths
Number of Pixels in Spectrum: 2048
>>>>>Begin Spectral Data<<<<<
223.165	-19.75
223.4	-19.75
223.635	-19.75
223.869	-19.75
224.104	-32.75
224.338	-2.75
224.573	3.25
224.808	-9.75
225.042	-2.75
225.277	3.25
225.511	-14.75
225.746	14.25
225.98	3.25
226.215	-1.75
226.449	17.25
226.683	20.25
226.918	17.25
227.152	25.25
227.387	39.25
227.621	54.25
227.856	48.25
228.09	52.25
228.324	42.25
228.559	59.25
228.793	49.25
229.027	63.25
229.262	62.25
229.496	61.25
229.73	68.25
229.964	73.25
230.199	93.25
230.433	91.25
230.667	76.25
230.901	73.25
231.136	87.25
231.37	87.25
231.604	79.25
231.838	81.25
232.072	92.25
232.306	77.25
232.541	75.25
232.775	74.25
233.009	87.25
233.243	92.25
233.477	83.25
233.711	81.25
233.945	78.25
234.179	92.25
234.413	83.25
234.647	89.25
234.881	66.25
235.115	79.25
235.349	93.25
235.583	71.25
235.817	79.25
236.051	83.25
236.285	73.25
236.519	73.25
236.753	76.25
236.987	91.25
237.221	72.25
237.455	81.25
237.689	77.25
237.922	78.25
238.156	81.25
238.39	84.25
238.624	93.25
238.858	75.25
239.091	67.25
239.325	81.25
239.559	81.25
239.793	83.25
240.027	85.25
240.26	90.25
240.494	73.25
240.728	63.25
240.961	80.25
241.195	83.25
241.429	61.25
241.662	69.25
241.896	83.25
242.13	82.25
242.363	77.25
242.597	76.25
242.83	75.25
243.064	81.25
243.298	81.25
243.531	88.25
243.765	79.25
243.998	81.25
244.232	82.25
244.465	82.25
244.699	84.25
244.932	81.25
245.166	76.25
245.399	76.25
245.633	76.25
245.866	83.25
246.099	78.25
246.333	78.25
246.566	85.25
246.8	87.25
247.033	65.25
247.266	78.25
247.5	81.25
247.733	71.25
247.966	73.25
248.2	81.25
248.433	90.25
248.666	75.25
248.899	74.25
249.133	81.25
249.366	95.25
249.599	92.25
249.832	85.25
250.066	87.25
250.299	81.25
250.532	92.25
250.765	74.25
250.998	85.25
251.231	82.25
251.465	76.25
251.698	79.25
251.931	83.25
252.164	83.25
252.397	83.25
252.63	80.25
252.863	79.25
253.096	85.25
253.329	88.25
253.562	72.25
253.795	77.25
254.028	72.25
254.261	92.25
254.494	84.25
254.727	77.25
254.96	69.25
255.193	84.25
255.426	76.25
255.659	77.25
255.892	81.25
256.124	62.25
256.357	69.25
256.59	84.25
256.823	81.25
257.056	82.25
257.289	90.25
257.521	74.25
257.754	61.25
257.987	87.25
258.22	87.25
258.452	75.25
258.685	73.25
258.918	71.25
259.151	75.25
259.383	81.25
259.616	79.25
259.849	74.25
260.081	83.25
260.314	83.25
260.547	89.25
260.779	89.25
261.012	84.25
261.244	86.25
261.477	74.25
261.71	91.25
261.942	88.25
262.175	85.25
262.407	80.25
262.64	83.25
262.872	87.25
263.105	82.25
263.337	78.25
263.57	82.25
263.802	91.25
264.035	80.25
264.267	81.25
264.499	83.25
264.732	75.25
264.964	77.25
265.197	89.25
265.429	76.25
265.661	84.25
265.894	94.25
266.126	91.25
266.358	83.25
266.591	90.25
266.823	90.25
267.055	84.25
267.287	79.25
267.52	86.25
267.752	85.25
267.984	82.25
268.216	83.25
268.448	93.25
268.681	77.25
268.913	76.25
269.145	91.25
269.377	80.25
269.609	72.25
269.841	79.25
270.073	82.25
270.306	91.25
270.538	80.25
270.77	89.25
271.002	82.25
271.234	92.25
271.466	81.25
271.698	81.25
271.93	88.25
272.162	73.25
272.394	82.25
272.626	85.25
272.858	83.25
273.09	102.25
273.322	66.25
273.553	78.25
273.785	89.25
274.017	83.25
274.249	76.25
274.481	77.25
274.713	83.25
274.945	70.25
275.176	78.25
275.408	79.25
275.64	81.25
275.872	75.25
276.104	82.25
276.335	85.25
276.567	88.25
276.799	81.25
277.031	93.25
277.262	91.25
277.494	71.25
277.726	79.25
277.957	68.25
278.189	81.25
278.421	77.25
278.652	94.25
278.884	76.25
279.115	85.25
279.347	87.25
279.579	91.25
279.81	79.25
280.042	92.25
280.273	89.25
280.505	70.25
280.736	60.25
280.968	82.25
281.199	80.25
281.431	85.25
281.662	72.25
281.894	86.25
282.125	67.25
282.356	85.25
282.588	85.25
282.819	100.25
283.051	80.25
283.282	90.25
283.513	92.25
283.745	84.25
283.976	87.25
284.207	92.25
284.439	82.25
284.67	77.25
284.901	83.25
285.132	85.25
285.364	87.25
285.595	75.25
285.826	91.25
286.057	88.25
286.288	83.25
286.52	84.25
286.751	88.25
286.982	78.25
287.213	79.25
287.444	84.25
287.675	72.25
287.906	100.25
288.138	81.25
288.369	86.25
288.6	77.25
288.831	87.25
289.062	91.25
289.293	83.25
289.524	100.25
289.755	83.25
289.986	100.25
290.217	83.25
290.448	87.25
290.679	84.25
290.91	83.25
291.141	99.25
291.371	82.25
291.602	72.25
291.833	84.25
292.064	77.25
292.295	76.25
292.526	79.25
292.757	79.25
292.987	74.25
293.218	87.25
293.449	98.25
293.68	90.25
293.91	89.25
294.141	77.25
294.372	76.25
294.603	82.25
294.833	68.25
295.064	87.25
295.295	89.25
295.525	79.25
295.756	84.25
295.987	89.25
296.217	67.25
296.448	78.25
296.679	84.25
296.909	89.25
297.14	85.25
297.37	85.25
297.601	78.25
297.831	87.25
298.062	92.25
298.292	75.25
298.523	74.25
298.753	88.25
298.984	79.25
299.214	84.25
299.445	89.25
299.675	81.25
299.905	82.25
300.136	91.25
300.366	101.25
300.597	94.25
300.827	83.25
301.057	97.25
301.288	88.25
301.518	77.25
301.748	80.25
301.979	92.25
302.209	83.25
302.439	76.25
302.669	85.25
302.9	78.25
303.13	87.25
303.36	73.25
303.59	83.25
303.82	87.25
304.051	79.25
304.281	82.25
304.511	81.25
304.741	76.25
304.971	85.25
305.201	93.25
305.431	83.25
305.661	86.25
305.891	79.25
306.121	82.25
306.352	96.25
306.582	87.25
306.812	75.25
307.042	77.25
307.272	72.25
307.502	92.25
307.731	103.25
307.961	91.25
308.191	85.25
308.421	77.25
308.651	89.25
308.881	71.25
309.111	79.25
309.341	85.25
309.571	79.25
309.8	78.25
310.03	68.25
310.26	84.25
310.49	103.25
310.72	68.25
310.949	83.25
311.179	87.25
311.409	82.25
311.639	85.25
311.868	87.25
312.098	102.25
312.328	94.25
312.557	99.25
312.787	93.25
313.017	85.25
313.246	83.25
313.476	83.25
313.706	83.25
313.935	86.25
314.165	75.25
314.394	87.25
314.624	84.25
314.853	90.25
315.083	63.25
315.312	91.25
315.542	82.25
315.771	83.25
316.001	84.25
316.23	89.25
316.46	95.25
316.689	79.25
316.919	91.25
317.148	81.25
317.377	104.25
317.607	83.25
317.836	87.25
318.065	85.25
318.295	75.25
318.524	96.25
318.753	77.25
318.983	76.25
319.212	84.25
319.441	88.25
319.67	80.25
319.9	74.25
320.129	87.25
320.358	91.25
320.587	79.25
320.816	87.25
321.046	78.25
321.275	79.25
321.504	86.25
321.733	75.25
321.962	85.25
322.191	88.25
322.42	84.25
322.649	86.25
322.878	96.25
323.108	85.25
323.337	75.25
323.566	89.25
323.795	75.25
324.024	80.25
324.253	70.25
324.482	75.25
324.71	77.25
324.939	93.25
325.168	84.25
325.397	82.25
325.626	89.25
325.855	88.25
326.084	93.25
326.313	91.25
326.542	83.25
326.77	82.25
326.999	87.25
327.228	78.25
327.457	79.25
327.686	79.25
327.914	75.25
328.143	81.25
328.372	83.25
328.6	70.25
328.829	90.25
329.058	74.25
329.287	87.25
329.515	78.25
329.744	91.25
329.972	83.25
330.201	83.25
330.43	88.25
330.658	86.25
330.887	83.25
331.115	81.25
331.344	78.25
331.572	93.25
331.801	85.25
332.03	84.25
332.258	84.25
332.486	92.25
332.715	81.25
332.943	80.25
333.172	75.25
333.4	68.25
333.629	102.25
333.857	89.25
334.085	101.25
334.314	78.25
334.542	76.25
334.771	95.25
334.999	93.25
335.227	80.25
335.455	87.25
335.684	83.25
335.912	80.25
336.14	85.25
336.369	85.25
336.597	95.25
336.825	79.25
337.053	61.25
337.281	91.25
337.51	77.25
337.738	66.25
337.966	82.25
338.194	82.25
338.422	84.25
338.65	98.25
338.878	95.25
339.106	76.25
339.334	93.25
339.562	88.25
339.79	79.25
340.018	68.25
340.246	88.25
340.474	93.25
340.702	85.25
340.93	90.25
341.158	75.25
341.386	76.25
341.614	99.25
341.842	76.25
342.07	76.25
342.298	82.25
342.526	75.25
342.754	79.25
342.981	76.25
343.209	85.25
343.437	98.25
343.665	84.25
343.893	91.25
344.12	84.25
344.348	98.25
344.576	90.25
344.804	73.25
345.031	87.25
345.259	90.25
345.487	82.25
345.714	77.25
345.942	91.25
346.17	75.25
346.397	82.25
346.625	80.25
346.853	89.25
347.08	76.25
347.308	83.25
347.535	83.25
347.763	86.25
347.99	76.25
348.218	99.25
348.445	92.25
348.673	87.25
348.9	96.25
349.128	82.25
349.355	89.25
349.583	80.25
349.81	91.25
350.037	78.25
350.265	83.25
350.492	96.25
350.72	91.25
350.947	87.25
351.174	83.25
351.402	105.25
351.629	96.25
351.856	93.25
352.083	93.25
352.311	90.25
352.538	81.25
352.765	96.25
352.992	68.25
353.22	77.25
353.447	80.25
353.674	73.25
353.901	77.25
354.128	92.25
354.355	81.25
354.583	85.25
354.81	82.25
355.037	76.25
355.264	87.25
355.491	87.25
355.718	91.25
355.945	95.25
356.172	86.25
356.399	83.25
356.626	89.25
356.853	91.25
357.08	87.25
357.307	78.25
357.534	90.25
357.761	74.25
357.988	84.25
358.215	96.25
358.441	92.25
358.668	82.25
358.895	86.25
359.122	87.25
359.349	91.25
359.576	81.25
359.802	86.25
360.029	76.25
360.256	96.25
360.483	98.25
360.709	83.25
360.936	104.25
361.163	97.25
361.39	86.25
361.616	81.25
361.843	88.25
362.07	86.25
362.296	86.25
362.523	83.25
362.749	76.25
362.976	77.25
363.203	89.25
363.429	81.25
363.656	90.25
363.882	93.25
364.109	94.25
364.335	79.25
364.562	77.25
364.788	83.25
365.015	94.25
365.241	66.25
365.468	84.25
365.694	95.25
365.92	90.25
366.147	74.25
366.373	85.25
366.599	81.25
366.826	85.25
367.052	89.25
367.278	90.25
367.505	76.25
367.731	97.25
367.957	99.25
368.184	96.25
368.41	91.25
368.636	91.25
368.862	91.25
369.089	93.25
369.315	94.25
369.541	86.25
369.767	84.25
369.993	89.25
370.219	90.25
370.445	99.25
370.672	85.25
370.898	76.25
371.124	73.25
371.35	84.25
371.576	83.25
371.802	93.25
372.028	100.25
372.254	81.25
372.48	86.25
372.706	89.25
372.932	75.25
373.158	77.25
373.384	75.25
373.61	75.25
373.835	86.25
374.061	72.25
374.287	77.25
374.513	91.25
374.739	88.25
374.965	83.25
375.191	100.25
375.416	97.25
375.642	98.25
375.868	96.25
376.094	93.25
376.319	96.25
376.545	96.25
376.771	90.25
376.997	78.25
377.222	95.25
377.448	83.25
377.674	97.25
377.899	79.25
378.125	92.25
378.35	98.25
378.576	105.25
378.802	95.25
379.027	93.25
379.253	95.25
379.478	96.25
379.704	77.25
379.929	93.25
380.155	93.25
380.38	85.25
380.606	87.25
380.831	98.25
381.057	100.25
381.282	96.25
381.507	91.25
381.733	90.25
381.958	88.25
382.184	81.25
382.409	84.25
382.634	97.25
382.86	92.25
383.085	99.25
383.31	97.25
383.535	96.25
383.761	76.25
383.986	83.25
384.211	92.25
384.436	105.25
384.662	96.25
384.887	89.25
385.112	87.25
385.337	95.25
385.562	107.25
385.787	86.25
386.013	87.25
386.238	95.25
386.463	90.25
386.688	89.25
386.913	92.25
387.138	99.25
387.363	89.25
387.588	101.25
387.813	98.25
388.038	80.25
388.263	92.25
388.488	73.25
388.713	96.25
388.938	85.25
389.163	81.25
389.387	100.25
389.612	101.25
389.837	99.25
390.062	96.25
390.287	99.25
390.512	105.25
390.736	93.25
390.961	113.25
391.186	86.25
391.411	98.25
391.636	90.25
391.86	80.25
392.085	98.25
392.31	97.25
392.534	101.25
392.759	90.25
392.984	115.25
393.208	98.25
393.433	109.25
393.658	112.25
393.882	101.25
394.107	95.25
394.331	96.25
394.556	111.25
394.78	87.25
395.005	101.25
395.229	97.25
395.454	92.25
395.678	100.25
395.903	87.25
396.127	99.25
396.352	112.25
396.576	96.25
396.801	105.25
397.025	91.25
397.249	94.25
397.474	98.25
397.698	104.25
397.922	98.25
398.147	98.25
398.371	105.25
398.595	93.25
398.82	103.25
399.044	112.25
399.268	113.25
399.492	96.25
399.717	117.25
399.941	102.25
400.165	118.25
400.389	105.25
400.613	95.25
400.837	113.25
401.062	115.25
401.286	102.25
401.51	107.25
401.734	87.25
401.958	118.25
402.182	101.25
402.406	109.25
402.63	114.25
402.854	97.25
403.078	127.25
403.302	108.25
403.526	103.25
403.75	109.25
403.974	103.25
404.198	113.25
404.422	104.25
404.645	107.25
404.869	107.25
405.093	116.25
405.317	100.25
405.541	110.25
405.765	115.25
405.988	91.25
406.212	103.25
406.436	101.25
406.66	108.25
406.883	104.25
407.107	117.25
407.331	102.25
407.555	120.25
407.778	112.25
408.002	108.25
408.226	109.25
408.449	119.25
408.673	106.25
408.896	106.25
409.12	122.25
409.344	102.25
409.567	113.25
409.791	108.25
410.014	97.25
410.238	119.25
410.461	118.25
410.685	117.25
410.908	108.25
411.132	99.25
411.355	105.25
411.578	113.25
411.802	113.25
412.025	104.25
412.249	101.25
412.472	116.25
412.695	109.25
412.919	123.25
413.142	121.25
413.365	91.25
413.589	100.25
413.812	102.25
414.035	111.25
414.258	122.25
414.482	107.25
414.705	122.25
414.928	98.25
415.151	93.25
415.374	113.25
415.597	111.25
415.821	107.25
416.044	114.25
416.267	123.25
416.49	117.25
416.713	119.25
416.936	113.25
417.159	128.25
417.382	117.25
417.605	118.25
417.828	115.25
418.051	104.25
418.274	108.25
418.497	128.25
418.72	114.25
418.943	120.25
419.166	108.25
419.389	112.25
419.611	120.25
419.834	130.25
420.057	112.25
420.28	104.25
420.503	122.25
420.726	117.25
420.948	120.25
421.171	120.25
421.394	119.25
421.617	115.25
421.839	116.25
422.062	112.25
422.285	103.25
422.507	111.25
422.73	121.25
422.953	97.25
423.175	99.25
423.398	116.25
423.621	126.25
423.843	121.25
424.066	111.25
424.288	121.25
424.511	130.25
424.733	127.25
424.956	113.25
425.178	111.25
425.401	121.25
425.623	113.25
425.846	114.25
426.068	109.25
426.291	121.25
426.513	107.25
426.735	121.25
426.958	120.25
427.18	99.25
427.402	107.25
427.625	113.25
427.847	113.25
428.069	106.25
428.292	103.25
428.514	109.25
428.736	120.25
428.958	106.25
429.181	115.25
429.403	129.25
429.625	106.25
429.847	92.25
430.069	121.25
430.292	102.25
430.514	111.25
430.736	120.25
430.958	124.25
431.18	114.25
431.402	121.25
431.624	102.25
431.846	109.25
432.068	108.25
432.29	104.25
432.512	101.25
432.734	122.25
432.956	123.25
433.178	119.25
433.4	123.25
433.622	119.25
433.844	101.25
434.066	120.25
434.287	101.25
434.509	113.25
434.731	106.25
434.953	104.25
435.175	107.25
435.397	104.25
435.618	115.25
435.84	119.25
436.062	113.25
436.284	111.25
436.505	112.25
436.727	131.25
436.949	119.25
437.17	106.25
437.392	116.25
437.614	119.25
437.835	114.25
438.057	96.25
438.278	115.25
438.5	99.25
438.721	109.25
438.943	119.25
439.165	97.25
439.386	111.25
439.608	116.25
439.829	118.25
440.05	125.25
440.272	115.25
440.493	107.25
440.715	119.25
440.936	121.25
441.158	116.25
441.379	119.25
441.6	108.25
441.822	124.25
442.043	125.25
442.264	128.25
442.486	117.25
442.707	123.25
442.928	121.25
443.149	119.25
443.371	120.25
443.592	108.25
443.813	115.25
444.034	129.25
444.255	123.25
444.476	125.25
444.698	118.25
444.919	124.25
445.14	245.25
445.361	184.25
445.582	129.25
445.803	111.25
446.024	129.25
446.245	130.25
446.466	119.25
446.687	116.25
446.908	123.25
447.129	114.25
447.35	117.25
447.571	125.25
447.792	123.25
448.013	106.25
448.234	105.25
448.455	110.25
448.675	99.25
448.896	113.25
449.117	102.25
449.338	113.25
449.559	121.25
449.779	100.25
450	129.25
450.221	104.25
450.442	99.25
450.662	125.25
450.883	113.25
451.104	102.25
451.324	117.25
451.545	104.25
451.766	111.25
451.986	120.25
452.207	131.25
452.428	111.25
452.648	105.25
452.869	111.25
453.089	86.25
453.31	99.25
453.53	107.25
453.751	110.25
453.971	119.25
454.192	105.25
454.412	97.25
454.633	116.25
454.853	111.25
455.073	99.25
455.294	94.25
455.514	103.25
455.734	98.25
455.955	114.25
456.175	105.25
456.395	91.25
456.616	105.25
456.836	114.25
457.056	102.25
457.276	104.25
457.497	103.25
457.717	100.25
457.937	114.25
458.157	105.25
458.377	97.25
458.598	92.25
458.818	97.25
459.038	111.25
459.258	112.25
459.478	121.25
459.698	114.25
459.918	111.25
460.138	104.25
460.358	103.25
460.578	104.25
460.798	101.25
461.018	120.25
461.238	104.25
461.458	137.25
461.678	113.25
461.898	111.25
462.118	122.25
462.338	131.25
462.558	121.25
462.777	101.25
462.997	119.25
463.217	129.25
463.437	114.25
463.657	111.25
463.876	123.25
464.096	115.25
464.316	132.25
464.536	120.25
464.755	123.25
464.975	113.25
465.195	114.25
465.414	116.25
465.634	107.25
465.854	100.25
466.073	109.25
466.293	112.25
466.512	124.25
466.732	133.25
466.951	115.25
467.171	106.25
467.391	120.25
467.61	121.25
467.829	100.25
468.049	101.25
468.268	106.25
468.488	107.25
468.707	117.25
468.927	110.25
469.146	114.25
469.365	116.25
469.585	123.25
469.804	121.25
470.023	121.25
470.243	111.25
470.462	115.25
470.681	120.25
470.901	120.25
471.12	111.25
471.339	123.25
471.558	120.25
471.777	127.25
471.997	117.25
472.216	116.25
472.435	126.25
472.654	94.25
472.873	99.25
473.092	112.25
473.311	114.25
473.53	95.25
473.749	123.25
473.968	126.25
474.187	104.25
474.406	107.25
474.625	123.25
474.844	108.25
475.063	111.25
475.282	111.25
475.501	113.25
475.72	125.25
475.939	124.25
476.158	115.25
476.377	130.25
476.596	127.25
476.814	111.25
477.033	105.25
477.252	125.25
477.471	120.25
477.69	125.25
477.908	129.25
478.127	138.25
478.346	123.25
478.564	130.25
478.783	121.25
479.002	115.25
479.22	123.25
479.439	117.25
479.658	129.25
479.876	127.25
480.095	111.25
480.313	120.25
480.532	113.25
480.751	137.25
480.969	127.25
481.188	113.25
481.406	113.25
481.624	124.25
481.843	105.25
482.061	118.25
482.28	104.25
482.498	122.25
482.717	127.25
482.935	136.25
483.153	120.25
483.372	147.25
483.59	135.25
483.808	117.25
484.027	115.25
484.245	117.25
484.463	131.25
484.681	137.25
484.9	123.25
485.118	125.25
485.336	121.25
485.554	124.25
485.772	125.25
485.99	109.25
486.209	102.25
486.427	122.25
486.645	129.25
486.863	122.25
487.081	135.25
487.299	138.25
487.517	122.25
487.735	134.25
487.953	129.25
488.171	140.25
488.389	129.25
488.607	138.25
488.825	129.25
489.043	117.25
489.261	128.25
489.479	129.25
489.696	124.25
489.914	136.25
490.132	136.25
490.35	149.25
490.568	130.25
490.786	141.25
491.003	140.25
491.221	147.25
491.439	163.25
491.657	138.25
491.874	164.25
492.092	144.25
492.31	169.25
492.527	150.25
492.745	157.25
492.963	163.25
493.18	152.25
493.398	153.25
493.615	136.25
493.833	153.25
494.05	137.25
494.268	150.25
494.485	137.25
494.703	143.25
494.92	155.25
495.138	147.25
495.355	148.25
495.573	145.25
495.79	155.25
496.008	135.25
496.225	152.25
496.442	155.25
496.66	143.25
496.877	158.25
497.094	150.25
497.312	131.25
497.529	151.25
497.746	157.25
497.963	147.25
498.181	135.25
498.398	153.25
498.615	148.25
498.832	143.25
499.049	157.25
499.267	149.25
499.484	178.25
499.701	181.25
499.918	185.25
500.135	190.25
500.352	204.25
500.569	222.25
500.786	213.25
501.003	199.25
501.22	200.25
501.437	171.25
501.654	192.25
501.871	139.25
502.088	167.25
502.305	146.25
502.522	136.25
502.739	146.25
502.956	151.25
503.172	137.25
503.389	130.25
503.606	149.25
503.823	133.25
504.04	148.25
504.256	139.25
504.473	135.25
504.69	128.25
504.907	133.25
505.123	131.25
505.34	123.25
505.557	131.25
505.773	142.25
505.99	122.25
506.207	132.25
506.423	115.25
506.64	103.25
506.856	135.25
507.073	116.25
507.289	119.25
507.506	117.25
507.722	108.25
507.939	125.25
508.155	131.25
508.372	122.25
508.588	121.25
508.805	131.25
509.021	121.25
509.238	114.25
509.454	119.25
509.67	114.25
509.887	127.25
510.103	113.25
510.319	113.25
510.536	112.25
510.752	119.25
510.968	126.25
511.184	103.25
511.401	124.25
511.617	128.25
511.833	116.25
