Data from StandardFe(NO3)3.TAE.3%Agarose.FlatLispGreen.Lamp.Energy10.07252019_HRD10591_11-53-22-440.txt Node
Date: Thu Jul 25 11:53:22 EDT 2019
User: cochatt
Spectrometer: HR+D1059
Trigger mode: 1
Integration Time (sec): 1.000000E-1
Scans to average: 1
Electric dark correction enabled: true
Nonlinearity correction enabled: false
Boxcar width: 0
XAxis mode: Wavelengths
Number of Pixels in Spectrum: 2048
>>>>>Begin Spectral Data<<<<<
223.165	-16.62
223.4	-16.62
223.635	-16.62
223.869	-19.62
224.104	-18.62
224.338	-7.62
224.573	-22.62
224.808	-15.62
225.042	-8.62
225.277	-4.62
225.511	-0.62
225.746	4.38
225.98	18.38
226.215	12.38
226.449	13.38
226.683	22.38
226.918	23.38
227.152	20.38
227.387	27.38
227.621	24.38
227.856	39.38
228.09	45.38
228.324	36.38
228.559	44.38
228.793	64.38
229.027	65.38
229.262	66.38
229.496	70.38
229.73	63.38
229.964	66.38
230.199	74.38
230.433	75.38
230.667	65.38
230.901	69.38
231.136	73.38
231.37	91.38
231.604	61.38
231.838	77.38
232.072	81.38
232.306	79.38
232.541	97.38
232.775	96.38
233.009	89.38
233.243	98.38
233.477	82.38
233.711	77.38
233.945	81.38
234.179	79.38
234.413	74.38
234.647	76.38
234.881	75.38
235.115	79.38
235.349	78.38
235.583	76.38
235.817	78.38
236.051	76.38
236.285	79.38
236.519	73.38
236.753	75.38
236.987	82.38
237.221	72.38
237.455	83.38
237.689	71.38
237.922	75.38
238.156	69.38
238.39	74.38
238.624	70.38
238.858	67.38
239.091	87.38
239.325	69.38
239.559	75.38
239.793	76.38
240.027	74.38
240.26	84.38
240.494	73.38
240.728	65.38
240.961	73.38
241.195	82.38
241.429	84.38
241.662	80.38
241.896	69.38
242.13	85.38
242.363	81.38
242.597	75.38
242.83	82.38
243.064	72.38
243.298	65.38
243.531	70.38
243.765	69.38
243.998	86.38
244.232	75.38
244.465	69.38
244.699	73.38
244.932	73.38
245.166	76.38
245.399	62.38
245.633	79.38
245.866	71.38
246.099	92.38
246.333	76.38
246.566	82.38
246.8	72.38
247.033	70.38
247.266	74.38
247.5	82.38
247.733	95.38
247.966	87.38
248.2	89.38
248.433	67.38
248.666	95.38
248.899	84.38
249.133	82.38
249.366	77.38
249.599	65.38
249.832	84.38
250.066	91.38
250.299	72.38
250.532	69.38
250.765	94.38
250.998	70.38
251.231	82.38
251.465	83.38
251.698	74.38
251.931	70.38
252.164	87.38
252.397	94.38
252.63	74.38
252.863	74.38
253.096	75.38
253.329	88.38
253.562	92.38
253.795	75.38
254.028	87.38
254.261	87.38
254.494	74.38
254.727	86.38
254.96	67.38
255.193	90.38
255.426	73.38
255.659	79.38
255.892	85.38
256.124	76.38
256.357	82.38
256.59	75.38
256.823	67.38
257.056	84.38
257.289	87.38
257.521	77.38
257.754	83.38
257.987	87.38
258.22	78.38
258.452	80.38
258.685	78.38
258.918	77.38
259.151	77.38
259.383	76.38
259.616	79.38
259.849	80.38
260.081	89.38
260.314	77.38
260.547	81.38
260.779	78.38
261.012	88.38
261.244	79.38
261.477	86.38
261.71	91.38
261.942	107.38
262.175	84.38
262.407	89.38
262.64	65.38
262.872	82.38
263.105	83.38
263.337	91.38
263.57	90.38
263.802	70.38
264.035	81.38
264.267	83.38
264.499	78.38
264.732	88.38
264.964	73.38
265.197	77.38
265.429	76.38
265.661	70.38
265.894	86.38
266.126	72.38
266.358	88.38
266.591	85.38
266.823	78.38
267.055	60.38
267.287	91.38
267.52	81.38
267.752	81.38
267.984	85.38
268.216	84.38
268.448	76.38
268.681	90.38
268.913	87.38
269.145	74.38
269.377	77.38
269.609	90.38
269.841	95.38
270.073	77.38
270.306	77.38
270.538	79.38
270.77	89.38
271.002	84.38
271.234	84.38
271.466	72.38
271.698	81.38
271.93	77.38
272.162	91.38
272.394	92.38
272.626	79.38
272.858	79.38
273.09	83.38
273.322	84.38
273.553	82.38
273.785	80.38
274.017	82.38
274.249	83.38
274.481	93.38
274.713	85.38
274.945	76.38
275.176	73.38
275.408	75.38
275.64	85.38
275.872	78.38
276.104	90.38
276.335	93.38
276.567	68.38
276.799	84.38
277.031	85.38
277.262	83.38
277.494	92.38
277.726	93.38
277.957	87.38
278.189	87.38
278.421	93.38
278.652	79.38
278.884	77.38
279.115	82.38
279.347	70.38
279.579	70.38
279.81	77.38
280.042	96.38
280.273	85.38
280.505	83.38
280.736	75.38
280.968	83.38
281.199	82.38
281.431	75.38
281.662	88.38
281.894	82.38
282.125	69.38
282.356	89.38
282.588	81.38
282.819	79.38
283.051	88.38
283.282	86.38
283.513	82.38
283.745	75.38
283.976	83.38
284.207	77.38
284.439	95.38
284.67	91.38
284.901	86.38
285.132	91.38
285.364	96.38
285.595	82.38
285.826	83.38
286.057	80.38
286.288	80.38
286.52	88.38
286.751	88.38
286.982	91.38
287.213	74.38
287.444	86.38
287.675	79.38
287.906	84.38
288.138	82.38
288.369	90.38
288.6	89.38
288.831	92.38
289.062	86.38
289.293	83.38
289.524	90.38
289.755	93.38
289.986	78.38
290.217	84.38
290.448	84.38
290.679	77.38
290.91	85.38
291.141	71.38
291.371	75.38
291.602	83.38
291.833	80.38
292.064	80.38
292.295	88.38
292.526	98.38
292.757	88.38
292.987	89.38
293.218	79.38
293.449	74.38
293.68	91.38
293.91	93.38
294.141	97.38
294.372	99.38
294.603	88.38
294.833	79.38
295.064	83.38
295.295	88.38
295.525	67.38
295.756	87.38
295.987	69.38
296.217	91.38
296.448	75.38
296.679	83.38
296.909	95.38
297.14	77.38
297.37	82.38
297.601	77.38
297.831	85.38
298.062	95.38
298.292	78.38
298.523	94.38
298.753	84.38
298.984	74.38
299.214	75.38
299.445	83.38
299.675	81.38
299.905	80.38
300.136	87.38
300.366	90.38
300.597	92.38
300.827	78.38
301.057	79.38
301.288	93.38
301.518	91.38
301.748	83.38
301.979	97.38
302.209	85.38
302.439	88.38
302.669	89.38
302.9	77.38
303.13	73.38
303.36	93.38
303.59	99.38
303.82	82.38
304.051	74.38
304.281	80.38
304.511	87.38
304.741	83.38
304.971	77.38
305.201	107.38
305.431	88.38
305.661	84.38
305.891	74.38
306.121	79.38
306.352	74.38
306.582	83.38
306.812	88.38
307.042	77.38
307.272	91.38
307.502	90.38
307.731	71.38
307.961	70.38
308.191	81.38
308.421	77.38
308.651	99.38
308.881	99.38
309.111	102.38
309.341	89.38
309.571	94.38
309.8	85.38
310.03	98.38
310.26	81.38
310.49	83.38
310.72	91.38
310.949	86.38
311.179	81.38
311.409	90.38
311.639	91.38
311.868	89.38
312.098	82.38
312.328	92.38
312.557	88.38
312.787	103.38
313.017	81.38
313.246	82.38
313.476	83.38
313.706	82.38
313.935	91.38
314.165	94.38
314.394	89.38
314.624	79.38
314.853	67.38
315.083	73.38
315.312	81.38
315.542	86.38
315.771	72.38
316.001	101.38
316.23	86.38
316.46	91.38
316.689	80.38
316.919	82.38
317.148	98.38
317.377	87.38
317.607	86.38
317.836	96.38
318.065	85.38
318.295	92.38
318.524	82.38
318.753	80.38
318.983	97.38
319.212	98.38
319.441	94.38
319.67	76.38
319.9	80.38
320.129	81.38
320.358	82.38
320.587	75.38
320.816	85.38
321.046	73.38
321.275	83.38
321.504	66.38
321.733	81.38
321.962	89.38
322.191	76.38
322.42	81.38
322.649	90.38
322.878	99.38
323.108	81.38
323.337	90.38
323.566	81.38
323.795	92.38
324.024	81.38
324.253	76.38
324.482	88.38
324.71	76.38
324.939	79.38
325.168	72.38
325.397	84.38
325.626	96.38
325.855	90.38
326.084	81.38
326.313	92.38
326.542	89.38
326.77	89.38
326.999	79.38
327.228	90.38
327.457	86.38
327.686	101.38
327.914	73.38
328.143	72.38
328.372	81.38
328.6	90.38
328.829	65.38
329.058	75.38
329.287	81.38
329.515	99.38
329.744	97.38
329.972	90.38
330.201	85.38
330.43	73.38
330.658	89.38
330.887	67.38
331.115	72.38
331.344	67.38
331.572	97.38
331.801	85.38
332.03	93.38
332.258	93.38
332.486	96.38
332.715	76.38
332.943	88.38
333.172	95.38
333.4	83.38
333.629	82.38
333.857	73.38
334.085	83.38
334.314	82.38
334.542	78.38
334.771	75.38
334.999	90.38
335.227	85.38
335.455	87.38
335.684	84.38
335.912	87.38
336.14	99.38
336.369	79.38
336.597	85.38
336.825	77.38
337.053	97.38
337.281	97.38
337.51	81.38
337.738	92.38
337.966	84.38
338.194	89.38
338.422	72.38
338.65	86.38
338.878	84.38
339.106	73.38
339.334	71.38
339.562	77.38
339.79	82.38
340.018	73.38
340.246	75.38
340.474	84.38
340.702	88.38
340.93	77.38
341.158	80.38
341.386	93.38
341.614	87.38
341.842	74.38
342.07	76.38
342.298	84.38
342.526	87.38
342.754	84.38
342.981	81.38
343.209	90.38
343.437	87.38
343.665	80.38
343.893	95.38
344.12	92.38
344.348	95.38
344.576	67.38
344.804	72.38
345.031	87.38
345.259	84.38
345.487	85.38
345.714	69.38
345.942	88.38
346.17	87.38
346.397	86.38
346.625	81.38
346.853	68.38
347.08	74.38
347.308	84.38
347.535	86.38
347.763	90.38
347.99	74.38
348.218	79.38
348.445	73.38
348.673	76.38
348.9	83.38
349.128	85.38
349.355	82.38
349.583	94.38
349.81	86.38
350.037	73.38
350.265	92.38
350.492	90.38
350.72	88.38
350.947	83.38
351.174	82.38
351.402	77.38
351.629	89.38
351.856	77.38
352.083	79.38
352.311	74.38
352.538	89.38
352.765	81.38
352.992	80.38
353.22	89.38
353.447	73.38
353.674	90.38
353.901	95.38
354.128	87.38
354.355	70.38
354.583	96.38
354.81	88.38
355.037	92.38
355.264	88.38
355.491	74.38
355.718	71.38
355.945	93.38
356.172	92.38
356.399	87.38
356.626	89.38
356.853	93.38
357.08	81.38
357.307	78.38
357.534	87.38
357.761	84.38
357.988	85.38
358.215	76.38
358.441	81.38
358.668	83.38
358.895	83.38
359.122	89.38
359.349	76.38
359.576	86.38
359.802	78.38
360.029	83.38
360.256	91.38
360.483	93.38
360.709	75.38
360.936	99.38
361.163	88.38
361.39	90.38
361.616	84.38
361.843	104.38
362.07	98.38
362.296	82.38
362.523	79.38
362.749	67.38
362.976	80.38
363.203	96.38
363.429	82.38
363.656	90.38
363.882	86.38
364.109	96.38
364.335	91.38
364.562	81.38
364.788	90.38
365.015	106.38
365.241	91.38
365.468	75.38
365.694	85.38
365.92	84.38
366.147	96.38
366.373	75.38
366.599	83.38
366.826	87.38
367.052	90.38
367.278	90.38
367.505	81.38
367.731	90.38
367.957	77.38
368.184	96.38
368.41	93.38
368.636	98.38
368.862	96.38
369.089	94.38
369.315	88.38
369.541	95.38
369.767	82.38
369.993	80.38
370.219	88.38
370.445	88.38
370.672	82.38
370.898	92.38
371.124	87.38
371.35	98.38
371.576	88.38
371.802	82.38
372.028	89.38
372.254	71.38
372.48	74.38
372.706	72.38
372.932	86.38
373.158	91.38
373.384	97.38
373.61	79.38
373.835	83.38
374.061	84.38
374.287	89.38
374.513	72.38
374.739	77.38
374.965	83.38
375.191	99.38
375.416	106.38
375.642	99.38
375.868	94.38
376.094	81.38
376.319	84.38
376.545	80.38
376.771	89.38
376.997	86.38
377.222	86.38
377.448	82.38
377.674	95.38
377.899	96.38
378.125	100.38
378.35	101.38
378.576	100.38
378.802	103.38
379.027	89.38
379.253	92.38
379.478	83.38
379.704	88.38
379.929	84.38
380.155	68.38
380.38	87.38
380.606	95.38
380.831	84.38
381.057	99.38
381.282	102.38
381.507	88.38
381.733	93.38
381.958	98.38
382.184	95.38
382.409	94.38
382.634	89.38
382.86	84.38
383.085	98.38
383.31	106.38
383.535	91.38
383.761	100.38
383.986	84.38
384.211	89.38
384.436	83.38
384.662	89.38
384.887	101.38
385.112	96.38
385.337	95.38
385.562	97.38
385.787	101.38
386.013	100.38
386.238	81.38
386.463	94.38
386.688	104.38
386.913	96.38
387.138	84.38
387.363	100.38
387.588	99.38
387.813	97.38
388.038	94.38
388.263	100.38
388.488	100.38
388.713	75.38
388.938	80.38
389.163	93.38
389.387	100.38
389.612	92.38
389.837	86.38
390.062	96.38
390.287	81.38
390.512	105.38
390.736	89.38
390.961	87.38
391.186	87.38
391.411	99.38
391.636	108.38
391.86	95.38
392.085	91.38
392.31	107.38
392.534	93.38
392.759	94.38
392.984	103.38
393.208	113.38
393.433	89.38
393.658	100.38
393.882	103.38
394.107	105.38
394.331	93.38
394.556	95.38
394.78	99.38
395.005	91.38
395.229	100.38
395.454	113.38
395.678	105.38
395.903	98.38
396.127	98.38
396.352	97.38
396.576	88.38
396.801	95.38
397.025	92.38
397.249	103.38
397.474	101.38
397.698	96.38
397.922	106.38
398.147	116.38
398.371	100.38
398.595	107.38
398.82	98.38
399.044	94.38
399.268	108.38
399.492	107.38
399.717	120.38
399.941	122.38
400.165	114.38
400.389	106.38
400.613	80.38
400.837	105.38
401.062	94.38
401.286	106.38
401.51	95.38
401.734	109.38
401.958	113.38
402.182	101.38
402.406	108.38
402.63	88.38
402.854	120.38
403.078	116.38
403.302	98.38
403.526	115.38
403.75	99.38
403.974	117.38
404.198	115.38
404.422	106.38
404.645	116.38
404.869	119.38
405.093	113.38
405.317	121.38
405.541	118.38
405.765	116.38
405.988	104.38
406.212	108.38
406.436	108.38
406.66	112.38
406.883	105.38
407.107	111.38
407.331	113.38
407.555	97.38
407.778	103.38
408.002	123.38
408.226	125.38
408.449	121.38
408.673	122.38
408.896	113.38
409.12	120.38
409.344	112.38
409.567	114.38
409.791	118.38
410.014	121.38
410.238	106.38
410.461	103.38
410.685	97.38
410.908	115.38
411.132	105.38
411.355	120.38
411.578	115.38
411.802	108.38
412.025	117.38
412.249	100.38
412.472	112.38
412.695	103.38
412.919	101.38
413.142	115.38
413.365	118.38
413.589	106.38
413.812	107.38
414.035	123.38
414.258	99.38
414.482	96.38
414.705	103.38
414.928	117.38
415.151	111.38
415.374	106.38
415.597	115.38
415.821	121.38
416.044	119.38
416.267	99.38
416.49	114.38
416.713	101.38
416.936	113.38
417.159	111.38
417.382	117.38
417.605	117.38
417.828	121.38
418.051	118.38
418.274	107.38
418.497	124.38
418.72	112.38
418.943	112.38
419.166	123.38
419.389	129.38
419.611	121.38
419.834	112.38
420.057	125.38
420.28	117.38
420.503	101.38
420.726	108.38
420.948	112.38
421.171	116.38
421.394	127.38
421.617	105.38
421.839	120.38
422.062	120.38
422.285	106.38
422.507	119.38
422.73	117.38
422.953	107.38
423.175	122.38
423.398	111.38
423.621	108.38
423.843	111.38
424.066	117.38
424.288	121.38
424.511	125.38
424.733	104.38
424.956	109.38
425.178	121.38
425.401	101.38
425.623	127.38
425.846	106.38
426.068	123.38
426.291	114.38
426.513	112.38
426.735	113.38
426.958	127.38
427.18	115.38
427.402	120.38
427.625	106.38
427.847	129.38
428.069	114.38
428.292	122.38
428.514	109.38
428.736	108.38
428.958	117.38
429.181	124.38
429.403	121.38
429.625	109.38
429.847	104.38
430.069	123.38
430.292	97.38
430.514	123.38
430.736	106.38
430.958	105.38
431.18	101.38
431.402	103.38
431.624	107.38
431.846	130.38
432.068	112.38
432.29	100.38
432.512	110.38
432.734	119.38
432.956	127.38
433.178	118.38
433.4	113.38
433.622	100.38
433.844	111.38
434.066	117.38
434.287	106.38
434.509	109.38
434.731	105.38
434.953	109.38
435.175	118.38
435.397	122.38
435.618	115.38
435.84	104.38
436.062	101.38
436.284	101.38
436.505	114.38
436.727	107.38
436.949	112.38
437.17	112.38
437.392	115.38
437.614	118.38
437.835	114.38
438.057	112.38
438.278	109.38
438.5	104.38
438.721	118.38
438.943	123.38
439.165	107.38
439.386	118.38
439.608	117.38
439.829	125.38
440.05	126.38
440.272	118.38
440.493	113.38
440.715	125.38
440.936	116.38
441.158	118.38
441.379	120.38
441.6	116.38
441.822	126.38
442.043	122.38
442.264	120.38
442.486	119.38
442.707	132.38
442.928	122.38
443.149	120.38
443.371	127.38
443.592	111.38
443.813	107.38
444.034	115.38
444.255	135.38
444.476	128.38
444.698	128.38
444.919	145.38
445.14	246.38
445.361	188.38
445.582	123.38
445.803	113.38
446.024	116.38
446.245	111.38
446.466	113.38
446.687	122.38
446.908	119.38
447.129	117.38
447.35	122.38
447.571	115.38
447.792	127.38
448.013	114.38
448.234	105.38
448.455	117.38
448.675	107.38
448.896	109.38
449.117	99.38
449.338	123.38
449.559	112.38
449.779	123.38
450	115.38
450.221	108.38
450.442	111.38
450.662	128.38
450.883	117.38
451.104	115.38
451.324	132.38
451.545	123.38
451.766	107.38
451.986	117.38
452.207	106.38
452.428	105.38
452.648	111.38
452.869	107.38
453.089	109.38
453.31	111.38
453.53	119.38
453.751	96.38
453.971	99.38
454.192	100.38
454.412	101.38
454.633	101.38
454.853	109.38
455.073	111.38
455.294	123.38
455.514	115.38
455.734	120.38
455.955	109.38
456.175	107.38
456.395	101.38
456.616	117.38
456.836	121.38
457.056	100.38
457.276	85.38
457.497	110.38
457.717	95.38
457.937	100.38
458.157	102.38
458.377	91.38
458.598	95.38
458.818	100.38
459.038	97.38
459.258	115.38
459.478	100.38
459.698	99.38
459.918	106.38
460.138	112.38
460.358	111.38
460.578	130.38
460.798	113.38
461.018	111.38
461.238	119.38
461.458	105.38
461.678	114.38
461.898	120.38
462.118	116.38
462.338	111.38
462.558	129.38
462.777	126.38
462.997	124.38
463.217	134.38
463.437	123.38
463.657	120.38
463.876	115.38
464.096	118.38
464.316	131.38
464.536	117.38
464.755	113.38
464.975	116.38
465.195	128.38
465.414	121.38
465.634	110.38
465.854	113.38
466.073	113.38
466.293	117.38
466.512	119.38
466.732	106.38
466.951	117.38
467.171	112.38
467.391	114.38
467.61	125.38
467.829	115.38
468.049	121.38
468.268	116.38
468.488	118.38
468.707	110.38
468.927	105.38
469.146	117.38
469.365	109.38
469.585	129.38
469.804	129.38
470.023	125.38
470.243	123.38
470.462	110.38
470.681	137.38
470.901	123.38
471.12	125.38
471.339	113.38
471.558	122.38
471.777	129.38
471.997	119.38
472.216	129.38
472.435	115.38
472.654	115.38
472.873	103.38
473.092	119.38
473.311	122.38
473.53	112.38
473.749	120.38
473.968	105.38
474.187	99.38
474.406	117.38
474.625	129.38
474.844	129.38
475.063	127.38
475.282	118.38
475.501	108.38
475.72	110.38
475.939	107.38
476.158	111.38
476.377	117.38
476.596	120.38
476.814	109.38
477.033	116.38
477.252	108.38
477.471	95.38
477.69	127.38
477.908	123.38
478.127	129.38
478.346	122.38
478.564	129.38
478.783	121.38
479.002	126.38
479.22	128.38
479.439	118.38
479.658	123.38
479.876	117.38
480.095	115.38
480.313	123.38
480.532	131.38
480.751	109.38
480.969	117.38
481.188	114.38
481.406	109.38
481.624	104.38
481.843	105.38
482.061	101.38
482.28	108.38
482.498	109.38
482.717	95.38
482.935	119.38
483.153	121.38
483.372	133.38
483.59	130.38
483.808	144.38
484.027	128.38
484.245	123.38
484.463	119.38
484.681	128.38
484.9	111.38
485.118	122.38
485.336	120.38
485.554	127.38
485.772	113.38
485.99	125.38
486.209	120.38
486.427	120.38
486.645	128.38
486.863	130.38
487.081	129.38
487.299	127.38
487.517	137.38
487.735	124.38
487.953	158.38
488.171	155.38
488.389	138.38
488.607	130.38
488.825	121.38
489.043	127.38
489.261	134.38
489.479	115.38
489.696	127.38
489.914	125.38
490.132	136.38
490.35	139.38
490.568	137.38
490.786	151.38
491.003	159.38
491.221	157.38
491.439	147.38
491.657	154.38
491.874	162.38
492.092	182.38
492.31	183.38
492.527	168.38
492.745	147.38
492.963	155.38
493.18	147.38
493.398	160.38
493.615	139.38
493.833	151.38
494.05	139.38
494.268	153.38
494.485	142.38
494.703	147.38
494.92	153.38
495.138	148.38
495.355	151.38
495.573	155.38
495.79	147.38
496.008	148.38
496.225	148.38
496.442	146.38
496.66	128.38
496.877	150.38
497.094	146.38
497.312	136.38
497.529	139.38
497.746	137.38
497.963	148.38
498.181	148.38
498.398	136.38
498.615	131.38
498.832	138.38
499.049	147.38
499.267	162.38
499.484	148.38
499.701	167.38
499.918	177.38
500.135	179.38
500.352	214.38
500.569	218.38
500.786	221.38
501.003	196.38
501.22	217.38
501.437	167.38
501.654	179.38
501.871	157.38
502.088	156.38
502.305	143.38
502.522	138.38
502.739	146.38
502.956	143.38
503.172	152.38
503.389	133.38
503.606	138.38
503.823	140.38
504.04	126.38
504.256	127.38
504.473	139.38
504.69	147.38
504.907	149.38
505.123	139.38
505.34	128.38
505.557	134.38
505.773	120.38
505.99	123.38
506.207	130.38
506.423	122.38
506.64	124.38
506.856	122.38
507.073	124.38
507.289	107.38
507.506	125.38
507.722	124.38
507.939	135.38
508.155	135.38
508.372	111.38
508.588	119.38
508.805	129.38
509.021	123.38
509.238	115.38
509.454	103.38
509.67	105.38
509.887	112.38
510.103	103.38
510.319	104.38
510.536	107.38
510.752	109.38
510.968	121.38
511.184	120.38
511.401	110.38
511.617	113.38
