Data from StandardFe(NO3)3.TAE.3%Agarose.FlatLispGreen.Lamp.Energy10.07252019_HRD10591_11-56-29-442.txt Node
Date: Thu Jul 25 11:56:29 EDT 2019
User: cochatt
Spectrometer: HR+D1059
Trigger mode: 1
Integration Time (sec): 1.000000E-1
Scans to average: 1
Electric dark correction enabled: true
Nonlinearity correction enabled: false
Boxcar width: 0
XAxis mode: Wavelengths
Number of Pixels in Spectrum: 2048
>>>>>Begin Spectral Data<<<<<
223.165	-19.75
223.4	-19.75
223.635	-19.75
223.869	-29.75
224.104	-35.75
224.338	-17.75
224.573	-15.75
224.808	-7.75
225.042	-23.75
225.277	-5.75
225.511	-1.75
225.746	9.25
225.98	20.25
226.215	17.25
226.449	28.25
226.683	15.25
226.918	26.25
227.152	41.25
227.387	42.25
227.621	28.25
227.856	49.25
228.09	49.25
228.324	40.25
228.559	64.25
228.793	52.25
229.027	64.25
229.262	68.25
229.496	66.25
229.73	64.25
229.964	87.25
230.199	67.25
230.433	76.25
230.667	84.25
230.901	88.25
231.136	77.25
231.37	86.25
231.604	74.25
231.838	85.25
232.072	93.25
232.306	72.25
232.541	86.25
232.775	97.25
233.009	93.25
233.243	98.25
233.477	83.25
233.711	79.25
233.945	88.25
234.179	77.25
234.413	87.25
234.647	93.25
234.881	82.25
235.115	77.25
235.349	75.25
235.583	94.25
235.817	89.25
236.051	69.25
236.285	72.25
236.519	91.25
236.753	89.25
236.987	77.25
237.221	73.25
237.455	73.25
237.689	77.25
237.922	90.25
238.156	89.25
238.39	89.25
238.624	82.25
238.858	86.25
239.091	78.25
239.325	78.25
239.559	86.25
239.793	76.25
240.027	78.25
240.26	67.25
240.494	78.25
240.728	80.25
240.961	75.25
241.195	80.25
241.429	84.25
241.662	64.25
241.896	74.25
242.13	65.25
242.363	76.25
242.597	79.25
242.83	88.25
243.064	76.25
243.298	79.25
243.531	85.25
243.765	69.25
243.998	72.25
244.232	80.25
244.465	76.25
244.699	71.25
244.932	82.25
245.166	77.25
245.399	78.25
245.633	82.25
245.866	78.25
246.099	82.25
246.333	90.25
246.566	80.25
246.8	79.25
247.033	83.25
247.266	82.25
247.5	73.25
247.733	76.25
247.966	88.25
248.2	74.25
248.433	89.25
248.666	77.25
248.899	75.25
249.133	70.25
249.366	83.25
249.599	81.25
249.832	76.25
250.066	80.25
250.299	81.25
250.532	71.25
250.765	83.25
250.998	89.25
251.231	82.25
251.465	74.25
251.698	79.25
251.931	82.25
252.164	77.25
252.397	72.25
252.63	81.25
252.863	74.25
253.096	85.25
253.329	88.25
253.562	69.25
253.795	83.25
254.028	78.25
254.261	76.25
254.494	87.25
254.727	85.25
254.96	77.25
255.193	68.25
255.426	71.25
255.659	83.25
255.892	88.25
256.124	74.25
256.357	85.25
256.59	68.25
256.823	89.25
257.056	81.25
257.289	78.25
257.521	101.25
257.754	90.25
257.987	97.25
258.22	86.25
258.452	78.25
258.685	73.25
258.918	80.25
259.151	79.25
259.383	92.25
259.616	90.25
259.849	70.25
260.081	95.25
260.314	86.25
260.547	78.25
260.779	75.25
261.012	82.25
261.244	78.25
261.477	89.25
261.71	82.25
261.942	87.25
262.175	72.25
262.407	87.25
262.64	86.25
262.872	88.25
263.105	83.25
263.337	80.25
263.57	81.25
263.802	96.25
264.035	85.25
264.267	68.25
264.499	76.25
264.732	77.25
264.964	87.25
265.197	75.25
265.429	75.25
265.661	80.25
265.894	86.25
266.126	94.25
266.358	77.25
266.591	80.25
266.823	84.25
267.055	74.25
267.287	92.25
267.52	85.25
267.752	84.25
267.984	89.25
268.216	92.25
268.448	79.25
268.681	67.25
268.913	77.25
269.145	86.25
269.377	83.25
269.609	88.25
269.841	84.25
270.073	81.25
270.306	78.25
270.538	73.25
270.77	76.25
271.002	89.25
271.234	82.25
271.466	100.25
271.698	89.25
271.93	86.25
272.162	78.25
272.394	78.25
272.626	64.25
272.858	91.25
273.09	84.25
273.322	89.25
273.553	93.25
273.785	95.25
274.017	77.25
274.249	79.25
274.481	92.25
274.713	84.25
274.945	75.25
275.176	75.25
275.408	84.25
275.64	87.25
275.872	77.25
276.104	93.25
276.335	81.25
276.567	85.25
276.799	79.25
277.031	87.25
277.262	78.25
277.494	83.25
277.726	97.25
277.957	81.25
278.189	77.25
278.421	76.25
278.652	91.25
278.884	94.25
279.115	91.25
279.347	88.25
279.579	76.25
279.81	82.25
280.042	85.25
280.273	89.25
280.505	82.25
280.736	81.25
280.968	72.25
281.199	78.25
281.431	94.25
281.662	84.25
281.894	95.25
282.125	83.25
282.356	88.25
282.588	74.25
282.819	87.25
283.051	81.25
283.282	74.25
283.513	89.25
283.745	83.25
283.976	70.25
284.207	74.25
284.439	90.25
284.67	81.25
284.901	91.25
285.132	81.25
285.364	87.25
285.595	85.25
285.826	87.25
286.057	76.25
286.288	88.25
286.52	84.25
286.751	74.25
286.982	84.25
287.213	79.25
287.444	86.25
287.675	82.25
287.906	97.25
288.138	87.25
288.369	83.25
288.6	89.25
288.831	82.25
289.062	95.25
289.293	75.25
289.524	86.25
289.755	74.25
289.986	87.25
290.217	96.25
290.448	86.25
290.679	86.25
290.91	89.25
291.141	85.25
291.371	102.25
291.602	92.25
291.833	107.25
292.064	88.25
292.295	84.25
292.526	88.25
292.757	71.25
292.987	76.25
293.218	87.25
293.449	76.25
293.68	89.25
293.91	84.25
294.141	76.25
294.372	86.25
294.603	90.25
294.833	76.25
295.064	55.25
295.295	75.25
295.525	88.25
295.756	75.25
295.987	88.25
296.217	88.25
296.448	85.25
296.679	84.25
296.909	99.25
297.14	89.25
297.37	92.25
297.601	77.25
297.831	79.25
298.062	76.25
298.292	85.25
298.523	87.25
298.753	91.25
298.984	90.25
299.214	76.25
299.445	89.25
299.675	104.25
299.905	98.25
300.136	90.25
300.366	96.25
300.597	99.25
300.827	84.25
301.057	86.25
301.288	76.25
301.518	100.25
301.748	77.25
301.979	80.25
302.209	90.25
302.439	95.25
302.669	95.25
302.9	88.25
303.13	80.25
303.36	83.25
303.59	95.25
303.82	84.25
304.051	85.25
304.281	84.25
304.511	86.25
304.741	85.25
304.971	86.25
305.201	91.25
305.431	90.25
305.661	90.25
305.891	72.25
306.121	77.25
306.352	89.25
306.582	88.25
306.812	83.25
307.042	91.25
307.272	92.25
307.502	76.25
307.731	89.25
307.961	93.25
308.191	77.25
308.421	90.25
308.651	86.25
308.881	79.25
309.111	85.25
309.341	91.25
309.571	81.25
309.8	88.25
310.03	69.25
310.26	76.25
310.49	103.25
310.72	92.25
310.949	77.25
311.179	82.25
311.409	81.25
311.639	74.25
311.868	84.25
312.098	98.25
312.328	93.25
312.557	91.25
312.787	88.25
313.017	87.25
313.246	78.25
313.476	90.25
313.706	84.25
313.935	94.25
314.165	83.25
314.394	89.25
314.624	91.25
314.853	87.25
315.083	93.25
315.312	98.25
315.542	83.25
315.771	69.25
316.001	81.25
316.23	70.25
316.46	93.25
316.689	76.25
316.919	100.25
317.148	86.25
317.377	95.25
317.607	84.25
317.836	87.25
318.065	90.25
318.295	76.25
318.524	82.25
318.753	83.25
318.983	82.25
319.212	88.25
319.441	95.25
319.67	88.25
319.9	77.25
320.129	95.25
320.358	85.25
320.587	76.25
320.816	73.25
321.046	67.25
321.275	69.25
321.504	78.25
321.733	85.25
321.962	81.25
322.191	91.25
322.42	87.25
322.649	86.25
322.878	85.25
323.108	98.25
323.337	88.25
323.566	82.25
323.795	80.25
324.024	86.25
324.253	91.25
324.482	82.25
324.71	94.25
324.939	90.25
325.168	85.25
325.397	100.25
325.626	73.25
325.855	88.25
326.084	91.25
326.313	109.25
326.542	96.25
326.77	90.25
326.999	72.25
327.228	82.25
327.457	89.25
327.686	74.25
327.914	86.25
328.143	93.25
328.372	92.25
328.6	89.25
328.829	92.25
329.058	80.25
329.287	76.25
329.515	92.25
329.744	83.25
329.972	81.25
330.201	86.25
330.43	91.25
330.658	81.25
330.887	89.25
331.115	85.25
331.344	92.25
331.572	97.25
331.801	87.25
332.03	80.25
332.258	93.25
332.486	101.25
332.715	103.25
332.943	93.25
333.172	76.25
333.4	81.25
333.629	86.25
333.857	89.25
334.085	84.25
334.314	80.25
334.542	86.25
334.771	91.25
334.999	76.25
335.227	92.25
335.455	81.25
335.684	89.25
335.912	87.25
336.14	95.25
336.369	98.25
336.597	83.25
336.825	86.25
337.053	91.25
337.281	84.25
337.51	82.25
337.738	90.25
337.966	74.25
338.194	97.25
338.422	71.25
338.65	93.25
338.878	89.25
339.106	72.25
339.334	88.25
339.562	101.25
339.79	79.25
340.018	88.25
340.246	85.25
340.474	77.25
340.702	75.25
340.93	89.25
341.158	90.25
341.386	84.25
341.614	85.25
341.842	83.25
342.07	78.25
342.298	66.25
342.526	77.25
342.754	95.25
342.981	89.25
343.209	72.25
343.437	83.25
343.665	89.25
343.893	79.25
344.12	91.25
344.348	72.25
344.576	80.25
344.804	91.25
345.031	78.25
345.259	82.25
345.487	90.25
345.714	83.25
345.942	79.25
346.17	89.25
346.397	100.25
346.625	78.25
346.853	78.25
347.08	82.25
347.308	78.25
347.535	84.25
347.763	77.25
347.99	79.25
348.218	92.25
348.445	88.25
348.673	82.25
348.9	91.25
349.128	96.25
349.355	90.25
349.583	94.25
349.81	81.25
350.037	78.25
350.265	80.25
350.492	76.25
350.72	84.25
350.947	92.25
351.174	82.25
351.402	82.25
351.629	89.25
351.856	85.25
352.083	97.25
352.311	83.25
352.538	89.25
352.765	83.25
352.992	91.25
353.22	90.25
353.447	87.25
353.674	90.25
353.901	102.25
354.128	86.25
354.355	83.25
354.583	86.25
354.81	97.25
355.037	96.25
355.264	81.25
355.491	93.25
355.718	83.25
355.945	89.25
356.172	88.25
356.399	82.25
356.626	81.25
356.853	77.25
357.08	86.25
357.307	91.25
357.534	100.25
357.761	94.25
357.988	88.25
358.215	84.25
358.441	78.25
358.668	88.25
358.895	87.25
359.122	73.25
359.349	78.25
359.576	72.25
359.802	82.25
360.029	77.25
360.256	78.25
360.483	74.25
360.709	81.25
360.936	86.25
361.163	90.25
361.39	73.25
361.616	90.25
361.843	82.25
362.07	89.25
362.296	86.25
362.523	75.25
362.749	89.25
362.976	89.25
363.203	88.25
363.429	86.25
363.656	93.25
363.882	92.25
364.109	85.25
364.335	68.25
364.562	78.25
364.788	81.25
365.015	85.25
365.241	87.25
365.468	85.25
365.694	86.25
365.92	88.25
366.147	91.25
366.373	92.25
366.599	74.25
366.826	91.25
367.052	90.25
367.278	88.25
367.505	74.25
367.731	91.25
367.957	90.25
368.184	90.25
368.41	77.25
368.636	100.25
368.862	100.25
369.089	88.25
369.315	86.25
369.541	87.25
369.767	79.25
369.993	90.25
370.219	81.25
370.445	90.25
370.672	93.25
370.898	87.25
371.124	87.25
371.35	78.25
371.576	81.25
371.802	77.25
372.028	81.25
372.254	83.25
372.48	89.25
372.706	88.25
372.932	82.25
373.158	87.25
373.384	85.25
373.61	85.25
373.835	86.25
374.061	85.25
374.287	88.25
374.513	98.25
374.739	77.25
374.965	74.25
375.191	94.25
375.416	100.25
375.642	88.25
375.868	103.25
376.094	85.25
376.319	89.25
376.545	97.25
376.771	78.25
376.997	99.25
377.222	94.25
377.448	97.25
377.674	99.25
377.899	85.25
378.125	75.25
378.35	81.25
378.576	86.25
378.802	90.25
379.027	103.25
379.253	90.25
379.478	96.25
379.704	88.25
379.929	88.25
380.155	92.25
380.38	82.25
380.606	85.25
380.831	89.25
381.057	100.25
381.282	94.25
381.507	100.25
381.733	91.25
381.958	93.25
382.184	99.25
382.409	87.25
382.634	93.25
382.86	96.25
383.085	86.25
383.31	82.25
383.535	96.25
383.761	105.25
383.986	90.25
384.211	101.25
384.436	92.25
384.662	90.25
384.887	85.25
385.112	91.25
385.337	74.25
385.562	88.25
385.787	80.25
386.013	105.25
386.238	91.25
386.463	81.25
386.688	87.25
386.913	89.25
387.138	92.25
387.363	97.25
387.588	84.25
387.813	95.25
388.038	97.25
388.263	99.25
388.488	96.25
388.713	100.25
388.938	94.25
389.163	86.25
389.387	99.25
389.612	97.25
389.837	86.25
390.062	99.25
390.287	100.25
390.512	89.25
390.736	87.25
390.961	92.25
391.186	86.25
391.411	103.25
391.636	87.25
391.86	88.25
392.085	78.25
392.31	91.25
392.534	90.25
392.759	86.25
392.984	90.25
393.208	96.25
393.433	97.25
393.658	104.25
393.882	90.25
394.107	92.25
394.331	105.25
394.556	91.25
394.78	86.25
395.005	105.25
395.229	101.25
395.454	94.25
395.678	103.25
395.903	88.25
396.127	100.25
396.352	96.25
396.576	98.25
396.801	97.25
397.025	104.25
397.249	107.25
397.474	106.25
397.698	99.25
397.922	105.25
398.147	105.25
398.371	99.25
398.595	103.25
398.82	95.25
399.044	101.25
399.268	107.25
399.492	97.25
399.717	114.25
399.941	113.25
400.165	105.25
400.389	118.25
400.613	110.25
400.837	112.25
401.062	96.25
401.286	102.25
401.51	119.25
401.734	110.25
401.958	96.25
402.182	88.25
402.406	106.25
402.63	105.25
402.854	94.25
403.078	118.25
403.302	104.25
403.526	107.25
403.75	95.25
403.974	88.25
404.198	102.25
404.422	105.25
404.645	96.25
404.869	100.25
405.093	95.25
405.317	88.25
405.541	102.25
405.765	114.25
405.988	101.25
406.212	110.25
406.436	108.25
406.66	110.25
406.883	111.25
407.107	112.25
407.331	110.25
407.555	115.25
407.778	116.25
408.002	109.25
408.226	112.25
408.449	108.25
408.673	114.25
408.896	109.25
409.12	99.25
409.344	100.25
409.567	112.25
409.791	97.25
410.014	103.25
410.238	113.25
410.461	116.25
410.685	114.25
410.908	107.25
411.132	117.25
411.355	112.25
411.578	107.25
411.802	104.25
412.025	91.25
412.249	120.25
412.472	95.25
412.695	102.25
412.919	104.25
413.142	109.25
413.365	109.25
413.589	103.25
413.812	108.25
414.035	108.25
414.258	87.25
414.482	96.25
414.705	93.25
414.928	118.25
415.151	107.25
415.374	114.25
415.597	99.25
415.821	107.25
416.044	117.25
416.267	110.25
416.49	109.25
416.713	123.25
416.936	122.25
417.159	113.25
417.382	123.25
417.605	102.25
417.828	118.25
418.051	116.25
418.274	94.25
418.497	109.25
418.72	120.25
418.943	100.25
419.166	122.25
419.389	133.25
419.611	118.25
419.834	114.25
420.057	120.25
420.28	102.25
420.503	115.25
420.726	90.25
420.948	104.25
421.171	107.25
421.394	113.25
421.617	108.25
421.839	125.25
422.062	107.25
422.285	109.25
422.507	112.25
422.73	120.25
422.953	104.25
423.175	102.25
423.398	110.25
423.621	106.25
423.843	111.25
424.066	121.25
424.288	115.25
424.511	130.25
424.733	115.25
424.956	115.25
425.178	119.25
425.401	124.25
425.623	125.25
425.846	120.25
426.068	107.25
426.291	122.25
426.513	118.25
426.735	113.25
426.958	108.25
427.18	122.25
427.402	111.25
427.625	112.25
427.847	106.25
428.069	116.25
428.292	96.25
428.514	105.25
428.736	102.25
428.958	125.25
429.181	125.25
429.403	111.25
429.625	117.25
429.847	99.25
430.069	132.25
430.292	123.25
430.514	109.25
430.736	107.25
430.958	118.25
431.18	109.25
431.402	100.25
431.624	108.25
431.846	96.25
432.068	111.25
432.29	108.25
432.512	99.25
432.734	113.25
432.956	112.25
433.178	100.25
433.4	98.25
433.622	111.25
433.844	109.25
434.066	124.25
434.287	108.25
434.509	115.25
434.731	101.25
434.953	116.25
435.175	96.25
435.397	98.25
435.618	98.25
435.84	112.25
436.062	121.25
436.284	120.25
436.505	98.25
436.727	101.25
436.949	121.25
437.17	107.25
437.392	121.25
437.614	112.25
437.835	106.25
438.057	109.25
438.278	113.25
438.5	94.25
438.721	112.25
438.943	119.25
439.165	133.25
439.386	110.25
439.608	99.25
439.829	116.25
440.05	102.25
440.272	107.25
440.493	105.25
440.715	108.25
440.936	118.25
441.158	133.25
441.379	128.25
441.6	114.25
441.822	114.25
442.043	109.25
442.264	125.25
442.486	107.25
442.707	118.25
442.928	110.25
443.149	124.25
443.371	118.25
443.592	115.25
443.813	120.25
444.034	118.25
444.255	118.25
444.476	117.25
444.698	115.25
444.919	126.25
445.14	256.25
445.361	172.25
445.582	104.25
445.803	119.25
446.024	118.25
446.245	121.25
446.466	108.25
446.687	109.25
446.908	120.25
447.129	124.25
447.35	119.25
447.571	108.25
447.792	94.25
448.013	118.25
448.234	112.25
448.455	102.25
448.675	106.25
448.896	102.25
449.117	108.25
449.338	100.25
449.559	97.25
449.779	104.25
450	110.25
450.221	101.25
450.442	103.25
450.662	98.25
450.883	114.25
451.104	116.25
451.324	122.25
451.545	104.25
451.766	118.25
451.986	128.25
452.207	108.25
452.428	102.25
452.648	117.25
452.869	119.25
453.089	98.25
453.31	108.25
453.53	93.25
453.751	119.25
453.971	92.25
454.192	107.25
454.412	89.25
454.633	82.25
454.853	98.25
455.073	99.25
455.294	102.25
455.514	118.25
455.734	101.25
455.955	122.25
456.175	113.25
456.395	118.25
456.616	122.25
456.836	102.25
457.056	104.25
457.276	104.25
457.497	102.25
457.717	94.25
457.937	101.25
458.157	100.25
458.377	86.25
458.598	105.25
458.818	96.25
459.038	112.25
459.258	104.25
459.478	107.25
459.698	97.25
459.918	107.25
460.138	102.25
460.358	98.25
460.578	108.25
460.798	114.25
461.018	113.25
461.238	108.25
461.458	104.25
461.678	100.25
461.898	104.25
462.118	116.25
462.338	120.25
462.558	130.25
462.777	124.25
462.997	119.25
463.217	128.25
463.437	132.25
463.657	114.25
463.876	116.25
464.096	120.25
464.316	130.25
464.536	113.25
464.755	125.25
464.975	122.25
465.195	115.25
465.414	117.25
465.634	126.25
465.854	105.25
466.073	102.25
466.293	130.25
466.512	104.25
466.732	114.25
466.951	120.25
467.171	115.25
467.391	123.25
467.61	107.25
467.829	116.25
468.049	119.25
468.268	124.25
468.488	109.25
468.707	102.25
468.927	118.25
469.146	96.25
469.365	123.25
469.585	118.25
469.804	119.25
470.023	110.25
470.243	110.25
470.462	114.25
470.681	102.25
470.901	122.25
471.12	125.25
471.339	136.25
471.558	110.25
471.777	120.25
471.997	113.25
472.216	110.25
472.435	112.25
472.654	109.25
472.873	120.25
473.092	112.25
473.311	121.25
473.53	104.25
473.749	110.25
473.968	119.25
474.187	109.25
474.406	104.25
474.625	112.25
474.844	109.25
475.063	100.25
475.282	117.25
475.501	116.25
475.72	118.25
475.939	108.25
476.158	118.25
476.377	120.25
476.596	107.25
476.814	136.25
477.033	113.25
477.252	109.25
477.471	120.25
477.69	110.25
477.908	128.25
478.127	123.25
478.346	130.25
478.564	114.25
478.783	124.25
479.002	133.25
479.22	128.25
479.439	138.25
479.658	109.25
479.876	120.25
480.095	126.25
480.313	112.25
480.532	117.25
480.751	113.25
480.969	115.25
481.188	110.25
481.406	122.25
481.624	109.25
481.843	122.25
482.061	102.25
482.28	126.25
482.498	120.25
482.717	110.25
482.935	116.25
483.153	135.25
483.372	133.25
483.59	122.25
483.808	126.25
484.027	136.25
484.245	117.25
484.463	126.25
484.681	133.25
484.9	136.25
485.118	113.25
485.336	135.25
485.554	129.25
485.772	117.25
485.99	124.25
486.209	115.25
486.427	118.25
486.645	121.25
486.863	133.25
487.081	127.25
487.299	134.25
487.517	134.25
487.735	131.25
487.953	140.25
488.171	152.25
488.389	136.25
488.607	136.25
488.825	126.25
489.043	127.25
489.261	134.25
489.479	120.25
489.696	120.25
489.914	136.25
490.132	130.25
490.35	139.25
490.568	131.25
490.786	136.25
491.003	144.25
491.221	130.25
491.439	137.25
491.657	132.25
491.874	134.25
492.092	150.25
492.31	164.25
492.527	159.25
492.745	161.25
492.963	154.25
493.18	160.25
493.398	150.25
493.615	157.25
493.833	147.25
494.05	140.25
494.268	162.25
494.485	154.25
494.703	147.25
494.92	141.25
495.138	163.25
495.355	147.25
495.573	138.25
495.79	138.25
496.008	144.25
496.225	153.25
496.442	142.25
496.66	139.25
496.877	126.25
497.094	145.25
497.312	150.25
497.529	150.25
497.746	134.25
497.963	148.25
498.181	153.25
498.398	148.25
498.615	140.25
498.832	131.25
499.049	151.25
499.267	138.25
499.484	141.25
499.701	166.25
499.918	180.25
500.135	192.25
500.352	190.25
500.569	196.25
500.786	204.25
501.003	214.25
501.22	181.25
501.437	171.25
501.654	173.25
501.871	163.25
502.088	133.25
502.305	146.25
502.522	128.25
502.739	143.25
502.956	140.25
503.172	141.25
503.389	136.25
503.606	134.25
503.823	131.25
504.04	133.25
504.256	144.25
504.473	128.25
504.69	138.25
504.907	142.25
505.123	137.25
505.34	121.25
505.557	125.25
505.773	133.25
505.99	116.25
506.207	118.25
506.423	121.25
506.64	120.25
506.856	109.25
507.073	132.25
507.289	130.25
507.506	125.25
507.722	117.25
507.939	120.25
508.155	146.25
508.372	133.25
508.588	132.25
508.805	120.25
509.021	112.25
509.238	122.25
509.454	111.25
509.67	109.25
509.887	122.25
510.103	124.25
510.319	112.25
510.536	107.25
510.752	115.25
510.968	121.25
511.184	123.25
511.401	110.25
511.617	130.25
511.833	106.25
