Data from StandardFe(NO3)3.TAE.3%Agarose.FlatLispGreen.Lamp.Energy10.07252019_HRD10591_11-55-43-442.txt Node
Date: Thu Jul 25 11:55:43 EDT 2019
User: cochatt
Spectrometer: HR+D1059
Trigger mode: 1
Integration Time (sec): 1.000000E-1
Scans to average: 1
Electric dark correction enabled: true
Nonlinearity correction enabled: false
Boxcar width: 0
XAxis mode: Wavelengths
Number of Pixels in Spectrum: 2048
>>>>>Begin Spectral Data<<<<<
223.165	-6.75
223.4	-6.75
223.635	-6.75
223.869	-23.75
224.104	-15.75
224.338	-20.75
224.573	-11.75
224.808	-17.75
225.042	-5.75
225.277	-2.75
225.511	-3.75
225.746	-9.75
225.98	-2.75
226.215	24.25
226.449	14.25
226.683	31.25
226.918	23.25
227.152	28.25
227.387	31.25
227.621	34.25
227.856	47.25
228.09	40.25
228.324	50.25
228.559	57.25
228.793	41.25
229.027	56.25
229.262	56.25
229.496	62.25
229.73	67.25
229.964	72.25
230.199	60.25
230.433	65.25
230.667	87.25
230.901	68.25
231.136	79.25
231.37	85.25
231.604	69.25
231.838	79.25
232.072	65.25
232.306	79.25
232.541	81.25
232.775	73.25
233.009	82.25
233.243	73.25
233.477	91.25
233.711	64.25
233.945	85.25
234.179	86.25
234.413	82.25
234.647	75.25
234.881	75.25
235.115	77.25
235.349	62.25
235.583	79.25
235.817	66.25
236.051	72.25
236.285	73.25
236.519	71.25
236.753	81.25
236.987	78.25
237.221	68.25
237.455	70.25
237.689	66.25
237.922	67.25
238.156	67.25
238.39	79.25
238.624	78.25
238.858	74.25
239.091	75.25
239.325	65.25
239.559	64.25
239.793	79.25
240.027	84.25
240.26	84.25
240.494	78.25
240.728	83.25
240.961	90.25
241.195	81.25
241.429	66.25
241.662	83.25
241.896	87.25
242.13	64.25
242.363	82.25
242.597	66.25
242.83	69.25
243.064	67.25
243.298	97.25
243.531	83.25
243.765	78.25
243.998	65.25
244.232	82.25
244.465	72.25
244.699	79.25
244.932	87.25
245.166	70.25
245.399	71.25
245.633	73.25
245.866	90.25
246.099	80.25
246.333	69.25
246.566	60.25
246.8	69.25
247.033	81.25
247.266	59.25
247.5	88.25
247.733	65.25
247.966	80.25
248.2	75.25
248.433	72.25
248.666	80.25
248.899	78.25
249.133	81.25
249.366	89.25
249.599	83.25
249.832	82.25
250.066	85.25
250.299	83.25
250.532	83.25
250.765	69.25
250.998	67.25
251.231	72.25
251.465	88.25
251.698	64.25
251.931	70.25
252.164	76.25
252.397	78.25
252.63	80.25
252.863	87.25
253.096	80.25
253.329	63.25
253.562	80.25
253.795	75.25
254.028	83.25
254.261	67.25
254.494	78.25
254.727	64.25
254.96	68.25
255.193	68.25
255.426	80.25
255.659	72.25
255.892	85.25
256.124	88.25
256.357	82.25
256.59	84.25
256.823	81.25
257.056	73.25
257.289	86.25
257.521	60.25
257.754	74.25
257.987	88.25
258.22	80.25
258.452	75.25
258.685	76.25
258.918	75.25
259.151	85.25
259.383	81.25
259.616	80.25
259.849	81.25
260.081	66.25
260.314	82.25
260.547	71.25
260.779	61.25
261.012	75.25
261.244	87.25
261.477	89.25
261.71	80.25
261.942	74.25
262.175	75.25
262.407	78.25
262.64	100.25
262.872	86.25
263.105	76.25
263.337	68.25
263.57	71.25
263.802	81.25
264.035	72.25
264.267	72.25
264.499	86.25
264.732	82.25
264.964	81.25
265.197	70.25
265.429	71.25
265.661	72.25
265.894	79.25
266.126	68.25
266.358	92.25
266.591	79.25
266.823	79.25
267.055	88.25
267.287	74.25
267.52	74.25
267.752	84.25
267.984	79.25
268.216	73.25
268.448	74.25
268.681	84.25
268.913	77.25
269.145	88.25
269.377	81.25
269.609	78.25
269.841	78.25
270.073	70.25
270.306	87.25
270.538	85.25
270.77	79.25
271.002	78.25
271.234	88.25
271.466	71.25
271.698	78.25
271.93	78.25
272.162	93.25
272.394	81.25
272.626	69.25
272.858	88.25
273.09	93.25
273.322	71.25
273.553	81.25
273.785	84.25
274.017	94.25
274.249	85.25
274.481	81.25
274.713	85.25
274.945	80.25
275.176	64.25
275.408	82.25
275.64	80.25
275.872	68.25
276.104	83.25
276.335	78.25
276.567	84.25
276.799	91.25
277.031	78.25
277.262	84.25
277.494	71.25
277.726	81.25
277.957	83.25
278.189	62.25
278.421	74.25
278.652	76.25
278.884	97.25
279.115	77.25
279.347	77.25
279.579	77.25
279.81	73.25
280.042	80.25
280.273	69.25
280.505	72.25
280.736	96.25
280.968	96.25
281.199	83.25
281.431	92.25
281.662	93.25
281.894	78.25
282.125	86.25
282.356	78.25
282.588	90.25
282.819	64.25
283.051	89.25
283.282	72.25
283.513	78.25
283.745	85.25
283.976	78.25
284.207	81.25
284.439	81.25
284.67	79.25
284.901	74.25
285.132	85.25
285.364	76.25
285.595	82.25
285.826	74.25
286.057	85.25
286.288	62.25
286.52	79.25
286.751	82.25
286.982	85.25
287.213	78.25
287.444	94.25
287.675	83.25
287.906	88.25
288.138	85.25
288.369	89.25
288.6	89.25
288.831	87.25
289.062	85.25
289.293	78.25
289.524	80.25
289.755	82.25
289.986	90.25
290.217	73.25
290.448	65.25
290.679	84.25
290.91	70.25
291.141	98.25
291.371	78.25
291.602	85.25
291.833	74.25
292.064	84.25
292.295	86.25
292.526	71.25
292.757	87.25
292.987	97.25
293.218	86.25
293.449	73.25
293.68	74.25
293.91	94.25
294.141	79.25
294.372	82.25
294.603	88.25
294.833	79.25
295.064	76.25
295.295	82.25
295.525	71.25
295.756	72.25
295.987	84.25
296.217	76.25
296.448	81.25
296.679	73.25
296.909	84.25
297.14	81.25
297.37	82.25
297.601	92.25
297.831	92.25
298.062	81.25
298.292	88.25
298.523	79.25
298.753	82.25
298.984	85.25
299.214	70.25
299.445	82.25
299.675	77.25
299.905	88.25
300.136	77.25
300.366	78.25
300.597	72.25
300.827	81.25
301.057	81.25
301.288	93.25
301.518	67.25
301.748	88.25
301.979	89.25
302.209	87.25
302.439	75.25
302.669	76.25
302.9	68.25
303.13	76.25
303.36	72.25
303.59	80.25
303.82	80.25
304.051	83.25
304.281	74.25
304.511	102.25
304.741	80.25
304.971	77.25
305.201	66.25
305.431	88.25
305.661	92.25
305.891	88.25
306.121	90.25
306.352	84.25
306.582	92.25
306.812	80.25
307.042	73.25
307.272	90.25
307.502	74.25
307.731	70.25
307.961	76.25
308.191	84.25
308.421	67.25
308.651	70.25
308.881	84.25
309.111	78.25
309.341	93.25
309.571	74.25
309.8	78.25
310.03	82.25
310.26	81.25
310.49	63.25
310.72	69.25
310.949	80.25
311.179	76.25
311.409	77.25
311.639	89.25
311.868	88.25
312.098	87.25
312.328	74.25
312.557	75.25
312.787	92.25
313.017	85.25
313.246	81.25
313.476	91.25
313.706	86.25
313.935	86.25
314.165	84.25
314.394	79.25
314.624	92.25
314.853	78.25
315.083	88.25
315.312	87.25
315.542	73.25
315.771	77.25
316.001	92.25
316.23	86.25
316.46	86.25
316.689	96.25
316.919	67.25
317.148	87.25
317.377	85.25
317.607	80.25
317.836	76.25
318.065	71.25
318.295	80.25
318.524	69.25
318.753	88.25
318.983	86.25
319.212	83.25
319.441	94.25
319.67	86.25
319.9	86.25
320.129	81.25
320.358	84.25
320.587	79.25
320.816	84.25
321.046	78.25
321.275	83.25
321.504	74.25
321.733	84.25
321.962	85.25
322.191	90.25
322.42	76.25
322.649	74.25
322.878	86.25
323.108	82.25
323.337	81.25
323.566	79.25
323.795	83.25
324.024	88.25
324.253	81.25
324.482	96.25
324.71	81.25
324.939	77.25
325.168	88.25
325.397	89.25
325.626	71.25
325.855	89.25
326.084	93.25
326.313	92.25
326.542	75.25
326.77	87.25
326.999	80.25
327.228	86.25
327.457	80.25
327.686	85.25
327.914	81.25
328.143	79.25
328.372	86.25
328.6	89.25
328.829	77.25
329.058	71.25
329.287	81.25
329.515	76.25
329.744	71.25
329.972	77.25
330.201	75.25
330.43	89.25
330.658	79.25
330.887	94.25
331.115	88.25
331.344	78.25
331.572	81.25
331.801	77.25
332.03	75.25
332.258	65.25
332.486	82.25
332.715	86.25
332.943	91.25
333.172	88.25
333.4	73.25
333.629	81.25
333.857	101.25
334.085	79.25
334.314	78.25
334.542	96.25
334.771	74.25
334.999	78.25
335.227	91.25
335.455	82.25
335.684	93.25
335.912	94.25
336.14	77.25
336.369	84.25
336.597	75.25
336.825	78.25
337.053	74.25
337.281	76.25
337.51	71.25
337.738	83.25
337.966	71.25
338.194	86.25
338.422	87.25
338.65	78.25
338.878	71.25
339.106	71.25
339.334	77.25
339.562	65.25
339.79	86.25
340.018	84.25
340.246	85.25
340.474	92.25
340.702	93.25
340.93	77.25
341.158	76.25
341.386	81.25
341.614	92.25
341.842	75.25
342.07	82.25
342.298	95.25
342.526	77.25
342.754	84.25
342.981	83.25
343.209	65.25
343.437	80.25
343.665	70.25
343.893	84.25
344.12	98.25
344.348	74.25
344.576	73.25
344.804	64.25
345.031	89.25
345.259	74.25
345.487	88.25
345.714	77.25
345.942	71.25
346.17	79.25
346.397	84.25
346.625	85.25
346.853	85.25
347.08	90.25
347.308	60.25
347.535	77.25
347.763	81.25
347.99	88.25
348.218	84.25
348.445	81.25
348.673	88.25
348.9	83.25
349.128	74.25
349.355	76.25
349.583	91.25
349.81	94.25
350.037	72.25
350.265	87.25
350.492	84.25
350.72	78.25
350.947	74.25
351.174	71.25
351.402	70.25
351.629	79.25
351.856	73.25
352.083	78.25
352.311	77.25
352.538	81.25
352.765	80.25
352.992	75.25
353.22	82.25
353.447	85.25
353.674	90.25
353.901	86.25
354.128	87.25
354.355	77.25
354.583	71.25
354.81	79.25
355.037	80.25
355.264	90.25
355.491	71.25
355.718	80.25
355.945	90.25
356.172	73.25
356.399	79.25
356.626	72.25
356.853	84.25
357.08	79.25
357.307	79.25
357.534	87.25
357.761	77.25
357.988	87.25
358.215	72.25
358.441	73.25
358.668	82.25
358.895	83.25
359.122	84.25
359.349	88.25
359.576	75.25
359.802	78.25
360.029	88.25
360.256	73.25
360.483	80.25
360.709	93.25
360.936	86.25
361.163	78.25
361.39	79.25
361.616	64.25
361.843	79.25
362.07	85.25
362.296	77.25
362.523	70.25
362.749	87.25
362.976	93.25
363.203	73.25
363.429	66.25
363.656	72.25
363.882	74.25
364.109	84.25
364.335	89.25
364.562	78.25
364.788	86.25
365.015	83.25
365.241	70.25
365.468	98.25
365.694	81.25
365.92	75.25
366.147	83.25
366.373	77.25
366.599	86.25
366.826	76.25
367.052	80.25
367.278	77.25
367.505	96.25
367.731	85.25
367.957	86.25
368.184	84.25
368.41	81.25
368.636	73.25
368.862	93.25
369.089	78.25
369.315	94.25
369.541	91.25
369.767	75.25
369.993	89.25
370.219	81.25
370.445	83.25
370.672	79.25
370.898	79.25
371.124	73.25
371.35	83.25
371.576	79.25
371.802	90.25
372.028	82.25
372.254	83.25
372.48	79.25
372.706	81.25
372.932	92.25
373.158	83.25
373.384	79.25
373.61	90.25
373.835	82.25
374.061	62.25
374.287	96.25
374.513	75.25
374.739	71.25
374.965	72.25
375.191	85.25
375.416	73.25
375.642	89.25
375.868	88.25
376.094	91.25
376.319	99.25
376.545	87.25
376.771	87.25
376.997	74.25
377.222	87.25
377.448	84.25
377.674	71.25
377.899	89.25
378.125	81.25
378.35	102.25
378.576	82.25
378.802	91.25
379.027	84.25
379.253	91.25
379.478	80.25
379.704	86.25
379.929	94.25
380.155	88.25
380.38	94.25
380.606	84.25
380.831	95.25
381.057	100.25
381.282	64.25
381.507	80.25
381.733	86.25
381.958	73.25
382.184	88.25
382.409	103.25
382.634	77.25
382.86	75.25
383.085	100.25
383.31	87.25
383.535	103.25
383.761	103.25
383.986	105.25
384.211	85.25
384.436	77.25
384.662	90.25
384.887	93.25
385.112	95.25
385.337	88.25
385.562	73.25
385.787	89.25
386.013	87.25
386.238	95.25
386.463	96.25
386.688	105.25
386.913	96.25
387.138	87.25
387.363	93.25
387.588	94.25
387.813	94.25
388.038	90.25
388.263	98.25
388.488	87.25
388.713	95.25
388.938	96.25
389.163	95.25
389.387	87.25
389.612	77.25
389.837	91.25
390.062	93.25
390.287	87.25
390.512	100.25
390.736	95.25
390.961	95.25
391.186	65.25
391.411	90.25
391.636	91.25
391.86	72.25
392.085	82.25
392.31	97.25
392.534	82.25
392.759	99.25
392.984	85.25
393.208	81.25
393.433	98.25
393.658	101.25
393.882	93.25
394.107	95.25
394.331	105.25
394.556	96.25
394.78	87.25
395.005	88.25
395.229	87.25
395.454	90.25
395.678	94.25
395.903	111.25
396.127	105.25
396.352	85.25
396.576	96.25
396.801	100.25
397.025	92.25
397.249	83.25
397.474	80.25
397.698	90.25
397.922	98.25
398.147	96.25
398.371	86.25
398.595	92.25
398.82	108.25
399.044	101.25
399.268	108.25
399.492	91.25
399.717	103.25
399.941	99.25
400.165	112.25
400.389	94.25
400.613	95.25
400.837	93.25
401.062	100.25
401.286	100.25
401.51	116.25
401.734	101.25
401.958	96.25
402.182	105.25
402.406	98.25
402.63	105.25
402.854	111.25
403.078	110.25
403.302	114.25
403.526	116.25
403.75	99.25
403.974	105.25
404.198	94.25
404.422	112.25
404.645	90.25
404.869	89.25
405.093	108.25
405.317	100.25
405.541	94.25
405.765	105.25
405.988	106.25
406.212	115.25
406.436	110.25
406.66	96.25
406.883	108.25
407.107	102.25
407.331	99.25
407.555	110.25
407.778	110.25
408.002	116.25
408.226	115.25
408.449	116.25
408.673	85.25
408.896	93.25
409.12	109.25
409.344	106.25
409.567	99.25
409.791	112.25
410.014	118.25
410.238	110.25
410.461	99.25
410.685	107.25
410.908	120.25
411.132	116.25
411.355	109.25
411.578	106.25
411.802	97.25
412.025	121.25
412.249	104.25
412.472	120.25
412.695	102.25
412.919	101.25
413.142	108.25
413.365	109.25
413.589	90.25
413.812	87.25
414.035	112.25
414.258	107.25
414.482	101.25
414.705	112.25
414.928	104.25
415.151	111.25
415.374	99.25
415.597	104.25
415.821	101.25
416.044	114.25
416.267	126.25
416.49	109.25
416.713	95.25
416.936	103.25
417.159	100.25
417.382	80.25
417.605	103.25
417.828	104.25
418.051	112.25
418.274	101.25
418.497	111.25
418.72	108.25
418.943	106.25
419.166	108.25
419.389	118.25
419.611	122.25
419.834	106.25
420.057	111.25
420.28	103.25
420.503	130.25
420.726	100.25
420.948	102.25
421.171	111.25
421.394	117.25
421.617	115.25
421.839	115.25
422.062	110.25
422.285	93.25
422.507	105.25
422.73	88.25
422.953	101.25
423.175	125.25
423.398	112.25
423.621	107.25
423.843	104.25
424.066	103.25
424.288	116.25
424.511	116.25
424.733	111.25
424.956	121.25
425.178	115.25
425.401	121.25
425.623	113.25
425.846	92.25
426.068	106.25
426.291	97.25
426.513	106.25
426.735	102.25
426.958	128.25
427.18	101.25
427.402	100.25
427.625	90.25
427.847	98.25
428.069	120.25
428.292	112.25
428.514	117.25
428.736	98.25
428.958	113.25
429.181	110.25
429.403	90.25
429.625	97.25
429.847	108.25
430.069	95.25
430.292	99.25
430.514	104.25
430.736	83.25
430.958	107.25
431.18	126.25
431.402	113.25
431.624	93.25
431.846	115.25
432.068	93.25
432.29	107.25
432.512	112.25
432.734	115.25
432.956	112.25
433.178	109.25
433.4	97.25
433.622	112.25
433.844	114.25
434.066	105.25
434.287	100.25
434.509	106.25
434.731	103.25
434.953	87.25
435.175	118.25
435.397	103.25
435.618	105.25
435.84	111.25
436.062	97.25
436.284	108.25
436.505	97.25
436.727	118.25
436.949	99.25
437.17	116.25
437.392	105.25
437.614	115.25
437.835	118.25
438.057	104.25
438.278	108.25
438.5	101.25
438.721	98.25
438.943	108.25
439.165	106.25
439.386	126.25
439.608	108.25
439.829	109.25
440.05	116.25
440.272	114.25
440.493	116.25
440.715	108.25
440.936	105.25
441.158	116.25
441.379	119.25
441.6	121.25
441.822	102.25
442.043	105.25
442.264	120.25
442.486	108.25
442.707	105.25
442.928	114.25
443.149	119.25
443.371	116.25
443.592	101.25
443.813	112.25
444.034	126.25
444.255	113.25
444.476	108.25
444.698	118.25
444.919	104.25
445.14	213.25
445.361	158.25
445.582	128.25
445.803	119.25
446.024	106.25
446.245	114.25
446.466	121.25
446.687	126.25
446.908	126.25
447.129	114.25
447.35	107.25
447.571	113.25
447.792	92.25
448.013	117.25
448.234	122.25
448.455	121.25
448.675	119.25
448.896	108.25
449.117	121.25
449.338	97.25
449.559	107.25
449.779	104.25
450	112.25
450.221	109.25
450.442	102.25
450.662	103.25
450.883	110.25
451.104	110.25
451.324	100.25
451.545	102.25
451.766	112.25
451.986	108.25
452.207	94.25
452.428	106.25
452.648	106.25
452.869	104.25
453.089	103.25
453.31	113.25
453.53	109.25
453.751	105.25
453.971	108.25
454.192	94.25
454.412	100.25
454.633	94.25
454.853	104.25
455.073	116.25
455.294	105.25
455.514	103.25
455.734	108.25
455.955	110.25
456.175	109.25
456.395	96.25
456.616	108.25
456.836	102.25
457.056	107.25
457.276	109.25
457.497	85.25
457.717	102.25
457.937	99.25
458.157	102.25
458.377	97.25
458.598	108.25
458.818	110.25
459.038	101.25
459.258	95.25
459.478	92.25
459.698	85.25
459.918	111.25
460.138	108.25
460.358	110.25
460.578	113.25
460.798	102.25
461.018	108.25
461.238	109.25
461.458	98.25
461.678	100.25
461.898	108.25
462.118	103.25
462.338	97.25
462.558	117.25
462.777	115.25
462.997	111.25
463.217	120.25
463.437	116.25
463.657	114.25
463.876	110.25
464.096	116.25
464.316	112.25
464.536	112.25
464.755	128.25
464.975	106.25
465.195	116.25
465.414	114.25
465.634	97.25
465.854	121.25
466.073	111.25
466.293	108.25
466.512	105.25
466.732	111.25
466.951	120.25
467.171	120.25
467.391	111.25
467.61	119.25
467.829	109.25
468.049	101.25
468.268	125.25
468.488	119.25
468.707	119.25
468.927	124.25
469.146	111.25
469.365	109.25
469.585	112.25
469.804	132.25
470.023	110.25
470.243	97.25
470.462	124.25
470.681	111.25
470.901	121.25
471.12	109.25
471.339	129.25
471.558	116.25
471.777	118.25
471.997	120.25
472.216	127.25
472.435	118.25
472.654	120.25
472.873	103.25
473.092	96.25
473.311	124.25
473.53	106.25
473.749	117.25
473.968	124.25
474.187	109.25
474.406	119.25
474.625	97.25
474.844	99.25
475.063	103.25
475.282	116.25
475.501	110.25
475.72	112.25
475.939	114.25
476.158	115.25
476.377	126.25
476.596	129.25
476.814	104.25
477.033	94.25
477.252	108.25
477.471	111.25
477.69	122.25
477.908	113.25
478.127	129.25
478.346	100.25
478.564	117.25
478.783	120.25
479.002	137.25
479.22	127.25
479.439	129.25
479.658	115.25
479.876	113.25
480.095	114.25
480.313	123.25
480.532	130.25
480.751	115.25
480.969	111.25
481.188	119.25
481.406	121.25
481.624	102.25
481.843	106.25
482.061	102.25
482.28	110.25
482.498	117.25
482.717	107.25
482.935	118.25
483.153	130.25
483.372	122.25
483.59	123.25
483.808	117.25
484.027	114.25
484.245	128.25
484.463	130.25
484.681	116.25
484.9	117.25
485.118	119.25
485.336	103.25
485.554	112.25
485.772	122.25
485.99	99.25
486.209	124.25
486.427	124.25
486.645	127.25
486.863	124.25
487.081	132.25
487.299	127.25
487.517	117.25
487.735	137.25
487.953	139.25
488.171	154.25
488.389	130.25
488.607	141.25
488.825	115.25
489.043	118.25
489.261	132.25
489.479	127.25
489.696	119.25
489.914	131.25
490.132	127.25
490.35	136.25
490.568	125.25
490.786	138.25
491.003	131.25
491.221	148.25
491.439	151.25
491.657	154.25
491.874	158.25
492.092	165.25
492.31	169.25
492.527	148.25
492.745	152.25
492.963	152.25
493.18	150.25
493.398	137.25
493.615	164.25
493.833	132.25
494.05	148.25
494.268	164.25
494.485	160.25
494.703	148.25
494.92	143.25
495.138	147.25
495.355	141.25
495.573	154.25
495.79	128.25
496.008	155.25
496.225	143.25
496.442	152.25
496.66	136.25
496.877	129.25
497.094	141.25
497.312	144.25
497.529	151.25
497.746	154.25
497.963	120.25
498.181	137.25
498.398	134.25
498.615	150.25
498.832	147.25
499.049	147.25
499.267	132.25
499.484	161.25
499.701	169.25
499.918	186.25
500.135	182.25
500.352	222.25
500.569	201.25
500.786	206.25
501.003	199.25
501.22	186.25
501.437	160.25
501.654	169.25
501.871	145.25
502.088	160.25
502.305	151.25
502.522	133.25
502.739	144.25
502.956	138.25
503.172	140.25
503.389	115.25
503.606	126.25
503.823	114.25
504.04	124.25
504.256	129.25
504.473	127.25
504.69	136.25
504.907	146.25
505.123	127.25
505.34	115.25
505.557	112.25
505.773	127.25
505.99	126.25
506.207	125.25
506.423	128.25
506.64	115.25
506.856	130.25
507.073	124.25
507.289	127.25
507.506	105.25
507.722	136.25
507.939	122.25
508.155	110.25
508.372	117.25
508.588	130.25
508.805	126.25
509.021	117.25
509.238	97.25
509.454	107.25
509.67	122.25
509.887	122.25
510.103	103.25
510.319	118.25
510.536	124.25
510.752	117.25
510.968	125.25
511.184	114.25
511.401	104.25
511.617	115.25
511.833	104.25
512.049	121.25
512.265	114.25
512.481	102.25
