Data from StandardFe(NO3)3.TAE.3%Agarose.FlatLispGreen.Lamp.Energy10.07252019_HRD10591_11-54-08-440.txt Node
Date: Thu Jul 25 11:54:08 EDT 2019
User: cochatt
Spectrometer: HR+D1059
Trigger mode: 1
Integration Time (sec): 1.000000E-1
Scans to average: 1
Electric dark correction enabled: true
Nonlinearity correction enabled: false
Boxcar width: 0
XAxis mode: Wavelengths
Number of Pixels in Spectrum: 2048
>>>>>Begin Spectral Data<<<<<
223.165	-18.69
223.4	-18.69
223.635	-18.69
223.869	-25.69
224.104	-13.69
224.338	-12.69
224.573	-21.69
224.808	-10.69
225.042	6.31
225.277	-19.69
225.511	-6.69
225.746	-6.69
225.98	9.31
226.215	20.31
226.449	18.31
226.683	19.31
226.918	34.31
227.152	28.31
227.387	41.31
227.621	45.31
227.856	61.31
228.09	43.31
228.324	55.31
228.559	56.31
228.793	73.31
229.027	71.31
229.262	59.31
229.496	63.31
229.73	76.31
229.964	79.31
230.199	83.31
230.433	81.31
230.667	71.31
230.901	83.31
231.136	91.31
231.37	72.31
231.604	72.31
231.838	82.31
232.072	82.31
232.306	82.31
232.541	79.31
232.775	82.31
233.009	86.31
233.243	80.31
233.477	83.31
233.711	84.31
233.945	93.31
234.179	74.31
234.413	69.31
234.647	70.31
234.881	83.31
235.115	71.31
235.349	83.31
235.583	94.31
235.817	84.31
236.051	85.31
236.285	79.31
236.519	79.31
236.753	88.31
236.987	91.31
237.221	64.31
237.455	69.31
237.689	78.31
237.922	87.31
238.156	92.31
238.39	87.31
238.624	81.31
238.858	70.31
239.091	100.31
239.325	75.31
239.559	86.31
239.793	79.31
240.027	85.31
240.26	84.31
240.494	79.31
240.728	67.31
240.961	70.31
241.195	84.31
241.429	74.31
241.662	79.31
241.896	72.31
242.13	89.31
242.363	79.31
242.597	79.31
242.83	88.31
243.064	86.31
243.298	91.31
243.531	70.31
243.765	76.31
243.998	75.31
244.232	83.31
244.465	64.31
244.699	90.31
244.932	96.31
245.166	76.31
245.399	65.31
245.633	61.31
245.866	79.31
246.099	88.31
246.333	79.31
246.566	81.31
246.8	69.31
247.033	76.31
247.266	73.31
247.5	88.31
247.733	80.31
247.966	77.31
248.2	85.31
248.433	91.31
248.666	87.31
248.899	79.31
249.133	82.31
249.366	87.31
249.599	86.31
249.832	94.31
250.066	91.31
250.299	74.31
250.532	80.31
250.765	86.31
250.998	84.31
251.231	85.31
251.465	86.31
251.698	83.31
251.931	91.31
252.164	85.31
252.397	84.31
252.63	87.31
252.863	81.31
253.096	101.31
253.329	83.31
253.562	82.31
253.795	79.31
254.028	83.31
254.261	76.31
254.494	71.31
254.727	88.31
254.96	82.31
255.193	79.31
255.426	73.31
255.659	95.31
255.892	79.31
256.124	76.31
256.357	88.31
256.59	75.31
256.823	81.31
257.056	90.31
257.289	81.31
257.521	92.31
257.754	78.31
257.987	94.31
258.22	86.31
258.452	84.31
258.685	78.31
258.918	81.31
259.151	85.31
259.383	85.31
259.616	77.31
259.849	70.31
260.081	79.31
260.314	81.31
260.547	69.31
260.779	77.31
261.012	77.31
261.244	82.31
261.477	97.31
261.71	79.31
261.942	75.31
262.175	80.31
262.407	68.31
262.64	105.31
262.872	88.31
263.105	86.31
263.337	85.31
263.57	83.31
263.802	84.31
264.035	85.31
264.267	98.31
264.499	78.31
264.732	94.31
264.964	95.31
265.197	74.31
265.429	83.31
265.661	73.31
265.894	89.31
266.126	89.31
266.358	96.31
266.591	73.31
266.823	89.31
267.055	73.31
267.287	77.31
267.52	94.31
267.752	95.31
267.984	86.31
268.216	90.31
268.448	89.31
268.681	82.31
268.913	82.31
269.145	91.31
269.377	83.31
269.609	90.31
269.841	93.31
270.073	98.31
270.306	111.31
270.538	77.31
270.77	83.31
271.002	82.31
271.234	84.31
271.466	92.31
271.698	71.31
271.93	74.31
272.162	70.31
272.394	85.31
272.626	71.31
272.858	95.31
273.09	92.31
273.322	105.31
273.553	90.31
273.785	98.31
274.017	90.31
274.249	91.31
274.481	78.31
274.713	80.31
274.945	86.31
275.176	86.31
275.408	95.31
275.64	91.31
275.872	76.31
276.104	86.31
276.335	88.31
276.567	89.31
276.799	78.31
277.031	80.31
277.262	95.31
277.494	87.31
277.726	95.31
277.957	82.31
278.189	94.31
278.421	91.31
278.652	85.31
278.884	79.31
279.115	93.31
279.347	82.31
279.579	89.31
279.81	86.31
280.042	72.31
280.273	84.31
280.505	79.31
280.736	88.31
280.968	90.31
281.199	94.31
281.431	94.31
281.662	90.31
281.894	93.31
282.125	92.31
282.356	87.31
282.588	90.31
282.819	86.31
283.051	81.31
283.282	93.31
283.513	78.31
283.745	79.31
283.976	87.31
284.207	81.31
284.439	90.31
284.67	82.31
284.901	100.31
285.132	88.31
285.364	75.31
285.595	89.31
285.826	84.31
286.057	93.31
286.288	83.31
286.52	78.31
286.751	80.31
286.982	71.31
287.213	78.31
287.444	89.31
287.675	103.31
287.906	101.31
288.138	73.31
288.369	73.31
288.6	92.31
288.831	72.31
289.062	89.31
289.293	86.31
289.524	80.31
289.755	89.31
289.986	80.31
290.217	82.31
290.448	82.31
290.679	86.31
290.91	100.31
291.141	97.31
291.371	97.31
291.602	91.31
291.833	86.31
292.064	89.31
292.295	93.31
292.526	99.31
292.757	92.31
292.987	73.31
293.218	84.31
293.449	81.31
293.68	86.31
293.91	91.31
294.141	75.31
294.372	84.31
294.603	89.31
294.833	90.31
295.064	88.31
295.295	94.31
295.525	98.31
295.756	111.31
295.987	84.31
296.217	99.31
296.448	102.31
296.679	88.31
296.909	93.31
297.14	96.31
297.37	95.31
297.601	100.31
297.831	83.31
298.062	85.31
298.292	83.31
298.523	92.31
298.753	105.31
298.984	90.31
299.214	100.31
299.445	86.31
299.675	86.31
299.905	90.31
300.136	68.31
300.366	79.31
300.597	82.31
300.827	89.31
301.057	97.31
301.288	86.31
301.518	98.31
301.748	84.31
301.979	92.31
302.209	78.31
302.439	103.31
302.669	88.31
302.9	79.31
303.13	100.31
303.36	93.31
303.59	71.31
303.82	94.31
304.051	85.31
304.281	104.31
304.511	98.31
304.741	79.31
304.971	92.31
305.201	92.31
305.431	97.31
305.661	109.31
305.891	82.31
306.121	89.31
306.352	93.31
306.582	82.31
306.812	100.31
307.042	89.31
307.272	90.31
307.502	93.31
307.731	82.31
307.961	85.31
308.191	91.31
308.421	89.31
308.651	88.31
308.881	94.31
309.111	88.31
309.341	74.31
309.571	104.31
309.8	78.31
310.03	83.31
310.26	81.31
310.49	75.31
310.72	86.31
310.949	98.31
311.179	83.31
311.409	87.31
311.639	95.31
311.868	86.31
312.098	71.31
312.328	86.31
312.557	77.31
312.787	83.31
313.017	89.31
313.246	82.31
313.476	96.31
313.706	78.31
313.935	94.31
314.165	75.31
314.394	77.31
314.624	78.31
314.853	89.31
315.083	94.31
315.312	91.31
315.542	83.31
315.771	91.31
316.001	95.31
316.23	79.31
316.46	80.31
316.689	73.31
316.919	81.31
317.148	91.31
317.377	92.31
317.607	97.31
317.836	71.31
318.065	90.31
318.295	96.31
318.524	89.31
318.753	87.31
318.983	89.31
319.212	85.31
319.441	89.31
319.67	89.31
319.9	80.31
320.129	92.31
320.358	89.31
320.587	75.31
320.816	106.31
321.046	96.31
321.275	88.31
321.504	91.31
321.733	91.31
321.962	63.31
322.191	72.31
322.42	82.31
322.649	97.31
322.878	94.31
323.108	108.31
323.337	85.31
323.566	83.31
323.795	87.31
324.024	96.31
324.253	69.31
324.482	84.31
324.71	79.31
324.939	84.31
325.168	85.31
325.397	93.31
325.626	90.31
325.855	74.31
326.084	84.31
326.313	83.31
326.542	101.31
326.77	83.31
326.999	87.31
327.228	98.31
327.457	84.31
327.686	82.31
327.914	96.31
328.143	89.31
328.372	92.31
328.6	94.31
328.829	79.31
329.058	91.31
329.287	83.31
329.515	74.31
329.744	83.31
329.972	83.31
330.201	91.31
330.43	76.31
330.658	96.31
330.887	85.31
331.115	89.31
331.344	85.31
331.572	93.31
331.801	78.31
332.03	69.31
332.258	79.31
332.486	79.31
332.715	99.31
332.943	97.31
333.172	97.31
333.4	77.31
333.629	90.31
333.857	85.31
334.085	73.31
334.314	82.31
334.542	71.31
334.771	96.31
334.999	97.31
335.227	87.31
335.455	106.31
335.684	103.31
335.912	99.31
336.14	102.31
336.369	90.31
336.597	95.31
336.825	73.31
337.053	86.31
337.281	91.31
337.51	81.31
337.738	79.31
337.966	90.31
338.194	83.31
338.422	93.31
338.65	83.31
338.878	90.31
339.106	91.31
339.334	79.31
339.562	77.31
339.79	95.31
340.018	78.31
340.246	100.31
340.474	92.31
340.702	101.31
340.93	89.31
341.158	86.31
341.386	90.31
341.614	86.31
341.842	77.31
342.07	86.31
342.298	91.31
342.526	85.31
342.754	89.31
342.981	79.31
343.209	77.31
343.437	101.31
343.665	81.31
343.893	78.31
344.12	90.31
344.348	77.31
344.576	81.31
344.804	85.31
345.031	82.31
345.259	76.31
345.487	93.31
345.714	80.31
345.942	82.31
346.17	79.31
346.397	78.31
346.625	79.31
346.853	86.31
347.08	78.31
347.308	77.31
347.535	86.31
347.763	93.31
347.99	87.31
348.218	91.31
348.445	94.31
348.673	71.31
348.9	87.31
349.128	98.31
349.355	93.31
349.583	89.31
349.81	74.31
350.037	104.31
350.265	95.31
350.492	89.31
350.72	85.31
350.947	82.31
351.174	85.31
351.402	78.31
351.629	78.31
351.856	77.31
352.083	74.31
352.311	84.31
352.538	87.31
352.765	84.31
352.992	87.31
353.22	90.31
353.447	84.31
353.674	96.31
353.901	82.31
354.128	90.31
354.355	96.31
354.583	97.31
354.81	82.31
355.037	76.31
355.264	87.31
355.491	100.31
355.718	80.31
355.945	82.31
356.172	78.31
356.399	81.31
356.626	94.31
356.853	86.31
357.08	74.31
357.307	93.31
357.534	87.31
357.761	101.31
357.988	98.31
358.215	69.31
358.441	84.31
358.668	88.31
358.895	94.31
359.122	76.31
359.349	92.31
359.576	91.31
359.802	83.31
360.029	82.31
360.256	90.31
360.483	91.31
360.709	76.31
360.936	83.31
361.163	68.31
361.39	94.31
361.616	75.31
361.843	72.31
362.07	97.31
362.296	98.31
362.523	86.31
362.749	87.31
362.976	100.31
363.203	78.31
363.429	85.31
363.656	97.31
363.882	76.31
364.109	98.31
364.335	93.31
364.562	81.31
364.788	82.31
365.015	98.31
365.241	93.31
365.468	99.31
365.694	76.31
365.92	92.31
366.147	86.31
366.373	89.31
366.599	81.31
366.826	88.31
367.052	92.31
367.278	83.31
367.505	94.31
367.731	91.31
367.957	96.31
368.184	95.31
368.41	74.31
368.636	92.31
368.862	78.31
369.089	89.31
369.315	85.31
369.541	87.31
369.767	94.31
369.993	78.31
370.219	104.31
370.445	87.31
370.672	90.31
370.898	71.31
371.124	89.31
371.35	79.31
371.576	96.31
371.802	91.31
372.028	94.31
372.254	80.31
372.48	84.31
372.706	83.31
372.932	85.31
373.158	74.31
373.384	82.31
373.61	85.31
373.835	104.31
374.061	85.31
374.287	89.31
374.513	98.31
374.739	98.31
374.965	87.31
375.191	84.31
375.416	87.31
375.642	94.31
375.868	89.31
376.094	92.31
376.319	91.31
376.545	87.31
376.771	97.31
376.997	91.31
377.222	88.31
377.448	90.31
377.674	93.31
377.899	89.31
378.125	82.31
378.35	103.31
378.576	91.31
378.802	84.31
379.027	81.31
379.253	98.31
379.478	78.31
379.704	98.31
379.929	97.31
380.155	100.31
380.38	81.31
380.606	95.31
380.831	101.31
381.057	92.31
381.282	96.31
381.507	85.31
381.733	90.31
381.958	82.31
382.184	102.31
382.409	100.31
382.634	90.31
382.86	105.31
383.085	100.31
383.31	94.31
383.535	93.31
383.761	95.31
383.986	93.31
384.211	86.31
384.436	105.31
384.662	95.31
384.887	82.31
385.112	95.31
385.337	81.31
385.562	107.31
385.787	95.31
386.013	110.31
386.238	93.31
386.463	93.31
386.688	102.31
386.913	89.31
387.138	99.31
387.363	90.31
387.588	87.31
387.813	86.31
388.038	83.31
388.263	101.31
388.488	95.31
388.713	91.31
388.938	87.31
389.163	87.31
389.387	88.31
389.612	100.31
389.837	98.31
390.062	128.31
390.287	92.31
390.512	105.31
390.736	116.31
390.961	110.31
391.186	97.31
391.411	106.31
391.636	101.31
391.86	102.31
392.085	97.31
392.31	90.31
392.534	106.31
392.759	97.31
392.984	102.31
393.208	109.31
393.433	99.31
393.658	105.31
393.882	101.31
394.107	105.31
394.331	107.31
394.556	93.31
394.78	109.31
395.005	101.31
395.229	109.31
395.454	121.31
395.678	98.31
395.903	102.31
396.127	100.31
396.352	100.31
396.576	95.31
396.801	94.31
397.025	100.31
397.249	85.31
397.474	116.31
397.698	111.31
397.922	99.31
398.147	103.31
398.371	104.31
398.595	117.31
398.82	99.31
399.044	120.31
399.268	108.31
399.492	118.31
399.717	115.31
399.941	102.31
400.165	122.31
400.389	114.31
400.613	94.31
400.837	114.31
401.062	115.31
401.286	104.31
401.51	118.31
401.734	113.31
401.958	110.31
402.182	98.31
402.406	128.31
402.63	122.31
402.854	107.31
403.078	121.31
403.302	108.31
403.526	119.31
403.75	114.31
403.974	103.31
404.198	113.31
404.422	113.31
404.645	113.31
404.869	109.31
405.093	107.31
405.317	113.31
405.541	127.31
405.765	110.31
405.988	105.31
406.212	99.31
406.436	121.31
406.66	129.31
406.883	115.31
407.107	114.31
407.331	119.31
407.555	122.31
407.778	113.31
408.002	125.31
408.226	104.31
408.449	111.31
408.673	123.31
408.896	96.31
409.12	127.31
409.344	110.31
409.567	110.31
409.791	109.31
410.014	120.31
410.238	131.31
410.461	122.31
410.685	121.31
410.908	127.31
411.132	117.31
411.355	99.31
411.578	97.31
411.802	110.31
412.025	122.31
412.249	103.31
412.472	110.31
412.695	129.31
412.919	110.31
413.142	94.31
413.365	110.31
413.589	115.31
413.812	107.31
414.035	116.31
414.258	113.31
414.482	106.31
414.705	113.31
414.928	102.31
415.151	116.31
415.374	130.31
415.597	128.31
415.821	118.31
416.044	110.31
416.267	107.31
416.49	104.31
416.713	115.31
416.936	115.31
417.159	116.31
417.382	109.31
417.605	123.31
417.828	127.31
418.051	103.31
418.274	108.31
418.497	115.31
418.72	117.31
418.943	121.31
419.166	108.31
419.389	131.31
419.611	129.31
419.834	116.31
420.057	122.31
420.28	120.31
420.503	122.31
420.726	134.31
420.948	125.31
421.171	115.31
421.394	110.31
421.617	129.31
421.839	119.31
422.062	107.31
422.285	120.31
422.507	121.31
422.73	111.31
422.953	117.31
423.175	123.31
423.398	123.31
423.621	127.31
423.843	133.31
424.066	119.31
424.288	131.31
424.511	125.31
424.733	127.31
424.956	125.31
425.178	130.31
425.401	130.31
425.623	129.31
425.846	124.31
426.068	125.31
426.291	118.31
426.513	104.31
426.735	119.31
426.958	119.31
427.18	116.31
427.402	115.31
427.625	121.31
427.847	122.31
428.069	125.31
428.292	125.31
428.514	108.31
428.736	113.31
428.958	120.31
429.181	133.31
429.403	113.31
429.625	123.31
429.847	122.31
430.069	108.31
430.292	127.31
430.514	135.31
430.736	113.31
430.958	134.31
431.18	111.31
431.402	127.31
431.624	118.31
431.846	110.31
432.068	102.31
432.29	105.31
432.512	103.31
432.734	102.31
432.956	118.31
433.178	122.31
433.4	125.31
433.622	126.31
433.844	124.31
434.066	110.31
434.287	110.31
434.509	102.31
434.731	119.31
434.953	123.31
435.175	114.31
435.397	117.31
435.618	102.31
435.84	119.31
436.062	103.31
436.284	114.31
436.505	114.31
436.727	110.31
436.949	121.31
437.17	105.31
437.392	102.31
437.614	108.31
437.835	109.31
438.057	104.31
438.278	94.31
438.5	115.31
438.721	148.31
438.943	121.31
439.165	117.31
439.386	114.31
439.608	116.31
439.829	119.31
440.05	115.31
440.272	105.31
440.493	121.31
440.715	116.31
440.936	119.31
441.158	124.31
441.379	122.31
441.6	121.31
441.822	127.31
442.043	110.31
442.264	106.31
442.486	124.31
442.707	133.31
442.928	124.31
443.149	130.31
443.371	134.31
443.592	121.31
443.813	133.31
444.034	122.31
444.255	119.31
444.476	136.31
444.698	118.31
444.919	127.31
445.14	274.31
445.361	178.31
445.582	118.31
445.803	133.31
446.024	125.31
446.245	136.31
446.466	131.31
446.687	124.31
446.908	129.31
447.129	121.31
447.35	112.31
447.571	119.31
447.792	116.31
448.013	126.31
448.234	108.31
448.455	117.31
448.675	121.31
448.896	127.31
449.117	122.31
449.338	110.31
449.559	117.31
449.779	106.31
450	135.31
450.221	122.31
450.442	127.31
450.662	115.31
450.883	105.31
451.104	119.31
451.324	119.31
451.545	108.31
451.766	98.31
451.986	116.31
452.207	109.31
452.428	127.31
452.648	122.31
452.869	130.31
453.089	121.31
453.31	105.31
453.53	115.31
453.751	105.31
453.971	105.31
454.192	102.31
454.412	111.31
454.633	100.31
454.853	97.31
455.073	114.31
455.294	98.31
455.514	119.31
455.734	124.31
455.955	120.31
456.175	111.31
456.395	115.31
456.616	117.31
456.836	109.31
457.056	113.31
457.276	91.31
457.497	103.31
457.717	105.31
457.937	122.31
458.157	111.31
458.377	115.31
458.598	105.31
458.818	104.31
459.038	116.31
459.258	123.31
459.478	100.31
459.698	108.31
459.918	99.31
460.138	118.31
460.358	123.31
460.578	106.31
460.798	115.31
461.018	114.31
461.238	107.31
461.458	122.31
461.678	117.31
461.898	124.31
462.118	120.31
462.338	126.31
462.558	119.31
462.777	125.31
462.997	122.31
463.217	116.31
463.437	131.31
463.657	126.31
463.876	123.31
464.096	124.31
464.316	131.31
464.536	131.31
464.755	115.31
464.975	120.31
465.195	124.31
465.414	132.31
465.634	115.31
465.854	125.31
466.073	133.31
466.293	125.31
466.512	132.31
466.732	109.31
466.951	124.31
467.171	122.31
467.391	123.31
467.61	122.31
467.829	115.31
468.049	114.31
468.268	135.31
468.488	131.31
468.707	123.31
468.927	122.31
469.146	132.31
469.365	121.31
469.585	143.31
469.804	123.31
470.023	125.31
470.243	111.31
470.462	133.31
470.681	129.31
470.901	124.31
471.12	124.31
471.339	127.31
471.558	137.31
471.777	134.31
471.997	124.31
472.216	119.31
472.435	115.31
472.654	108.31
472.873	111.31
473.092	115.31
473.311	125.31
473.53	109.31
473.749	122.31
473.968	123.31
474.187	119.31
474.406	126.31
474.625	129.31
474.844	110.31
475.063	107.31
475.282	109.31
475.501	114.31
475.72	115.31
475.939	110.31
476.158	117.31
476.377	124.31
476.596	118.31
476.814	114.31
477.033	113.31
477.252	127.31
477.471	103.31
477.69	141.31
477.908	125.31
478.127	129.31
478.346	147.31
478.564	127.31
478.783	129.31
479.002	121.31
479.22	125.31
479.439	133.31
479.658	107.31
479.876	127.31
480.095	121.31
480.313	121.31
480.532	134.31
480.751	125.31
480.969	117.31
481.188	127.31
481.406	131.31
481.624	123.31
481.843	113.31
482.061	133.31
482.28	124.31
482.498	119.31
482.717	109.31
482.935	124.31
483.153	140.31
483.372	127.31
483.59	130.31
483.808	134.31
484.027	127.31
484.245	138.31
484.463	134.31
484.681	137.31
484.9	122.31
485.118	134.31
485.336	109.31
485.554	111.31
485.772	119.31
485.99	124.31
486.209	131.31
486.427	137.31
486.645	114.31
486.863	125.31
487.081	129.31
487.299	141.31
487.517	121.31
487.735	126.31
487.953	162.31
488.171	157.31
488.389	140.31
488.607	130.31
488.825	131.31
489.043	138.31
489.261	144.31
489.479	126.31
489.696	127.31
489.914	124.31
490.132	135.31
490.35	134.31
490.568	159.31
490.786	151.31
491.003	147.31
491.221	153.31
491.439	161.31
491.657	161.31
491.874	154.31
492.092	170.31
492.31	187.31
492.527	166.31
492.745	152.31
492.963	168.31
493.18	158.31
493.398	161.31
493.615	159.31
493.833	166.31
494.05	159.31
494.268	149.31
494.485	146.31
494.703	142.31
494.92	150.31
495.138	158.31
495.355	157.31
495.573	147.31
495.79	145.31
496.008	158.31
496.225	135.31
496.442	145.31
496.66	153.31
496.877	162.31
497.094	154.31
497.312	142.31
497.529	142.31
497.746	150.31
497.963	145.31
498.181	137.31
498.398	147.31
498.615	143.31
498.832	156.31
499.049	165.31
499.267	165.31
499.484	158.31
499.701	166.31
499.918	198.31
500.135	206.31
500.352	228.31
500.569	222.31
500.786	218.31
501.003	203.31
501.22	207.31
501.437	187.31
501.654	157.31
501.871	165.31
502.088	165.31
502.305	166.31
502.522	162.31
502.739	150.31
502.956	165.31
503.172	152.31
503.389	123.31
503.606	138.31
503.823	135.31
504.04	142.31
504.256	138.31
504.473	124.31
504.69	141.31
504.907	144.31
505.123	149.31
505.34	142.31
505.557	137.31
505.773	149.31
505.99	132.31
506.207	133.31
506.423	119.31
506.64	139.31
506.856	120.31
507.073	120.31
507.289	140.31
507.506	125.31
507.722	127.31
507.939	123.31
508.155	115.31
508.372	116.31
508.588	122.31
508.805	102.31
509.021	131.31
509.238	126.31
509.454	139.31
509.67	126.31
509.887	105.31
510.103	115.31
510.319	100.31
510.536	120.31
510.752	110.31
510.968	116.31
