Data from StandardFe(NO3)3.TAE.3%Agarose.FlatLispGreen.Lamp.Energy10.07252019_HRD10591_11-53-43-440.txt Node
Date: Thu Jul 25 11:53:43 EDT 2019
User: cochatt
Spectrometer: HR+D1059
Trigger mode: 1
Integration Time (sec): 1.000000E-1
Scans to average: 1
Electric dark correction enabled: true
Nonlinearity correction enabled: false
Boxcar width: 0
XAxis mode: Wavelengths
Number of Pixels in Spectrum: 2048
>>>>>Begin Spectral Data<<<<<
223.165	-12.12
223.4	-12.12
223.635	-12.12
223.869	-22.12
224.104	-29.12
224.338	-1.12
224.573	-6.12
224.808	-16.12
225.042	-0.12
225.277	-20.12
225.511	-10.12
225.746	2.88
225.98	9.88
226.215	18.88
226.449	3.88
226.683	32.88
226.918	18.88
227.152	29.88
227.387	22.88
227.621	43.88
227.856	55.88
228.09	51.88
228.324	40.88
228.559	65.88
228.793	66.88
229.027	63.88
229.262	42.88
229.496	62.88
229.73	69.88
229.964	72.88
230.199	60.88
230.433	69.88
230.667	74.88
230.901	73.88
231.136	59.88
231.37	74.88
231.604	68.88
231.838	83.88
232.072	83.88
232.306	97.88
232.541	79.88
232.775	76.88
233.009	84.88
233.243	90.88
233.477	83.88
233.711	73.88
233.945	59.88
234.179	75.88
234.413	71.88
234.647	66.88
234.881	79.88
235.115	85.88
235.349	88.88
235.583	70.88
235.817	74.88
236.051	82.88
236.285	67.88
236.519	63.88
236.753	72.88
236.987	79.88
237.221	75.88
237.455	75.88
237.689	71.88
237.922	92.88
238.156	61.88
238.39	73.88
238.624	76.88
238.858	73.88
239.091	69.88
239.325	74.88
239.559	75.88
239.793	75.88
240.027	80.88
240.26	70.88
240.494	72.88
240.728	57.88
240.961	75.88
241.195	70.88
241.429	85.88
241.662	65.88
241.896	75.88
242.13	75.88
242.363	74.88
242.597	78.88
242.83	78.88
243.064	71.88
243.298	73.88
243.531	82.88
243.765	76.88
243.998	77.88
244.232	66.88
244.465	75.88
244.699	75.88
244.932	86.88
245.166	78.88
245.399	64.88
245.633	75.88
245.866	61.88
246.099	78.88
246.333	96.88
246.566	70.88
246.8	74.88
247.033	77.88
247.266	84.88
247.5	72.88
247.733	83.88
247.966	79.88
248.2	64.88
248.433	70.88
248.666	68.88
248.899	76.88
249.133	69.88
249.366	76.88
249.599	82.88
249.832	75.88
250.066	75.88
250.299	77.88
250.532	68.88
250.765	84.88
250.998	89.88
251.231	70.88
251.465	70.88
251.698	72.88
251.931	87.88
252.164	76.88
252.397	66.88
252.63	55.88
252.863	70.88
253.096	74.88
253.329	76.88
253.562	82.88
253.795	74.88
254.028	93.88
254.261	73.88
254.494	62.88
254.727	73.88
254.96	62.88
255.193	65.88
255.426	65.88
255.659	63.88
255.892	86.88
256.124	76.88
256.357	82.88
256.59	78.88
256.823	69.88
257.056	101.88
257.289	75.88
257.521	71.88
257.754	83.88
257.987	83.88
258.22	91.88
258.452	82.88
258.685	79.88
258.918	71.88
259.151	69.88
259.383	77.88
259.616	83.88
259.849	75.88
260.081	86.88
260.314	79.88
260.547	83.88
260.779	65.88
261.012	65.88
261.244	77.88
261.477	88.88
261.71	88.88
261.942	83.88
262.175	88.88
262.407	75.88
262.64	58.88
262.872	68.88
263.105	97.88
263.337	64.88
263.57	77.88
263.802	83.88
264.035	81.88
264.267	83.88
264.499	85.88
264.732	79.88
264.964	77.88
265.197	88.88
265.429	85.88
265.661	73.88
265.894	86.88
266.126	80.88
266.358	72.88
266.591	73.88
266.823	74.88
267.055	85.88
267.287	85.88
267.52	75.88
267.752	87.88
267.984	72.88
268.216	83.88
268.448	78.88
268.681	74.88
268.913	73.88
269.145	87.88
269.377	77.88
269.609	86.88
269.841	73.88
270.073	78.88
270.306	85.88
270.538	87.88
270.77	74.88
271.002	72.88
271.234	73.88
271.466	93.88
271.698	79.88
271.93	93.88
272.162	83.88
272.394	70.88
272.626	102.88
272.858	76.88
273.09	74.88
273.322	71.88
273.553	77.88
273.785	75.88
274.017	77.88
274.249	92.88
274.481	93.88
274.713	78.88
274.945	79.88
275.176	78.88
275.408	79.88
275.64	90.88
275.872	86.88
276.104	80.88
276.335	74.88
276.567	76.88
276.799	75.88
277.031	79.88
277.262	86.88
277.494	103.88
277.726	78.88
277.957	88.88
278.189	62.88
278.421	81.88
278.652	84.88
278.884	70.88
279.115	81.88
279.347	76.88
279.579	73.88
279.81	84.88
280.042	71.88
280.273	71.88
280.505	76.88
280.736	78.88
280.968	70.88
281.199	82.88
281.431	83.88
281.662	77.88
281.894	85.88
282.125	80.88
282.356	72.88
282.588	82.88
282.819	79.88
283.051	74.88
283.282	77.88
283.513	89.88
283.745	82.88
283.976	88.88
284.207	82.88
284.439	90.88
284.67	87.88
284.901	83.88
285.132	80.88
285.364	80.88
285.595	86.88
285.826	78.88
286.057	71.88
286.288	80.88
286.52	83.88
286.751	76.88
286.982	78.88
287.213	77.88
287.444	83.88
287.675	80.88
287.906	70.88
288.138	83.88
288.369	83.88
288.6	83.88
288.831	83.88
289.062	89.88
289.293	86.88
289.524	102.88
289.755	82.88
289.986	73.88
290.217	72.88
290.448	92.88
290.679	72.88
290.91	76.88
291.141	75.88
291.371	79.88
291.602	79.88
291.833	87.88
292.064	81.88
292.295	87.88
292.526	83.88
292.757	83.88
292.987	65.88
293.218	80.88
293.449	84.88
293.68	77.88
293.91	69.88
294.141	88.88
294.372	70.88
294.603	84.88
294.833	97.88
295.064	83.88
295.295	85.88
295.525	79.88
295.756	74.88
295.987	83.88
296.217	64.88
296.448	78.88
296.679	80.88
296.909	71.88
297.14	73.88
297.37	87.88
297.601	80.88
297.831	81.88
298.062	88.88
298.292	89.88
298.523	88.88
298.753	94.88
298.984	85.88
299.214	80.88
299.445	75.88
299.675	74.88
299.905	69.88
300.136	105.88
300.366	76.88
300.597	73.88
300.827	91.88
301.057	70.88
301.288	78.88
301.518	69.88
301.748	92.88
301.979	92.88
302.209	77.88
302.439	62.88
302.669	71.88
302.9	88.88
303.13	74.88
303.36	74.88
303.59	84.88
303.82	83.88
304.051	79.88
304.281	79.88
304.511	75.88
304.741	76.88
304.971	80.88
305.201	69.88
305.431	65.88
305.661	94.88
305.891	90.88
306.121	72.88
306.352	91.88
306.582	82.88
306.812	83.88
307.042	95.88
307.272	87.88
307.502	92.88
307.731	83.88
307.961	83.88
308.191	73.88
308.421	83.88
308.651	87.88
308.881	83.88
309.111	75.88
309.341	90.88
309.571	83.88
309.8	80.88
310.03	71.88
310.26	89.88
310.49	74.88
310.72	81.88
310.949	73.88
311.179	87.88
311.409	74.88
311.639	88.88
311.868	80.88
312.098	88.88
312.328	73.88
312.557	79.88
312.787	83.88
313.017	80.88
313.246	86.88
313.476	84.88
313.706	85.88
313.935	76.88
314.165	85.88
314.394	91.88
314.624	81.88
314.853	87.88
315.083	95.88
315.312	83.88
315.542	66.88
315.771	85.88
316.001	85.88
316.23	73.88
316.46	72.88
316.689	72.88
316.919	97.88
317.148	80.88
317.377	83.88
317.607	94.88
317.836	94.88
318.065	65.88
318.295	79.88
318.524	78.88
318.753	94.88
318.983	85.88
319.212	80.88
319.441	80.88
319.67	84.88
319.9	84.88
320.129	85.88
320.358	88.88
320.587	80.88
320.816	95.88
321.046	75.88
321.275	70.88
321.504	77.88
321.733	74.88
321.962	77.88
322.191	77.88
322.42	81.88
322.649	80.88
322.878	91.88
323.108	88.88
323.337	80.88
323.566	72.88
323.795	95.88
324.024	83.88
324.253	80.88
324.482	79.88
324.71	78.88
324.939	80.88
325.168	83.88
325.397	70.88
325.626	96.88
325.855	82.88
326.084	56.88
326.313	77.88
326.542	75.88
326.77	90.88
326.999	77.88
327.228	82.88
327.457	89.88
327.686	90.88
327.914	97.88
328.143	83.88
328.372	73.88
328.6	74.88
328.829	85.88
329.058	91.88
329.287	73.88
329.515	92.88
329.744	80.88
329.972	90.88
330.201	75.88
330.43	68.88
330.658	84.88
330.887	91.88
331.115	86.88
331.344	87.88
331.572	75.88
331.801	91.88
332.03	79.88
332.258	80.88
332.486	87.88
332.715	87.88
332.943	73.88
333.172	77.88
333.4	92.88
333.629	85.88
333.857	86.88
334.085	81.88
334.314	75.88
334.542	73.88
334.771	75.88
334.999	74.88
335.227	92.88
335.455	72.88
335.684	75.88
335.912	83.88
336.14	79.88
336.369	88.88
336.597	81.88
336.825	70.88
337.053	76.88
337.281	88.88
337.51	71.88
337.738	84.88
337.966	83.88
338.194	78.88
338.422	75.88
338.65	81.88
338.878	91.88
339.106	99.88
339.334	91.88
339.562	85.88
339.79	81.88
340.018	71.88
340.246	79.88
340.474	65.88
340.702	73.88
340.93	78.88
341.158	81.88
341.386	97.88
341.614	76.88
341.842	86.88
342.07	79.88
342.298	80.88
342.526	86.88
342.754	93.88
342.981	84.88
343.209	82.88
343.437	94.88
343.665	83.88
343.893	78.88
344.12	89.88
344.348	85.88
344.576	84.88
344.804	69.88
345.031	80.88
345.259	78.88
345.487	78.88
345.714	77.88
345.942	87.88
346.17	83.88
346.397	65.88
346.625	80.88
346.853	86.88
347.08	90.88
347.308	77.88
347.535	78.88
347.763	90.88
347.99	87.88
348.218	95.88
348.445	81.88
348.673	77.88
348.9	80.88
349.128	87.88
349.355	97.88
349.583	82.88
349.81	82.88
350.037	77.88
350.265	90.88
350.492	93.88
350.72	80.88
350.947	96.88
351.174	81.88
351.402	79.88
351.629	87.88
351.856	82.88
352.083	86.88
352.311	95.88
352.538	76.88
352.765	86.88
352.992	82.88
353.22	84.88
353.447	84.88
353.674	75.88
353.901	75.88
354.128	81.88
354.355	73.88
354.583	83.88
354.81	88.88
355.037	79.88
355.264	74.88
355.491	75.88
355.718	95.88
355.945	94.88
356.172	84.88
356.399	75.88
356.626	73.88
356.853	89.88
357.08	72.88
357.307	84.88
357.534	97.88
357.761	70.88
357.988	83.88
358.215	87.88
358.441	84.88
358.668	85.88
358.895	72.88
359.122	95.88
359.349	77.88
359.576	90.88
359.802	78.88
360.029	75.88
360.256	88.88
360.483	83.88
360.709	88.88
360.936	98.88
361.163	74.88
361.39	86.88
361.616	96.88
361.843	88.88
362.07	78.88
362.296	81.88
362.523	83.88
362.749	78.88
362.976	94.88
363.203	95.88
363.429	75.88
363.656	87.88
363.882	88.88
364.109	77.88
364.335	76.88
364.562	95.88
364.788	84.88
365.015	93.88
365.241	81.88
365.468	87.88
365.694	88.88
365.92	85.88
366.147	88.88
366.373	71.88
366.599	71.88
366.826	76.88
367.052	71.88
367.278	87.88
367.505	92.88
367.731	78.88
367.957	75.88
368.184	83.88
368.41	81.88
368.636	85.88
368.862	80.88
369.089	81.88
369.315	77.88
369.541	96.88
369.767	83.88
369.993	89.88
370.219	79.88
370.445	79.88
370.672	85.88
370.898	85.88
371.124	77.88
371.35	85.88
371.576	93.88
371.802	91.88
372.028	82.88
372.254	75.88
372.48	81.88
372.706	95.88
372.932	91.88
373.158	83.88
373.384	87.88
373.61	86.88
373.835	83.88
374.061	84.88
374.287	93.88
374.513	78.88
374.739	85.88
374.965	80.88
375.191	94.88
375.416	86.88
375.642	89.88
375.868	86.88
376.094	77.88
376.319	82.88
376.545	87.88
376.771	73.88
376.997	85.88
377.222	98.88
377.448	94.88
377.674	94.88
377.899	91.88
378.125	91.88
378.35	95.88
378.576	98.88
378.802	87.88
379.027	100.88
379.253	90.88
379.478	81.88
379.704	81.88
379.929	97.88
380.155	81.88
380.38	70.88
380.606	74.88
380.831	83.88
381.057	83.88
381.282	81.88
381.507	95.88
381.733	90.88
381.958	83.88
382.184	85.88
382.409	87.88
382.634	91.88
382.86	75.88
383.085	88.88
383.31	82.88
383.535	88.88
383.761	95.88
383.986	97.88
384.211	96.88
384.436	88.88
384.662	80.88
384.887	92.88
385.112	96.88
385.337	98.88
385.562	90.88
385.787	102.88
386.013	93.88
386.238	96.88
386.463	83.88
386.688	89.88
386.913	80.88
387.138	86.88
387.363	77.88
387.588	104.88
387.813	90.88
388.038	102.88
388.263	93.88
388.488	95.88
388.713	85.88
388.938	85.88
389.163	105.88
389.387	75.88
389.612	95.88
389.837	110.88
390.062	81.88
390.287	98.88
390.512	73.88
390.736	79.88
390.961	93.88
391.186	82.88
391.411	106.88
391.636	92.88
391.86	81.88
392.085	88.88
392.31	91.88
392.534	101.88
392.759	91.88
392.984	94.88
393.208	91.88
393.433	91.88
393.658	118.88
393.882	99.88
394.107	98.88
394.331	90.88
394.556	90.88
394.78	86.88
395.005	90.88
395.229	88.88
395.454	93.88
395.678	95.88
395.903	85.88
396.127	74.88
396.352	93.88
396.576	100.88
396.801	91.88
397.025	111.88
397.249	101.88
397.474	90.88
397.698	89.88
397.922	101.88
398.147	104.88
398.371	107.88
398.595	103.88
398.82	95.88
399.044	98.88
399.268	91.88
399.492	110.88
399.717	111.88
399.941	113.88
400.165	104.88
400.389	115.88
400.613	115.88
400.837	110.88
401.062	107.88
401.286	93.88
401.51	100.88
401.734	99.88
401.958	99.88
402.182	102.88
402.406	104.88
402.63	99.88
402.854	99.88
403.078	98.88
403.302	92.88
403.526	98.88
403.75	103.88
403.974	104.88
404.198	106.88
404.422	90.88
404.645	102.88
404.869	113.88
405.093	110.88
405.317	101.88
405.541	105.88
405.765	88.88
405.988	95.88
406.212	110.88
406.436	102.88
406.66	124.88
406.883	114.88
407.107	101.88
407.331	121.88
407.555	121.88
407.778	114.88
408.002	111.88
408.226	96.88
408.449	117.88
408.673	99.88
408.896	109.88
409.12	112.88
409.344	106.88
409.567	105.88
409.791	101.88
410.014	101.88
410.238	110.88
410.461	97.88
410.685	108.88
410.908	114.88
411.132	105.88
411.355	106.88
411.578	99.88
411.802	106.88
412.025	111.88
412.249	97.88
412.472	113.88
412.695	109.88
412.919	106.88
413.142	106.88
413.365	115.88
413.589	120.88
413.812	100.88
414.035	113.88
414.258	100.88
414.482	101.88
414.705	121.88
414.928	109.88
415.151	110.88
415.374	121.88
415.597	113.88
415.821	121.88
416.044	110.88
416.267	116.88
416.49	94.88
416.713	116.88
416.936	101.88
417.159	121.88
417.382	123.88
417.605	103.88
417.828	105.88
418.051	107.88
418.274	117.88
418.497	113.88
418.72	102.88
418.943	117.88
419.166	120.88
419.389	115.88
419.611	107.88
419.834	118.88
420.057	115.88
420.28	102.88
420.503	114.88
420.726	121.88
420.948	114.88
421.171	131.88
421.394	95.88
421.617	119.88
421.839	102.88
422.062	105.88
422.285	110.88
422.507	106.88
422.73	118.88
422.953	104.88
423.175	112.88
423.398	115.88
423.621	115.88
423.843	121.88
424.066	126.88
424.288	119.88
424.511	115.88
424.733	121.88
424.956	107.88
425.178	93.88
425.401	103.88
425.623	115.88
425.846	111.88
426.068	115.88
426.291	119.88
426.513	113.88
426.735	119.88
426.958	112.88
427.18	103.88
427.402	131.88
427.625	103.88
427.847	115.88
428.069	128.88
428.292	117.88
428.514	104.88
428.736	117.88
428.958	105.88
429.181	116.88
429.403	118.88
429.625	99.88
429.847	94.88
430.069	111.88
430.292	125.88
430.514	110.88
430.736	95.88
430.958	97.88
431.18	106.88
431.402	107.88
431.624	100.88
431.846	112.88
432.068	105.88
432.29	95.88
432.512	83.88
432.734	120.88
432.956	102.88
433.178	118.88
433.4	122.88
433.622	121.88
433.844	115.88
434.066	103.88
434.287	113.88
434.509	101.88
434.731	116.88
434.953	106.88
435.175	95.88
435.397	108.88
435.618	104.88
435.84	111.88
436.062	107.88
436.284	110.88
436.505	97.88
436.727	120.88
436.949	111.88
437.17	101.88
437.392	101.88
437.614	107.88
437.835	111.88
438.057	112.88
438.278	113.88
438.5	98.88
438.721	100.88
438.943	99.88
439.165	114.88
439.386	119.88
439.608	110.88
439.829	123.88
440.05	113.88
440.272	118.88
440.493	119.88
440.715	115.88
440.936	118.88
441.158	123.88
441.379	123.88
441.6	114.88
441.822	115.88
442.043	130.88
442.264	124.88
442.486	118.88
442.707	112.88
442.928	118.88
443.149	112.88
443.371	98.88
443.592	121.88
443.813	135.88
444.034	118.88
444.255	128.88
444.476	111.88
444.698	121.88
444.919	120.88
445.14	233.88
445.361	165.88
445.582	118.88
445.803	127.88
446.024	128.88
446.245	112.88
446.466	97.88
446.687	121.88
446.908	117.88
447.129	114.88
447.35	122.88
447.571	110.88
447.792	113.88
448.013	109.88
448.234	111.88
448.455	110.88
448.675	117.88
448.896	118.88
449.117	119.88
449.338	119.88
449.559	105.88
449.779	114.88
450	105.88
450.221	112.88
450.442	106.88
450.662	113.88
450.883	121.88
451.104	118.88
451.324	109.88
451.545	107.88
451.766	121.88
451.986	97.88
452.207	111.88
452.428	109.88
452.648	105.88
452.869	97.88
453.089	103.88
453.31	110.88
453.53	109.88
453.751	82.88
453.971	97.88
454.192	119.88
454.412	109.88
454.633	104.88
454.853	103.88
455.073	105.88
455.294	106.88
455.514	111.88
455.734	102.88
455.955	121.88
456.175	101.88
456.395	103.88
456.616	101.88
456.836	109.88
457.056	96.88
457.276	99.88
457.497	106.88
457.717	102.88
457.937	102.88
458.157	106.88
458.377	98.88
458.598	100.88
458.818	93.88
459.038	92.88
459.258	106.88
459.478	102.88
459.698	90.88
459.918	96.88
460.138	104.88
460.358	104.88
460.578	111.88
460.798	121.88
461.018	111.88
461.238	124.88
461.458	121.88
461.678	118.88
461.898	97.88
462.118	117.88
462.338	122.88
462.558	127.88
462.777	115.88
462.997	109.88
463.217	124.88
463.437	123.88
463.657	125.88
463.876	116.88
464.096	128.88
464.316	131.88
464.536	111.88
464.755	121.88
464.975	136.88
465.195	122.88
465.414	110.88
465.634	122.88
465.854	111.88
466.073	107.88
466.293	115.88
466.512	104.88
466.732	118.88
466.951	115.88
467.171	125.88
467.391	124.88
467.61	126.88
467.829	115.88
468.049	116.88
468.268	116.88
468.488	102.88
468.707	120.88
468.927	109.88
469.146	101.88
469.365	118.88
469.585	120.88
469.804	124.88
470.023	121.88
470.243	114.88
470.462	117.88
470.681	125.88
470.901	119.88
471.12	118.88
471.339	124.88
471.558	129.88
471.777	118.88
471.997	102.88
472.216	116.88
472.435	103.88
472.654	88.88
472.873	104.88
473.092	102.88
473.311	105.88
473.53	113.88
473.749	115.88
473.968	111.88
474.187	117.88
474.406	115.88
474.625	127.88
474.844	133.88
475.063	114.88
475.282	115.88
475.501	122.88
475.72	120.88
475.939	118.88
476.158	114.88
476.377	122.88
476.596	117.88
476.814	122.88
477.033	101.88
477.252	105.88
477.471	123.88
477.69	120.88
477.908	123.88
478.127	133.88
478.346	119.88
478.564	114.88
478.783	131.88
479.002	131.88
479.22	122.88
479.439	130.88
479.658	106.88
479.876	116.88
480.095	97.88
480.313	132.88
480.532	124.88
480.751	126.88
480.969	97.88
481.188	103.88
481.406	127.88
481.624	110.88
481.843	109.88
482.061	109.88
482.28	112.88
482.498	131.88
482.717	103.88
482.935	124.88
483.153	133.88
483.372	141.88
483.59	135.88
483.808	124.88
484.027	122.88
484.245	95.88
484.463	109.88
484.681	131.88
484.9	120.88
485.118	120.88
485.336	119.88
485.554	124.88
485.772	103.88
485.99	101.88
486.209	113.88
486.427	120.88
486.645	114.88
486.863	123.88
487.081	104.88
487.299	121.88
487.517	121.88
487.735	136.88
487.953	138.88
488.171	161.88
488.389	145.88
488.607	134.88
488.825	125.88
489.043	118.88
489.261	120.88
489.479	123.88
489.696	118.88
489.914	133.88
490.132	130.88
490.35	142.88
490.568	143.88
490.786	140.88
491.003	141.88
491.221	147.88
491.439	142.88
491.657	150.88
491.874	156.88
492.092	153.88
492.31	163.88
492.527	152.88
492.745	152.88
492.963	148.88
493.18	153.88
493.398	153.88
493.615	146.88
493.833	147.88
494.05	142.88
494.268	134.88
494.485	157.88
494.703	147.88
494.92	129.88
495.138	130.88
495.355	149.88
495.573	160.88
495.79	136.88
496.008	137.88
496.225	145.88
496.442	147.88
496.66	155.88
496.877	140.88
497.094	145.88
497.312	149.88
497.529	146.88
497.746	152.88
497.963	129.88
498.181	130.88
498.398	143.88
498.615	137.88
498.832	139.88
499.049	145.88
499.267	144.88
499.484	161.88
499.701	154.88
499.918	175.88
500.135	191.88
500.352	214.88
500.569	221.88
500.786	208.88
501.003	202.88
501.22	193.88
501.437	159.88
501.654	178.88
501.871	149.88
502.088	159.88
502.305	144.88
502.522	127.88
502.739	131.88
502.956	145.88
503.172	154.88
503.389	121.88
503.606	132.88
503.823	127.88
504.04	145.88
504.256	149.88
504.473	136.88
504.69	135.88
504.907	141.88
505.123	130.88
505.34	128.88
505.557	113.88
505.773	120.88
505.99	122.88
506.207	118.88
506.423	118.88
506.64	116.88
506.856	127.88
507.073	127.88
507.289	117.88
507.506	134.88
507.722	114.88
507.939	116.88
508.155	117.88
508.372	119.88
508.588	112.88
508.805	121.88
509.021	120.88
509.238	115.88
509.454	120.88
509.67	121.88
509.887	108.88
510.103	127.88
510.319	113.88
510.536	96.88
510.752	110.88
510.968	110.88
511.184	118.88
511.401	93.88
511.617	115.88
511.833	110.88
512.049	124.88
512.265	120.88
