Data from StandardFe(NO3)3.TAE.3%Agarose.FlatLispGreen.Lamp.Energy10.07252019_HRD10591_11-54-51-440.txt Node
Date: Thu Jul 25 11:54:51 EDT 2019
User: cochatt
Spectrometer: HR+D1059
Trigger mode: 1
Integration Time (sec): 1.000000E-1
Scans to average: 1
Electric dark correction enabled: true
Nonlinearity correction enabled: false
Boxcar width: 0
XAxis mode: Wavelengths
Number of Pixels in Spectrum: 2048
>>>>>Begin Spectral Data<<<<<
223.165	-18.56
223.4	-18.56
223.635	-18.56
223.869	-11.56
224.104	-27.56
224.338	-22.56
224.573	-10.56
224.808	-14.56
225.042	-20.56
225.277	-4.56
225.511	1.44
225.746	6.44
225.98	15.44
226.215	6.44
226.449	24.44
226.683	29.44
226.918	25.44
227.152	21.44
227.387	24.44
227.621	41.44
227.856	34.44
228.09	35.44
228.324	40.44
228.559	50.44
228.793	63.44
229.027	56.44
229.262	66.44
229.496	63.44
229.73	71.44
229.964	72.44
230.199	68.44
230.433	75.44
230.667	70.44
230.901	80.44
231.136	85.44
231.37	83.44
231.604	69.44
231.838	83.44
232.072	74.44
232.306	85.44
232.541	83.44
232.775	72.44
233.009	88.44
233.243	82.44
233.477	85.44
233.711	92.44
233.945	75.44
234.179	79.44
234.413	74.44
234.647	79.44
234.881	85.44
235.115	83.44
235.349	74.44
235.583	92.44
235.817	92.44
236.051	87.44
236.285	85.44
236.519	74.44
236.753	75.44
236.987	92.44
237.221	80.44
237.455	73.44
237.689	82.44
237.922	73.44
238.156	69.44
238.39	80.44
238.624	80.44
238.858	80.44
239.091	68.44
239.325	80.44
239.559	71.44
239.793	74.44
240.027	86.44
240.26	85.44
240.494	69.44
240.728	73.44
240.961	70.44
241.195	75.44
241.429	89.44
241.662	76.44
241.896	69.44
242.13	72.44
242.363	72.44
242.597	69.44
242.83	73.44
243.064	88.44
243.298	72.44
243.531	88.44
243.765	77.44
243.998	67.44
244.232	72.44
244.465	85.44
244.699	67.44
244.932	70.44
245.166	79.44
245.399	76.44
245.633	73.44
245.866	68.44
246.099	70.44
246.333	70.44
246.566	67.44
246.8	75.44
247.033	67.44
247.266	86.44
247.5	79.44
247.733	71.44
247.966	76.44
248.2	80.44
248.433	78.44
248.666	64.44
248.899	89.44
249.133	78.44
249.366	95.44
249.599	76.44
249.832	76.44
250.066	77.44
250.299	66.44
250.532	74.44
250.765	92.44
250.998	83.44
251.231	76.44
251.465	89.44
251.698	72.44
251.931	83.44
252.164	87.44
252.397	89.44
252.63	74.44
252.863	86.44
253.096	80.44
253.329	82.44
253.562	84.44
253.795	75.44
254.028	83.44
254.261	76.44
254.494	80.44
254.727	79.44
254.96	81.44
255.193	79.44
255.426	81.44
255.659	80.44
255.892	87.44
256.124	78.44
256.357	77.44
256.59	74.44
256.823	73.44
257.056	74.44
257.289	90.44
257.521	70.44
257.754	81.44
257.987	63.44
258.22	82.44
258.452	86.44
258.685	73.44
258.918	90.44
259.151	80.44
259.383	73.44
259.616	79.44
259.849	69.44
260.081	67.44
260.314	83.44
260.547	75.44
260.779	84.44
261.012	99.44
261.244	76.44
261.477	78.44
261.71	79.44
261.942	84.44
262.175	73.44
262.407	95.44
262.64	84.44
262.872	74.44
263.105	87.44
263.337	78.44
263.57	76.44
263.802	89.44
264.035	92.44
264.267	76.44
264.499	74.44
264.732	80.44
264.964	82.44
265.197	90.44
265.429	85.44
265.661	84.44
265.894	87.44
266.126	86.44
266.358	99.44
266.591	96.44
266.823	87.44
267.055	86.44
267.287	74.44
267.52	93.44
267.752	76.44
267.984	74.44
268.216	82.44
268.448	68.44
268.681	90.44
268.913	91.44
269.145	87.44
269.377	88.44
269.609	81.44
269.841	100.44
270.073	80.44
270.306	80.44
270.538	72.44
270.77	72.44
271.002	78.44
271.234	82.44
271.466	92.44
271.698	87.44
271.93	68.44
272.162	77.44
272.394	88.44
272.626	79.44
272.858	72.44
273.09	91.44
273.322	75.44
273.553	75.44
273.785	81.44
274.017	65.44
274.249	76.44
274.481	84.44
274.713	79.44
274.945	90.44
275.176	84.44
275.408	91.44
275.64	91.44
275.872	84.44
276.104	88.44
276.335	80.44
276.567	83.44
276.799	76.44
277.031	81.44
277.262	91.44
277.494	75.44
277.726	78.44
277.957	85.44
278.189	82.44
278.421	83.44
278.652	94.44
278.884	91.44
279.115	100.44
279.347	95.44
279.579	89.44
279.81	83.44
280.042	100.44
280.273	98.44
280.505	98.44
280.736	87.44
280.968	77.44
281.199	74.44
281.431	84.44
281.662	81.44
281.894	91.44
282.125	95.44
282.356	83.44
282.588	84.44
282.819	86.44
283.051	76.44
283.282	82.44
283.513	69.44
283.745	93.44
283.976	87.44
284.207	74.44
284.439	82.44
284.67	81.44
284.901	83.44
285.132	92.44
285.364	67.44
285.595	87.44
285.826	77.44
286.057	81.44
286.288	84.44
286.52	78.44
286.751	87.44
286.982	81.44
287.213	78.44
287.444	81.44
287.675	90.44
287.906	87.44
288.138	67.44
288.369	81.44
288.6	84.44
288.831	89.44
289.062	88.44
289.293	71.44
289.524	71.44
289.755	89.44
289.986	75.44
290.217	81.44
290.448	100.44
290.679	93.44
290.91	87.44
291.141	85.44
291.371	85.44
291.602	80.44
291.833	99.44
292.064	83.44
292.295	88.44
292.526	94.44
292.757	91.44
292.987	83.44
293.218	82.44
293.449	91.44
293.68	86.44
293.91	81.44
294.141	76.44
294.372	92.44
294.603	90.44
294.833	84.44
295.064	80.44
295.295	77.44
295.525	91.44
295.756	97.44
295.987	88.44
296.217	76.44
296.448	88.44
296.679	78.44
296.909	84.44
297.14	88.44
297.37	82.44
297.601	92.44
297.831	82.44
298.062	92.44
298.292	76.44
298.523	89.44
298.753	96.44
298.984	87.44
299.214	76.44
299.445	79.44
299.675	93.44
299.905	73.44
300.136	75.44
300.366	82.44
300.597	81.44
300.827	84.44
301.057	85.44
301.288	91.44
301.518	75.44
301.748	93.44
301.979	83.44
302.209	93.44
302.439	91.44
302.669	83.44
302.9	84.44
303.13	91.44
303.36	79.44
303.59	89.44
303.82	90.44
304.051	89.44
304.281	76.44
304.511	95.44
304.741	78.44
304.971	85.44
305.201	88.44
305.431	100.44
305.661	77.44
305.891	87.44
306.121	75.44
306.352	77.44
306.582	84.44
306.812	77.44
307.042	87.44
307.272	87.44
307.502	99.44
307.731	80.44
307.961	98.44
308.191	79.44
308.421	92.44
308.651	88.44
308.881	94.44
309.111	88.44
309.341	70.44
309.571	86.44
309.8	83.44
310.03	81.44
310.26	92.44
310.49	103.44
310.72	78.44
310.949	76.44
311.179	81.44
311.409	77.44
311.639	89.44
311.868	85.44
312.098	96.44
312.328	88.44
312.557	91.44
312.787	86.44
313.017	89.44
313.246	72.44
313.476	80.44
313.706	73.44
313.935	73.44
314.165	83.44
314.394	81.44
314.624	96.44
314.853	82.44
315.083	83.44
315.312	83.44
315.542	93.44
315.771	90.44
316.001	85.44
316.23	85.44
316.46	89.44
316.689	104.44
316.919	88.44
317.148	90.44
317.377	90.44
317.607	87.44
317.836	94.44
318.065	80.44
318.295	90.44
318.524	80.44
318.753	73.44
318.983	86.44
319.212	79.44
319.441	91.44
319.67	88.44
319.9	94.44
320.129	81.44
320.358	89.44
320.587	91.44
320.816	88.44
321.046	82.44
321.275	95.44
321.504	85.44
321.733	83.44
321.962	95.44
322.191	79.44
322.42	69.44
322.649	82.44
322.878	87.44
323.108	85.44
323.337	93.44
323.566	93.44
323.795	74.44
324.024	92.44
324.253	87.44
324.482	83.44
324.71	100.44
324.939	85.44
325.168	82.44
325.397	80.44
325.626	84.44
325.855	88.44
326.084	87.44
326.313	95.44
326.542	90.44
326.77	90.44
326.999	92.44
327.228	66.44
327.457	104.44
327.686	91.44
327.914	94.44
328.143	92.44
328.372	83.44
328.6	80.44
328.829	104.44
329.058	88.44
329.287	81.44
329.515	87.44
329.744	93.44
329.972	65.44
330.201	96.44
330.43	94.44
330.658	86.44
330.887	101.44
331.115	85.44
331.344	84.44
331.572	90.44
331.801	92.44
332.03	97.44
332.258	90.44
332.486	80.44
332.715	79.44
332.943	85.44
333.172	88.44
333.4	75.44
333.629	83.44
333.857	72.44
334.085	88.44
334.314	97.44
334.542	91.44
334.771	87.44
334.999	85.44
335.227	85.44
335.455	84.44
335.684	80.44
335.912	93.44
336.14	95.44
336.369	67.44
336.597	82.44
336.825	87.44
337.053	93.44
337.281	85.44
337.51	88.44
337.738	79.44
337.966	92.44
338.194	85.44
338.422	78.44
338.65	80.44
338.878	83.44
339.106	86.44
339.334	86.44
339.562	69.44
339.79	79.44
340.018	86.44
340.246	94.44
340.474	81.44
340.702	91.44
340.93	89.44
341.158	88.44
341.386	94.44
341.614	97.44
341.842	85.44
342.07	84.44
342.298	84.44
342.526	73.44
342.754	83.44
342.981	85.44
343.209	92.44
343.437	85.44
343.665	82.44
343.893	81.44
344.12	92.44
344.348	81.44
344.576	91.44
344.804	90.44
345.031	79.44
345.259	88.44
345.487	83.44
345.714	85.44
345.942	89.44
346.17	94.44
346.397	78.44
346.625	78.44
346.853	75.44
347.08	85.44
347.308	90.44
347.535	76.44
347.763	82.44
347.99	99.44
348.218	82.44
348.445	90.44
348.673	84.44
348.9	92.44
349.128	77.44
349.355	80.44
349.583	66.44
349.81	84.44
350.037	93.44
350.265	81.44
350.492	86.44
350.72	86.44
350.947	84.44
351.174	87.44
351.402	82.44
351.629	88.44
351.856	83.44
352.083	94.44
352.311	95.44
352.538	89.44
352.765	81.44
352.992	84.44
353.22	68.44
353.447	76.44
353.674	82.44
353.901	86.44
354.128	97.44
354.355	85.44
354.583	68.44
354.81	79.44
355.037	96.44
355.264	88.44
355.491	88.44
355.718	83.44
355.945	85.44
356.172	90.44
356.399	79.44
356.626	90.44
356.853	77.44
357.08	72.44
357.307	86.44
357.534	85.44
357.761	90.44
357.988	98.44
358.215	99.44
358.441	87.44
358.668	75.44
358.895	79.44
359.122	87.44
359.349	79.44
359.576	82.44
359.802	72.44
360.029	91.44
360.256	84.44
360.483	90.44
360.709	90.44
360.936	97.44
361.163	100.44
361.39	95.44
361.616	92.44
361.843	83.44
362.07	92.44
362.296	88.44
362.523	77.44
362.749	80.44
362.976	77.44
363.203	77.44
363.429	85.44
363.656	73.44
363.882	91.44
364.109	83.44
364.335	78.44
364.562	80.44
364.788	79.44
365.015	81.44
365.241	103.44
365.468	99.44
365.694	80.44
365.92	82.44
366.147	88.44
366.373	82.44
366.599	75.44
366.826	85.44
367.052	87.44
367.278	80.44
367.505	94.44
367.731	86.44
367.957	92.44
368.184	81.44
368.41	79.44
368.636	93.44
368.862	102.44
369.089	74.44
369.315	71.44
369.541	85.44
369.767	87.44
369.993	83.44
370.219	90.44
370.445	87.44
370.672	83.44
370.898	89.44
371.124	94.44
371.35	81.44
371.576	85.44
371.802	99.44
372.028	100.44
372.254	85.44
372.48	86.44
372.706	83.44
372.932	104.44
373.158	88.44
373.384	91.44
373.61	93.44
373.835	92.44
374.061	88.44
374.287	89.44
374.513	101.44
374.739	84.44
374.965	96.44
375.191	93.44
375.416	93.44
375.642	109.44
375.868	87.44
376.094	92.44
376.319	96.44
376.545	70.44
376.771	67.44
376.997	89.44
377.222	89.44
377.448	101.44
377.674	76.44
377.899	97.44
378.125	94.44
378.35	83.44
378.576	91.44
378.802	84.44
379.027	83.44
379.253	84.44
379.478	87.44
379.704	84.44
379.929	97.44
380.155	93.44
380.38	81.44
380.606	85.44
380.831	89.44
381.057	98.44
381.282	83.44
381.507	88.44
381.733	81.44
381.958	97.44
382.184	82.44
382.409	90.44
382.634	91.44
382.86	86.44
383.085	97.44
383.31	87.44
383.535	90.44
383.761	94.44
383.986	87.44
384.211	85.44
384.436	99.44
384.662	93.44
384.887	78.44
385.112	96.44
385.337	96.44
385.562	93.44
385.787	99.44
386.013	106.44
386.238	114.44
386.463	108.44
386.688	81.44
386.913	89.44
387.138	89.44
387.363	88.44
387.588	91.44
387.813	92.44
388.038	88.44
388.263	115.44
388.488	83.44
388.713	81.44
388.938	93.44
389.163	91.44
389.387	92.44
389.612	90.44
389.837	90.44
390.062	92.44
390.287	99.44
390.512	93.44
390.736	91.44
390.961	108.44
391.186	99.44
391.411	85.44
391.636	87.44
391.86	96.44
392.085	89.44
392.31	101.44
392.534	107.44
392.759	103.44
392.984	102.44
393.208	117.44
393.433	103.44
393.658	107.44
393.882	97.44
394.107	89.44
394.331	101.44
394.556	97.44
394.78	95.44
395.005	92.44
395.229	98.44
395.454	101.44
395.678	106.44
395.903	95.44
396.127	92.44
396.352	83.44
396.576	98.44
396.801	104.44
397.025	100.44
397.249	95.44
397.474	79.44
397.698	102.44
397.922	117.44
398.147	93.44
398.371	102.44
398.595	102.44
398.82	111.44
399.044	111.44
399.268	108.44
399.492	99.44
399.717	108.44
399.941	109.44
400.165	102.44
400.389	91.44
400.613	93.44
400.837	106.44
401.062	111.44
401.286	106.44
401.51	108.44
401.734	99.44
401.958	104.44
402.182	100.44
402.406	113.44
402.63	117.44
402.854	116.44
403.078	114.44
403.302	114.44
403.526	113.44
403.75	100.44
403.974	109.44
404.198	113.44
404.422	115.44
404.645	117.44
404.869	93.44
405.093	111.44
405.317	117.44
405.541	100.44
405.765	107.44
405.988	104.44
406.212	100.44
406.436	91.44
406.66	113.44
406.883	104.44
407.107	111.44
407.331	110.44
407.555	121.44
407.778	109.44
408.002	119.44
408.226	108.44
408.449	101.44
408.673	104.44
408.896	99.44
409.12	100.44
409.344	120.44
409.567	103.44
409.791	119.44
410.014	105.44
410.238	109.44
410.461	107.44
410.685	119.44
410.908	93.44
411.132	110.44
411.355	111.44
411.578	109.44
411.802	104.44
412.025	118.44
412.249	108.44
412.472	111.44
412.695	100.44
412.919	106.44
413.142	122.44
413.365	107.44
413.589	120.44
413.812	107.44
414.035	100.44
414.258	123.44
414.482	96.44
414.705	106.44
414.928	119.44
415.151	108.44
415.374	122.44
415.597	94.44
415.821	107.44
416.044	104.44
416.267	109.44
416.49	114.44
416.713	119.44
416.936	110.44
417.159	107.44
417.382	114.44
417.605	125.44
417.828	124.44
418.051	109.44
418.274	109.44
418.497	118.44
418.72	107.44
418.943	104.44
419.166	115.44
419.389	127.44
419.611	115.44
419.834	105.44
420.057	127.44
420.28	103.44
420.503	111.44
420.726	108.44
420.948	113.44
421.171	112.44
421.394	105.44
421.617	115.44
421.839	107.44
422.062	107.44
422.285	104.44
422.507	118.44
422.73	127.44
422.953	116.44
423.175	115.44
423.398	114.44
423.621	121.44
423.843	119.44
424.066	147.44
424.288	111.44
424.511	110.44
424.733	130.44
424.956	105.44
425.178	106.44
425.401	101.44
425.623	116.44
425.846	118.44
426.068	124.44
426.291	124.44
426.513	100.44
426.735	127.44
426.958	109.44
427.18	98.44
427.402	115.44
427.625	103.44
427.847	118.44
428.069	91.44
428.292	116.44
428.514	116.44
428.736	107.44
428.958	120.44
429.181	119.44
429.403	116.44
429.625	105.44
429.847	101.44
430.069	109.44
430.292	113.44
430.514	114.44
430.736	100.44
430.958	121.44
431.18	105.44
431.402	106.44
431.624	116.44
431.846	95.44
432.068	110.44
432.29	109.44
432.512	117.44
432.734	120.44
432.956	102.44
433.178	111.44
433.4	120.44
433.622	101.44
433.844	113.44
434.066	99.44
434.287	104.44
434.509	113.44
434.731	92.44
434.953	96.44
435.175	122.44
435.397	115.44
435.618	115.44
435.84	99.44
436.062	95.44
436.284	121.44
436.505	116.44
436.727	112.44
436.949	112.44
437.17	100.44
437.392	115.44
437.614	110.44
437.835	105.44
438.057	103.44
438.278	112.44
438.5	107.44
438.721	99.44
438.943	113.44
439.165	115.44
439.386	111.44
439.608	120.44
439.829	123.44
440.05	122.44
440.272	126.44
440.493	121.44
440.715	111.44
440.936	123.44
441.158	127.44
441.379	117.44
441.6	108.44
441.822	117.44
442.043	114.44
442.264	130.44
442.486	115.44
442.707	120.44
442.928	118.44
443.149	112.44
443.371	119.44
443.592	120.44
443.813	119.44
444.034	126.44
444.255	133.44
444.476	128.44
444.698	97.44
444.919	141.44
445.14	230.44
445.361	164.44
445.582	109.44
445.803	119.44
446.024	105.44
446.245	123.44
446.466	107.44
446.687	124.44
446.908	129.44
447.129	121.44
447.35	114.44
447.571	108.44
447.792	108.44
448.013	114.44
448.234	118.44
448.455	105.44
448.675	121.44
448.896	119.44
449.117	105.44
449.338	99.44
449.559	112.44
449.779	114.44
450	102.44
450.221	115.44
450.442	122.44
450.662	114.44
450.883	107.44
451.104	100.44
451.324	101.44
451.545	103.44
451.766	100.44
451.986	109.44
452.207	111.44
452.428	105.44
452.648	93.44
452.869	112.44
453.089	106.44
453.31	89.44
453.53	87.44
453.751	102.44
453.971	104.44
454.192	111.44
454.412	105.44
454.633	107.44
454.853	108.44
455.073	98.44
455.294	98.44
455.514	102.44
455.734	115.44
455.955	107.44
456.175	105.44
456.395	105.44
456.616	109.44
456.836	115.44
457.056	95.44
457.276	97.44
457.497	100.44
457.717	116.44
457.937	112.44
458.157	92.44
458.377	92.44
458.598	106.44
458.818	107.44
459.038	112.44
459.258	96.44
459.478	98.44
459.698	93.44
459.918	106.44
460.138	108.44
460.358	114.44
460.578	111.44
460.798	109.44
461.018	104.44
461.238	130.44
461.458	120.44
461.678	113.44
461.898	107.44
462.118	104.44
462.338	112.44
462.558	105.44
462.777	120.44
462.997	121.44
463.217	128.44
463.437	137.44
463.657	115.44
463.876	116.44
464.096	115.44
464.316	108.44
464.536	124.44
464.755	109.44
464.975	120.44
465.195	127.44
465.414	127.44
465.634	99.44
465.854	123.44
466.073	128.44
466.293	121.44
466.512	109.44
466.732	90.44
466.951	124.44
467.171	121.44
467.391	107.44
467.61	113.44
467.829	111.44
468.049	126.44
468.268	120.44
468.488	126.44
468.707	124.44
468.927	117.44
469.146	131.44
469.365	117.44
469.585	112.44
469.804	117.44
470.023	128.44
470.243	129.44
470.462	116.44
470.681	116.44
470.901	126.44
471.12	125.44
471.339	127.44
471.558	117.44
471.777	121.44
471.997	127.44
472.216	125.44
472.435	106.44
472.654	105.44
472.873	109.44
473.092	106.44
473.311	106.44
473.53	121.44
473.749	119.44
473.968	123.44
474.187	115.44
474.406	114.44
474.625	102.44
474.844	121.44
475.063	99.44
475.282	114.44
475.501	108.44
475.72	137.44
475.939	111.44
476.158	107.44
476.377	122.44
476.596	124.44
476.814	122.44
477.033	103.44
477.252	119.44
477.471	119.44
477.69	112.44
477.908	132.44
478.127	135.44
478.346	132.44
478.564	129.44
478.783	139.44
479.002	124.44
479.22	136.44
479.439	137.44
479.658	116.44
479.876	114.44
480.095	114.44
480.313	132.44
480.532	125.44
480.751	121.44
480.969	114.44
481.188	110.44
481.406	118.44
481.624	101.44
481.843	101.44
482.061	111.44
482.28	111.44
482.498	123.44
482.717	123.44
482.935	116.44
483.153	133.44
483.372	128.44
483.59	104.44
483.808	114.44
484.027	123.44
484.245	119.44
484.463	134.44
484.681	123.44
484.9	127.44
485.118	131.44
485.336	121.44
485.554	125.44
485.772	108.44
485.99	119.44
486.209	113.44
486.427	126.44
486.645	113.44
486.863	130.44
487.081	131.44
487.299	121.44
487.517	125.44
487.735	145.44
487.953	135.44
488.171	150.44
488.389	118.44
488.607	122.44
488.825	126.44
489.043	134.44
489.261	133.44
489.479	129.44
489.696	133.44
489.914	121.44
490.132	138.44
490.35	127.44
490.568	149.44
490.786	139.44
491.003	149.44
491.221	153.44
491.439	134.44
491.657	153.44
491.874	160.44
492.092	161.44
492.31	166.44
492.527	168.44
492.745	149.44
492.963	149.44
493.18	149.44
493.398	156.44
493.615	139.44
493.833	161.44
494.05	145.44
494.268	150.44
494.485	157.44
494.703	148.44
494.92	150.44
495.138	155.44
495.355	140.44
495.573	131.44
495.79	135.44
496.008	141.44
496.225	147.44
496.442	152.44
496.66	162.44
496.877	133.44
497.094	153.44
497.312	137.44
497.529	138.44
497.746	140.44
497.963	140.44
498.181	149.44
498.398	144.44
498.615	139.44
498.832	150.44
499.049	151.44
499.267	151.44
499.484	167.44
499.701	149.44
499.918	190.44
500.135	184.44
500.352	209.44
500.569	199.44
500.786	203.44
501.003	179.44
501.22	175.44
501.437	179.44
501.654	164.44
501.871	169.44
502.088	163.44
502.305	164.44
502.522	151.44
502.739	142.44
502.956	135.44
503.172	139.44
503.389	137.44
503.606	135.44
503.823	132.44
504.04	129.44
504.256	138.44
504.473	131.44
504.69	143.44
504.907	139.44
505.123	136.44
505.34	111.44
505.557	131.44
505.773	140.44
505.99	132.44
506.207	121.44
506.423	129.44
506.64	128.44
506.856	136.44
507.073	134.44
507.289	112.44
507.506	128.44
507.722	129.44
507.939	122.44
508.155	111.44
508.372	113.44
508.588	96.44
508.805	116.44
509.021	123.44
509.238	122.44
509.454	112.44
509.67	109.44
509.887	133.44
510.103	123.44
510.319	108.44
510.536	110.44
510.752	101.44
510.968	122.44
511.184	123.44
511.401	113.44
511.617	107.44
511.833	100.44
