Data from StandardFe(NO3)3.TAE.3%Agarose.FlatLispGreen.Lamp.Energy10.07252019_HRD10591_11-55-00-440.txt Node
Date: Thu Jul 25 11:55:00 EDT 2019
User: cochatt
Spectrometer: HR+D1059
Trigger mode: 1
Integration Time (sec): 1.000000E-1
Scans to average: 1
Electric dark correction enabled: true
Nonlinearity correction enabled: false
Boxcar width: 0
XAxis mode: Wavelengths
Number of Pixels in Spectrum: 2048
>>>>>Begin Spectral Data<<<<<
223.165	-6.81
223.4	-6.81
223.635	-6.81
223.869	-4.81
224.104	-31.81
224.338	-12.81
224.573	-20.81
224.808	-23.81
225.042	-10.81
225.277	-1.81
225.511	-5.81
225.746	3.19
225.98	10.19
226.215	19.19
226.449	13.19
226.683	19.19
226.918	30.19
227.152	24.19
227.387	41.19
227.621	49.19
227.856	34.19
228.09	35.19
228.324	58.19
228.559	57.19
228.793	47.19
229.027	50.19
229.262	63.19
229.496	71.19
229.73	60.19
229.964	73.19
230.199	84.19
230.433	67.19
230.667	78.19
230.901	85.19
231.136	70.19
231.37	82.19
231.604	74.19
231.838	71.19
232.072	69.19
232.306	88.19
232.541	83.19
232.775	86.19
233.009	79.19
233.243	85.19
233.477	74.19
233.711	81.19
233.945	76.19
234.179	84.19
234.413	90.19
234.647	78.19
234.881	78.19
235.115	74.19
235.349	82.19
235.583	75.19
235.817	72.19
236.051	78.19
236.285	72.19
236.519	69.19
236.753	78.19
236.987	56.19
237.221	68.19
237.455	88.19
237.689	84.19
237.922	75.19
238.156	81.19
238.39	70.19
238.624	81.19
238.858	85.19
239.091	84.19
239.325	85.19
239.559	84.19
239.793	91.19
240.027	92.19
240.26	75.19
240.494	78.19
240.728	69.19
240.961	80.19
241.195	67.19
241.429	82.19
241.662	74.19
241.896	66.19
242.13	55.19
242.363	76.19
242.597	82.19
242.83	61.19
243.064	75.19
243.298	59.19
243.531	85.19
243.765	62.19
243.998	78.19
244.232	79.19
244.465	76.19
244.699	67.19
244.932	71.19
245.166	66.19
245.399	67.19
245.633	85.19
245.866	81.19
246.099	77.19
246.333	74.19
246.566	63.19
246.8	79.19
247.033	66.19
247.266	80.19
247.5	72.19
247.733	75.19
247.966	80.19
248.2	93.19
248.433	84.19
248.666	70.19
248.899	72.19
249.133	75.19
249.366	81.19
249.599	78.19
249.832	71.19
250.066	77.19
250.299	81.19
250.532	75.19
250.765	71.19
250.998	80.19
251.231	80.19
251.465	83.19
251.698	60.19
251.931	92.19
252.164	78.19
252.397	70.19
252.63	67.19
252.863	73.19
253.096	71.19
253.329	72.19
253.562	81.19
253.795	72.19
254.028	90.19
254.261	85.19
254.494	88.19
254.727	73.19
254.96	74.19
255.193	79.19
255.426	85.19
255.659	74.19
255.892	69.19
256.124	85.19
256.357	60.19
256.59	87.19
256.823	69.19
257.056	87.19
257.289	73.19
257.521	75.19
257.754	66.19
257.987	80.19
258.22	87.19
258.452	84.19
258.685	85.19
258.918	69.19
259.151	73.19
259.383	78.19
259.616	87.19
259.849	75.19
260.081	74.19
260.314	80.19
260.547	73.19
260.779	89.19
261.012	91.19
261.244	75.19
261.477	81.19
261.71	84.19
261.942	90.19
262.175	81.19
262.407	72.19
262.64	72.19
262.872	72.19
263.105	67.19
263.337	82.19
263.57	75.19
263.802	83.19
264.035	68.19
264.267	80.19
264.499	85.19
264.732	70.19
264.964	89.19
265.197	74.19
265.429	84.19
265.661	88.19
265.894	85.19
266.126	82.19
266.358	78.19
266.591	79.19
266.823	93.19
267.055	75.19
267.287	68.19
267.52	67.19
267.752	91.19
267.984	74.19
268.216	72.19
268.448	87.19
268.681	94.19
268.913	88.19
269.145	86.19
269.377	97.19
269.609	75.19
269.841	71.19
270.073	81.19
270.306	79.19
270.538	97.19
270.77	72.19
271.002	77.19
271.234	79.19
271.466	80.19
271.698	67.19
271.93	84.19
272.162	78.19
272.394	73.19
272.626	82.19
272.858	70.19
273.09	85.19
273.322	74.19
273.553	82.19
273.785	84.19
274.017	95.19
274.249	88.19
274.481	88.19
274.713	76.19
274.945	77.19
275.176	72.19
275.408	87.19
275.64	69.19
275.872	81.19
276.104	71.19
276.335	70.19
276.567	79.19
276.799	89.19
277.031	73.19
277.262	87.19
277.494	81.19
277.726	78.19
277.957	90.19
278.189	80.19
278.421	79.19
278.652	75.19
278.884	89.19
279.115	80.19
279.347	85.19
279.579	82.19
279.81	89.19
280.042	76.19
280.273	85.19
280.505	87.19
280.736	93.19
280.968	81.19
281.199	75.19
281.431	85.19
281.662	84.19
281.894	90.19
282.125	70.19
282.356	80.19
282.588	87.19
282.819	67.19
283.051	80.19
283.282	77.19
283.513	80.19
283.745	99.19
283.976	92.19
284.207	81.19
284.439	75.19
284.67	78.19
284.901	72.19
285.132	77.19
285.364	72.19
285.595	81.19
285.826	77.19
286.057	95.19
286.288	85.19
286.52	76.19
286.751	87.19
286.982	85.19
287.213	76.19
287.444	92.19
287.675	84.19
287.906	67.19
288.138	86.19
288.369	73.19
288.6	81.19
288.831	75.19
289.062	99.19
289.293	81.19
289.524	90.19
289.755	93.19
289.986	64.19
290.217	94.19
290.448	78.19
290.679	69.19
290.91	95.19
291.141	84.19
291.371	81.19
291.602	78.19
291.833	74.19
292.064	83.19
292.295	75.19
292.526	84.19
292.757	79.19
292.987	80.19
293.218	75.19
293.449	75.19
293.68	88.19
293.91	83.19
294.141	80.19
294.372	88.19
294.603	84.19
294.833	79.19
295.064	81.19
295.295	93.19
295.525	77.19
295.756	80.19
295.987	96.19
296.217	92.19
296.448	88.19
296.679	89.19
296.909	80.19
297.14	70.19
297.37	87.19
297.601	88.19
297.831	96.19
298.062	80.19
298.292	78.19
298.523	84.19
298.753	85.19
298.984	79.19
299.214	74.19
299.445	82.19
299.675	81.19
299.905	78.19
300.136	90.19
300.366	102.19
300.597	75.19
300.827	87.19
301.057	85.19
301.288	89.19
301.518	85.19
301.748	83.19
301.979	80.19
302.209	84.19
302.439	82.19
302.669	71.19
302.9	75.19
303.13	82.19
303.36	79.19
303.59	75.19
303.82	89.19
304.051	75.19
304.281	78.19
304.511	65.19
304.741	85.19
304.971	94.19
305.201	84.19
305.431	91.19
305.661	84.19
305.891	82.19
306.121	85.19
306.352	87.19
306.582	85.19
306.812	90.19
307.042	86.19
307.272	72.19
307.502	78.19
307.731	94.19
307.961	86.19
308.191	73.19
308.421	92.19
308.651	82.19
308.881	88.19
309.111	68.19
309.341	74.19
309.571	80.19
309.8	82.19
310.03	88.19
310.26	92.19
310.49	88.19
310.72	85.19
310.949	75.19
311.179	82.19
311.409	74.19
311.639	78.19
311.868	90.19
312.098	74.19
312.328	81.19
312.557	81.19
312.787	79.19
313.017	85.19
313.246	69.19
313.476	80.19
313.706	85.19
313.935	74.19
314.165	72.19
314.394	85.19
314.624	85.19
314.853	71.19
315.083	99.19
315.312	89.19
315.542	90.19
315.771	83.19
316.001	82.19
316.23	94.19
316.46	84.19
316.689	86.19
316.919	85.19
317.148	89.19
317.377	82.19
317.607	72.19
317.836	90.19
318.065	85.19
318.295	93.19
318.524	70.19
318.753	75.19
318.983	83.19
319.212	94.19
319.441	94.19
319.67	81.19
319.9	95.19
320.129	71.19
320.358	87.19
320.587	79.19
320.816	88.19
321.046	85.19
321.275	84.19
321.504	84.19
321.733	80.19
321.962	82.19
322.191	83.19
322.42	78.19
322.649	84.19
322.878	79.19
323.108	80.19
323.337	78.19
323.566	78.19
323.795	84.19
324.024	90.19
324.253	70.19
324.482	83.19
324.71	83.19
324.939	96.19
325.168	87.19
325.397	85.19
325.626	68.19
325.855	75.19
326.084	77.19
326.313	86.19
326.542	78.19
326.77	75.19
326.999	83.19
327.228	91.19
327.457	98.19
327.686	84.19
327.914	74.19
328.143	89.19
328.372	79.19
328.6	66.19
328.829	82.19
329.058	86.19
329.287	94.19
329.515	82.19
329.744	82.19
329.972	67.19
330.201	69.19
330.43	83.19
330.658	87.19
330.887	91.19
331.115	82.19
331.344	72.19
331.572	85.19
331.801	87.19
332.03	80.19
332.258	83.19
332.486	80.19
332.715	81.19
332.943	81.19
333.172	80.19
333.4	86.19
333.629	74.19
333.857	86.19
334.085	78.19
334.314	90.19
334.542	86.19
334.771	85.19
334.999	83.19
335.227	102.19
335.455	87.19
335.684	81.19
335.912	69.19
336.14	78.19
336.369	77.19
336.597	59.19
336.825	74.19
337.053	86.19
337.281	78.19
337.51	77.19
337.738	93.19
337.966	86.19
338.194	81.19
338.422	86.19
338.65	82.19
338.878	80.19
339.106	97.19
339.334	91.19
339.562	87.19
339.79	79.19
340.018	73.19
340.246	88.19
340.474	86.19
340.702	77.19
340.93	72.19
341.158	62.19
341.386	79.19
341.614	81.19
341.842	78.19
342.07	85.19
342.298	78.19
342.526	88.19
342.754	74.19
342.981	89.19
343.209	76.19
343.437	85.19
343.665	99.19
343.893	100.19
344.12	99.19
344.348	83.19
344.576	80.19
344.804	85.19
345.031	98.19
345.259	84.19
345.487	82.19
345.714	80.19
345.942	90.19
346.17	82.19
346.397	71.19
346.625	87.19
346.853	88.19
347.08	86.19
347.308	86.19
347.535	74.19
347.763	100.19
347.99	88.19
348.218	80.19
348.445	69.19
348.673	95.19
348.9	81.19
349.128	82.19
349.355	81.19
349.583	65.19
349.81	75.19
350.037	93.19
350.265	79.19
350.492	77.19
350.72	79.19
350.947	72.19
351.174	86.19
351.402	81.19
351.629	89.19
351.856	74.19
352.083	92.19
352.311	86.19
352.538	89.19
352.765	85.19
352.992	86.19
353.22	75.19
353.447	79.19
353.674	82.19
353.901	90.19
354.128	96.19
354.355	79.19
354.583	70.19
354.81	93.19
355.037	80.19
355.264	79.19
355.491	88.19
355.718	87.19
355.945	69.19
356.172	89.19
356.399	90.19
356.626	80.19
356.853	74.19
357.08	78.19
357.307	92.19
357.534	78.19
357.761	80.19
357.988	73.19
358.215	73.19
358.441	72.19
358.668	93.19
358.895	74.19
359.122	94.19
359.349	78.19
359.576	84.19
359.802	93.19
360.029	93.19
360.256	75.19
360.483	81.19
360.709	79.19
360.936	93.19
361.163	80.19
361.39	78.19
361.616	80.19
361.843	86.19
362.07	78.19
362.296	71.19
362.523	85.19
362.749	77.19
362.976	76.19
363.203	91.19
363.429	79.19
363.656	95.19
363.882	75.19
364.109	83.19
364.335	85.19
364.562	79.19
364.788	77.19
365.015	76.19
365.241	76.19
365.468	81.19
365.694	69.19
365.92	71.19
366.147	86.19
366.373	91.19
366.599	84.19
366.826	80.19
367.052	75.19
367.278	84.19
367.505	93.19
367.731	88.19
367.957	86.19
368.184	86.19
368.41	77.19
368.636	71.19
368.862	85.19
369.089	89.19
369.315	90.19
369.541	76.19
369.767	87.19
369.993	86.19
370.219	86.19
370.445	94.19
370.672	87.19
370.898	71.19
371.124	59.19
371.35	82.19
371.576	85.19
371.802	87.19
372.028	71.19
372.254	70.19
372.48	96.19
372.706	84.19
372.932	89.19
373.158	83.19
373.384	97.19
373.61	96.19
373.835	87.19
374.061	82.19
374.287	88.19
374.513	103.19
374.739	89.19
374.965	94.19
375.191	89.19
375.416	71.19
375.642	79.19
375.868	81.19
376.094	90.19
376.319	74.19
376.545	88.19
376.771	93.19
376.997	88.19
377.222	77.19
377.448	74.19
377.674	83.19
377.899	76.19
378.125	95.19
378.35	94.19
378.576	96.19
378.802	84.19
379.027	66.19
379.253	77.19
379.478	79.19
379.704	80.19
379.929	80.19
380.155	81.19
380.38	94.19
380.606	86.19
380.831	97.19
381.057	87.19
381.282	88.19
381.507	81.19
381.733	80.19
381.958	71.19
382.184	89.19
382.409	88.19
382.634	96.19
382.86	85.19
383.085	75.19
383.31	92.19
383.535	93.19
383.761	81.19
383.986	90.19
384.211	82.19
384.436	101.19
384.662	79.19
384.887	95.19
385.112	91.19
385.337	91.19
385.562	95.19
385.787	89.19
386.013	90.19
386.238	83.19
386.463	83.19
386.688	82.19
386.913	94.19
387.138	82.19
387.363	84.19
387.588	98.19
387.813	89.19
388.038	94.19
388.263	87.19
388.488	105.19
388.713	97.19
388.938	85.19
389.163	95.19
389.387	90.19
389.612	98.19
389.837	87.19
390.062	87.19
390.287	98.19
390.512	83.19
390.736	87.19
390.961	92.19
391.186	93.19
391.411	75.19
391.636	93.19
391.86	107.19
392.085	91.19
392.31	99.19
392.534	99.19
392.759	106.19
392.984	93.19
393.208	103.19
393.433	90.19
393.658	94.19
393.882	90.19
394.107	95.19
394.331	98.19
394.556	94.19
394.78	89.19
395.005	94.19
395.229	89.19
395.454	114.19
395.678	109.19
395.903	102.19
396.127	94.19
396.352	94.19
396.576	94.19
396.801	96.19
397.025	100.19
397.249	110.19
397.474	98.19
397.698	93.19
397.922	104.19
398.147	90.19
398.371	83.19
398.595	103.19
398.82	88.19
399.044	95.19
399.268	113.19
399.492	104.19
399.717	98.19
399.941	107.19
400.165	94.19
400.389	115.19
400.613	104.19
400.837	107.19
401.062	92.19
401.286	95.19
401.51	93.19
401.734	87.19
401.958	100.19
402.182	96.19
402.406	104.19
402.63	118.19
402.854	98.19
403.078	93.19
403.302	107.19
403.526	98.19
403.75	103.19
403.974	112.19
404.198	97.19
404.422	113.19
404.645	112.19
404.869	98.19
405.093	116.19
405.317	125.19
405.541	102.19
405.765	104.19
405.988	106.19
406.212	111.19
406.436	93.19
406.66	105.19
406.883	109.19
407.107	95.19
407.331	113.19
407.555	109.19
407.778	101.19
408.002	110.19
408.226	113.19
408.449	103.19
408.673	112.19
408.896	98.19
409.12	112.19
409.344	114.19
409.567	116.19
409.791	120.19
410.014	107.19
410.238	101.19
410.461	102.19
410.685	102.19
410.908	113.19
411.132	106.19
411.355	114.19
411.578	118.19
411.802	116.19
412.025	105.19
412.249	103.19
412.472	104.19
412.695	118.19
412.919	107.19
413.142	100.19
413.365	114.19
413.589	110.19
413.812	104.19
414.035	109.19
414.258	91.19
414.482	108.19
414.705	105.19
414.928	94.19
415.151	97.19
415.374	97.19
415.597	111.19
415.821	98.19
416.044	92.19
416.267	122.19
416.49	121.19
416.713	103.19
416.936	105.19
417.159	110.19
417.382	111.19
417.605	102.19
417.828	90.19
418.051	99.19
418.274	107.19
418.497	90.19
418.72	91.19
418.943	119.19
419.166	120.19
419.389	122.19
419.611	106.19
419.834	119.19
420.057	117.19
420.28	110.19
420.503	116.19
420.726	106.19
420.948	113.19
421.171	111.19
421.394	110.19
421.617	122.19
421.839	112.19
422.062	105.19
422.285	109.19
422.507	103.19
422.73	106.19
422.953	104.19
423.175	112.19
423.398	105.19
423.621	107.19
423.843	112.19
424.066	98.19
424.288	113.19
424.511	110.19
424.733	111.19
424.956	111.19
425.178	123.19
425.401	114.19
425.623	113.19
425.846	116.19
426.068	114.19
426.291	107.19
426.513	115.19
426.735	98.19
426.958	114.19
427.18	103.19
427.402	109.19
427.625	105.19
427.847	105.19
428.069	107.19
428.292	101.19
428.514	108.19
428.736	121.19
428.958	100.19
429.181	109.19
429.403	85.19
429.625	106.19
429.847	114.19
430.069	117.19
430.292	117.19
430.514	105.19
430.736	112.19
430.958	111.19
431.18	111.19
431.402	111.19
431.624	101.19
431.846	98.19
432.068	110.19
432.29	105.19
432.512	102.19
432.734	99.19
432.956	93.19
433.178	113.19
433.4	127.19
433.622	111.19
433.844	114.19
434.066	109.19
434.287	87.19
434.509	106.19
434.731	89.19
434.953	102.19
435.175	95.19
435.397	111.19
435.618	122.19
435.84	99.19
436.062	100.19
436.284	105.19
436.505	112.19
436.727	97.19
436.949	124.19
437.17	106.19
437.392	98.19
437.614	113.19
437.835	118.19
438.057	97.19
438.278	104.19
438.5	102.19
438.721	114.19
438.943	109.19
439.165	112.19
439.386	117.19
439.608	100.19
439.829	116.19
440.05	114.19
440.272	112.19
440.493	126.19
440.715	122.19
440.936	118.19
441.158	123.19
441.379	121.19
441.6	121.19
441.822	125.19
442.043	106.19
442.264	121.19
442.486	112.19
442.707	110.19
442.928	120.19
443.149	122.19
443.371	114.19
443.592	103.19
443.813	123.19
444.034	110.19
444.255	113.19
444.476	130.19
444.698	118.19
444.919	126.19
445.14	228.19
445.361	161.19
445.582	114.19
445.803	116.19
446.024	124.19
446.245	115.19
446.466	126.19
446.687	98.19
446.908	104.19
447.129	130.19
447.35	101.19
447.571	117.19
447.792	113.19
448.013	107.19
448.234	119.19
448.455	102.19
448.675	97.19
448.896	117.19
449.117	107.19
449.338	109.19
449.559	119.19
449.779	115.19
450	115.19
450.221	96.19
450.442	122.19
450.662	109.19
450.883	117.19
451.104	120.19
451.324	113.19
451.545	117.19
451.766	99.19
451.986	103.19
452.207	104.19
452.428	123.19
452.648	109.19
452.869	104.19
453.089	111.19
453.31	117.19
453.53	80.19
453.751	99.19
453.971	86.19
454.192	90.19
454.412	103.19
454.633	106.19
454.853	95.19
455.073	103.19
455.294	103.19
455.514	95.19
455.734	112.19
455.955	93.19
456.175	98.19
456.395	107.19
456.616	96.19
456.836	88.19
457.056	106.19
457.276	90.19
457.497	101.19
457.717	94.19
457.937	111.19
458.157	105.19
458.377	98.19
458.598	98.19
458.818	90.19
459.038	90.19
459.258	96.19
459.478	97.19
459.698	104.19
459.918	114.19
460.138	100.19
460.358	99.19
460.578	106.19
460.798	114.19
461.018	103.19
461.238	106.19
461.458	115.19
461.678	105.19
461.898	113.19
462.118	113.19
462.338	112.19
462.558	120.19
462.777	113.19
462.997	111.19
463.217	117.19
463.437	123.19
463.657	121.19
463.876	95.19
464.096	101.19
464.316	122.19
464.536	104.19
464.755	137.19
464.975	109.19
465.195	117.19
465.414	102.19
465.634	121.19
465.854	117.19
466.073	122.19
466.293	106.19
466.512	111.19
466.732	119.19
466.951	125.19
467.171	104.19
467.391	121.19
467.61	116.19
467.829	126.19
468.049	125.19
468.268	99.19
468.488	117.19
468.707	107.19
468.927	115.19
469.146	112.19
469.365	116.19
469.585	110.19
469.804	114.19
470.023	115.19
470.243	119.19
470.462	104.19
470.681	113.19
470.901	122.19
471.12	113.19
471.339	119.19
471.558	114.19
471.777	105.19
471.997	104.19
472.216	113.19
472.435	113.19
472.654	117.19
472.873	105.19
473.092	94.19
473.311	119.19
473.53	113.19
473.749	98.19
473.968	113.19
474.187	119.19
474.406	115.19
474.625	111.19
474.844	123.19
475.063	101.19
475.282	107.19
475.501	115.19
475.72	103.19
475.939	105.19
476.158	115.19
476.377	115.19
476.596	112.19
476.814	110.19
477.033	102.19
477.252	111.19
477.471	121.19
477.69	114.19
477.908	123.19
478.127	110.19
478.346	113.19
478.564	113.19
478.783	115.19
479.002	114.19
479.22	122.19
479.439	110.19
479.658	114.19
479.876	113.19
480.095	106.19
480.313	109.19
480.532	109.19
480.751	115.19
480.969	107.19
481.188	122.19
481.406	101.19
481.624	107.19
481.843	97.19
482.061	100.19
482.28	109.19
482.498	115.19
482.717	109.19
482.935	106.19
483.153	117.19
483.372	130.19
483.59	116.19
483.808	111.19
484.027	100.19
484.245	116.19
484.463	112.19
484.681	120.19
484.9	119.19
485.118	117.19
485.336	122.19
485.554	113.19
485.772	110.19
485.99	126.19
486.209	108.19
486.427	118.19
486.645	110.19
486.863	125.19
487.081	137.19
487.299	118.19
487.517	129.19
487.735	134.19
487.953	155.19
488.171	143.19
488.389	126.19
488.607	122.19
488.825	133.19
489.043	135.19
489.261	119.19
489.479	122.19
489.696	145.19
489.914	123.19
490.132	131.19
490.35	152.19
490.568	136.19
490.786	128.19
491.003	129.19
491.221	144.19
491.439	149.19
491.657	141.19
491.874	150.19
492.092	158.19
492.31	149.19
492.527	161.19
492.745	163.19
492.963	142.19
493.18	161.19
493.398	148.19
493.615	140.19
493.833	125.19
494.05	135.19
494.268	150.19
494.485	145.19
494.703	154.19
494.92	152.19
495.138	158.19
495.355	135.19
495.573	140.19
495.79	134.19
496.008	134.19
496.225	142.19
496.442	134.19
496.66	138.19
496.877	129.19
497.094	140.19
497.312	127.19
497.529	133.19
497.746	148.19
497.963	139.19
498.181	137.19
498.398	147.19
498.615	130.19
498.832	140.19
499.049	146.19
499.267	139.19
499.484	164.19
499.701	167.19
499.918	177.19
500.135	201.19
500.352	188.19
500.569	197.19
500.786	210.19
501.003	186.19
501.22	167.19
501.437	173.19
501.654	174.19
501.871	147.19
502.088	143.19
502.305	137.19
502.522	141.19
502.739	137.19
502.956	141.19
503.172	128.19
503.389	113.19
503.606	120.19
503.823	137.19
504.04	125.19
504.256	134.19
504.473	130.19
504.69	134.19
504.907	138.19
505.123	131.19
505.34	132.19
505.557	133.19
505.773	121.19
505.99	123.19
506.207	116.19
506.423	115.19
506.64	123.19
506.856	110.19
507.073	115.19
507.289	138.19
507.506	116.19
507.722	125.19
507.939	137.19
508.155	140.19
508.372	116.19
508.588	115.19
508.805	110.19
509.021	104.19
509.238	125.19
509.454	121.19
509.67	118.19
509.887	111.19
510.103	117.19
510.319	109.19
510.536	109.19
510.752	110.19
510.968	115.19
511.184	111.19
511.401	116.19
511.617	122.19
511.833	85.19
512.049	117.19
512.265	119.19
512.481	103.19
