Data from StandardFe(NO3)3.TAE.3%Agarose.FlatLispGreen.Lamp.Energy10.07252019_HRD10591_11-54-02-439.txt Node
Date: Thu Jul 25 11:54:02 EDT 2019
User: cochatt
Spectrometer: HR+D1059
Trigger mode: 1
Integration Time (sec): 1.000000E-1
Scans to average: 1
Electric dark correction enabled: true
Nonlinearity correction enabled: false
Boxcar width: 0
XAxis mode: Wavelengths
Number of Pixels in Spectrum: 2048
>>>>>Begin Spectral Data<<<<<
223.165	-22.56
223.4	-22.56
223.635	-22.56
223.869	-12.56
224.104	-14.56
224.338	-9.56
224.573	-19.56
224.808	-22.56
225.042	-15.56
225.277	-3.56
225.511	-2.56
225.746	11.44
225.98	1.44
226.215	7.44
226.449	20.44
226.683	21.44
226.918	26.44
227.152	34.44
227.387	34.44
227.621	32.44
227.856	41.44
228.09	46.44
228.324	49.44
228.559	58.44
228.793	50.44
229.027	57.44
229.262	57.44
229.496	66.44
229.73	70.44
229.964	80.44
230.199	72.44
230.433	49.44
230.667	83.44
230.901	77.44
231.136	81.44
231.37	82.44
231.604	76.44
231.838	81.44
232.072	81.44
232.306	68.44
232.541	78.44
232.775	80.44
233.009	87.44
233.243	77.44
233.477	73.44
233.711	85.44
233.945	79.44
234.179	76.44
234.413	80.44
234.647	80.44
234.881	79.44
235.115	83.44
235.349	82.44
235.583	91.44
235.817	66.44
236.051	78.44
236.285	66.44
236.519	86.44
236.753	69.44
236.987	78.44
237.221	85.44
237.455	74.44
237.689	69.44
237.922	70.44
238.156	80.44
238.39	87.44
238.624	78.44
238.858	78.44
239.091	80.44
239.325	85.44
239.559	75.44
239.793	79.44
240.027	82.44
240.26	75.44
240.494	66.44
240.728	82.44
240.961	71.44
241.195	69.44
241.429	80.44
241.662	73.44
241.896	75.44
242.13	79.44
242.363	81.44
242.597	81.44
242.83	78.44
243.064	76.44
243.298	68.44
243.531	77.44
243.765	47.44
243.998	79.44
244.232	72.44
244.465	80.44
244.699	86.44
244.932	74.44
245.166	78.44
245.399	74.44
245.633	87.44
245.866	75.44
246.099	77.44
246.333	75.44
246.566	71.44
246.8	79.44
247.033	89.44
247.266	85.44
247.5	75.44
247.733	78.44
247.966	88.44
248.2	83.44
248.433	73.44
248.666	70.44
248.899	83.44
249.133	96.44
249.366	84.44
249.599	77.44
249.832	69.44
250.066	72.44
250.299	84.44
250.532	75.44
250.765	89.44
250.998	71.44
251.231	75.44
251.465	85.44
251.698	65.44
251.931	61.44
252.164	94.44
252.397	86.44
252.63	85.44
252.863	72.44
253.096	66.44
253.329	67.44
253.562	80.44
253.795	83.44
254.028	72.44
254.261	82.44
254.494	70.44
254.727	86.44
254.96	91.44
255.193	78.44
255.426	88.44
255.659	69.44
255.892	79.44
256.124	63.44
256.357	82.44
256.59	81.44
256.823	79.44
257.056	85.44
257.289	78.44
257.521	64.44
257.754	73.44
257.987	77.44
258.22	87.44
258.452	79.44
258.685	80.44
258.918	81.44
259.151	76.44
259.383	90.44
259.616	86.44
259.849	72.44
260.081	93.44
260.314	94.44
260.547	65.44
260.779	86.44
261.012	74.44
261.244	73.44
261.477	80.44
261.71	74.44
261.942	53.44
262.175	85.44
262.407	82.44
262.64	90.44
262.872	83.44
263.105	80.44
263.337	84.44
263.57	86.44
263.802	84.44
264.035	89.44
264.267	80.44
264.499	81.44
264.732	63.44
264.964	72.44
265.197	76.44
265.429	76.44
265.661	83.44
265.894	92.44
266.126	90.44
266.358	89.44
266.591	75.44
266.823	70.44
267.055	87.44
267.287	76.44
267.52	83.44
267.752	88.44
267.984	75.44
268.216	95.44
268.448	88.44
268.681	70.44
268.913	72.44
269.145	63.44
269.377	74.44
269.609	80.44
269.841	79.44
270.073	70.44
270.306	83.44
270.538	76.44
270.77	90.44
271.002	75.44
271.234	84.44
271.466	83.44
271.698	72.44
271.93	54.44
272.162	90.44
272.394	82.44
272.626	95.44
272.858	79.44
273.09	95.44
273.322	85.44
273.553	84.44
273.785	82.44
274.017	72.44
274.249	83.44
274.481	90.44
274.713	79.44
274.945	79.44
275.176	85.44
275.408	75.44
275.64	63.44
275.872	82.44
276.104	80.44
276.335	89.44
276.567	58.44
276.799	83.44
277.031	88.44
277.262	78.44
277.494	82.44
277.726	91.44
277.957	75.44
278.189	60.44
278.421	87.44
278.652	87.44
278.884	88.44
279.115	89.44
279.347	71.44
279.579	86.44
279.81	83.44
280.042	88.44
280.273	82.44
280.505	87.44
280.736	95.44
280.968	83.44
281.199	84.44
281.431	70.44
281.662	82.44
281.894	85.44
282.125	82.44
282.356	77.44
282.588	91.44
282.819	85.44
283.051	79.44
283.282	84.44
283.513	93.44
283.745	94.44
283.976	75.44
284.207	85.44
284.439	76.44
284.67	71.44
284.901	75.44
285.132	87.44
285.364	88.44
285.595	71.44
285.826	81.44
286.057	71.44
286.288	68.44
286.52	73.44
286.751	73.44
286.982	88.44
287.213	80.44
287.444	78.44
287.675	83.44
287.906	75.44
288.138	82.44
288.369	106.44
288.6	103.44
288.831	74.44
289.062	93.44
289.293	89.44
289.524	88.44
289.755	65.44
289.986	79.44
290.217	74.44
290.448	63.44
290.679	86.44
290.91	81.44
291.141	77.44
291.371	97.44
291.602	85.44
291.833	80.44
292.064	90.44
292.295	72.44
292.526	76.44
292.757	95.44
292.987	83.44
293.218	88.44
293.449	74.44
293.68	86.44
293.91	77.44
294.141	77.44
294.372	88.44
294.603	74.44
294.833	83.44
295.064	87.44
295.295	77.44
295.525	88.44
295.756	89.44
295.987	91.44
296.217	76.44
296.448	85.44
296.679	83.44
296.909	79.44
297.14	86.44
297.37	90.44
297.601	78.44
297.831	78.44
298.062	85.44
298.292	82.44
298.523	79.44
298.753	81.44
298.984	68.44
299.214	81.44
299.445	98.44
299.675	79.44
299.905	75.44
300.136	77.44
300.366	67.44
300.597	76.44
300.827	89.44
301.057	91.44
301.288	79.44
301.518	73.44
301.748	86.44
301.979	93.44
302.209	85.44
302.439	91.44
302.669	86.44
302.9	81.44
303.13	78.44
303.36	83.44
303.59	90.44
303.82	81.44
304.051	88.44
304.281	79.44
304.511	84.44
304.741	92.44
304.971	78.44
305.201	90.44
305.431	85.44
305.661	81.44
305.891	74.44
306.121	81.44
306.352	69.44
306.582	99.44
306.812	90.44
307.042	93.44
307.272	92.44
307.502	85.44
307.731	87.44
307.961	77.44
308.191	91.44
308.421	89.44
308.651	82.44
308.881	70.44
309.111	88.44
309.341	76.44
309.571	86.44
309.8	79.44
310.03	81.44
310.26	81.44
310.49	90.44
310.72	80.44
310.949	82.44
311.179	80.44
311.409	75.44
311.639	73.44
311.868	80.44
312.098	76.44
312.328	73.44
312.557	81.44
312.787	74.44
313.017	71.44
313.246	82.44
313.476	94.44
313.706	84.44
313.935	78.44
314.165	86.44
314.394	73.44
314.624	72.44
314.853	84.44
315.083	88.44
315.312	86.44
315.542	73.44
315.771	71.44
316.001	90.44
316.23	85.44
316.46	81.44
316.689	72.44
316.919	77.44
317.148	85.44
317.377	88.44
317.607	92.44
317.836	73.44
318.065	89.44
318.295	81.44
318.524	77.44
318.753	81.44
318.983	89.44
319.212	89.44
319.441	84.44
319.67	83.44
319.9	81.44
320.129	77.44
320.358	87.44
320.587	66.44
320.816	74.44
321.046	82.44
321.275	99.44
321.504	87.44
321.733	97.44
321.962	77.44
322.191	91.44
322.42	83.44
322.649	80.44
322.878	89.44
323.108	78.44
323.337	89.44
323.566	85.44
323.795	75.44
324.024	75.44
324.253	81.44
324.482	79.44
324.71	79.44
324.939	80.44
325.168	83.44
325.397	75.44
325.626	73.44
325.855	64.44
326.084	81.44
326.313	84.44
326.542	86.44
326.77	69.44
326.999	79.44
327.228	94.44
327.457	84.44
327.686	87.44
327.914	94.44
328.143	81.44
328.372	89.44
328.6	77.44
328.829	77.44
329.058	83.44
329.287	84.44
329.515	89.44
329.744	83.44
329.972	75.44
330.201	83.44
330.43	72.44
330.658	77.44
330.887	82.44
331.115	76.44
331.344	74.44
331.572	77.44
331.801	83.44
332.03	90.44
332.258	93.44
332.486	89.44
332.715	76.44
332.943	81.44
333.172	82.44
333.4	81.44
333.629	97.44
333.857	55.44
334.085	71.44
334.314	65.44
334.542	77.44
334.771	74.44
334.999	86.44
335.227	77.44
335.455	79.44
335.684	82.44
335.912	78.44
336.14	86.44
336.369	94.44
336.597	90.44
336.825	78.44
337.053	73.44
337.281	81.44
337.51	87.44
337.738	86.44
337.966	74.44
338.194	78.44
338.422	87.44
338.65	89.44
338.878	79.44
339.106	94.44
339.334	90.44
339.562	70.44
339.79	76.44
340.018	63.44
340.246	84.44
340.474	94.44
340.702	94.44
340.93	85.44
341.158	83.44
341.386	75.44
341.614	89.44
341.842	82.44
342.07	67.44
342.298	75.44
342.526	80.44
342.754	81.44
342.981	89.44
343.209	61.44
343.437	74.44
343.665	69.44
343.893	91.44
344.12	95.44
344.348	73.44
344.576	96.44
344.804	88.44
345.031	79.44
345.259	93.44
345.487	83.44
345.714	65.44
345.942	86.44
346.17	86.44
346.397	90.44
346.625	82.44
346.853	88.44
347.08	74.44
347.308	89.44
347.535	94.44
347.763	79.44
347.99	72.44
348.218	90.44
348.445	81.44
348.673	79.44
348.9	95.44
349.128	88.44
349.355	69.44
349.583	90.44
349.81	87.44
350.037	81.44
350.265	77.44
350.492	91.44
350.72	78.44
350.947	93.44
351.174	83.44
351.402	87.44
351.629	68.44
351.856	77.44
352.083	82.44
352.311	85.44
352.538	91.44
352.765	93.44
352.992	97.44
353.22	70.44
353.447	81.44
353.674	89.44
353.901	94.44
354.128	79.44
354.355	91.44
354.583	84.44
354.81	79.44
355.037	78.44
355.264	84.44
355.491	88.44
355.718	85.44
355.945	79.44
356.172	89.44
356.399	98.44
356.626	82.44
356.853	81.44
357.08	83.44
357.307	97.44
357.534	85.44
357.761	74.44
357.988	88.44
358.215	88.44
358.441	87.44
358.668	89.44
358.895	84.44
359.122	71.44
359.349	75.44
359.576	99.44
359.802	85.44
360.029	83.44
360.256	85.44
360.483	80.44
360.709	80.44
360.936	86.44
361.163	85.44
361.39	74.44
361.616	69.44
361.843	81.44
362.07	83.44
362.296	82.44
362.523	82.44
362.749	92.44
362.976	75.44
363.203	84.44
363.429	88.44
363.656	83.44
363.882	76.44
364.109	75.44
364.335	90.44
364.562	91.44
364.788	85.44
365.015	76.44
365.241	87.44
365.468	91.44
365.694	87.44
365.92	88.44
366.147	78.44
366.373	83.44
366.599	87.44
366.826	86.44
367.052	82.44
367.278	89.44
367.505	74.44
367.731	88.44
367.957	88.44
368.184	76.44
368.41	74.44
368.636	85.44
368.862	94.44
369.089	76.44
369.315	94.44
369.541	94.44
369.767	87.44
369.993	75.44
370.219	82.44
370.445	85.44
370.672	95.44
370.898	86.44
371.124	91.44
371.35	68.44
371.576	74.44
371.802	74.44
372.028	81.44
372.254	82.44
372.48	88.44
372.706	77.44
372.932	81.44
373.158	97.44
373.384	93.44
373.61	82.44
373.835	78.44
374.061	89.44
374.287	92.44
374.513	85.44
374.739	87.44
374.965	71.44
375.191	101.44
375.416	82.44
375.642	99.44
375.868	92.44
376.094	89.44
376.319	86.44
376.545	87.44
376.771	99.44
376.997	92.44
377.222	96.44
377.448	83.44
377.674	89.44
377.899	79.44
378.125	74.44
378.35	91.44
378.576	72.44
378.802	83.44
379.027	93.44
379.253	85.44
379.478	90.44
379.704	98.44
379.929	86.44
380.155	93.44
380.38	97.44
380.606	88.44
380.831	91.44
381.057	103.44
381.282	87.44
381.507	80.44
381.733	82.44
381.958	88.44
382.184	89.44
382.409	87.44
382.634	90.44
382.86	86.44
383.085	93.44
383.31	72.44
383.535	74.44
383.761	87.44
383.986	75.44
384.211	87.44
384.436	97.44
384.662	102.44
384.887	93.44
385.112	80.44
385.337	98.44
385.562	84.44
385.787	83.44
386.013	85.44
386.238	84.44
386.463	93.44
386.688	101.44
386.913	92.44
387.138	93.44
387.363	104.44
387.588	83.44
387.813	98.44
388.038	91.44
388.263	86.44
388.488	89.44
388.713	94.44
388.938	87.44
389.163	101.44
389.387	115.44
389.612	92.44
389.837	88.44
390.062	96.44
390.287	85.44
390.512	83.44
390.736	89.44
390.961	80.44
391.186	87.44
391.411	91.44
391.636	99.44
391.86	99.44
392.085	112.44
392.31	87.44
392.534	99.44
392.759	94.44
392.984	91.44
393.208	98.44
393.433	90.44
393.658	103.44
393.882	94.44
394.107	81.44
394.331	91.44
394.556	88.44
394.78	104.44
395.005	112.44
395.229	103.44
395.454	103.44
395.678	108.44
395.903	93.44
396.127	102.44
396.352	102.44
396.576	99.44
396.801	95.44
397.025	116.44
397.249	94.44
397.474	101.44
397.698	94.44
397.922	91.44
398.147	92.44
398.371	85.44
398.595	98.44
398.82	97.44
399.044	99.44
399.268	108.44
399.492	108.44
399.717	112.44
399.941	116.44
400.165	105.44
400.389	100.44
400.613	99.44
400.837	91.44
401.062	112.44
401.286	104.44
401.51	101.44
401.734	105.44
401.958	109.44
402.182	109.44
402.406	98.44
402.63	114.44
402.854	102.44
403.078	111.44
403.302	97.44
403.526	98.44
403.75	102.44
403.974	116.44
404.198	130.44
404.422	131.44
404.645	104.44
404.869	99.44
405.093	116.44
405.317	105.44
405.541	114.44
405.765	102.44
405.988	105.44
406.212	109.44
406.436	104.44
406.66	119.44
406.883	117.44
407.107	124.44
407.331	111.44
407.555	117.44
407.778	117.44
408.002	109.44
408.226	107.44
408.449	108.44
408.673	109.44
408.896	109.44
409.12	97.44
409.344	115.44
409.567	111.44
409.791	122.44
410.014	114.44
410.238	112.44
410.461	110.44
410.685	125.44
410.908	111.44
411.132	117.44
411.355	96.44
411.578	109.44
411.802	121.44
412.025	111.44
412.249	93.44
412.472	100.44
412.695	108.44
412.919	98.44
413.142	105.44
413.365	113.44
413.589	107.44
413.812	115.44
414.035	119.44
414.258	106.44
414.482	104.44
414.705	106.44
414.928	120.44
415.151	115.44
415.374	110.44
415.597	101.44
415.821	117.44
416.044	109.44
416.267	109.44
416.49	108.44
416.713	119.44
416.936	117.44
417.159	99.44
417.382	101.44
417.605	101.44
417.828	104.44
418.051	118.44
418.274	107.44
418.497	117.44
418.72	113.44
418.943	100.44
419.166	100.44
419.389	115.44
419.611	110.44
419.834	122.44
420.057	120.44
420.28	111.44
420.503	106.44
420.726	97.44
420.948	121.44
421.171	100.44
421.394	99.44
421.617	121.44
421.839	119.44
422.062	115.44
422.285	122.44
422.507	125.44
422.73	104.44
422.953	105.44
423.175	116.44
423.398	102.44
423.621	101.44
423.843	109.44
424.066	119.44
424.288	111.44
424.511	109.44
424.733	119.44
424.956	123.44
425.178	113.44
425.401	114.44
425.623	121.44
425.846	114.44
426.068	118.44
426.291	110.44
426.513	115.44
426.735	114.44
426.958	95.44
427.18	114.44
427.402	98.44
427.625	104.44
427.847	109.44
428.069	102.44
428.292	116.44
428.514	106.44
428.736	109.44
428.958	105.44
429.181	103.44
429.403	112.44
429.625	108.44
429.847	118.44
430.069	109.44
430.292	106.44
430.514	102.44
430.736	115.44
430.958	105.44
431.18	93.44
431.402	93.44
431.624	108.44
431.846	96.44
432.068	102.44
432.29	105.44
432.512	129.44
432.734	96.44
432.956	121.44
433.178	115.44
433.4	102.44
433.622	109.44
433.844	121.44
434.066	114.44
434.287	112.44
434.509	106.44
434.731	97.44
434.953	105.44
435.175	113.44
435.397	117.44
435.618	110.44
435.84	110.44
436.062	105.44
436.284	112.44
436.505	114.44
436.727	98.44
436.949	120.44
437.17	106.44
437.392	117.44
437.614	112.44
437.835	114.44
438.057	105.44
438.278	107.44
438.5	111.44
438.721	121.44
438.943	110.44
439.165	114.44
439.386	103.44
439.608	117.44
439.829	115.44
440.05	119.44
440.272	125.44
440.493	122.44
440.715	105.44
440.936	129.44
441.158	132.44
441.379	120.44
441.6	132.44
441.822	126.44
442.043	111.44
442.264	123.44
442.486	125.44
442.707	111.44
442.928	125.44
443.149	125.44
443.371	134.44
443.592	115.44
443.813	113.44
444.034	118.44
444.255	119.44
444.476	122.44
444.698	119.44
444.919	125.44
445.14	228.44
445.361	184.44
445.582	147.44
445.803	113.44
446.024	122.44
446.245	116.44
446.466	135.44
446.687	116.44
446.908	123.44
447.129	115.44
447.35	116.44
447.571	122.44
447.792	111.44
448.013	112.44
448.234	102.44
448.455	115.44
448.675	123.44
448.896	120.44
449.117	109.44
449.338	118.44
449.559	113.44
449.779	103.44
450	109.44
450.221	114.44
450.442	104.44
450.662	115.44
450.883	109.44
451.104	120.44
451.324	119.44
451.545	124.44
451.766	118.44
451.986	111.44
452.207	106.44
452.428	109.44
452.648	110.44
452.869	94.44
453.089	97.44
453.31	105.44
453.53	113.44
453.751	101.44
453.971	105.44
454.192	91.44
454.412	100.44
454.633	96.44
454.853	102.44
455.073	97.44
455.294	114.44
455.514	113.44
455.734	114.44
455.955	99.44
456.175	94.44
456.395	102.44
456.616	102.44
456.836	113.44
457.056	99.44
457.276	98.44
457.497	95.44
457.717	104.44
457.937	111.44
458.157	95.44
458.377	96.44
458.598	105.44
458.818	87.44
459.038	102.44
459.258	94.44
459.478	102.44
459.698	101.44
459.918	110.44
460.138	102.44
460.358	123.44
460.578	103.44
460.798	98.44
461.018	97.44
461.238	101.44
461.458	112.44
461.678	108.44
461.898	116.44
462.118	122.44
462.338	112.44
462.558	121.44
462.777	115.44
462.997	120.44
463.217	116.44
463.437	117.44
463.657	118.44
463.876	116.44
464.096	124.44
464.316	113.44
464.536	119.44
464.755	103.44
464.975	105.44
465.195	117.44
465.414	119.44
465.634	128.44
465.854	113.44
466.073	107.44
466.293	114.44
466.512	105.44
466.732	111.44
466.951	119.44
467.171	127.44
467.391	104.44
467.61	108.44
467.829	119.44
468.049	111.44
468.268	108.44
468.488	115.44
468.707	120.44
468.927	115.44
469.146	104.44
469.365	111.44
469.585	127.44
469.804	111.44
470.023	122.44
470.243	114.44
470.462	134.44
470.681	102.44
470.901	115.44
471.12	129.44
471.339	121.44
471.558	121.44
471.777	120.44
471.997	117.44
472.216	107.44
472.435	102.44
472.654	101.44
472.873	102.44
473.092	110.44
473.311	103.44
473.53	119.44
473.749	117.44
473.968	112.44
474.187	99.44
474.406	90.44
474.625	109.44
474.844	117.44
475.063	116.44
475.282	114.44
475.501	103.44
475.72	117.44
475.939	116.44
476.158	112.44
476.377	121.44
476.596	108.44
476.814	102.44
477.033	106.44
477.252	119.44
477.471	125.44
477.69	127.44
477.908	126.44
478.127	123.44
478.346	127.44
478.564	130.44
478.783	126.44
479.002	127.44
479.22	125.44
479.439	130.44
479.658	117.44
479.876	110.44
480.095	118.44
480.313	124.44
480.532	117.44
480.751	114.44
480.969	95.44
481.188	118.44
481.406	109.44
481.624	116.44
481.843	100.44
482.061	111.44
482.28	95.44
482.498	115.44
482.717	110.44
482.935	113.44
483.153	121.44
483.372	128.44
483.59	129.44
483.808	131.44
484.027	121.44
484.245	117.44
484.463	122.44
484.681	145.44
484.9	120.44
485.118	117.44
485.336	115.44
485.554	105.44
485.772	106.44
485.99	123.44
486.209	122.44
486.427	132.44
486.645	116.44
486.863	119.44
487.081	117.44
487.299	120.44
487.517	98.44
487.735	137.44
487.953	149.44
488.171	144.44
488.389	147.44
488.607	127.44
488.825	113.44
489.043	121.44
489.261	134.44
489.479	126.44
489.696	110.44
489.914	128.44
490.132	134.44
490.35	135.44
490.568	131.44
490.786	143.44
491.003	143.44
491.221	138.44
491.439	155.44
491.657	141.44
491.874	153.44
492.092	158.44
492.31	161.44
492.527	158.44
492.745	154.44
492.963	151.44
493.18	155.44
493.398	150.44
493.615	143.44
493.833	147.44
494.05	153.44
494.268	160.44
494.485	154.44
494.703	149.44
494.92	141.44
495.138	152.44
495.355	160.44
495.573	159.44
495.79	156.44
496.008	149.44
496.225	143.44
496.442	152.44
496.66	151.44
496.877	125.44
497.094	151.44
497.312	138.44
497.529	149.44
497.746	153.44
497.963	153.44
498.181	136.44
498.398	122.44
498.615	132.44
498.832	148.44
499.049	145.44
499.267	158.44
499.484	155.44
499.701	183.44
499.918	164.44
500.135	178.44
500.352	206.44
500.569	214.44
500.786	223.44
501.003	201.44
501.22	187.44
501.437	191.44
501.654	166.44
501.871	156.44
502.088	156.44
502.305	148.44
502.522	151.44
502.739	148.44
502.956	148.44
503.172	131.44
503.389	144.44
503.606	114.44
503.823	119.44
504.04	131.44
504.256	121.44
504.473	139.44
504.69	147.44
504.907	144.44
505.123	125.44
505.34	127.44
505.557	125.44
505.773	133.44
505.99	139.44
506.207	126.44
506.423	122.44
506.64	121.44
506.856	129.44
507.073	122.44
507.289	125.44
507.506	127.44
507.722	124.44
507.939	119.44
508.155	118.44
508.372	111.44
508.588	124.44
508.805	122.44
509.021	114.44
509.238	96.44
509.454	106.44
509.67	111.44
509.887	118.44
510.103	106.44
510.319	95.44
510.536	118.44
510.752	103.44
510.968	106.44
511.184	104.44
511.401	110.44
511.617	109.44
511.833	111.44
512.049	99.44
512.265	113.44
