Data from StandardFe(NO3)3.TAE.3%Agarose.FlatLispGreen.Lamp.Energy10.07252019_HRD10591_11-54-19-440.txt Node
Date: Thu Jul 25 11:54:19 EDT 2019
User: cochatt
Spectrometer: HR+D1059
Trigger mode: 1
Integration Time (sec): 1.000000E-1
Scans to average: 1
Electric dark correction enabled: true
Nonlinearity correction enabled: false
Boxcar width: 0
XAxis mode: Wavelengths
Number of Pixels in Spectrum: 2048
>>>>>Begin Spectral Data<<<<<
223.165	-11.75
223.4	-11.75
223.635	-11.75
223.869	-20.75
224.104	-12.75
224.338	-10.75
224.573	-12.75
224.808	-6.75
225.042	0.25
225.277	-9.75
225.511	-4.75
225.746	-9.75
225.98	8.25
226.215	7.25
226.449	5.25
226.683	21.25
226.918	31.25
227.152	26.25
227.387	22.25
227.621	46.25
227.856	45.25
228.09	43.25
228.324	50.25
228.559	66.25
228.793	49.25
229.027	56.25
229.262	61.25
229.496	73.25
229.73	79.25
229.964	78.25
230.199	92.25
230.433	90.25
230.667	77.25
230.901	94.25
231.136	66.25
231.37	78.25
231.604	69.25
231.838	83.25
232.072	85.25
232.306	89.25
232.541	77.25
232.775	77.25
233.009	86.25
233.243	67.25
233.477	77.25
233.711	64.25
233.945	76.25
234.179	84.25
234.413	87.25
234.647	85.25
234.881	78.25
235.115	77.25
235.349	103.25
235.583	65.25
235.817	94.25
236.051	69.25
236.285	94.25
236.519	75.25
236.753	74.25
236.987	80.25
237.221	100.25
237.455	87.25
237.689	81.25
237.922	75.25
238.156	75.25
238.39	79.25
238.624	77.25
238.858	91.25
239.091	85.25
239.325	73.25
239.559	66.25
239.793	85.25
240.027	96.25
240.26	75.25
240.494	86.25
240.728	77.25
240.961	74.25
241.195	63.25
241.429	65.25
241.662	66.25
241.896	77.25
242.13	69.25
242.363	80.25
242.597	64.25
242.83	75.25
243.064	74.25
243.298	77.25
243.531	89.25
243.765	90.25
243.998	83.25
244.232	79.25
244.465	69.25
244.699	93.25
244.932	89.25
245.166	88.25
245.399	83.25
245.633	76.25
245.866	83.25
246.099	80.25
246.333	89.25
246.566	69.25
246.8	80.25
247.033	82.25
247.266	83.25
247.5	69.25
247.733	81.25
247.966	79.25
248.2	70.25
248.433	84.25
248.666	75.25
248.899	77.25
249.133	99.25
249.366	87.25
249.599	75.25
249.832	96.25
250.066	80.25
250.299	79.25
250.532	70.25
250.765	77.25
250.998	86.25
251.231	79.25
251.465	79.25
251.698	90.25
251.931	75.25
252.164	71.25
252.397	74.25
252.63	90.25
252.863	78.25
253.096	84.25
253.329	81.25
253.562	78.25
253.795	76.25
254.028	76.25
254.261	83.25
254.494	75.25
254.727	92.25
254.96	87.25
255.193	79.25
255.426	84.25
255.659	98.25
255.892	73.25
256.124	70.25
256.357	81.25
256.59	76.25
256.823	89.25
257.056	83.25
257.289	77.25
257.521	79.25
257.754	72.25
257.987	74.25
258.22	94.25
258.452	83.25
258.685	76.25
258.918	78.25
259.151	93.25
259.383	82.25
259.616	78.25
259.849	63.25
260.081	74.25
260.314	87.25
260.547	83.25
260.779	60.25
261.012	83.25
261.244	99.25
261.477	76.25
261.71	89.25
261.942	88.25
262.175	68.25
262.407	78.25
262.64	86.25
262.872	81.25
263.105	74.25
263.337	98.25
263.57	84.25
263.802	67.25
264.035	81.25
264.267	79.25
264.499	80.25
264.732	80.25
264.964	78.25
265.197	94.25
265.429	85.25
265.661	91.25
265.894	82.25
266.126	93.25
266.358	89.25
266.591	88.25
266.823	94.25
267.055	85.25
267.287	66.25
267.52	97.25
267.752	81.25
267.984	89.25
268.216	83.25
268.448	94.25
268.681	80.25
268.913	85.25
269.145	85.25
269.377	76.25
269.609	77.25
269.841	78.25
270.073	74.25
270.306	79.25
270.538	88.25
270.77	86.25
271.002	85.25
271.234	95.25
271.466	81.25
271.698	93.25
271.93	65.25
272.162	84.25
272.394	88.25
272.626	74.25
272.858	86.25
273.09	94.25
273.322	83.25
273.553	86.25
273.785	90.25
274.017	78.25
274.249	73.25
274.481	95.25
274.713	84.25
274.945	89.25
275.176	97.25
275.408	85.25
275.64	100.25
275.872	78.25
276.104	75.25
276.335	68.25
276.567	79.25
276.799	93.25
277.031	74.25
277.262	82.25
277.494	107.25
277.726	87.25
277.957	88.25
278.189	85.25
278.421	87.25
278.652	82.25
278.884	82.25
279.115	84.25
279.347	93.25
279.579	89.25
279.81	83.25
280.042	79.25
280.273	86.25
280.505	90.25
280.736	85.25
280.968	87.25
281.199	89.25
281.431	77.25
281.662	97.25
281.894	91.25
282.125	74.25
282.356	76.25
282.588	78.25
282.819	79.25
283.051	86.25
283.282	73.25
283.513	81.25
283.745	78.25
283.976	103.25
284.207	67.25
284.439	86.25
284.67	90.25
284.901	98.25
285.132	81.25
285.364	100.25
285.595	85.25
285.826	86.25
286.057	79.25
286.288	68.25
286.52	90.25
286.751	82.25
286.982	66.25
287.213	74.25
287.444	83.25
287.675	85.25
287.906	96.25
288.138	88.25
288.369	91.25
288.6	91.25
288.831	87.25
289.062	92.25
289.293	98.25
289.524	93.25
289.755	82.25
289.986	80.25
290.217	89.25
290.448	88.25
290.679	86.25
290.91	93.25
291.141	94.25
291.371	99.25
291.602	90.25
291.833	79.25
292.064	88.25
292.295	86.25
292.526	74.25
292.757	96.25
292.987	94.25
293.218	92.25
293.449	93.25
293.68	92.25
293.91	98.25
294.141	87.25
294.372	87.25
294.603	88.25
294.833	87.25
295.064	93.25
295.295	95.25
295.525	103.25
295.756	87.25
295.987	86.25
296.217	70.25
296.448	91.25
296.679	72.25
296.909	87.25
297.14	89.25
297.37	84.25
297.601	90.25
297.831	91.25
298.062	79.25
298.292	86.25
298.523	91.25
298.753	73.25
298.984	85.25
299.214	83.25
299.445	85.25
299.675	71.25
299.905	96.25
300.136	90.25
300.366	91.25
300.597	97.25
300.827	91.25
301.057	84.25
301.288	99.25
301.518	94.25
301.748	71.25
301.979	78.25
302.209	93.25
302.439	82.25
302.669	86.25
302.9	68.25
303.13	77.25
303.36	93.25
303.59	79.25
303.82	94.25
304.051	81.25
304.281	86.25
304.511	79.25
304.741	91.25
304.971	78.25
305.201	85.25
305.431	92.25
305.661	94.25
305.891	88.25
306.121	84.25
306.352	78.25
306.582	92.25
306.812	87.25
307.042	96.25
307.272	77.25
307.502	96.25
307.731	99.25
307.961	83.25
308.191	83.25
308.421	86.25
308.651	91.25
308.881	89.25
309.111	99.25
309.341	100.25
309.571	83.25
309.8	73.25
310.03	83.25
310.26	92.25
310.49	93.25
310.72	85.25
310.949	94.25
311.179	81.25
311.409	92.25
311.639	96.25
311.868	89.25
312.098	89.25
312.328	69.25
312.557	85.25
312.787	75.25
313.017	95.25
313.246	77.25
313.476	98.25
313.706	68.25
313.935	88.25
314.165	82.25
314.394	80.25
314.624	101.25
314.853	96.25
315.083	91.25
315.312	81.25
315.542	83.25
315.771	90.25
316.001	97.25
316.23	89.25
316.46	89.25
316.689	77.25
316.919	72.25
317.148	79.25
317.377	79.25
317.607	89.25
317.836	70.25
318.065	98.25
318.295	87.25
318.524	83.25
318.753	92.25
318.983	89.25
319.212	91.25
319.441	97.25
319.67	91.25
319.9	98.25
320.129	84.25
320.358	89.25
320.587	84.25
320.816	89.25
321.046	86.25
321.275	86.25
321.504	89.25
321.733	91.25
321.962	95.25
322.191	83.25
322.42	82.25
322.649	74.25
322.878	87.25
323.108	81.25
323.337	92.25
323.566	77.25
323.795	83.25
324.024	83.25
324.253	82.25
324.482	89.25
324.71	92.25
324.939	78.25
325.168	101.25
325.397	84.25
325.626	91.25
325.855	87.25
326.084	76.25
326.313	72.25
326.542	86.25
326.77	97.25
326.999	85.25
327.228	97.25
327.457	93.25
327.686	86.25
327.914	83.25
328.143	85.25
328.372	82.25
328.6	84.25
328.829	89.25
329.058	85.25
329.287	87.25
329.515	83.25
329.744	79.25
329.972	92.25
330.201	104.25
330.43	65.25
330.658	81.25
330.887	76.25
331.115	74.25
331.344	93.25
331.572	99.25
331.801	75.25
332.03	74.25
332.258	91.25
332.486	89.25
332.715	82.25
332.943	86.25
333.172	86.25
333.4	75.25
333.629	91.25
333.857	86.25
334.085	83.25
334.314	77.25
334.542	95.25
334.771	83.25
334.999	85.25
335.227	99.25
335.455	95.25
335.684	97.25
335.912	90.25
336.14	87.25
336.369	86.25
336.597	76.25
336.825	85.25
337.053	86.25
337.281	74.25
337.51	79.25
337.738	86.25
337.966	91.25
338.194	90.25
338.422	86.25
338.65	103.25
338.878	95.25
339.106	85.25
339.334	96.25
339.562	87.25
339.79	91.25
340.018	92.25
340.246	78.25
340.474	80.25
340.702	93.25
340.93	97.25
341.158	93.25
341.386	97.25
341.614	83.25
341.842	81.25
342.07	71.25
342.298	77.25
342.526	92.25
342.754	89.25
342.981	88.25
343.209	91.25
343.437	85.25
343.665	81.25
343.893	87.25
344.12	98.25
344.348	70.25
344.576	77.25
344.804	80.25
345.031	95.25
345.259	84.25
345.487	93.25
345.714	93.25
345.942	87.25
346.17	88.25
346.397	91.25
346.625	90.25
346.853	91.25
347.08	75.25
347.308	93.25
347.535	83.25
347.763	101.25
347.99	87.25
348.218	88.25
348.445	85.25
348.673	80.25
348.9	89.25
349.128	96.25
349.355	98.25
349.583	92.25
349.81	94.25
350.037	93.25
350.265	83.25
350.492	90.25
350.72	88.25
350.947	110.25
351.174	67.25
351.402	83.25
351.629	88.25
351.856	100.25
352.083	91.25
352.311	95.25
352.538	88.25
352.765	95.25
352.992	94.25
353.22	94.25
353.447	90.25
353.674	94.25
353.901	97.25
354.128	89.25
354.355	94.25
354.583	93.25
354.81	81.25
355.037	90.25
355.264	87.25
355.491	87.25
355.718	83.25
355.945	98.25
356.172	75.25
356.399	91.25
356.626	86.25
356.853	79.25
357.08	90.25
357.307	96.25
357.534	81.25
357.761	91.25
357.988	91.25
358.215	75.25
358.441	72.25
358.668	91.25
358.895	89.25
359.122	104.25
359.349	87.25
359.576	77.25
359.802	81.25
360.029	87.25
360.256	85.25
360.483	90.25
360.709	90.25
360.936	86.25
361.163	78.25
361.39	91.25
361.616	92.25
361.843	84.25
362.07	90.25
362.296	93.25
362.523	86.25
362.749	94.25
362.976	85.25
363.203	89.25
363.429	90.25
363.656	85.25
363.882	94.25
364.109	73.25
364.335	80.25
364.562	97.25
364.788	91.25
365.015	91.25
365.241	88.25
365.468	92.25
365.694	83.25
365.92	76.25
366.147	96.25
366.373	78.25
366.599	83.25
366.826	92.25
367.052	96.25
367.278	87.25
367.505	78.25
367.731	83.25
367.957	90.25
368.184	89.25
368.41	86.25
368.636	81.25
368.862	94.25
369.089	77.25
369.315	82.25
369.541	101.25
369.767	81.25
369.993	100.25
370.219	72.25
370.445	86.25
370.672	93.25
370.898	100.25
371.124	96.25
371.35	91.25
371.576	97.25
371.802	78.25
372.028	76.25
372.254	90.25
372.48	95.25
372.706	92.25
372.932	93.25
373.158	94.25
373.384	102.25
373.61	86.25
373.835	88.25
374.061	82.25
374.287	84.25
374.513	94.25
374.739	87.25
374.965	79.25
375.191	98.25
375.416	101.25
375.642	88.25
375.868	89.25
376.094	99.25
376.319	103.25
376.545	82.25
376.771	93.25
376.997	92.25
377.222	103.25
377.448	86.25
377.674	96.25
377.899	97.25
378.125	99.25
378.35	84.25
378.576	78.25
378.802	91.25
379.027	92.25
379.253	93.25
379.478	93.25
379.704	99.25
379.929	94.25
380.155	94.25
380.38	91.25
380.606	80.25
380.831	82.25
381.057	99.25
381.282	97.25
381.507	101.25
381.733	104.25
381.958	97.25
382.184	107.25
382.409	84.25
382.634	87.25
382.86	100.25
383.085	96.25
383.31	96.25
383.535	91.25
383.761	84.25
383.986	110.25
384.211	98.25
384.436	90.25
384.662	94.25
384.887	88.25
385.112	91.25
385.337	110.25
385.562	99.25
385.787	102.25
386.013	107.25
386.238	91.25
386.463	100.25
386.688	103.25
386.913	99.25
387.138	89.25
387.363	89.25
387.588	94.25
387.813	88.25
388.038	100.25
388.263	104.25
388.488	98.25
388.713	102.25
388.938	98.25
389.163	97.25
389.387	94.25
389.612	109.25
389.837	91.25
390.062	90.25
390.287	98.25
390.512	104.25
390.736	104.25
390.961	87.25
391.186	106.25
391.411	103.25
391.636	83.25
391.86	87.25
392.085	98.25
392.31	102.25
392.534	101.25
392.759	103.25
392.984	86.25
393.208	102.25
393.433	91.25
393.658	105.25
393.882	88.25
394.107	86.25
394.331	99.25
394.556	101.25
394.78	108.25
395.005	99.25
395.229	99.25
395.454	108.25
395.678	97.25
395.903	112.25
396.127	89.25
396.352	97.25
396.576	90.25
396.801	103.25
397.025	118.25
397.249	108.25
397.474	109.25
397.698	97.25
397.922	99.25
398.147	115.25
398.371	117.25
398.595	95.25
398.82	110.25
399.044	104.25
399.268	120.25
399.492	96.25
399.717	119.25
399.941	117.25
400.165	113.25
400.389	99.25
400.613	114.25
400.837	104.25
401.062	116.25
401.286	95.25
401.51	97.25
401.734	102.25
401.958	104.25
402.182	101.25
402.406	122.25
402.63	110.25
402.854	117.25
403.078	99.25
403.302	110.25
403.526	105.25
403.75	121.25
403.974	107.25
404.198	94.25
404.422	106.25
404.645	109.25
404.869	102.25
405.093	116.25
405.317	113.25
405.541	109.25
405.765	117.25
405.988	102.25
406.212	109.25
406.436	109.25
406.66	109.25
406.883	101.25
407.107	110.25
407.331	117.25
407.555	116.25
407.778	119.25
408.002	112.25
408.226	120.25
408.449	113.25
408.673	123.25
408.896	106.25
409.12	109.25
409.344	114.25
409.567	102.25
409.791	106.25
410.014	114.25
410.238	123.25
410.461	107.25
410.685	96.25
410.908	123.25
411.132	123.25
411.355	126.25
411.578	105.25
411.802	118.25
412.025	118.25
412.249	112.25
412.472	124.25
412.695	98.25
412.919	113.25
413.142	119.25
413.365	99.25
413.589	107.25
413.812	115.25
414.035	113.25
414.258	114.25
414.482	106.25
414.705	121.25
414.928	99.25
415.151	107.25
415.374	123.25
415.597	122.25
415.821	108.25
416.044	117.25
416.267	113.25
416.49	105.25
416.713	109.25
416.936	114.25
417.159	108.25
417.382	108.25
417.605	104.25
417.828	116.25
418.051	105.25
418.274	106.25
418.497	113.25
418.72	110.25
418.943	123.25
419.166	131.25
419.389	122.25
419.611	130.25
419.834	113.25
420.057	110.25
420.28	124.25
420.503	123.25
420.726	114.25
420.948	117.25
421.171	129.25
421.394	114.25
421.617	115.25
421.839	118.25
422.062	113.25
422.285	123.25
422.507	122.25
422.73	116.25
422.953	116.25
423.175	110.25
423.398	109.25
423.621	118.25
423.843	125.25
424.066	103.25
424.288	106.25
424.511	103.25
424.733	121.25
424.956	125.25
425.178	99.25
425.401	125.25
425.623	121.25
425.846	113.25
426.068	117.25
426.291	114.25
426.513	116.25
426.735	101.25
426.958	115.25
427.18	117.25
427.402	117.25
427.625	122.25
427.847	110.25
428.069	92.25
428.292	125.25
428.514	124.25
428.736	101.25
428.958	109.25
429.181	116.25
429.403	97.25
429.625	103.25
429.847	102.25
430.069	104.25
430.292	127.25
430.514	124.25
430.736	114.25
430.958	111.25
431.18	125.25
431.402	119.25
431.624	111.25
431.846	112.25
432.068	119.25
432.29	118.25
432.512	103.25
432.734	113.25
432.956	122.25
433.178	127.25
433.4	111.25
433.622	108.25
433.844	115.25
434.066	106.25
434.287	111.25
434.509	105.25
434.731	103.25
434.953	107.25
435.175	130.25
435.397	101.25
435.618	109.25
435.84	117.25
436.062	106.25
436.284	108.25
436.505	104.25
436.727	117.25
436.949	114.25
437.17	107.25
437.392	112.25
437.614	128.25
437.835	99.25
438.057	106.25
438.278	109.25
438.5	114.25
438.721	109.25
438.943	127.25
439.165	121.25
439.386	115.25
439.608	115.25
439.829	121.25
440.05	118.25
440.272	107.25
440.493	110.25
440.715	117.25
440.936	108.25
441.158	129.25
441.379	110.25
441.6	137.25
441.822	123.25
442.043	109.25
442.264	120.25
442.486	119.25
442.707	125.25
442.928	116.25
443.149	132.25
443.371	124.25
443.592	123.25
443.813	119.25
444.034	123.25
444.255	110.25
444.476	125.25
444.698	122.25
444.919	153.25
445.14	238.25
445.361	178.25
445.582	130.25
445.803	123.25
446.024	111.25
446.245	123.25
446.466	137.25
446.687	121.25
446.908	122.25
447.129	119.25
447.35	125.25
447.571	129.25
447.792	125.25
448.013	131.25
448.234	112.25
448.455	112.25
448.675	122.25
448.896	114.25
449.117	118.25
449.338	122.25
449.559	121.25
449.779	116.25
450	102.25
450.221	117.25
450.442	127.25
450.662	124.25
450.883	131.25
451.104	115.25
451.324	114.25
451.545	108.25
451.766	106.25
451.986	119.25
452.207	123.25
452.428	129.25
452.648	108.25
452.869	112.25
453.089	98.25
453.31	103.25
453.53	110.25
453.751	103.25
453.971	116.25
454.192	104.25
454.412	111.25
454.633	95.25
454.853	122.25
455.073	115.25
455.294	111.25
455.514	104.25
455.734	109.25
455.955	109.25
456.175	103.25
456.395	97.25
456.616	118.25
456.836	106.25
457.056	112.25
457.276	97.25
457.497	105.25
457.717	109.25
457.937	95.25
458.157	119.25
458.377	106.25
458.598	104.25
458.818	105.25
459.038	91.25
459.258	102.25
459.478	113.25
459.698	116.25
459.918	109.25
460.138	119.25
460.358	118.25
460.578	108.25
460.798	113.25
461.018	115.25
461.238	113.25
461.458	117.25
461.678	111.25
461.898	125.25
462.118	123.25
462.338	130.25
462.558	114.25
462.777	131.25
462.997	127.25
463.217	112.25
463.437	119.25
463.657	103.25
463.876	119.25
464.096	126.25
464.316	121.25
464.536	122.25
464.755	119.25
464.975	137.25
465.195	124.25
465.414	114.25
465.634	110.25
465.854	112.25
466.073	121.25
466.293	113.25
466.512	117.25
466.732	104.25
466.951	116.25
467.171	119.25
467.391	122.25
467.61	125.25
467.829	113.25
468.049	126.25
468.268	123.25
468.488	116.25
468.707	107.25
468.927	114.25
469.146	121.25
469.365	119.25
469.585	110.25
469.804	127.25
470.023	124.25
470.243	138.25
470.462	124.25
470.681	136.25
470.901	120.25
471.12	115.25
471.339	120.25
471.558	122.25
471.777	114.25
471.997	125.25
472.216	114.25
472.435	116.25
472.654	93.25
472.873	100.25
473.092	99.25
473.311	107.25
473.53	117.25
473.749	113.25
473.968	106.25
474.187	103.25
474.406	109.25
474.625	107.25
474.844	125.25
475.063	109.25
475.282	129.25
475.501	115.25
475.72	114.25
475.939	118.25
476.158	124.25
476.377	105.25
476.596	127.25
476.814	109.25
477.033	119.25
477.252	107.25
477.471	109.25
477.69	125.25
477.908	127.25
478.127	134.25
478.346	139.25
478.564	125.25
478.783	130.25
479.002	139.25
479.22	130.25
479.439	129.25
479.658	125.25
479.876	115.25
480.095	108.25
480.313	129.25
480.532	132.25
480.751	126.25
480.969	113.25
481.188	110.25
481.406	122.25
481.624	122.25
481.843	105.25
482.061	108.25
482.28	122.25
482.498	113.25
482.717	110.25
482.935	125.25
483.153	117.25
483.372	124.25
483.59	135.25
483.808	131.25
484.027	121.25
484.245	122.25
484.463	125.25
484.681	143.25
484.9	137.25
485.118	125.25
485.336	132.25
485.554	115.25
485.772	127.25
485.99	115.25
486.209	117.25
486.427	114.25
486.645	115.25
486.863	133.25
487.081	126.25
487.299	131.25
487.517	134.25
487.735	136.25
487.953	140.25
488.171	133.25
488.389	147.25
488.607	133.25
488.825	141.25
489.043	118.25
489.261	142.25
489.479	138.25
489.696	139.25
489.914	131.25
490.132	141.25
490.35	125.25
490.568	136.25
490.786	142.25
491.003	141.25
491.221	152.25
491.439	149.25
491.657	157.25
491.874	159.25
492.092	162.25
492.31	166.25
492.527	157.25
492.745	158.25
492.963	161.25
493.18	158.25
493.398	152.25
493.615	142.25
493.833	139.25
494.05	135.25
494.268	143.25
494.485	150.25
494.703	150.25
494.92	158.25
495.138	156.25
495.355	166.25
495.573	157.25
495.79	149.25
496.008	159.25
496.225	150.25
496.442	144.25
496.66	150.25
496.877	131.25
497.094	152.25
497.312	154.25
497.529	132.25
497.746	143.25
497.963	156.25
498.181	126.25
498.398	121.25
498.615	134.25
498.832	141.25
499.049	143.25
499.267	153.25
499.484	163.25
499.701	169.25
499.918	179.25
500.135	202.25
500.352	221.25
500.569	213.25
500.786	207.25
501.003	204.25
501.22	197.25
501.437	187.25
501.654	162.25
501.871	168.25
502.088	155.25
502.305	149.25
502.522	150.25
502.739	158.25
502.956	144.25
503.172	125.25
503.389	138.25
503.606	132.25
503.823	128.25
504.04	147.25
504.256	145.25
504.473	139.25
504.69	144.25
504.907	137.25
505.123	133.25
505.34	132.25
505.557	140.25
505.773	119.25
505.99	125.25
506.207	125.25
506.423	127.25
506.64	126.25
506.856	132.25
507.073	104.25
507.289	138.25
507.506	138.25
507.722	132.25
507.939	114.25
508.155	130.25
508.372	118.25
508.588	114.25
508.805	124.25
509.021	119.25
509.238	100.25
509.454	125.25
509.67	113.25
509.887	122.25
510.103	137.25
510.319	131.25
510.536	115.25
510.752	110.25
510.968	108.25
511.184	115.25
511.401	114.25
