Data from StandardFe(NO3)3.TAE.3%Agarose.FlatLispGreen.Lamp.Energy10.07252019_HRD10591_11-54-50-440.txt Node
Date: Thu Jul 25 11:54:50 EDT 2019
User: cochatt
Spectrometer: HR+D1059
Trigger mode: 1
Integration Time (sec): 1.000000E-1
Scans to average: 1
Electric dark correction enabled: true
Nonlinearity correction enabled: false
Boxcar width: 0
XAxis mode: Wavelengths
Number of Pixels in Spectrum: 2048
>>>>>Begin Spectral Data<<<<<
223.165	1.75
223.4	1.75
223.635	1.75
223.869	-9.25
224.104	-10.25
224.338	-8.25
224.573	-18.25
224.808	-21.25
225.042	-18.25
225.277	-20.25
225.511	-0.25
225.746	1.75
225.98	10.75
226.215	17.75
226.449	7.75
226.683	5.75
226.918	29.75
227.152	30.75
227.387	35.75
227.621	40.75
227.856	39.75
228.09	41.75
228.324	63.75
228.559	58.75
228.793	50.75
229.027	59.75
229.262	60.75
229.496	81.75
229.73	78.75
229.964	73.75
230.199	76.75
230.433	60.75
230.667	95.75
230.901	94.75
231.136	70.75
231.37	87.75
231.604	77.75
231.838	83.75
232.072	83.75
232.306	77.75
232.541	90.75
232.775	78.75
233.009	89.75
233.243	82.75
233.477	87.75
233.711	83.75
233.945	82.75
234.179	91.75
234.413	85.75
234.647	87.75
234.881	84.75
235.115	75.75
235.349	94.75
235.583	88.75
235.817	84.75
236.051	88.75
236.285	71.75
236.519	76.75
236.753	77.75
236.987	82.75
237.221	76.75
237.455	71.75
237.689	89.75
237.922	80.75
238.156	78.75
238.39	72.75
238.624	73.75
238.858	70.75
239.091	71.75
239.325	82.75
239.559	78.75
239.793	81.75
240.027	83.75
240.26	73.75
240.494	65.75
240.728	80.75
240.961	75.75
241.195	73.75
241.429	89.75
241.662	68.75
241.896	66.75
242.13	83.75
242.363	82.75
242.597	75.75
242.83	77.75
243.064	80.75
243.298	73.75
243.531	88.75
243.765	94.75
243.998	85.75
244.232	65.75
244.465	79.75
244.699	89.75
244.932	83.75
245.166	85.75
245.399	78.75
245.633	81.75
245.866	76.75
246.099	68.75
246.333	78.75
246.566	85.75
246.8	81.75
247.033	83.75
247.266	87.75
247.5	95.75
247.733	96.75
247.966	79.75
248.2	85.75
248.433	94.75
248.666	82.75
248.899	82.75
249.133	84.75
249.366	77.75
249.599	84.75
249.832	84.75
250.066	86.75
250.299	71.75
250.532	83.75
250.765	89.75
250.998	88.75
251.231	68.75
251.465	76.75
251.698	77.75
251.931	92.75
252.164	70.75
252.397	99.75
252.63	77.75
252.863	86.75
253.096	82.75
253.329	80.75
253.562	82.75
253.795	85.75
254.028	83.75
254.261	94.75
254.494	80.75
254.727	94.75
254.96	93.75
255.193	88.75
255.426	78.75
255.659	75.75
255.892	72.75
256.124	93.75
256.357	84.75
256.59	77.75
256.823	77.75
257.056	76.75
257.289	69.75
257.521	91.75
257.754	94.75
257.987	73.75
258.22	77.75
258.452	83.75
258.685	79.75
258.918	74.75
259.151	75.75
259.383	84.75
259.616	83.75
259.849	85.75
260.081	74.75
260.314	85.75
260.547	90.75
260.779	77.75
261.012	89.75
261.244	89.75
261.477	83.75
261.71	87.75
261.942	75.75
262.175	89.75
262.407	85.75
262.64	90.75
262.872	77.75
263.105	71.75
263.337	84.75
263.57	75.75
263.802	88.75
264.035	91.75
264.267	69.75
264.499	77.75
264.732	81.75
264.964	79.75
265.197	83.75
265.429	84.75
265.661	81.75
265.894	91.75
266.126	97.75
266.358	89.75
266.591	87.75
266.823	82.75
267.055	74.75
267.287	86.75
267.52	88.75
267.752	68.75
267.984	73.75
268.216	74.75
268.448	87.75
268.681	69.75
268.913	72.75
269.145	90.75
269.377	77.75
269.609	83.75
269.841	87.75
270.073	85.75
270.306	87.75
270.538	82.75
270.77	75.75
271.002	87.75
271.234	89.75
271.466	81.75
271.698	90.75
271.93	94.75
272.162	79.75
272.394	78.75
272.626	93.75
272.858	89.75
273.09	80.75
273.322	82.75
273.553	86.75
273.785	87.75
274.017	90.75
274.249	75.75
274.481	78.75
274.713	86.75
274.945	92.75
275.176	96.75
275.408	84.75
275.64	84.75
275.872	88.75
276.104	89.75
276.335	97.75
276.567	81.75
276.799	82.75
277.031	78.75
277.262	83.75
277.494	96.75
277.726	92.75
277.957	75.75
278.189	77.75
278.421	82.75
278.652	79.75
278.884	76.75
279.115	94.75
279.347	89.75
279.579	79.75
279.81	78.75
280.042	91.75
280.273	81.75
280.505	78.75
280.736	88.75
280.968	77.75
281.199	85.75
281.431	86.75
281.662	85.75
281.894	105.75
282.125	101.75
282.356	89.75
282.588	85.75
282.819	83.75
283.051	76.75
283.282	84.75
283.513	87.75
283.745	104.75
283.976	77.75
284.207	82.75
284.439	80.75
284.67	92.75
284.901	81.75
285.132	91.75
285.364	83.75
285.595	83.75
285.826	103.75
286.057	93.75
286.288	81.75
286.52	80.75
286.751	83.75
286.982	81.75
287.213	84.75
287.444	103.75
287.675	77.75
287.906	99.75
288.138	84.75
288.369	97.75
288.6	84.75
288.831	85.75
289.062	94.75
289.293	90.75
289.524	100.75
289.755	98.75
289.986	85.75
290.217	90.75
290.448	97.75
290.679	89.75
290.91	68.75
291.141	85.75
291.371	96.75
291.602	73.75
291.833	81.75
292.064	86.75
292.295	77.75
292.526	78.75
292.757	75.75
292.987	86.75
293.218	88.75
293.449	87.75
293.68	85.75
293.91	88.75
294.141	83.75
294.372	98.75
294.603	87.75
294.833	84.75
295.064	85.75
295.295	78.75
295.525	89.75
295.756	79.75
295.987	84.75
296.217	91.75
296.448	75.75
296.679	85.75
296.909	94.75
297.14	82.75
297.37	84.75
297.601	94.75
297.831	85.75
298.062	90.75
298.292	85.75
298.523	78.75
298.753	81.75
298.984	86.75
299.214	70.75
299.445	87.75
299.675	86.75
299.905	97.75
300.136	93.75
300.366	84.75
300.597	93.75
300.827	82.75
301.057	67.75
301.288	90.75
301.518	77.75
301.748	88.75
301.979	77.75
302.209	71.75
302.439	96.75
302.669	94.75
302.9	83.75
303.13	84.75
303.36	82.75
303.59	82.75
303.82	89.75
304.051	82.75
304.281	87.75
304.511	87.75
304.741	73.75
304.971	75.75
305.201	95.75
305.431	86.75
305.661	91.75
305.891	90.75
306.121	89.75
306.352	81.75
306.582	91.75
306.812	81.75
307.042	89.75
307.272	90.75
307.502	82.75
307.731	83.75
307.961	96.75
308.191	95.75
308.421	76.75
308.651	83.75
308.881	95.75
309.111	90.75
309.341	85.75
309.571	95.75
309.8	82.75
310.03	87.75
310.26	80.75
310.49	79.75
310.72	83.75
310.949	93.75
311.179	99.75
311.409	94.75
311.639	84.75
311.868	77.75
312.098	76.75
312.328	78.75
312.557	97.75
312.787	85.75
313.017	90.75
313.246	81.75
313.476	89.75
313.706	76.75
313.935	76.75
314.165	80.75
314.394	87.75
314.624	82.75
314.853	98.75
315.083	77.75
315.312	96.75
315.542	92.75
315.771	98.75
316.001	94.75
316.23	88.75
316.46	79.75
316.689	87.75
316.919	83.75
317.148	85.75
317.377	83.75
317.607	90.75
317.836	93.75
318.065	88.75
318.295	93.75
318.524	82.75
318.753	84.75
318.983	89.75
319.212	97.75
319.441	85.75
319.67	79.75
319.9	85.75
320.129	86.75
320.358	92.75
320.587	91.75
320.816	89.75
321.046	69.75
321.275	84.75
321.504	77.75
321.733	84.75
321.962	89.75
322.191	81.75
322.42	82.75
322.649	100.75
322.878	79.75
323.108	99.75
323.337	93.75
323.566	97.75
323.795	99.75
324.024	85.75
324.253	81.75
324.482	85.75
324.71	85.75
324.939	97.75
325.168	96.75
325.397	86.75
325.626	85.75
325.855	100.75
326.084	86.75
326.313	85.75
326.542	88.75
326.77	81.75
326.999	74.75
327.228	86.75
327.457	85.75
327.686	86.75
327.914	90.75
328.143	84.75
328.372	97.75
328.6	88.75
328.829	83.75
329.058	88.75
329.287	97.75
329.515	89.75
329.744	99.75
329.972	91.75
330.201	76.75
330.43	87.75
330.658	97.75
330.887	86.75
331.115	98.75
331.344	104.75
331.572	88.75
331.801	99.75
332.03	80.75
332.258	103.75
332.486	88.75
332.715	90.75
332.943	86.75
333.172	96.75
333.4	85.75
333.629	88.75
333.857	74.75
334.085	87.75
334.314	95.75
334.542	100.75
334.771	90.75
334.999	88.75
335.227	81.75
335.455	91.75
335.684	79.75
335.912	84.75
336.14	77.75
336.369	78.75
336.597	70.75
336.825	94.75
337.053	95.75
337.281	88.75
337.51	89.75
337.738	94.75
337.966	87.75
338.194	76.75
338.422	75.75
338.65	102.75
338.878	82.75
339.106	77.75
339.334	83.75
339.562	86.75
339.79	102.75
340.018	81.75
340.246	91.75
340.474	89.75
340.702	91.75
340.93	86.75
341.158	87.75
341.386	88.75
341.614	91.75
341.842	79.75
342.07	88.75
342.298	85.75
342.526	84.75
342.754	102.75
342.981	76.75
343.209	88.75
343.437	82.75
343.665	83.75
343.893	98.75
344.12	100.75
344.348	93.75
344.576	84.75
344.804	99.75
345.031	74.75
345.259	86.75
345.487	81.75
345.714	90.75
345.942	92.75
346.17	90.75
346.397	95.75
346.625	87.75
346.853	84.75
347.08	88.75
347.308	89.75
347.535	78.75
347.763	87.75
347.99	90.75
348.218	87.75
348.445	77.75
348.673	89.75
348.9	91.75
349.128	94.75
349.355	93.75
349.583	86.75
349.81	77.75
350.037	83.75
350.265	91.75
350.492	82.75
350.72	83.75
350.947	101.75
351.174	86.75
351.402	93.75
351.629	86.75
351.856	87.75
352.083	93.75
352.311	98.75
352.538	82.75
352.765	90.75
352.992	100.75
353.22	93.75
353.447	90.75
353.674	94.75
353.901	95.75
354.128	103.75
354.355	83.75
354.583	74.75
354.81	97.75
355.037	84.75
355.264	88.75
355.491	93.75
355.718	97.75
355.945	93.75
356.172	89.75
356.399	96.75
356.626	97.75
356.853	77.75
357.08	84.75
357.307	74.75
357.534	75.75
357.761	77.75
357.988	86.75
358.215	86.75
358.441	94.75
358.668	88.75
358.895	85.75
359.122	91.75
359.349	88.75
359.576	86.75
359.802	95.75
360.029	92.75
360.256	88.75
360.483	99.75
360.709	78.75
360.936	93.75
361.163	72.75
361.39	89.75
361.616	90.75
361.843	83.75
362.07	95.75
362.296	86.75
362.523	90.75
362.749	94.75
362.976	81.75
363.203	85.75
363.429	87.75
363.656	90.75
363.882	96.75
364.109	72.75
364.335	98.75
364.562	85.75
364.788	89.75
365.015	93.75
365.241	94.75
365.468	83.75
365.694	95.75
365.92	76.75
366.147	90.75
366.373	100.75
366.599	92.75
366.826	77.75
367.052	90.75
367.278	81.75
367.505	83.75
367.731	87.75
367.957	96.75
368.184	89.75
368.41	82.75
368.636	83.75
368.862	98.75
369.089	82.75
369.315	90.75
369.541	93.75
369.767	91.75
369.993	86.75
370.219	91.75
370.445	91.75
370.672	86.75
370.898	83.75
371.124	93.75
371.35	79.75
371.576	88.75
371.802	97.75
372.028	87.75
372.254	89.75
372.48	93.75
372.706	93.75
372.932	94.75
373.158	82.75
373.384	86.75
373.61	92.75
373.835	78.75
374.061	88.75
374.287	91.75
374.513	88.75
374.739	100.75
374.965	90.75
375.191	93.75
375.416	91.75
375.642	89.75
375.868	98.75
376.094	99.75
376.319	91.75
376.545	83.75
376.771	97.75
376.997	87.75
377.222	83.75
377.448	89.75
377.674	86.75
377.899	82.75
378.125	73.75
378.35	86.75
378.576	91.75
378.802	83.75
379.027	94.75
379.253	94.75
379.478	93.75
379.704	90.75
379.929	89.75
380.155	92.75
380.38	89.75
380.606	85.75
380.831	103.75
381.057	87.75
381.282	86.75
381.507	99.75
381.733	90.75
381.958	86.75
382.184	85.75
382.409	92.75
382.634	98.75
382.86	91.75
383.085	100.75
383.31	99.75
383.535	95.75
383.761	96.75
383.986	94.75
384.211	102.75
384.436	92.75
384.662	90.75
384.887	102.75
385.112	108.75
385.337	93.75
385.562	85.75
385.787	82.75
386.013	93.75
386.238	94.75
386.463	89.75
386.688	86.75
386.913	97.75
387.138	89.75
387.363	95.75
387.588	99.75
387.813	90.75
388.038	91.75
388.263	84.75
388.488	104.75
388.713	102.75
388.938	100.75
389.163	96.75
389.387	105.75
389.612	99.75
389.837	82.75
390.062	83.75
390.287	102.75
390.512	95.75
390.736	95.75
390.961	92.75
391.186	111.75
391.411	83.75
391.636	96.75
391.86	100.75
392.085	98.75
392.31	111.75
392.534	86.75
392.759	90.75
392.984	95.75
393.208	96.75
393.433	98.75
393.658	99.75
393.882	85.75
394.107	96.75
394.331	101.75
394.556	81.75
394.78	92.75
395.005	99.75
395.229	111.75
395.454	95.75
395.678	108.75
395.903	106.75
396.127	102.75
396.352	102.75
396.576	91.75
396.801	97.75
397.025	90.75
397.249	100.75
397.474	115.75
397.698	117.75
397.922	103.75
398.147	106.75
398.371	107.75
398.595	100.75
398.82	107.75
399.044	103.75
399.268	111.75
399.492	115.75
399.717	123.75
399.941	117.75
400.165	93.75
400.389	108.75
400.613	109.75
400.837	103.75
401.062	107.75
401.286	101.75
401.51	105.75
401.734	109.75
401.958	95.75
402.182	100.75
402.406	110.75
402.63	103.75
402.854	122.75
403.078	101.75
403.302	99.75
403.526	107.75
403.75	109.75
403.974	117.75
404.198	125.75
404.422	123.75
404.645	103.75
404.869	98.75
405.093	113.75
405.317	117.75
405.541	122.75
405.765	124.75
405.988	113.75
406.212	116.75
406.436	114.75
406.66	111.75
406.883	115.75
407.107	115.75
407.331	108.75
407.555	113.75
407.778	101.75
408.002	110.75
408.226	124.75
408.449	133.75
408.673	119.75
408.896	113.75
409.12	110.75
409.344	118.75
409.567	121.75
409.791	120.75
410.014	118.75
410.238	102.75
410.461	107.75
410.685	113.75
410.908	116.75
411.132	110.75
411.355	109.75
411.578	106.75
411.802	110.75
412.025	109.75
412.249	114.75
412.472	109.75
412.695	111.75
412.919	104.75
413.142	115.75
413.365	116.75
413.589	113.75
413.812	117.75
414.035	124.75
414.258	98.75
414.482	101.75
414.705	101.75
414.928	119.75
415.151	123.75
415.374	108.75
415.597	121.75
415.821	94.75
416.044	120.75
416.267	110.75
416.49	116.75
416.713	124.75
416.936	117.75
417.159	115.75
417.382	117.75
417.605	110.75
417.828	113.75
418.051	119.75
418.274	129.75
418.497	119.75
418.72	119.75
418.943	117.75
419.166	121.75
419.389	110.75
419.611	121.75
419.834	110.75
420.057	125.75
420.28	109.75
420.503	105.75
420.726	121.75
420.948	118.75
421.171	111.75
421.394	93.75
421.617	124.75
421.839	102.75
422.062	119.75
422.285	115.75
422.507	119.75
422.73	127.75
422.953	98.75
423.175	115.75
423.398	109.75
423.621	121.75
423.843	122.75
424.066	123.75
424.288	118.75
424.511	118.75
424.733	123.75
424.956	131.75
425.178	122.75
425.401	120.75
425.623	110.75
425.846	123.75
426.068	118.75
426.291	100.75
426.513	113.75
426.735	124.75
426.958	122.75
427.18	106.75
427.402	101.75
427.625	108.75
427.847	101.75
428.069	109.75
428.292	119.75
428.514	118.75
428.736	111.75
428.958	109.75
429.181	103.75
429.403	120.75
429.625	118.75
429.847	103.75
430.069	120.75
430.292	118.75
430.514	123.75
430.736	129.75
430.958	121.75
431.18	109.75
431.402	115.75
431.624	106.75
431.846	114.75
432.068	105.75
432.29	115.75
432.512	113.75
432.734	111.75
432.956	123.75
433.178	110.75
433.4	113.75
433.622	123.75
433.844	117.75
434.066	104.75
434.287	102.75
434.509	105.75
434.731	117.75
434.953	115.75
435.175	107.75
435.397	119.75
435.618	110.75
435.84	109.75
436.062	109.75
436.284	106.75
436.505	123.75
436.727	121.75
436.949	106.75
437.17	105.75
437.392	114.75
437.614	93.75
437.835	105.75
438.057	109.75
438.278	108.75
438.5	113.75
438.721	119.75
438.943	115.75
439.165	122.75
439.386	103.75
439.608	119.75
439.829	113.75
440.05	122.75
440.272	103.75
440.493	121.75
440.715	129.75
440.936	112.75
441.158	117.75
441.379	110.75
441.6	127.75
441.822	126.75
442.043	131.75
442.264	135.75
442.486	109.75
442.707	124.75
442.928	123.75
443.149	115.75
443.371	106.75
443.592	107.75
443.813	113.75
444.034	94.75
444.255	131.75
444.476	127.75
444.698	118.75
444.919	139.75
445.14	238.75
445.361	173.75
445.582	129.75
445.803	129.75
446.024	115.75
446.245	107.75
446.466	126.75
446.687	121.75
446.908	115.75
447.129	123.75
447.35	136.75
447.571	121.75
447.792	105.75
448.013	123.75
448.234	127.75
448.455	125.75
448.675	116.75
448.896	122.75
449.117	116.75
449.338	114.75
449.559	107.75
449.779	126.75
450	119.75
450.221	113.75
450.442	115.75
450.662	110.75
450.883	121.75
451.104	120.75
451.324	105.75
451.545	107.75
451.766	99.75
451.986	113.75
452.207	115.75
452.428	124.75
452.648	118.75
452.869	116.75
453.089	112.75
453.31	93.75
453.53	103.75
453.751	100.75
453.971	105.75
454.192	102.75
454.412	95.75
454.633	88.75
454.853	116.75
455.073	107.75
455.294	104.75
455.514	101.75
455.734	117.75
455.955	121.75
456.175	103.75
456.395	111.75
456.616	112.75
456.836	103.75
457.056	97.75
457.276	99.75
457.497	94.75
457.717	110.75
457.937	103.75
458.157	105.75
458.377	104.75
458.598	100.75
458.818	109.75
459.038	102.75
459.258	101.75
459.478	92.75
459.698	97.75
459.918	94.75
460.138	114.75
460.358	119.75
460.578	113.75
460.798	129.75
461.018	110.75
461.238	99.75
461.458	125.75
461.678	117.75
461.898	118.75
462.118	126.75
462.338	118.75
462.558	140.75
462.777	123.75
462.997	130.75
463.217	128.75
463.437	129.75
463.657	126.75
463.876	125.75
464.096	120.75
464.316	113.75
464.536	125.75
464.755	137.75
464.975	132.75
465.195	101.75
465.414	113.75
465.634	115.75
465.854	127.75
466.073	112.75
466.293	123.75
466.512	123.75
466.732	112.75
466.951	136.75
467.171	121.75
467.391	121.75
467.61	100.75
467.829	134.75
468.049	121.75
468.268	115.75
468.488	122.75
468.707	117.75
468.927	118.75
469.146	111.75
469.365	112.75
469.585	135.75
469.804	133.75
470.023	117.75
470.243	124.75
470.462	124.75
470.681	127.75
470.901	114.75
471.12	116.75
471.339	141.75
471.558	125.75
471.777	110.75
471.997	119.75
472.216	113.75
472.435	116.75
472.654	105.75
472.873	106.75
473.092	116.75
473.311	104.75
473.53	104.75
473.749	102.75
473.968	122.75
474.187	124.75
474.406	117.75
474.625	115.75
474.844	122.75
475.063	116.75
475.282	114.75
475.501	107.75
475.72	125.75
475.939	113.75
476.158	128.75
476.377	98.75
476.596	108.75
476.814	113.75
477.033	112.75
477.252	116.75
477.471	109.75
477.69	131.75
477.908	107.75
478.127	135.75
478.346	125.75
478.564	117.75
478.783	133.75
479.002	129.75
479.22	123.75
479.439	125.75
479.658	113.75
479.876	125.75
480.095	119.75
480.313	118.75
480.532	130.75
480.751	129.75
480.969	107.75
481.188	116.75
481.406	99.75
481.624	91.75
481.843	120.75
482.061	112.75
482.28	119.75
482.498	121.75
482.717	128.75
482.935	129.75
483.153	124.75
483.372	140.75
483.59	130.75
483.808	132.75
484.027	134.75
484.245	131.75
484.463	107.75
484.681	122.75
484.9	119.75
485.118	122.75
485.336	125.75
485.554	123.75
485.772	135.75
485.99	127.75
486.209	117.75
486.427	113.75
486.645	123.75
486.863	124.75
487.081	113.75
487.299	133.75
487.517	123.75
487.735	142.75
487.953	150.75
488.171	146.75
488.389	141.75
488.607	120.75
488.825	136.75
489.043	121.75
489.261	117.75
489.479	135.75
489.696	130.75
489.914	130.75
490.132	131.75
490.35	135.75
490.568	124.75
490.786	141.75
491.003	139.75
491.221	144.75
491.439	147.75
491.657	152.75
491.874	170.75
492.092	169.75
492.31	171.75
492.527	171.75
492.745	150.75
492.963	147.75
493.18	146.75
493.398	163.75
493.615	161.75
493.833	149.75
494.05	144.75
494.268	142.75
494.485	161.75
494.703	131.75
494.92	159.75
495.138	157.75
495.355	161.75
495.573	160.75
495.79	140.75
496.008	147.75
496.225	150.75
496.442	141.75
496.66	155.75
496.877	150.75
497.094	155.75
497.312	148.75
497.529	139.75
497.746	160.75
497.963	147.75
498.181	133.75
498.398	125.75
498.615	133.75
498.832	134.75
499.049	140.75
499.267	154.75
499.484	149.75
499.701	175.75
499.918	180.75
500.135	202.75
500.352	220.75
500.569	235.75
500.786	229.75
501.003	216.75
501.22	204.75
501.437	178.75
501.654	165.75
501.871	170.75
502.088	155.75
502.305	150.75
502.522	149.75
502.739	153.75
502.956	143.75
503.172	133.75
503.389	139.75
503.606	137.75
503.823	129.75
504.04	139.75
504.256	134.75
504.473	129.75
504.69	149.75
504.907	152.75
505.123	127.75
505.34	128.75
505.557	136.75
505.773	123.75
505.99	125.75
506.207	131.75
506.423	123.75
506.64	126.75
506.856	129.75
507.073	126.75
507.289	133.75
507.506	116.75
507.722	111.75
507.939	128.75
508.155	132.75
508.372	117.75
508.588	116.75
508.805	126.75
509.021	125.75
509.238	122.75
509.454	125.75
509.67	115.75
509.887	108.75
510.103	113.75
510.319	109.75
510.536	123.75
510.752	115.75
510.968	118.75
511.184	122.75
511.401	100.75
511.617	107.75
