Data from StandardFe(NO3)3.TAE.3%Agarose.FlatLispGreen.Lamp.Energy10.07252019_HRD10591_11-56-27-442.txt Node
Date: Thu Jul 25 11:56:27 EDT 2019
User: cochatt
Spectrometer: HR+D1059
Trigger mode: 1
Integration Time (sec): 1.000000E-1
Scans to average: 1
Electric dark correction enabled: true
Nonlinearity correction enabled: false
Boxcar width: 0
XAxis mode: Wavelengths
Number of Pixels in Spectrum: 2048
>>>>>Begin Spectral Data<<<<<
223.165	-15.5
223.4	-15.5
223.635	-15.5
223.869	3.5
224.104	-31.5
224.338	-8.5
224.573	-19.5
224.808	-9.5
225.042	-14.5
225.277	0.5
225.511	-4.5
225.746	5.5
225.98	-4.5
226.215	15.5
226.449	18.5
226.683	25.5
226.918	2.5
227.152	36.5
227.387	44.5
227.621	39.5
227.856	37.5
228.09	44.5
228.324	51.5
228.559	47.5
228.793	66.5
229.027	60.5
229.262	65.5
229.496	75.5
229.73	78.5
229.964	63.5
230.199	80.5
230.433	67.5
230.667	71.5
230.901	79.5
231.136	87.5
231.37	69.5
231.604	60.5
231.838	77.5
232.072	85.5
232.306	101.5
232.541	88.5
232.775	81.5
233.009	78.5
233.243	84.5
233.477	86.5
233.711	97.5
233.945	78.5
234.179	75.5
234.413	79.5
234.647	89.5
234.881	84.5
235.115	89.5
235.349	80.5
235.583	92.5
235.817	81.5
236.051	80.5
236.285	75.5
236.519	81.5
236.753	66.5
236.987	75.5
237.221	83.5
237.455	98.5
237.689	75.5
237.922	87.5
238.156	80.5
238.39	90.5
238.624	81.5
238.858	82.5
239.091	65.5
239.325	81.5
239.559	73.5
239.793	75.5
240.027	91.5
240.26	76.5
240.494	69.5
240.728	79.5
240.961	77.5
241.195	81.5
241.429	89.5
241.662	76.5
241.896	81.5
242.13	77.5
242.363	78.5
242.597	63.5
242.83	68.5
243.064	73.5
243.298	83.5
243.531	75.5
243.765	73.5
243.998	67.5
244.232	81.5
244.465	86.5
244.699	88.5
244.932	80.5
245.166	77.5
245.399	84.5
245.633	81.5
245.866	86.5
246.099	65.5
246.333	92.5
246.566	91.5
246.8	74.5
247.033	80.5
247.266	71.5
247.5	75.5
247.733	90.5
247.966	81.5
248.2	91.5
248.433	102.5
248.666	88.5
248.899	81.5
249.133	69.5
249.366	73.5
249.599	63.5
249.832	84.5
250.066	90.5
250.299	84.5
250.532	75.5
250.765	72.5
250.998	81.5
251.231	91.5
251.465	81.5
251.698	70.5
251.931	82.5
252.164	71.5
252.397	64.5
252.63	86.5
252.863	76.5
253.096	78.5
253.329	92.5
253.562	79.5
253.795	77.5
254.028	81.5
254.261	78.5
254.494	79.5
254.727	89.5
254.96	83.5
255.193	79.5
255.426	85.5
255.659	90.5
255.892	77.5
256.124	64.5
256.357	78.5
256.59	84.5
256.823	91.5
257.056	76.5
257.289	80.5
257.521	83.5
257.754	92.5
257.987	81.5
258.22	74.5
258.452	91.5
258.685	89.5
258.918	79.5
259.151	91.5
259.383	88.5
259.616	90.5
259.849	72.5
260.081	76.5
260.314	81.5
260.547	104.5
260.779	96.5
261.012	91.5
261.244	79.5
261.477	85.5
261.71	76.5
261.942	81.5
262.175	96.5
262.407	92.5
262.64	92.5
262.872	89.5
263.105	80.5
263.337	96.5
263.57	87.5
263.802	85.5
264.035	77.5
264.267	84.5
264.499	80.5
264.732	89.5
264.964	86.5
265.197	72.5
265.429	82.5
265.661	86.5
265.894	87.5
266.126	79.5
266.358	82.5
266.591	79.5
266.823	84.5
267.055	76.5
267.287	95.5
267.52	79.5
267.752	73.5
267.984	77.5
268.216	89.5
268.448	73.5
268.681	74.5
268.913	97.5
269.145	90.5
269.377	90.5
269.609	84.5
269.841	67.5
270.073	78.5
270.306	83.5
270.538	86.5
270.77	87.5
271.002	89.5
271.234	79.5
271.466	96.5
271.698	89.5
271.93	76.5
272.162	75.5
272.394	75.5
272.626	82.5
272.858	77.5
273.09	86.5
273.322	75.5
273.553	68.5
273.785	92.5
274.017	84.5
274.249	88.5
274.481	82.5
274.713	86.5
274.945	82.5
275.176	76.5
275.408	83.5
275.64	75.5
275.872	70.5
276.104	75.5
276.335	88.5
276.567	79.5
276.799	84.5
277.031	92.5
277.262	99.5
277.494	101.5
277.726	99.5
277.957	74.5
278.189	88.5
278.421	74.5
278.652	75.5
278.884	95.5
279.115	106.5
279.347	78.5
279.579	73.5
279.81	73.5
280.042	84.5
280.273	79.5
280.505	90.5
280.736	90.5
280.968	82.5
281.199	69.5
281.431	74.5
281.662	76.5
281.894	81.5
282.125	80.5
282.356	85.5
282.588	73.5
282.819	84.5
283.051	83.5
283.282	69.5
283.513	73.5
283.745	79.5
283.976	73.5
284.207	75.5
284.439	99.5
284.67	84.5
284.901	81.5
285.132	83.5
285.364	90.5
285.595	83.5
285.826	91.5
286.057	91.5
286.288	77.5
286.52	92.5
286.751	88.5
286.982	73.5
287.213	94.5
287.444	92.5
287.675	91.5
287.906	83.5
288.138	96.5
288.369	79.5
288.6	95.5
288.831	81.5
289.062	87.5
289.293	77.5
289.524	83.5
289.755	80.5
289.986	89.5
290.217	81.5
290.448	75.5
290.679	89.5
290.91	93.5
291.141	80.5
291.371	92.5
291.602	94.5
291.833	74.5
292.064	80.5
292.295	80.5
292.526	71.5
292.757	85.5
292.987	77.5
293.218	71.5
293.449	78.5
293.68	84.5
293.91	72.5
294.141	96.5
294.372	84.5
294.603	73.5
294.833	92.5
295.064	87.5
295.295	83.5
295.525	69.5
295.756	90.5
295.987	82.5
296.217	93.5
296.448	83.5
296.679	83.5
296.909	75.5
297.14	76.5
297.37	100.5
297.601	81.5
297.831	92.5
298.062	77.5
298.292	74.5
298.523	70.5
298.753	85.5
298.984	75.5
299.214	84.5
299.445	86.5
299.675	89.5
299.905	93.5
300.136	80.5
300.366	82.5
300.597	84.5
300.827	83.5
301.057	85.5
301.288	81.5
301.518	83.5
301.748	86.5
301.979	93.5
302.209	78.5
302.439	101.5
302.669	79.5
302.9	86.5
303.13	91.5
303.36	99.5
303.59	76.5
303.82	94.5
304.051	91.5
304.281	87.5
304.511	89.5
304.741	92.5
304.971	110.5
305.201	88.5
305.431	95.5
305.661	103.5
305.891	87.5
306.121	87.5
306.352	91.5
306.582	73.5
306.812	84.5
307.042	81.5
307.272	84.5
307.502	86.5
307.731	84.5
307.961	72.5
308.191	91.5
308.421	92.5
308.651	89.5
308.881	96.5
309.111	81.5
309.341	94.5
309.571	84.5
309.8	70.5
310.03	80.5
310.26	89.5
310.49	100.5
310.72	59.5
310.949	83.5
311.179	92.5
311.409	77.5
311.639	83.5
311.868	96.5
312.098	89.5
312.328	103.5
312.557	95.5
312.787	83.5
313.017	95.5
313.246	76.5
313.476	79.5
313.706	80.5
313.935	81.5
314.165	97.5
314.394	102.5
314.624	73.5
314.853	88.5
315.083	86.5
315.312	86.5
315.542	84.5
315.771	84.5
316.001	85.5
316.23	85.5
316.46	64.5
316.689	83.5
316.919	90.5
317.148	93.5
317.377	84.5
317.607	83.5
317.836	69.5
318.065	97.5
318.295	96.5
318.524	87.5
318.753	83.5
318.983	75.5
319.212	92.5
319.441	77.5
319.67	78.5
319.9	95.5
320.129	89.5
320.358	77.5
320.587	88.5
320.816	86.5
321.046	94.5
321.275	81.5
321.504	99.5
321.733	92.5
321.962	83.5
322.191	90.5
322.42	77.5
322.649	91.5
322.878	89.5
323.108	88.5
323.337	86.5
323.566	101.5
323.795	85.5
324.024	87.5
324.253	88.5
324.482	91.5
324.71	103.5
324.939	90.5
325.168	91.5
325.397	94.5
325.626	83.5
325.855	80.5
326.084	88.5
326.313	95.5
326.542	82.5
326.77	67.5
326.999	83.5
327.228	81.5
327.457	76.5
327.686	83.5
327.914	87.5
328.143	93.5
328.372	92.5
328.6	78.5
328.829	72.5
329.058	82.5
329.287	80.5
329.515	83.5
329.744	89.5
329.972	93.5
330.201	71.5
330.43	95.5
330.658	83.5
330.887	85.5
331.115	98.5
331.344	84.5
331.572	89.5
331.801	90.5
332.03	81.5
332.258	101.5
332.486	88.5
332.715	87.5
332.943	88.5
333.172	87.5
333.4	85.5
333.629	83.5
333.857	87.5
334.085	69.5
334.314	83.5
334.542	77.5
334.771	83.5
334.999	94.5
335.227	89.5
335.455	88.5
335.684	81.5
335.912	90.5
336.14	89.5
336.369	93.5
336.597	85.5
336.825	89.5
337.053	67.5
337.281	93.5
337.51	96.5
337.738	87.5
337.966	88.5
338.194	84.5
338.422	87.5
338.65	82.5
338.878	97.5
339.106	76.5
339.334	81.5
339.562	86.5
339.79	84.5
340.018	73.5
340.246	93.5
340.474	87.5
340.702	98.5
340.93	85.5
341.158	91.5
341.386	98.5
341.614	88.5
341.842	75.5
342.07	91.5
342.298	75.5
342.526	92.5
342.754	83.5
342.981	80.5
343.209	83.5
343.437	71.5
343.665	92.5
343.893	83.5
344.12	77.5
344.348	83.5
344.576	79.5
344.804	83.5
345.031	75.5
345.259	77.5
345.487	86.5
345.714	77.5
345.942	73.5
346.17	87.5
346.397	95.5
346.625	84.5
346.853	89.5
347.08	77.5
347.308	85.5
347.535	74.5
347.763	71.5
347.99	81.5
348.218	77.5
348.445	75.5
348.673	77.5
348.9	88.5
349.128	87.5
349.355	88.5
349.583	83.5
349.81	81.5
350.037	103.5
350.265	88.5
350.492	87.5
350.72	89.5
350.947	87.5
351.174	89.5
351.402	67.5
351.629	83.5
351.856	92.5
352.083	88.5
352.311	92.5
352.538	85.5
352.765	98.5
352.992	86.5
353.22	85.5
353.447	82.5
353.674	91.5
353.901	94.5
354.128	91.5
354.355	87.5
354.583	90.5
354.81	87.5
355.037	96.5
355.264	84.5
355.491	88.5
355.718	83.5
355.945	88.5
356.172	73.5
356.399	87.5
356.626	89.5
356.853	85.5
357.08	76.5
357.307	80.5
357.534	87.5
357.761	87.5
357.988	87.5
358.215	87.5
358.441	85.5
358.668	81.5
358.895	87.5
359.122	78.5
359.349	89.5
359.576	81.5
359.802	82.5
360.029	79.5
360.256	92.5
360.483	84.5
360.709	76.5
360.936	67.5
361.163	90.5
361.39	86.5
361.616	74.5
361.843	85.5
362.07	87.5
362.296	97.5
362.523	91.5
362.749	73.5
362.976	93.5
363.203	75.5
363.429	76.5
363.656	81.5
363.882	86.5
364.109	95.5
364.335	103.5
364.562	75.5
364.788	96.5
365.015	95.5
365.241	87.5
365.468	84.5
365.694	84.5
365.92	84.5
366.147	77.5
366.373	84.5
366.599	89.5
366.826	92.5
367.052	94.5
367.278	87.5
367.505	81.5
367.731	89.5
367.957	88.5
368.184	80.5
368.41	89.5
368.636	82.5
368.862	80.5
369.089	84.5
369.315	89.5
369.541	79.5
369.767	81.5
369.993	91.5
370.219	75.5
370.445	91.5
370.672	89.5
370.898	80.5
371.124	92.5
371.35	86.5
371.576	96.5
371.802	77.5
372.028	87.5
372.254	86.5
372.48	93.5
372.706	101.5
372.932	89.5
373.158	91.5
373.384	85.5
373.61	79.5
373.835	86.5
374.061	89.5
374.287	103.5
374.513	88.5
374.739	100.5
374.965	82.5
375.191	86.5
375.416	93.5
375.642	94.5
375.868	103.5
376.094	99.5
376.319	78.5
376.545	91.5
376.771	86.5
376.997	78.5
377.222	77.5
377.448	86.5
377.674	104.5
377.899	92.5
378.125	87.5
378.35	101.5
378.576	104.5
378.802	81.5
379.027	102.5
379.253	91.5
379.478	90.5
379.704	94.5
379.929	88.5
380.155	94.5
380.38	91.5
380.606	96.5
380.831	91.5
381.057	88.5
381.282	71.5
381.507	98.5
381.733	91.5
381.958	80.5
382.184	97.5
382.409	87.5
382.634	87.5
382.86	82.5
383.085	91.5
383.31	95.5
383.535	111.5
383.761	93.5
383.986	79.5
384.211	81.5
384.436	94.5
384.662	97.5
384.887	82.5
385.112	74.5
385.337	92.5
385.562	85.5
385.787	98.5
386.013	106.5
386.238	94.5
386.463	85.5
386.688	83.5
386.913	99.5
387.138	77.5
387.363	109.5
387.588	100.5
387.813	97.5
388.038	93.5
388.263	94.5
388.488	100.5
388.713	94.5
388.938	100.5
389.163	101.5
389.387	89.5
389.612	87.5
389.837	97.5
390.062	92.5
390.287	109.5
390.512	101.5
390.736	97.5
390.961	91.5
391.186	92.5
391.411	104.5
391.636	111.5
391.86	104.5
392.085	87.5
392.31	99.5
392.534	93.5
392.759	101.5
392.984	109.5
393.208	106.5
393.433	88.5
393.658	87.5
393.882	97.5
394.107	93.5
394.331	105.5
394.556	102.5
394.78	87.5
395.005	104.5
395.229	102.5
395.454	114.5
395.678	110.5
395.903	112.5
396.127	112.5
396.352	100.5
396.576	105.5
396.801	94.5
397.025	110.5
397.249	106.5
397.474	110.5
397.698	88.5
397.922	111.5
398.147	102.5
398.371	95.5
398.595	112.5
398.82	91.5
399.044	100.5
399.268	101.5
399.492	106.5
399.717	103.5
399.941	109.5
400.165	114.5
400.389	114.5
400.613	101.5
400.837	113.5
401.062	101.5
401.286	106.5
401.51	109.5
401.734	103.5
401.958	114.5
402.182	109.5
402.406	94.5
402.63	92.5
402.854	88.5
403.078	109.5
403.302	102.5
403.526	98.5
403.75	103.5
403.974	99.5
404.198	95.5
404.422	111.5
404.645	108.5
404.869	108.5
405.093	107.5
405.317	112.5
405.541	91.5
405.765	112.5
405.988	111.5
406.212	102.5
406.436	101.5
406.66	101.5
406.883	100.5
407.107	116.5
407.331	116.5
407.555	115.5
407.778	123.5
408.002	116.5
408.226	115.5
408.449	118.5
408.673	114.5
408.896	116.5
409.12	98.5
409.344	114.5
409.567	97.5
409.791	106.5
410.014	116.5
410.238	117.5
410.461	113.5
410.685	113.5
410.908	110.5
411.132	99.5
411.355	107.5
411.578	113.5
411.802	111.5
412.025	111.5
412.249	108.5
412.472	121.5
412.695	111.5
412.919	111.5
413.142	101.5
413.365	100.5
413.589	122.5
413.812	111.5
414.035	110.5
414.258	101.5
414.482	99.5
414.705	105.5
414.928	107.5
415.151	106.5
415.374	87.5
415.597	99.5
415.821	106.5
416.044	107.5
416.267	107.5
416.49	115.5
416.713	123.5
416.936	98.5
417.159	111.5
417.382	112.5
417.605	106.5
417.828	114.5
418.051	119.5
418.274	116.5
418.497	100.5
418.72	115.5
418.943	108.5
419.166	121.5
419.389	115.5
419.611	111.5
419.834	118.5
420.057	95.5
420.28	108.5
420.503	115.5
420.726	119.5
420.948	115.5
421.171	113.5
421.394	106.5
421.617	113.5
421.839	107.5
422.062	119.5
422.285	111.5
422.507	104.5
422.73	113.5
422.953	117.5
423.175	119.5
423.398	117.5
423.621	115.5
423.843	108.5
424.066	116.5
424.288	115.5
424.511	117.5
424.733	111.5
424.956	102.5
425.178	107.5
425.401	120.5
425.623	109.5
425.846	103.5
426.068	108.5
426.291	99.5
426.513	107.5
426.735	122.5
426.958	122.5
427.18	97.5
427.402	115.5
427.625	124.5
427.847	95.5
428.069	103.5
428.292	104.5
428.514	121.5
428.736	106.5
428.958	115.5
429.181	103.5
429.403	107.5
429.625	99.5
429.847	113.5
430.069	118.5
430.292	104.5
430.514	113.5
430.736	114.5
430.958	106.5
431.18	125.5
431.402	107.5
431.624	113.5
431.846	118.5
432.068	104.5
432.29	108.5
432.512	108.5
432.734	111.5
432.956	112.5
433.178	127.5
433.4	125.5
433.622	116.5
433.844	114.5
434.066	105.5
434.287	119.5
434.509	98.5
434.731	99.5
434.953	112.5
435.175	101.5
435.397	119.5
435.618	104.5
435.84	103.5
436.062	118.5
436.284	112.5
436.505	103.5
436.727	122.5
436.949	105.5
437.17	111.5
437.392	122.5
437.614	113.5
437.835	100.5
438.057	99.5
438.278	108.5
438.5	108.5
438.721	117.5
438.943	123.5
439.165	108.5
439.386	123.5
439.608	108.5
439.829	103.5
440.05	119.5
440.272	108.5
440.493	127.5
440.715	117.5
440.936	114.5
441.158	127.5
441.379	129.5
441.6	117.5
441.822	108.5
442.043	113.5
442.264	123.5
442.486	119.5
442.707	129.5
442.928	111.5
443.149	110.5
443.371	117.5
443.592	122.5
443.813	114.5
444.034	107.5
444.255	103.5
444.476	123.5
444.698	113.5
444.919	127.5
445.14	244.5
445.361	156.5
445.582	136.5
445.803	111.5
446.024	121.5
446.245	126.5
446.466	126.5
446.687	112.5
446.908	117.5
447.129	127.5
447.35	117.5
447.571	123.5
447.792	126.5
448.013	113.5
448.234	115.5
448.455	104.5
448.675	109.5
448.896	108.5
449.117	115.5
449.338	115.5
449.559	115.5
449.779	120.5
450	90.5
450.221	99.5
450.442	113.5
450.662	122.5
450.883	103.5
451.104	128.5
451.324	118.5
451.545	105.5
451.766	118.5
451.986	124.5
452.207	117.5
452.428	109.5
452.648	114.5
452.869	108.5
453.089	118.5
453.31	104.5
453.53	110.5
453.751	113.5
453.971	84.5
454.192	95.5
454.412	97.5
454.633	97.5
454.853	112.5
455.073	113.5
455.294	124.5
455.514	113.5
455.734	114.5
455.955	99.5
456.175	119.5
456.395	108.5
456.616	92.5
456.836	109.5
457.056	103.5
457.276	100.5
457.497	83.5
457.717	99.5
457.937	104.5
458.157	100.5
458.377	99.5
458.598	90.5
458.818	106.5
459.038	107.5
459.258	108.5
459.478	108.5
459.698	104.5
459.918	90.5
460.138	98.5
460.358	104.5
460.578	118.5
460.798	120.5
461.018	104.5
461.238	103.5
461.458	111.5
461.678	123.5
461.898	116.5
462.118	111.5
462.338	112.5
462.558	117.5
462.777	125.5
462.997	115.5
463.217	117.5
463.437	131.5
463.657	126.5
463.876	118.5
464.096	125.5
464.316	108.5
464.536	111.5
464.755	112.5
464.975	103.5
465.195	108.5
465.414	114.5
465.634	120.5
465.854	108.5
466.073	121.5
466.293	115.5
466.512	105.5
466.732	118.5
466.951	107.5
467.171	115.5
467.391	111.5
467.61	114.5
467.829	115.5
468.049	111.5
468.268	103.5
468.488	125.5
468.707	117.5
468.927	115.5
469.146	120.5
469.365	128.5
469.585	124.5
469.804	131.5
470.023	123.5
470.243	131.5
470.462	125.5
470.681	117.5
470.901	123.5
471.12	114.5
471.339	126.5
471.558	117.5
471.777	122.5
471.997	111.5
472.216	131.5
472.435	121.5
472.654	122.5
472.873	121.5
473.092	119.5
473.311	103.5
473.53	116.5
473.749	102.5
473.968	103.5
474.187	111.5
474.406	130.5
474.625	115.5
474.844	117.5
475.063	108.5
475.282	106.5
475.501	102.5
475.72	116.5
475.939	106.5
476.158	113.5
476.377	142.5
476.596	118.5
476.814	107.5
477.033	113.5
477.252	119.5
477.471	113.5
477.69	124.5
477.908	135.5
478.127	124.5
478.346	125.5
478.564	115.5
478.783	123.5
479.002	129.5
479.22	129.5
479.439	127.5
479.658	133.5
479.876	116.5
480.095	118.5
480.313	139.5
480.532	125.5
480.751	117.5
480.969	116.5
481.188	123.5
481.406	121.5
481.624	109.5
481.843	106.5
482.061	115.5
482.28	121.5
482.498	128.5
482.717	112.5
482.935	115.5
483.153	136.5
483.372	133.5
483.59	125.5
483.808	124.5
484.027	138.5
484.245	129.5
484.463	122.5
484.681	128.5
484.9	139.5
485.118	118.5
485.336	117.5
485.554	119.5
485.772	127.5
485.99	135.5
486.209	120.5
486.427	124.5
486.645	117.5
486.863	131.5
487.081	129.5
487.299	129.5
487.517	129.5
487.735	135.5
487.953	160.5
488.171	152.5
488.389	135.5
488.607	130.5
488.825	144.5
489.043	126.5
489.261	139.5
489.479	124.5
489.696	139.5
489.914	139.5
490.132	140.5
490.35	140.5
490.568	144.5
490.786	141.5
491.003	142.5
491.221	145.5
491.439	143.5
491.657	153.5
491.874	145.5
492.092	155.5
492.31	170.5
492.527	141.5
492.745	148.5
492.963	140.5
493.18	151.5
493.398	156.5
493.615	156.5
493.833	152.5
494.05	149.5
494.268	153.5
494.485	132.5
494.703	153.5
494.92	162.5
495.138	139.5
495.355	145.5
495.573	163.5
495.79	145.5
496.008	155.5
496.225	157.5
496.442	144.5
496.66	138.5
496.877	143.5
497.094	150.5
497.312	145.5
497.529	133.5
497.746	144.5
497.963	141.5
498.181	144.5
498.398	137.5
498.615	134.5
498.832	145.5
499.049	170.5
499.267	129.5
499.484	165.5
499.701	175.5
499.918	177.5
500.135	195.5
500.352	196.5
500.569	218.5
500.786	201.5
501.003	205.5
501.22	186.5
501.437	176.5
501.654	162.5
501.871	170.5
502.088	159.5
502.305	161.5
502.522	146.5
502.739	143.5
502.956	135.5
503.172	129.5
503.389	138.5
503.606	139.5
503.823	136.5
504.04	118.5
504.256	140.5
504.473	147.5
504.69	131.5
504.907	136.5
505.123	131.5
505.34	140.5
505.557	125.5
505.773	139.5
505.99	143.5
506.207	129.5
506.423	125.5
506.64	131.5
506.856	116.5
507.073	129.5
507.289	116.5
507.506	112.5
507.722	124.5
507.939	124.5
508.155	117.5
508.372	131.5
508.588	123.5
508.805	119.5
509.021	119.5
509.238	118.5
509.454	115.5
509.67	122.5
509.887	112.5
510.103	120.5
510.319	111.5
510.536	116.5
510.752	117.5
510.968	125.5
511.184	120.5
511.401	123.5
511.617	112.5
511.833	108.5
512.049	120.5
512.265	109.5
512.481	123.5
512.698	107.5
512.914	111.5
513.13	115.5
513.346	107.5
513.562	122.5
513.778	110.5
513.994	119.5
514.21	126.5
514.426	108.5
514.642	115.5
514.858	115.5
515.074	113.5
515.29	106.5
515.506	107.5
515.721	116.5
515.937	123.5
516.153	112.5
516.369	125.5
516.585	127.5
516.801	111.5
517.016	131.5
517.232	124.5
517.448	115.5
517.664	127.5
517.879	120.5
518.095	123.5
518.311	124.5
518.527	123.5
518.742	121.5
518.958	123.5
519.173	111.5
519.389	138.5
519.605	117.5
519.82	116.5
520.036	125.5
520.251	113.5
520.467	122.5
520.682	130.5
520.898	116.5
521.113	115.5
521.329	118.5
521.544	123.5
521.76	132.5
521.975	111.5
522.19	115.5
522.406	112.5
522.621	131.5
522.836	118.5
523.052	115.5
523.267	118.5
523.482	131.5
523.698	121.5
523.913	113.5
524.128	119.5
524.343	126.5
524.559	125.5
524.774	118.5
524.989	130.5
525.204	127.5
525.419	115.5
525.634	127.5
525.849	116.5
526.064	111.5
526.28	116.5
526.495	112.5
526.71	129.5
526.925	108.5
527.14	106.5
527.355	106.5
527.57	106.5
527.785	124.5
527.999	105.5
528.214	104.5
528.429	124.5
528.644	120.5
528.859	124.5
529.074	132.5
529.289	131.5
529.503	125.5
529.718	133.5
529.933	116.5
530.148	125.5
