Data from StandardFe(NO3)3.TAE.3%Agarose.FlatLispGreen.Lamp.Energy10.07252019_HRD10591_11-55-48-442.txt Node
Date: Thu Jul 25 11:55:48 EDT 2019
User: cochatt
Spectrometer: HR+D1059
Trigger mode: 1
Integration Time (sec): 1.000000E-1
Scans to average: 1
Electric dark correction enabled: true
Nonlinearity correction enabled: false
Boxcar width: 0
XAxis mode: Wavelengths
Number of Pixels in Spectrum: 2048
>>>>>Begin Spectral Data<<<<<
223.165	-15.25
223.4	-15.25
223.635	-15.25
223.869	-20.25
224.104	-26.25
224.338	-20.25
224.573	-12.25
224.808	-18.25
225.042	6.75
225.277	-0.25
225.511	-0.25
225.746	22.75
225.98	1.75
226.215	17.75
226.449	8.75
226.683	12.75
226.918	7.75
227.152	34.75
227.387	27.75
227.621	36.75
227.856	42.75
228.09	48.75
228.324	66.75
228.559	61.75
228.793	74.75
229.027	55.75
229.262	62.75
229.496	57.75
229.73	63.75
229.964	69.75
230.199	84.75
230.433	78.75
230.667	60.75
230.901	76.75
231.136	82.75
231.37	80.75
231.604	88.75
231.838	81.75
232.072	75.75
232.306	76.75
232.541	82.75
232.775	86.75
233.009	83.75
233.243	72.75
233.477	77.75
233.711	72.75
233.945	78.75
234.179	79.75
234.413	88.75
234.647	86.75
234.881	87.75
235.115	85.75
235.349	90.75
235.583	76.75
235.817	74.75
236.051	73.75
236.285	73.75
236.519	84.75
236.753	76.75
236.987	77.75
237.221	83.75
237.455	86.75
237.689	82.75
237.922	78.75
238.156	70.75
238.39	66.75
238.624	60.75
238.858	78.75
239.091	71.75
239.325	72.75
239.559	76.75
239.793	72.75
240.027	74.75
240.26	86.75
240.494	77.75
240.728	65.75
240.961	73.75
241.195	78.75
241.429	73.75
241.662	82.75
241.896	79.75
242.13	81.75
242.363	72.75
242.597	79.75
242.83	76.75
243.064	74.75
243.298	74.75
243.531	79.75
243.765	73.75
243.998	64.75
244.232	84.75
244.465	75.75
244.699	68.75
244.932	84.75
245.166	97.75
245.399	73.75
245.633	71.75
245.866	70.75
246.099	53.75
246.333	78.75
246.566	82.75
246.8	80.75
247.033	73.75
247.266	73.75
247.5	72.75
247.733	67.75
247.966	79.75
248.2	78.75
248.433	71.75
248.666	74.75
248.899	70.75
249.133	75.75
249.366	94.75
249.599	76.75
249.832	75.75
250.066	84.75
250.299	75.75
250.532	81.75
250.765	73.75
250.998	76.75
251.231	74.75
251.465	71.75
251.698	68.75
251.931	78.75
252.164	80.75
252.397	73.75
252.63	74.75
252.863	85.75
253.096	79.75
253.329	70.75
253.562	89.75
253.795	90.75
254.028	64.75
254.261	76.75
254.494	74.75
254.727	74.75
254.96	77.75
255.193	79.75
255.426	78.75
255.659	80.75
255.892	81.75
256.124	87.75
256.357	80.75
256.59	83.75
256.823	78.75
257.056	69.75
257.289	85.75
257.521	79.75
257.754	78.75
257.987	67.75
258.22	78.75
258.452	93.75
258.685	86.75
258.918	71.75
259.151	73.75
259.383	72.75
259.616	79.75
259.849	71.75
260.081	79.75
260.314	81.75
260.547	75.75
260.779	95.75
261.012	80.75
261.244	87.75
261.477	81.75
261.71	82.75
261.942	75.75
262.175	75.75
262.407	85.75
262.64	75.75
262.872	70.75
263.105	81.75
263.337	87.75
263.57	80.75
263.802	82.75
264.035	80.75
264.267	83.75
264.499	75.75
264.732	93.75
264.964	75.75
265.197	94.75
265.429	85.75
265.661	82.75
265.894	69.75
266.126	80.75
266.358	63.75
266.591	76.75
266.823	75.75
267.055	71.75
267.287	77.75
267.52	97.75
267.752	79.75
267.984	81.75
268.216	89.75
268.448	94.75
268.681	73.75
268.913	69.75
269.145	67.75
269.377	94.75
269.609	82.75
269.841	75.75
270.073	82.75
270.306	98.75
270.538	75.75
270.77	81.75
271.002	87.75
271.234	67.75
271.466	75.75
271.698	88.75
271.93	81.75
272.162	73.75
272.394	84.75
272.626	83.75
272.858	83.75
273.09	81.75
273.322	82.75
273.553	70.75
273.785	84.75
274.017	86.75
274.249	68.75
274.481	67.75
274.713	72.75
274.945	63.75
275.176	75.75
275.408	84.75
275.64	83.75
275.872	79.75
276.104	87.75
276.335	93.75
276.567	99.75
276.799	78.75
277.031	83.75
277.262	87.75
277.494	79.75
277.726	83.75
277.957	84.75
278.189	78.75
278.421	74.75
278.652	67.75
278.884	84.75
279.115	72.75
279.347	102.75
279.579	83.75
279.81	87.75
280.042	89.75
280.273	82.75
280.505	89.75
280.736	80.75
280.968	81.75
281.199	77.75
281.431	79.75
281.662	77.75
281.894	83.75
282.125	76.75
282.356	89.75
282.588	81.75
282.819	84.75
283.051	78.75
283.282	74.75
283.513	84.75
283.745	66.75
283.976	87.75
284.207	87.75
284.439	77.75
284.67	83.75
284.901	92.75
285.132	83.75
285.364	66.75
285.595	95.75
285.826	69.75
286.057	84.75
286.288	83.75
286.52	82.75
286.751	87.75
286.982	83.75
287.213	91.75
287.444	84.75
287.675	77.75
287.906	99.75
288.138	83.75
288.369	86.75
288.6	91.75
288.831	84.75
289.062	83.75
289.293	86.75
289.524	75.75
289.755	73.75
289.986	79.75
290.217	74.75
290.448	85.75
290.679	87.75
290.91	81.75
291.141	71.75
291.371	90.75
291.602	90.75
291.833	91.75
292.064	97.75
292.295	70.75
292.526	91.75
292.757	78.75
292.987	83.75
293.218	91.75
293.449	93.75
293.68	79.75
293.91	73.75
294.141	79.75
294.372	89.75
294.603	69.75
294.833	79.75
295.064	74.75
295.295	85.75
295.525	83.75
295.756	85.75
295.987	77.75
296.217	79.75
296.448	82.75
296.679	63.75
296.909	81.75
297.14	72.75
297.37	76.75
297.601	76.75
297.831	78.75
298.062	90.75
298.292	93.75
298.523	75.75
298.753	81.75
298.984	82.75
299.214	84.75
299.445	79.75
299.675	89.75
299.905	75.75
300.136	87.75
300.366	86.75
300.597	80.75
300.827	87.75
301.057	82.75
301.288	84.75
301.518	73.75
301.748	71.75
301.979	81.75
302.209	76.75
302.439	83.75
302.669	77.75
302.9	85.75
303.13	91.75
303.36	85.75
303.59	79.75
303.82	79.75
304.051	64.75
304.281	85.75
304.511	83.75
304.741	90.75
304.971	77.75
305.201	83.75
305.431	96.75
305.661	82.75
305.891	78.75
306.121	86.75
306.352	78.75
306.582	85.75
306.812	91.75
307.042	81.75
307.272	83.75
307.502	83.75
307.731	80.75
307.961	81.75
308.191	81.75
308.421	87.75
308.651	69.75
308.881	83.75
309.111	69.75
309.341	88.75
309.571	87.75
309.8	69.75
310.03	73.75
310.26	72.75
310.49	73.75
310.72	83.75
310.949	68.75
311.179	85.75
311.409	91.75
311.639	75.75
311.868	75.75
312.098	89.75
312.328	74.75
312.557	71.75
312.787	78.75
313.017	79.75
313.246	73.75
313.476	88.75
313.706	67.75
313.935	85.75
314.165	77.75
314.394	70.75
314.624	83.75
314.853	99.75
315.083	78.75
315.312	87.75
315.542	84.75
315.771	92.75
316.001	75.75
316.23	82.75
316.46	69.75
316.689	87.75
316.919	78.75
317.148	79.75
317.377	89.75
317.607	88.75
317.836	82.75
318.065	90.75
318.295	91.75
318.524	80.75
318.753	79.75
318.983	89.75
319.212	86.75
319.441	78.75
319.67	83.75
319.9	79.75
320.129	73.75
320.358	86.75
320.587	87.75
320.816	87.75
321.046	82.75
321.275	89.75
321.504	85.75
321.733	84.75
321.962	72.75
322.191	74.75
322.42	71.75
322.649	85.75
322.878	71.75
323.108	82.75
323.337	76.75
323.566	77.75
323.795	78.75
324.024	80.75
324.253	79.75
324.482	85.75
324.71	77.75
324.939	92.75
325.168	84.75
325.397	73.75
325.626	83.75
325.855	64.75
326.084	90.75
326.313	90.75
326.542	87.75
326.77	85.75
326.999	88.75
327.228	90.75
327.457	81.75
327.686	81.75
327.914	87.75
328.143	98.75
328.372	74.75
328.6	72.75
328.829	86.75
329.058	81.75
329.287	93.75
329.515	80.75
329.744	85.75
329.972	81.75
330.201	90.75
330.43	79.75
330.658	75.75
330.887	82.75
331.115	75.75
331.344	74.75
331.572	75.75
331.801	82.75
332.03	84.75
332.258	80.75
332.486	87.75
332.715	81.75
332.943	76.75
333.172	83.75
333.4	75.75
333.629	101.75
333.857	71.75
334.085	72.75
334.314	80.75
334.542	89.75
334.771	87.75
334.999	87.75
335.227	77.75
335.455	85.75
335.684	94.75
335.912	89.75
336.14	83.75
336.369	74.75
336.597	85.75
336.825	72.75
337.053	81.75
337.281	79.75
337.51	83.75
337.738	97.75
337.966	79.75
338.194	85.75
338.422	86.75
338.65	80.75
338.878	87.75
339.106	81.75
339.334	95.75
339.562	89.75
339.79	73.75
340.018	84.75
340.246	80.75
340.474	75.75
340.702	85.75
340.93	81.75
341.158	61.75
341.386	93.75
341.614	74.75
341.842	74.75
342.07	76.75
342.298	77.75
342.526	80.75
342.754	74.75
342.981	70.75
343.209	76.75
343.437	91.75
343.665	83.75
343.893	83.75
344.12	89.75
344.348	74.75
344.576	85.75
344.804	85.75
345.031	73.75
345.259	77.75
345.487	80.75
345.714	90.75
345.942	82.75
346.17	99.75
346.397	89.75
346.625	72.75
346.853	73.75
347.08	75.75
347.308	103.75
347.535	84.75
347.763	85.75
347.99	80.75
348.218	81.75
348.445	86.75
348.673	79.75
348.9	72.75
349.128	83.75
349.355	94.75
349.583	81.75
349.81	71.75
350.037	84.75
350.265	105.75
350.492	76.75
350.72	82.75
350.947	83.75
351.174	79.75
351.402	93.75
351.629	101.75
351.856	97.75
352.083	66.75
352.311	100.75
352.538	92.75
352.765	84.75
352.992	72.75
353.22	78.75
353.447	89.75
353.674	83.75
353.901	96.75
354.128	74.75
354.355	84.75
354.583	69.75
354.81	88.75
355.037	78.75
355.264	80.75
355.491	85.75
355.718	75.75
355.945	86.75
356.172	85.75
356.399	78.75
356.626	82.75
356.853	85.75
357.08	87.75
357.307	84.75
357.534	68.75
357.761	85.75
357.988	76.75
358.215	89.75
358.441	76.75
358.668	84.75
358.895	72.75
359.122	91.75
359.349	79.75
359.576	90.75
359.802	92.75
360.029	80.75
360.256	81.75
360.483	90.75
360.709	83.75
360.936	93.75
361.163	78.75
361.39	81.75
361.616	73.75
361.843	84.75
362.07	87.75
362.296	81.75
362.523	88.75
362.749	83.75
362.976	75.75
363.203	85.75
363.429	82.75
363.656	80.75
363.882	94.75
364.109	87.75
364.335	80.75
364.562	86.75
364.788	89.75
365.015	75.75
365.241	75.75
365.468	81.75
365.694	91.75
365.92	85.75
366.147	76.75
366.373	88.75
366.599	85.75
366.826	85.75
367.052	78.75
367.278	91.75
367.505	87.75
367.731	87.75
367.957	78.75
368.184	74.75
368.41	83.75
368.636	94.75
368.862	91.75
369.089	87.75
369.315	78.75
369.541	85.75
369.767	69.75
369.993	101.75
370.219	79.75
370.445	79.75
370.672	79.75
370.898	70.75
371.124	90.75
371.35	85.75
371.576	90.75
371.802	94.75
372.028	86.75
372.254	72.75
372.48	90.75
372.706	86.75
372.932	103.75
373.158	84.75
373.384	97.75
373.61	84.75
373.835	76.75
374.061	79.75
374.287	82.75
374.513	84.75
374.739	84.75
374.965	83.75
375.191	82.75
375.416	83.75
375.642	88.75
375.868	82.75
376.094	84.75
376.319	83.75
376.545	80.75
376.771	94.75
376.997	77.75
377.222	89.75
377.448	82.75
377.674	93.75
377.899	82.75
378.125	97.75
378.35	83.75
378.576	90.75
378.802	79.75
379.027	89.75
379.253	87.75
379.478	89.75
379.704	88.75
379.929	80.75
380.155	92.75
380.38	89.75
380.606	74.75
380.831	96.75
381.057	89.75
381.282	90.75
381.507	100.75
381.733	81.75
381.958	84.75
382.184	89.75
382.409	99.75
382.634	98.75
382.86	72.75
383.085	78.75
383.31	80.75
383.535	108.75
383.761	93.75
383.986	104.75
384.211	87.75
384.436	89.75
384.662	79.75
384.887	91.75
385.112	79.75
385.337	94.75
385.562	86.75
385.787	96.75
386.013	85.75
386.238	73.75
386.463	81.75
386.688	93.75
386.913	99.75
387.138	80.75
387.363	97.75
387.588	90.75
387.813	87.75
388.038	93.75
388.263	97.75
388.488	84.75
388.713	75.75
388.938	92.75
389.163	83.75
389.387	85.75
389.612	98.75
389.837	94.75
390.062	90.75
390.287	75.75
390.512	106.75
390.736	101.75
390.961	86.75
391.186	98.75
391.411	86.75
391.636	94.75
391.86	96.75
392.085	98.75
392.31	101.75
392.534	94.75
392.759	97.75
392.984	89.75
393.208	95.75
393.433	91.75
393.658	96.75
393.882	77.75
394.107	83.75
394.331	97.75
394.556	101.75
394.78	99.75
395.005	79.75
395.229	88.75
395.454	81.75
395.678	83.75
395.903	98.75
396.127	79.75
396.352	113.75
396.576	94.75
396.801	98.75
397.025	82.75
397.249	99.75
397.474	90.75
397.698	104.75
397.922	94.75
398.147	92.75
398.371	112.75
398.595	89.75
398.82	100.75
399.044	106.75
399.268	122.75
399.492	108.75
399.717	111.75
399.941	105.75
400.165	111.75
400.389	97.75
400.613	98.75
400.837	114.75
401.062	89.75
401.286	102.75
401.51	96.75
401.734	105.75
401.958	105.75
402.182	100.75
402.406	95.75
402.63	95.75
402.854	103.75
403.078	102.75
403.302	104.75
403.526	104.75
403.75	92.75
403.974	104.75
404.198	98.75
404.422	107.75
404.645	91.75
404.869	99.75
405.093	112.75
405.317	105.75
405.541	97.75
405.765	101.75
405.988	112.75
406.212	104.75
406.436	93.75
406.66	103.75
406.883	108.75
407.107	117.75
407.331	101.75
407.555	100.75
407.778	97.75
408.002	110.75
408.226	95.75
408.449	112.75
408.673	111.75
408.896	97.75
409.12	107.75
409.344	102.75
409.567	109.75
409.791	119.75
410.014	116.75
410.238	100.75
410.461	104.75
410.685	107.75
410.908	103.75
411.132	98.75
411.355	96.75
411.578	102.75
411.802	106.75
412.025	113.75
412.249	110.75
412.472	102.75
412.695	107.75
412.919	105.75
413.142	100.75
413.365	101.75
413.589	111.75
413.812	111.75
414.035	103.75
414.258	99.75
414.482	108.75
414.705	107.75
414.928	121.75
415.151	99.75
415.374	114.75
415.597	121.75
415.821	103.75
416.044	100.75
416.267	100.75
416.49	108.75
416.713	97.75
416.936	102.75
417.159	104.75
417.382	103.75
417.605	115.75
417.828	109.75
418.051	119.75
418.274	108.75
418.497	114.75
418.72	102.75
418.943	98.75
419.166	100.75
419.389	106.75
419.611	111.75
419.834	105.75
420.057	107.75
420.28	111.75
420.503	122.75
420.726	115.75
420.948	101.75
421.171	116.75
421.394	103.75
421.617	121.75
421.839	102.75
422.062	105.75
422.285	101.75
422.507	110.75
422.73	110.75
422.953	107.75
423.175	117.75
423.398	100.75
423.621	119.75
423.843	117.75
424.066	114.75
424.288	103.75
424.511	111.75
424.733	120.75
424.956	97.75
425.178	129.75
425.401	119.75
425.623	110.75
425.846	119.75
426.068	118.75
426.291	117.75
426.513	79.75
426.735	117.75
426.958	105.75
427.18	113.75
427.402	101.75
427.625	101.75
427.847	90.75
428.069	110.75
428.292	111.75
428.514	115.75
428.736	93.75
428.958	107.75
429.181	108.75
429.403	102.75
429.625	115.75
429.847	105.75
430.069	113.75
430.292	118.75
430.514	114.75
430.736	109.75
430.958	111.75
431.18	121.75
431.402	102.75
431.624	95.75
431.846	106.75
432.068	105.75
432.29	101.75
432.512	107.75
432.734	112.75
432.956	111.75
433.178	106.75
433.4	113.75
433.622	93.75
433.844	111.75
434.066	113.75
434.287	112.75
434.509	104.75
434.731	91.75
434.953	113.75
435.175	113.75
435.397	110.75
435.618	109.75
435.84	118.75
436.062	86.75
436.284	93.75
436.505	111.75
436.727	110.75
436.949	112.75
437.17	104.75
437.392	104.75
437.614	100.75
437.835	95.75
438.057	94.75
438.278	97.75
438.5	104.75
438.721	104.75
438.943	102.75
439.165	99.75
439.386	103.75
439.608	102.75
439.829	121.75
440.05	102.75
440.272	103.75
440.493	105.75
440.715	122.75
440.936	111.75
441.158	118.75
441.379	133.75
441.6	113.75
441.822	114.75
442.043	117.75
442.264	125.75
442.486	121.75
442.707	104.75
442.928	101.75
443.149	105.75
443.371	130.75
443.592	107.75
443.813	119.75
444.034	102.75
444.255	109.75
444.476	107.75
444.698	115.75
444.919	125.75
445.14	215.75
445.361	171.75
445.582	110.75
445.803	98.75
446.024	106.75
446.245	131.75
446.466	110.75
446.687	110.75
446.908	123.75
447.129	117.75
447.35	122.75
447.571	103.75
447.792	96.75
448.013	98.75
448.234	111.75
448.455	108.75
448.675	114.75
448.896	108.75
449.117	106.75
449.338	104.75
449.559	112.75
449.779	120.75
450	102.75
450.221	109.75
450.442	99.75
450.662	115.75
450.883	111.75
451.104	112.75
451.324	116.75
451.545	99.75
451.766	121.75
451.986	102.75
452.207	93.75
452.428	112.75
452.648	123.75
452.869	106.75
453.089	110.75
453.31	85.75
453.53	98.75
453.751	102.75
453.971	107.75
454.192	112.75
454.412	92.75
454.633	100.75
454.853	110.75
455.073	100.75
455.294	104.75
455.514	107.75
455.734	109.75
455.955	89.75
456.175	89.75
456.395	84.75
456.616	102.75
456.836	90.75
457.056	111.75
457.276	95.75
457.497	92.75
457.717	106.75
457.937	96.75
458.157	92.75
458.377	96.75
458.598	107.75
458.818	101.75
459.038	97.75
459.258	99.75
459.478	96.75
459.698	110.75
459.918	109.75
460.138	108.75
460.358	109.75
460.578	102.75
460.798	96.75
461.018	113.75
461.238	115.75
461.458	127.75
461.678	108.75
461.898	96.75
462.118	94.75
462.338	117.75
462.558	116.75
462.777	109.75
462.997	125.75
463.217	125.75
463.437	134.75
463.657	119.75
463.876	116.75
464.096	109.75
464.316	118.75
464.536	113.75
464.755	120.75
464.975	114.75
465.195	115.75
465.414	94.75
465.634	112.75
465.854	113.75
466.073	114.75
466.293	102.75
466.512	103.75
466.732	124.75
466.951	118.75
467.171	109.75
467.391	113.75
467.61	103.75
467.829	113.75
468.049	117.75
468.268	126.75
468.488	113.75
468.707	113.75
468.927	111.75
469.146	105.75
469.365	113.75
469.585	118.75
469.804	109.75
470.023	134.75
470.243	121.75
470.462	121.75
470.681	118.75
470.901	116.75
471.12	109.75
471.339	99.75
471.558	116.75
471.777	99.75
471.997	114.75
472.216	119.75
472.435	115.75
472.654	113.75
472.873	112.75
473.092	105.75
473.311	105.75
473.53	123.75
473.749	121.75
473.968	121.75
474.187	112.75
474.406	105.75
474.625	100.75
474.844	98.75
475.063	116.75
475.282	132.75
475.501	104.75
475.72	117.75
475.939	97.75
476.158	119.75
476.377	113.75
476.596	110.75
476.814	104.75
477.033	110.75
477.252	117.75
477.471	104.75
477.69	119.75
477.908	121.75
478.127	115.75
478.346	121.75
478.564	118.75
478.783	121.75
479.002	128.75
479.22	112.75
479.439	122.75
479.658	113.75
479.876	106.75
480.095	125.75
480.313	123.75
480.532	112.75
480.751	125.75
480.969	119.75
481.188	113.75
481.406	106.75
481.624	106.75
481.843	99.75
482.061	102.75
482.28	129.75
482.498	117.75
482.717	117.75
482.935	122.75
483.153	111.75
483.372	116.75
483.59	129.75
483.808	130.75
484.027	136.75
484.245	110.75
484.463	125.75
484.681	134.75
484.9	134.75
485.118	119.75
485.336	122.75
485.554	119.75
485.772	118.75
485.99	120.75
486.209	109.75
486.427	120.75
486.645	121.75
486.863	121.75
487.081	121.75
487.299	124.75
487.517	131.75
487.735	133.75
487.953	129.75
488.171	136.75
488.389	133.75
488.607	134.75
488.825	122.75
489.043	110.75
489.261	136.75
489.479	116.75
489.696	114.75
489.914	124.75
490.132	122.75
490.35	119.75
490.568	145.75
490.786	127.75
491.003	136.75
491.221	133.75
491.439	150.75
491.657	151.75
491.874	137.75
492.092	169.75
492.31	166.75
492.527	155.75
492.745	154.75
492.963	136.75
493.18	130.75
493.398	138.75
493.615	158.75
493.833	146.75
494.05	146.75
494.268	134.75
494.485	140.75
494.703	133.75
494.92	139.75
495.138	140.75
495.355	152.75
495.573	156.75
495.79	150.75
496.008	142.75
496.225	142.75
496.442	150.75
496.66	144.75
496.877	132.75
497.094	139.75
497.312	132.75
497.529	134.75
497.746	148.75
497.963	155.75
498.181	117.75
498.398	141.75
498.615	128.75
498.832	140.75
499.049	145.75
499.267	159.75
499.484	139.75
499.701	155.75
499.918	193.75
500.135	194.75
500.352	218.75
500.569	214.75
500.786	207.75
501.003	184.75
501.22	182.75
501.437	189.75
501.654	168.75
501.871	164.75
502.088	149.75
502.305	134.75
502.522	147.75
502.739	141.75
502.956	127.75
503.172	134.75
503.389	125.75
503.606	120.75
503.823	126.75
504.04	137.75
504.256	126.75
504.473	130.75
504.69	118.75
504.907	121.75
505.123	129.75
505.34	141.75
505.557	119.75
505.773	128.75
505.99	123.75
506.207	125.75
506.423	119.75
506.64	113.75
506.856	134.75
507.073	137.75
507.289	120.75
507.506	111.75
507.722	121.75
507.939	115.75
508.155	114.75
508.372	116.75
508.588	115.75
508.805	119.75
509.021	137.75
509.238	134.75
509.454	114.75
509.67	124.75
509.887	114.75
510.103	98.75
510.319	102.75
510.536	102.75
510.752	115.75
510.968	106.75
511.184	109.75
511.401	109.75
511.617	106.75
511.833	115.75
512.049	121.75
512.265	119.75
512.481	115.75
