Data from StandardFe(NO3)3.TAE.3%Agarose.FlatLispGreen.Lamp.Energy10.07252019_HRD10591_11-54-14-440.txt Node
Date: Thu Jul 25 11:54:14 EDT 2019
User: cochatt
Spectrometer: HR+D1059
Trigger mode: 1
Integration Time (sec): 1.000000E-1
Scans to average: 1
Electric dark correction enabled: true
Nonlinearity correction enabled: false
Boxcar width: 0
XAxis mode: Wavelengths
Number of Pixels in Spectrum: 2048
>>>>>Begin Spectral Data<<<<<
223.165	-13.06
223.4	-13.06
223.635	-13.06
223.869	-24.06
224.104	-19.06
224.338	-27.06
224.573	-17.06
224.808	-25.06
225.042	-6.06
225.277	2.94
225.511	8.94
225.746	5.94
225.98	2.94
226.215	23.94
226.449	8.94
226.683	21.94
226.918	15.94
227.152	39.94
227.387	43.94
227.621	29.94
227.856	46.94
228.09	51.94
228.324	49.94
228.559	66.94
228.793	62.94
229.027	70.94
229.262	65.94
229.496	59.94
229.73	71.94
229.964	86.94
230.199	76.94
230.433	96.94
230.667	73.94
230.901	82.94
231.136	91.94
231.37	76.94
231.604	89.94
231.838	81.94
232.072	83.94
232.306	79.94
232.541	88.94
232.775	68.94
233.009	75.94
233.243	97.94
233.477	97.94
233.711	70.94
233.945	76.94
234.179	81.94
234.413	80.94
234.647	75.94
234.881	87.94
235.115	78.94
235.349	90.94
235.583	78.94
235.817	82.94
236.051	59.94
236.285	74.94
236.519	92.94
236.753	88.94
236.987	74.94
237.221	62.94
237.455	82.94
237.689	73.94
237.922	73.94
238.156	79.94
238.39	82.94
238.624	76.94
238.858	71.94
239.091	79.94
239.325	84.94
239.559	85.94
239.793	77.94
240.027	82.94
240.26	82.94
240.494	92.94
240.728	75.94
240.961	70.94
241.195	92.94
241.429	85.94
241.662	81.94
241.896	88.94
242.13	78.94
242.363	83.94
242.597	69.94
242.83	92.94
243.064	72.94
243.298	82.94
243.531	74.94
243.765	74.94
243.998	82.94
244.232	73.94
244.465	60.94
244.699	81.94
244.932	77.94
245.166	72.94
245.399	77.94
245.633	86.94
245.866	78.94
246.099	73.94
246.333	77.94
246.566	84.94
246.8	69.94
247.033	73.94
247.266	70.94
247.5	89.94
247.733	68.94
247.966	78.94
248.2	91.94
248.433	81.94
248.666	82.94
248.899	71.94
249.133	80.94
249.366	75.94
249.599	71.94
249.832	82.94
250.066	79.94
250.299	74.94
250.532	81.94
250.765	69.94
250.998	69.94
251.231	75.94
251.465	81.94
251.698	92.94
251.931	81.94
252.164	76.94
252.397	74.94
252.63	90.94
252.863	72.94
253.096	67.94
253.329	91.94
253.562	87.94
253.795	77.94
254.028	89.94
254.261	71.94
254.494	78.94
254.727	94.94
254.96	87.94
255.193	65.94
255.426	84.94
255.659	99.94
255.892	96.94
256.124	74.94
256.357	99.94
256.59	78.94
256.823	79.94
257.056	74.94
257.289	86.94
257.521	88.94
257.754	95.94
257.987	83.94
258.22	84.94
258.452	68.94
258.685	86.94
258.918	78.94
259.151	80.94
259.383	82.94
259.616	84.94
259.849	78.94
260.081	89.94
260.314	94.94
260.547	84.94
260.779	82.94
261.012	78.94
261.244	77.94
261.477	86.94
261.71	90.94
261.942	76.94
262.175	76.94
262.407	73.94
262.64	75.94
262.872	81.94
263.105	81.94
263.337	82.94
263.57	74.94
263.802	87.94
264.035	87.94
264.267	86.94
264.499	81.94
264.732	88.94
264.964	82.94
265.197	84.94
265.429	72.94
265.661	71.94
265.894	91.94
266.126	82.94
266.358	75.94
266.591	76.94
266.823	75.94
267.055	78.94
267.287	78.94
267.52	88.94
267.752	72.94
267.984	74.94
268.216	85.94
268.448	82.94
268.681	68.94
268.913	84.94
269.145	91.94
269.377	69.94
269.609	83.94
269.841	83.94
270.073	81.94
270.306	91.94
270.538	83.94
270.77	94.94
271.002	71.94
271.234	85.94
271.466	93.94
271.698	86.94
271.93	95.94
272.162	76.94
272.394	89.94
272.626	100.94
272.858	79.94
273.09	78.94
273.322	84.94
273.553	88.94
273.785	69.94
274.017	89.94
274.249	84.94
274.481	88.94
274.713	94.94
274.945	80.94
275.176	84.94
275.408	95.94
275.64	87.94
275.872	86.94
276.104	84.94
276.335	92.94
276.567	70.94
276.799	84.94
277.031	90.94
277.262	90.94
277.494	82.94
277.726	89.94
277.957	75.94
278.189	79.94
278.421	98.94
278.652	91.94
278.884	77.94
279.115	79.94
279.347	76.94
279.579	78.94
279.81	76.94
280.042	87.94
280.273	69.94
280.505	86.94
280.736	84.94
280.968	93.94
281.199	92.94
281.431	82.94
281.662	79.94
281.894	98.94
282.125	96.94
282.356	83.94
282.588	83.94
282.819	87.94
283.051	85.94
283.282	86.94
283.513	73.94
283.745	92.94
283.976	82.94
284.207	88.94
284.439	88.94
284.67	86.94
284.901	97.94
285.132	90.94
285.364	91.94
285.595	89.94
285.826	88.94
286.057	88.94
286.288	92.94
286.52	86.94
286.751	89.94
286.982	87.94
287.213	88.94
287.444	101.94
287.675	78.94
287.906	91.94
288.138	85.94
288.369	90.94
288.6	85.94
288.831	78.94
289.062	78.94
289.293	92.94
289.524	87.94
289.755	77.94
289.986	88.94
290.217	101.94
290.448	91.94
290.679	85.94
290.91	113.94
291.141	88.94
291.371	83.94
291.602	81.94
291.833	86.94
292.064	83.94
292.295	75.94
292.526	87.94
292.757	83.94
292.987	84.94
293.218	89.94
293.449	91.94
293.68	80.94
293.91	87.94
294.141	86.94
294.372	92.94
294.603	86.94
294.833	85.94
295.064	89.94
295.295	66.94
295.525	82.94
295.756	74.94
295.987	97.94
296.217	90.94
296.448	81.94
296.679	91.94
296.909	95.94
297.14	74.94
297.37	82.94
297.601	75.94
297.831	84.94
298.062	86.94
298.292	94.94
298.523	82.94
298.753	95.94
298.984	84.94
299.214	88.94
299.445	82.94
299.675	83.94
299.905	88.94
300.136	76.94
300.366	76.94
300.597	74.94
300.827	95.94
301.057	72.94
301.288	94.94
301.518	83.94
301.748	84.94
301.979	84.94
302.209	78.94
302.439	86.94
302.669	86.94
302.9	100.94
303.13	85.94
303.36	88.94
303.59	90.94
303.82	88.94
304.051	90.94
304.281	90.94
304.511	80.94
304.741	78.94
304.971	78.94
305.201	86.94
305.431	84.94
305.661	100.94
305.891	87.94
306.121	78.94
306.352	82.94
306.582	93.94
306.812	90.94
307.042	89.94
307.272	78.94
307.502	81.94
307.731	93.94
307.961	88.94
308.191	98.94
308.421	74.94
308.651	82.94
308.881	83.94
309.111	91.94
309.341	93.94
309.571	89.94
309.8	85.94
310.03	102.94
310.26	86.94
310.49	93.94
310.72	84.94
310.949	78.94
311.179	84.94
311.409	87.94
311.639	94.94
311.868	84.94
312.098	76.94
312.328	93.94
312.557	91.94
312.787	69.94
313.017	79.94
313.246	83.94
313.476	68.94
313.706	91.94
313.935	94.94
314.165	77.94
314.394	86.94
314.624	76.94
314.853	78.94
315.083	78.94
315.312	101.94
315.542	91.94
315.771	87.94
316.001	90.94
316.23	100.94
316.46	85.94
316.689	85.94
316.919	88.94
317.148	78.94
317.377	93.94
317.607	77.94
317.836	86.94
318.065	79.94
318.295	77.94
318.524	89.94
318.753	84.94
318.983	85.94
319.212	76.94
319.441	85.94
319.67	83.94
319.9	89.94
320.129	85.94
320.358	89.94
320.587	82.94
320.816	86.94
321.046	82.94
321.275	75.94
321.504	82.94
321.733	89.94
321.962	80.94
322.191	85.94
322.42	77.94
322.649	79.94
322.878	82.94
323.108	90.94
323.337	81.94
323.566	75.94
323.795	92.94
324.024	93.94
324.253	97.94
324.482	92.94
324.71	77.94
324.939	97.94
325.168	77.94
325.397	77.94
325.626	86.94
325.855	88.94
326.084	84.94
326.313	87.94
326.542	72.94
326.77	86.94
326.999	87.94
327.228	72.94
327.457	90.94
327.686	93.94
327.914	82.94
328.143	88.94
328.372	84.94
328.6	72.94
328.829	83.94
329.058	84.94
329.287	88.94
329.515	77.94
329.744	102.94
329.972	92.94
330.201	84.94
330.43	88.94
330.658	78.94
330.887	89.94
331.115	82.94
331.344	88.94
331.572	89.94
331.801	93.94
332.03	89.94
332.258	82.94
332.486	81.94
332.715	87.94
332.943	90.94
333.172	85.94
333.4	88.94
333.629	90.94
333.857	85.94
334.085	87.94
334.314	81.94
334.542	82.94
334.771	75.94
334.999	77.94
335.227	89.94
335.455	83.94
335.684	85.94
335.912	71.94
336.14	84.94
336.369	86.94
336.597	83.94
336.825	73.94
337.053	83.94
337.281	81.94
337.51	77.94
337.738	97.94
337.966	94.94
338.194	82.94
338.422	81.94
338.65	88.94
338.878	83.94
339.106	90.94
339.334	67.94
339.562	74.94
339.79	114.94
340.018	86.94
340.246	85.94
340.474	90.94
340.702	92.94
340.93	75.94
341.158	72.94
341.386	79.94
341.614	87.94
341.842	84.94
342.07	89.94
342.298	78.94
342.526	81.94
342.754	85.94
342.981	86.94
343.209	87.94
343.437	88.94
343.665	81.94
343.893	77.94
344.12	80.94
344.348	97.94
344.576	100.94
344.804	87.94
345.031	91.94
345.259	93.94
345.487	96.94
345.714	74.94
345.942	80.94
346.17	76.94
346.397	84.94
346.625	75.94
346.853	92.94
347.08	88.94
347.308	80.94
347.535	90.94
347.763	77.94
347.99	78.94
348.218	91.94
348.445	68.94
348.673	78.94
348.9	82.94
349.128	80.94
349.355	79.94
349.583	77.94
349.81	73.94
350.037	86.94
350.265	81.94
350.492	82.94
350.72	82.94
350.947	95.94
351.174	97.94
351.402	97.94
351.629	88.94
351.856	84.94
352.083	87.94
352.311	95.94
352.538	94.94
352.765	105.94
352.992	99.94
353.22	108.94
353.447	77.94
353.674	96.94
353.901	83.94
354.128	96.94
354.355	89.94
354.583	96.94
354.81	90.94
355.037	93.94
355.264	79.94
355.491	92.94
355.718	93.94
355.945	97.94
356.172	83.94
356.399	69.94
356.626	89.94
356.853	86.94
357.08	105.94
357.307	95.94
357.534	81.94
357.761	82.94
357.988	97.94
358.215	85.94
358.441	89.94
358.668	93.94
358.895	97.94
359.122	90.94
359.349	71.94
359.576	80.94
359.802	84.94
360.029	68.94
360.256	83.94
360.483	94.94
360.709	95.94
360.936	93.94
361.163	83.94
361.39	80.94
361.616	83.94
361.843	85.94
362.07	92.94
362.296	90.94
362.523	73.94
362.749	90.94
362.976	81.94
363.203	90.94
363.429	81.94
363.656	87.94
363.882	85.94
364.109	100.94
364.335	85.94
364.562	83.94
364.788	87.94
365.015	79.94
365.241	81.94
365.468	91.94
365.694	74.94
365.92	87.94
366.147	86.94
366.373	97.94
366.599	83.94
366.826	85.94
367.052	91.94
367.278	78.94
367.505	90.94
367.731	97.94
367.957	78.94
368.184	96.94
368.41	83.94
368.636	78.94
368.862	89.94
369.089	81.94
369.315	85.94
369.541	103.94
369.767	96.94
369.993	103.94
370.219	84.94
370.445	83.94
370.672	73.94
370.898	77.94
371.124	86.94
371.35	94.94
371.576	91.94
371.802	93.94
372.028	89.94
372.254	98.94
372.48	98.94
372.706	90.94
372.932	68.94
373.158	95.94
373.384	92.94
373.61	89.94
373.835	112.94
374.061	88.94
374.287	88.94
374.513	85.94
374.739	87.94
374.965	100.94
375.191	101.94
375.416	91.94
375.642	107.94
375.868	87.94
376.094	88.94
376.319	85.94
376.545	88.94
376.771	89.94
376.997	84.94
377.222	84.94
377.448	90.94
377.674	90.94
377.899	84.94
378.125	96.94
378.35	90.94
378.576	77.94
378.802	94.94
379.027	92.94
379.253	77.94
379.478	93.94
379.704	92.94
379.929	82.94
380.155	79.94
380.38	93.94
380.606	85.94
380.831	99.94
381.057	107.94
381.282	88.94
381.507	73.94
381.733	98.94
381.958	99.94
382.184	89.94
382.409	93.94
382.634	83.94
382.86	81.94
383.085	84.94
383.31	96.94
383.535	113.94
383.761	88.94
383.986	77.94
384.211	103.94
384.436	105.94
384.662	106.94
384.887	98.94
385.112	101.94
385.337	97.94
385.562	106.94
385.787	88.94
386.013	114.94
386.238	98.94
386.463	101.94
386.688	88.94
386.913	90.94
387.138	102.94
387.363	109.94
387.588	94.94
387.813	102.94
388.038	104.94
388.263	93.94
388.488	100.94
388.713	90.94
388.938	89.94
389.163	103.94
389.387	86.94
389.612	96.94
389.837	109.94
390.062	96.94
390.287	98.94
390.512	79.94
390.736	93.94
390.961	99.94
391.186	104.94
391.411	90.94
391.636	89.94
391.86	108.94
392.085	98.94
392.31	90.94
392.534	95.94
392.759	108.94
392.984	87.94
393.208	96.94
393.433	95.94
393.658	99.94
393.882	87.94
394.107	98.94
394.331	86.94
394.556	100.94
394.78	89.94
395.005	100.94
395.229	97.94
395.454	95.94
395.678	102.94
395.903	105.94
396.127	108.94
396.352	99.94
396.576	100.94
396.801	97.94
397.025	106.94
397.249	105.94
397.474	103.94
397.698	96.94
397.922	112.94
398.147	111.94
398.371	102.94
398.595	102.94
398.82	106.94
399.044	117.94
399.268	119.94
399.492	112.94
399.717	112.94
399.941	112.94
400.165	116.94
400.389	118.94
400.613	104.94
400.837	112.94
401.062	107.94
401.286	114.94
401.51	103.94
401.734	107.94
401.958	104.94
402.182	102.94
402.406	120.94
402.63	114.94
402.854	112.94
403.078	93.94
403.302	108.94
403.526	112.94
403.75	109.94
403.974	104.94
404.198	120.94
404.422	105.94
404.645	104.94
404.869	113.94
405.093	127.94
405.317	116.94
405.541	114.94
405.765	99.94
405.988	116.94
406.212	109.94
406.436	95.94
406.66	106.94
406.883	112.94
407.107	114.94
407.331	120.94
407.555	121.94
407.778	118.94
408.002	113.94
408.226	100.94
408.449	114.94
408.673	96.94
408.896	115.94
409.12	125.94
409.344	111.94
409.567	101.94
409.791	110.94
410.014	99.94
410.238	113.94
410.461	107.94
410.685	119.94
410.908	122.94
411.132	125.94
411.355	108.94
411.578	118.94
411.802	117.94
412.025	102.94
412.249	105.94
412.472	107.94
412.695	117.94
412.919	113.94
413.142	120.94
413.365	116.94
413.589	112.94
413.812	124.94
414.035	108.94
414.258	123.94
414.482	124.94
414.705	118.94
414.928	117.94
415.151	118.94
415.374	121.94
415.597	112.94
415.821	114.94
416.044	118.94
416.267	114.94
416.49	125.94
416.713	121.94
416.936	115.94
417.159	115.94
417.382	113.94
417.605	110.94
417.828	104.94
418.051	115.94
418.274	116.94
418.497	99.94
418.72	113.94
418.943	130.94
419.166	133.94
419.389	127.94
419.611	100.94
419.834	105.94
420.057	122.94
420.28	121.94
420.503	116.94
420.726	114.94
420.948	119.94
421.171	125.94
421.394	113.94
421.617	121.94
421.839	124.94
422.062	122.94
422.285	101.94
422.507	112.94
422.73	122.94
422.953	113.94
423.175	112.94
423.398	118.94
423.621	119.94
423.843	126.94
424.066	135.94
424.288	125.94
424.511	128.94
424.733	123.94
424.956	124.94
425.178	117.94
425.401	118.94
425.623	118.94
425.846	106.94
426.068	107.94
426.291	114.94
426.513	130.94
426.735	119.94
426.958	96.94
427.18	117.94
427.402	114.94
427.625	105.94
427.847	101.94
428.069	117.94
428.292	121.94
428.514	117.94
428.736	124.94
428.958	117.94
429.181	117.94
429.403	133.94
429.625	106.94
429.847	122.94
430.069	108.94
430.292	114.94
430.514	116.94
430.736	130.94
430.958	126.94
431.18	112.94
431.402	125.94
431.624	112.94
431.846	115.94
432.068	106.94
432.29	108.94
432.512	109.94
432.734	113.94
432.956	101.94
433.178	106.94
433.4	121.94
433.622	118.94
433.844	122.94
434.066	115.94
434.287	121.94
434.509	106.94
434.731	108.94
434.953	119.94
435.175	118.94
435.397	124.94
435.618	125.94
435.84	105.94
436.062	109.94
436.284	116.94
436.505	114.94
436.727	113.94
436.949	100.94
437.17	120.94
437.392	111.94
437.614	116.94
437.835	101.94
438.057	108.94
438.278	93.94
438.5	121.94
438.721	118.94
438.943	122.94
439.165	113.94
439.386	110.94
439.608	113.94
439.829	118.94
440.05	131.94
440.272	110.94
440.493	113.94
440.715	116.94
440.936	126.94
441.158	119.94
441.379	126.94
441.6	126.94
441.822	141.94
442.043	128.94
442.264	130.94
442.486	118.94
442.707	122.94
442.928	127.94
443.149	124.94
443.371	113.94
443.592	122.94
443.813	131.94
444.034	132.94
444.255	140.94
444.476	125.94
444.698	134.94
444.919	137.94
445.14	240.94
445.361	156.94
445.582	129.94
445.803	109.94
446.024	128.94
446.245	138.94
446.466	119.94
446.687	113.94
446.908	113.94
447.129	107.94
447.35	120.94
447.571	113.94
447.792	117.94
448.013	124.94
448.234	132.94
448.455	115.94
448.675	115.94
448.896	120.94
449.117	134.94
449.338	120.94
449.559	114.94
449.779	111.94
450	118.94
450.221	122.94
450.442	114.94
450.662	120.94
450.883	113.94
451.104	105.94
451.324	121.94
451.545	116.94
451.766	109.94
451.986	94.94
452.207	116.94
452.428	106.94
452.648	117.94
452.869	113.94
453.089	113.94
453.31	115.94
453.53	104.94
453.751	113.94
453.971	115.94
454.192	99.94
454.412	97.94
454.633	109.94
454.853	118.94
455.073	108.94
455.294	110.94
455.514	117.94
455.734	116.94
455.955	107.94
456.175	124.94
456.395	109.94
456.616	100.94
456.836	131.94
457.056	102.94
457.276	101.94
457.497	112.94
457.717	99.94
457.937	109.94
458.157	91.94
458.377	105.94
458.598	112.94
458.818	104.94
459.038	111.94
459.258	109.94
459.478	99.94
459.698	110.94
459.918	121.94
460.138	101.94
460.358	108.94
460.578	121.94
460.798	114.94
461.018	107.94
461.238	116.94
461.458	122.94
461.678	113.94
461.898	104.94
462.118	125.94
462.338	127.94
462.558	121.94
462.777	122.94
462.997	119.94
463.217	134.94
463.437	128.94
463.657	121.94
463.876	124.94
464.096	101.94
464.316	114.94
464.536	126.94
464.755	135.94
464.975	112.94
465.195	117.94
465.414	120.94
465.634	119.94
465.854	111.94
466.073	115.94
466.293	122.94
466.512	129.94
466.732	116.94
466.951	109.94
467.171	114.94
467.391	112.94
467.61	120.94
467.829	112.94
468.049	113.94
468.268	139.94
468.488	128.94
468.707	121.94
468.927	124.94
469.146	118.94
469.365	117.94
469.585	103.94
469.804	116.94
470.023	112.94
470.243	124.94
470.462	113.94
470.681	123.94
470.901	128.94
471.12	126.94
471.339	129.94
471.558	125.94
471.777	118.94
471.997	119.94
472.216	124.94
472.435	112.94
472.654	123.94
472.873	105.94
473.092	114.94
473.311	122.94
473.53	123.94
473.749	129.94
473.968	116.94
474.187	112.94
474.406	125.94
474.625	119.94
474.844	116.94
475.063	113.94
475.282	126.94
475.501	102.94
475.72	115.94
475.939	120.94
476.158	114.94
476.377	125.94
476.596	122.94
476.814	124.94
477.033	116.94
477.252	121.94
477.471	116.94
477.69	115.94
477.908	122.94
478.127	135.94
478.346	138.94
478.564	137.94
478.783	126.94
479.002	131.94
479.22	142.94
479.439	128.94
479.658	128.94
479.876	133.94
480.095	110.94
480.313	124.94
480.532	138.94
480.751	122.94
480.969	117.94
481.188	119.94
481.406	126.94
481.624	101.94
481.843	120.94
482.061	109.94
482.28	131.94
482.498	132.94
482.717	120.94
482.935	131.94
483.153	133.94
483.372	121.94
483.59	132.94
483.808	114.94
484.027	137.94
484.245	122.94
484.463	130.94
484.681	150.94
484.9	141.94
485.118	123.94
485.336	113.94
485.554	116.94
485.772	117.94
485.99	125.94
486.209	122.94
486.427	121.94
486.645	141.94
486.863	133.94
487.081	132.94
487.299	124.94
487.517	131.94
487.735	141.94
487.953	160.94
488.171	152.94
488.389	157.94
488.607	134.94
488.825	140.94
489.043	136.94
489.261	123.94
489.479	129.94
489.696	132.94
489.914	135.94
490.132	120.94
490.35	133.94
490.568	134.94
490.786	146.94
491.003	142.94
491.221	159.94
491.439	158.94
491.657	174.94
491.874	167.94
492.092	168.94
492.31	176.94
492.527	175.94
492.745	151.94
492.963	156.94
493.18	155.94
493.398	151.94
493.615	141.94
493.833	161.94
494.05	148.94
494.268	153.94
494.485	156.94
494.703	153.94
494.92	162.94
495.138	143.94
495.355	159.94
495.573	154.94
495.79	155.94
496.008	145.94
496.225	130.94
496.442	136.94
496.66	146.94
496.877	148.94
497.094	148.94
497.312	170.94
497.529	162.94
497.746	161.94
497.963	141.94
498.181	155.94
498.398	132.94
498.615	144.94
498.832	131.94
499.049	144.94
499.267	169.94
499.484	168.94
499.701	172.94
499.918	185.94
500.135	212.94
500.352	226.94
500.569	228.94
500.786	234.94
501.003	209.94
501.22	195.94
501.437	174.94
501.654	181.94
501.871	173.94
502.088	168.94
502.305	174.94
502.522	162.94
502.739	149.94
502.956	146.94
503.172	142.94
503.389	149.94
503.606	140.94
503.823	134.94
504.04	128.94
504.256	132.94
504.473	131.94
504.69	142.94
504.907	134.94
505.123	140.94
505.34	127.94
505.557	121.94
505.773	130.94
505.99	124.94
506.207	133.94
506.423	150.94
506.64	134.94
506.856	138.94
507.073	120.94
507.289	131.94
507.506	139.94
507.722	131.94
507.939	136.94
508.155	102.94
508.372	117.94
508.588	126.94
508.805	124.94
509.021	125.94
509.238	117.94
509.454	117.94
509.67	115.94
509.887	117.94
510.103	121.94
510.319	116.94
510.536	105.94
510.752	118.94
510.968	109.94
511.184	109.94
511.401	107.94
