Data from StandardFe(NO3)3.TAE.3%Agarose.FlatLispGreen.Lamp.Energy10.07252019_HRD10591_11-55-33-441.txt Node
Date: Thu Jul 25 11:55:33 EDT 2019
User: cochatt
Spectrometer: HR+D1059
Trigger mode: 1
Integration Time (sec): 1.000000E-1
Scans to average: 1
Electric dark correction enabled: true
Nonlinearity correction enabled: false
Boxcar width: 0
XAxis mode: Wavelengths
Number of Pixels in Spectrum: 2048
>>>>>Begin Spectral Data<<<<<
223.165	-19.81
223.4	-19.81
223.635	-19.81
223.869	-7.81
224.104	-17.81
224.338	-18.81
224.573	-7.81
224.808	-7.81
225.042	-17.81
225.277	-11.81
225.511	6.19
225.746	-3.81
225.98	7.19
226.215	7.19
226.449	1.19
226.683	13.19
226.918	37.19
227.152	41.19
227.387	33.19
227.621	42.19
227.856	53.19
228.09	53.19
228.324	40.19
228.559	51.19
228.793	55.19
229.027	75.19
229.262	70.19
229.496	65.19
229.73	73.19
229.964	72.19
230.199	85.19
230.433	83.19
230.667	73.19
230.901	65.19
231.136	81.19
231.37	88.19
231.604	75.19
231.838	91.19
232.072	94.19
232.306	77.19
232.541	79.19
232.775	66.19
233.009	78.19
233.243	78.19
233.477	73.19
233.711	89.19
233.945	95.19
234.179	82.19
234.413	80.19
234.647	74.19
234.881	84.19
235.115	72.19
235.349	95.19
235.583	76.19
235.817	94.19
236.051	75.19
236.285	78.19
236.519	91.19
236.753	84.19
236.987	80.19
237.221	73.19
237.455	86.19
237.689	83.19
237.922	78.19
238.156	71.19
238.39	73.19
238.624	57.19
238.858	75.19
239.091	67.19
239.325	71.19
239.559	72.19
239.793	79.19
240.027	73.19
240.26	82.19
240.494	87.19
240.728	79.19
240.961	85.19
241.195	78.19
241.429	77.19
241.662	75.19
241.896	77.19
242.13	97.19
242.363	77.19
242.597	75.19
242.83	64.19
243.064	83.19
243.298	91.19
243.531	82.19
243.765	70.19
243.998	91.19
244.232	77.19
244.465	79.19
244.699	84.19
244.932	73.19
245.166	79.19
245.399	70.19
245.633	78.19
245.866	78.19
246.099	84.19
246.333	77.19
246.566	74.19
246.8	87.19
247.033	78.19
247.266	82.19
247.5	81.19
247.733	82.19
247.966	81.19
248.2	79.19
248.433	83.19
248.666	85.19
248.899	84.19
249.133	87.19
249.366	84.19
249.599	80.19
249.832	74.19
250.066	101.19
250.299	81.19
250.532	92.19
250.765	83.19
250.998	73.19
251.231	86.19
251.465	90.19
251.698	83.19
251.931	73.19
252.164	83.19
252.397	80.19
252.63	73.19
252.863	91.19
253.096	85.19
253.329	81.19
253.562	77.19
253.795	81.19
254.028	70.19
254.261	81.19
254.494	77.19
254.727	82.19
254.96	91.19
255.193	79.19
255.426	94.19
255.659	86.19
255.892	89.19
256.124	83.19
256.357	89.19
256.59	95.19
256.823	90.19
257.056	90.19
257.289	75.19
257.521	77.19
257.754	80.19
257.987	93.19
258.22	86.19
258.452	84.19
258.685	79.19
258.918	85.19
259.151	93.19
259.383	83.19
259.616	77.19
259.849	78.19
260.081	93.19
260.314	73.19
260.547	88.19
260.779	82.19
261.012	90.19
261.244	84.19
261.477	89.19
261.71	83.19
261.942	86.19
262.175	70.19
262.407	78.19
262.64	97.19
262.872	72.19
263.105	80.19
263.337	81.19
263.57	74.19
263.802	89.19
264.035	79.19
264.267	75.19
264.499	87.19
264.732	75.19
264.964	88.19
265.197	77.19
265.429	87.19
265.661	92.19
265.894	91.19
266.126	92.19
266.358	90.19
266.591	77.19
266.823	76.19
267.055	82.19
267.287	81.19
267.52	65.19
267.752	91.19
267.984	92.19
268.216	83.19
268.448	80.19
268.681	90.19
268.913	90.19
269.145	81.19
269.377	103.19
269.609	93.19
269.841	85.19
270.073	89.19
270.306	86.19
270.538	82.19
270.77	91.19
271.002	90.19
271.234	88.19
271.466	78.19
271.698	70.19
271.93	86.19
272.162	95.19
272.394	105.19
272.626	86.19
272.858	74.19
273.09	82.19
273.322	81.19
273.553	80.19
273.785	81.19
274.017	82.19
274.249	69.19
274.481	78.19
274.713	80.19
274.945	87.19
275.176	87.19
275.408	102.19
275.64	99.19
275.872	93.19
276.104	95.19
276.335	94.19
276.567	72.19
276.799	82.19
277.031	96.19
277.262	74.19
277.494	89.19
277.726	73.19
277.957	76.19
278.189	90.19
278.421	88.19
278.652	91.19
278.884	80.19
279.115	86.19
279.347	97.19
279.579	97.19
279.81	93.19
280.042	77.19
280.273	82.19
280.505	89.19
280.736	67.19
280.968	89.19
281.199	88.19
281.431	87.19
281.662	83.19
281.894	98.19
282.125	90.19
282.356	86.19
282.588	82.19
282.819	71.19
283.051	85.19
283.282	70.19
283.513	89.19
283.745	102.19
283.976	102.19
284.207	88.19
284.439	86.19
284.67	79.19
284.901	62.19
285.132	80.19
285.364	83.19
285.595	91.19
285.826	92.19
286.057	92.19
286.288	83.19
286.52	82.19
286.751	90.19
286.982	86.19
287.213	86.19
287.444	84.19
287.675	98.19
287.906	85.19
288.138	95.19
288.369	95.19
288.6	91.19
288.831	70.19
289.062	84.19
289.293	89.19
289.524	98.19
289.755	90.19
289.986	101.19
290.217	83.19
290.448	92.19
290.679	79.19
290.91	84.19
291.141	85.19
291.371	99.19
291.602	94.19
291.833	75.19
292.064	77.19
292.295	99.19
292.526	91.19
292.757	82.19
292.987	89.19
293.218	72.19
293.449	81.19
293.68	89.19
293.91	96.19
294.141	83.19
294.372	82.19
294.603	71.19
294.833	88.19
295.064	80.19
295.295	81.19
295.525	80.19
295.756	88.19
295.987	83.19
296.217	90.19
296.448	84.19
296.679	89.19
296.909	97.19
297.14	95.19
297.37	87.19
297.601	77.19
297.831	85.19
298.062	85.19
298.292	79.19
298.523	93.19
298.753	86.19
298.984	89.19
299.214	83.19
299.445	94.19
299.675	92.19
299.905	93.19
300.136	81.19
300.366	89.19
300.597	86.19
300.827	78.19
301.057	84.19
301.288	93.19
301.518	71.19
301.748	78.19
301.979	76.19
302.209	82.19
302.439	81.19
302.669	98.19
302.9	81.19
303.13	75.19
303.36	78.19
303.59	82.19
303.82	100.19
304.051	88.19
304.281	84.19
304.511	82.19
304.741	90.19
304.971	74.19
305.201	91.19
305.431	79.19
305.661	83.19
305.891	89.19
306.121	80.19
306.352	93.19
306.582	82.19
306.812	86.19
307.042	85.19
307.272	93.19
307.502	89.19
307.731	87.19
307.961	90.19
308.191	90.19
308.421	83.19
308.651	89.19
308.881	90.19
309.111	75.19
309.341	71.19
309.571	76.19
309.8	97.19
310.03	91.19
310.26	100.19
310.49	95.19
310.72	67.19
310.949	82.19
311.179	87.19
311.409	93.19
311.639	94.19
311.868	92.19
312.098	83.19
312.328	95.19
312.557	89.19
312.787	80.19
313.017	78.19
313.246	95.19
313.476	81.19
313.706	92.19
313.935	90.19
314.165	85.19
314.394	104.19
314.624	87.19
314.853	90.19
315.083	89.19
315.312	79.19
315.542	85.19
315.771	98.19
316.001	86.19
316.23	95.19
316.46	99.19
316.689	79.19
316.919	104.19
317.148	87.19
317.377	93.19
317.607	87.19
317.836	77.19
318.065	94.19
318.295	100.19
318.524	89.19
318.753	91.19
318.983	92.19
319.212	88.19
319.441	95.19
319.67	74.19
319.9	86.19
320.129	78.19
320.358	91.19
320.587	92.19
320.816	91.19
321.046	81.19
321.275	79.19
321.504	73.19
321.733	78.19
321.962	98.19
322.191	102.19
322.42	83.19
322.649	85.19
322.878	91.19
323.108	93.19
323.337	83.19
323.566	79.19
323.795	104.19
324.024	75.19
324.253	78.19
324.482	79.19
324.71	84.19
324.939	85.19
325.168	94.19
325.397	83.19
325.626	79.19
325.855	74.19
326.084	77.19
326.313	94.19
326.542	86.19
326.77	92.19
326.999	92.19
327.228	87.19
327.457	82.19
327.686	95.19
327.914	100.19
328.143	89.19
328.372	79.19
328.6	89.19
328.829	87.19
329.058	93.19
329.287	83.19
329.515	78.19
329.744	97.19
329.972	84.19
330.201	70.19
330.43	90.19
330.658	87.19
330.887	92.19
331.115	79.19
331.344	79.19
331.572	88.19
331.801	77.19
332.03	89.19
332.258	76.19
332.486	85.19
332.715	94.19
332.943	86.19
333.172	97.19
333.4	86.19
333.629	84.19
333.857	98.19
334.085	90.19
334.314	95.19
334.542	85.19
334.771	85.19
334.999	98.19
335.227	77.19
335.455	96.19
335.684	94.19
335.912	89.19
336.14	90.19
336.369	94.19
336.597	87.19
336.825	96.19
337.053	93.19
337.281	104.19
337.51	87.19
337.738	91.19
337.966	94.19
338.194	78.19
338.422	97.19
338.65	86.19
338.878	94.19
339.106	85.19
339.334	111.19
339.562	87.19
339.79	87.19
340.018	89.19
340.246	85.19
340.474	84.19
340.702	99.19
340.93	97.19
341.158	95.19
341.386	86.19
341.614	72.19
341.842	82.19
342.07	102.19
342.298	89.19
342.526	91.19
342.754	88.19
342.981	84.19
343.209	83.19
343.437	98.19
343.665	74.19
343.893	79.19
344.12	91.19
344.348	85.19
344.576	69.19
344.804	89.19
345.031	80.19
345.259	89.19
345.487	92.19
345.714	91.19
345.942	73.19
346.17	70.19
346.397	77.19
346.625	101.19
346.853	90.19
347.08	85.19
347.308	80.19
347.535	84.19
347.763	83.19
347.99	84.19
348.218	93.19
348.445	102.19
348.673	85.19
348.9	98.19
349.128	89.19
349.355	76.19
349.583	90.19
349.81	77.19
350.037	62.19
350.265	97.19
350.492	88.19
350.72	88.19
350.947	102.19
351.174	87.19
351.402	80.19
351.629	89.19
351.856	76.19
352.083	85.19
352.311	86.19
352.538	80.19
352.765	85.19
352.992	96.19
353.22	74.19
353.447	82.19
353.674	88.19
353.901	86.19
354.128	78.19
354.355	87.19
354.583	84.19
354.81	92.19
355.037	85.19
355.264	81.19
355.491	87.19
355.718	103.19
355.945	89.19
356.172	71.19
356.399	86.19
356.626	85.19
356.853	89.19
357.08	90.19
357.307	92.19
357.534	101.19
357.761	87.19
357.988	87.19
358.215	87.19
358.441	103.19
358.668	95.19
358.895	100.19
359.122	94.19
359.349	83.19
359.576	79.19
359.802	78.19
360.029	91.19
360.256	84.19
360.483	106.19
360.709	79.19
360.936	81.19
361.163	85.19
361.39	95.19
361.616	100.19
361.843	79.19
362.07	91.19
362.296	81.19
362.523	99.19
362.749	88.19
362.976	99.19
363.203	103.19
363.429	99.19
363.656	93.19
363.882	74.19
364.109	91.19
364.335	95.19
364.562	89.19
364.788	85.19
365.015	95.19
365.241	85.19
365.468	91.19
365.694	83.19
365.92	88.19
366.147	93.19
366.373	72.19
366.599	79.19
366.826	90.19
367.052	87.19
367.278	88.19
367.505	96.19
367.731	85.19
367.957	75.19
368.184	79.19
368.41	93.19
368.636	84.19
368.862	91.19
369.089	79.19
369.315	79.19
369.541	89.19
369.767	89.19
369.993	76.19
370.219	90.19
370.445	92.19
370.672	85.19
370.898	100.19
371.124	90.19
371.35	86.19
371.576	91.19
371.802	85.19
372.028	75.19
372.254	89.19
372.48	82.19
372.706	78.19
372.932	94.19
373.158	94.19
373.384	101.19
373.61	93.19
373.835	87.19
374.061	78.19
374.287	77.19
374.513	108.19
374.739	96.19
374.965	90.19
375.191	110.19
375.416	104.19
375.642	100.19
375.868	100.19
376.094	96.19
376.319	105.19
376.545	89.19
376.771	82.19
376.997	100.19
377.222	95.19
377.448	82.19
377.674	99.19
377.899	90.19
378.125	91.19
378.35	100.19
378.576	99.19
378.802	77.19
379.027	95.19
379.253	93.19
379.478	100.19
379.704	92.19
379.929	101.19
380.155	85.19
380.38	86.19
380.606	85.19
380.831	98.19
381.057	101.19
381.282	87.19
381.507	90.19
381.733	88.19
381.958	86.19
382.184	89.19
382.409	80.19
382.634	90.19
382.86	80.19
383.085	80.19
383.31	89.19
383.535	97.19
383.761	91.19
383.986	108.19
384.211	88.19
384.436	78.19
384.662	95.19
384.887	92.19
385.112	89.19
385.337	96.19
385.562	100.19
385.787	83.19
386.013	93.19
386.238	84.19
386.463	113.19
386.688	98.19
386.913	103.19
387.138	89.19
387.363	88.19
387.588	98.19
387.813	96.19
388.038	109.19
388.263	100.19
388.488	102.19
388.713	102.19
388.938	84.19
389.163	92.19
389.387	116.19
389.612	101.19
389.837	87.19
390.062	98.19
390.287	96.19
390.512	102.19
390.736	101.19
390.961	96.19
391.186	93.19
391.411	95.19
391.636	107.19
391.86	104.19
392.085	105.19
392.31	99.19
392.534	99.19
392.759	96.19
392.984	94.19
393.208	103.19
393.433	106.19
393.658	83.19
393.882	112.19
394.107	90.19
394.331	95.19
394.556	84.19
394.78	87.19
395.005	110.19
395.229	86.19
395.454	84.19
395.678	107.19
395.903	110.19
396.127	86.19
396.352	99.19
396.576	88.19
396.801	102.19
397.025	94.19
397.249	104.19
397.474	117.19
397.698	108.19
397.922	115.19
398.147	110.19
398.371	93.19
398.595	100.19
398.82	107.19
399.044	103.19
399.268	111.19
399.492	101.19
399.717	110.19
399.941	119.19
400.165	117.19
400.389	112.19
400.613	104.19
400.837	87.19
401.062	110.19
401.286	107.19
401.51	102.19
401.734	104.19
401.958	103.19
402.182	126.19
402.406	125.19
402.63	108.19
402.854	119.19
403.078	108.19
403.302	91.19
403.526	120.19
403.75	108.19
403.974	111.19
404.198	105.19
404.422	108.19
404.645	102.19
404.869	124.19
405.093	94.19
405.317	115.19
405.541	108.19
405.765	116.19
405.988	99.19
406.212	113.19
406.436	94.19
406.66	114.19
406.883	123.19
407.107	110.19
407.331	104.19
407.555	118.19
407.778	110.19
408.002	114.19
408.226	107.19
408.449	113.19
408.673	119.19
408.896	113.19
409.12	118.19
409.344	113.19
409.567	120.19
409.791	109.19
410.014	108.19
410.238	110.19
410.461	115.19
410.685	109.19
410.908	97.19
411.132	110.19
411.355	97.19
411.578	100.19
411.802	110.19
412.025	107.19
412.249	110.19
412.472	121.19
412.695	108.19
412.919	100.19
413.142	111.19
413.365	115.19
413.589	93.19
413.812	102.19
414.035	109.19
414.258	122.19
414.482	121.19
414.705	107.19
414.928	105.19
415.151	109.19
415.374	120.19
415.597	120.19
415.821	125.19
416.044	116.19
416.267	105.19
416.49	106.19
416.713	106.19
416.936	103.19
417.159	104.19
417.382	109.19
417.605	117.19
417.828	107.19
418.051	108.19
418.274	120.19
418.497	117.19
418.72	117.19
418.943	120.19
419.166	126.19
419.389	121.19
419.611	121.19
419.834	114.19
420.057	108.19
420.28	103.19
420.503	108.19
420.726	105.19
420.948	116.19
421.171	116.19
421.394	117.19
421.617	121.19
421.839	117.19
422.062	119.19
422.285	126.19
422.507	118.19
422.73	120.19
422.953	109.19
423.175	127.19
423.398	126.19
423.621	125.19
423.843	113.19
424.066	118.19
424.288	129.19
424.511	119.19
424.733	128.19
424.956	117.19
425.178	119.19
425.401	116.19
425.623	119.19
425.846	113.19
426.068	104.19
426.291	112.19
426.513	118.19
426.735	116.19
426.958	120.19
427.18	117.19
427.402	129.19
427.625	106.19
427.847	117.19
428.069	117.19
428.292	114.19
428.514	118.19
428.736	113.19
428.958	115.19
429.181	110.19
429.403	113.19
429.625	126.19
429.847	96.19
430.069	113.19
430.292	110.19
430.514	115.19
430.736	116.19
430.958	114.19
431.18	117.19
431.402	115.19
431.624	105.19
431.846	103.19
432.068	87.19
432.29	99.19
432.512	106.19
432.734	102.19
432.956	114.19
433.178	121.19
433.4	125.19
433.622	125.19
433.844	114.19
434.066	124.19
434.287	121.19
434.509	114.19
434.731	112.19
434.953	112.19
435.175	107.19
435.397	120.19
435.618	103.19
435.84	104.19
436.062	110.19
436.284	115.19
436.505	113.19
436.727	114.19
436.949	101.19
437.17	106.19
437.392	110.19
437.614	107.19
437.835	96.19
438.057	117.19
438.278	107.19
438.5	109.19
438.721	116.19
438.943	109.19
439.165	123.19
439.386	111.19
439.608	122.19
439.829	109.19
440.05	126.19
440.272	115.19
440.493	104.19
440.715	124.19
440.936	120.19
441.158	119.19
441.379	122.19
441.6	120.19
441.822	119.19
442.043	127.19
442.264	128.19
442.486	121.19
442.707	143.19
442.928	126.19
443.149	117.19
443.371	99.19
443.592	109.19
443.813	119.19
444.034	129.19
444.255	111.19
444.476	114.19
444.698	139.19
444.919	128.19
445.14	252.19
445.361	166.19
445.582	125.19
445.803	129.19
446.024	119.19
446.245	126.19
446.466	124.19
446.687	121.19
446.908	116.19
447.129	116.19
447.35	140.19
447.571	121.19
447.792	109.19
448.013	108.19
448.234	120.19
448.455	119.19
448.675	121.19
448.896	109.19
449.117	121.19
449.338	117.19
449.559	127.19
449.779	113.19
450	116.19
450.221	101.19
450.442	118.19
450.662	113.19
450.883	119.19
451.104	120.19
451.324	110.19
451.545	103.19
451.766	109.19
451.986	100.19
452.207	107.19
452.428	115.19
452.648	103.19
452.869	99.19
453.089	111.19
453.31	105.19
453.53	98.19
453.751	101.19
453.971	86.19
454.192	106.19
454.412	100.19
454.633	120.19
454.853	103.19
455.073	114.19
455.294	98.19
455.514	108.19
455.734	118.19
455.955	113.19
456.175	113.19
456.395	86.19
456.616	109.19
456.836	90.19
457.056	110.19
457.276	120.19
457.497	113.19
457.717	105.19
457.937	101.19
458.157	91.19
458.377	91.19
458.598	97.19
458.818	110.19
459.038	104.19
459.258	107.19
459.478	107.19
459.698	98.19
459.918	92.19
460.138	108.19
460.358	116.19
460.578	121.19
460.798	101.19
461.018	109.19
461.238	119.19
461.458	107.19
461.678	108.19
461.898	109.19
462.118	116.19
462.338	127.19
462.558	127.19
462.777	113.19
462.997	125.19
463.217	118.19
463.437	125.19
463.657	123.19
463.876	124.19
464.096	115.19
464.316	122.19
464.536	127.19
464.755	121.19
464.975	123.19
465.195	132.19
465.414	119.19
465.634	108.19
465.854	115.19
466.073	116.19
466.293	109.19
466.512	113.19
466.732	98.19
466.951	110.19
467.171	106.19
467.391	110.19
467.61	126.19
467.829	123.19
468.049	110.19
468.268	101.19
468.488	124.19
468.707	110.19
468.927	115.19
469.146	106.19
469.365	120.19
469.585	119.19
469.804	126.19
470.023	125.19
470.243	117.19
470.462	110.19
470.681	122.19
470.901	117.19
471.12	107.19
471.339	133.19
471.558	119.19
471.777	132.19
471.997	119.19
472.216	114.19
472.435	103.19
472.654	113.19
472.873	92.19
473.092	104.19
473.311	117.19
473.53	111.19
473.749	125.19
473.968	133.19
474.187	118.19
474.406	100.19
474.625	113.19
474.844	115.19
475.063	117.19
475.282	120.19
475.501	109.19
475.72	114.19
475.939	109.19
476.158	116.19
476.377	119.19
476.596	109.19
476.814	94.19
477.033	110.19
477.252	115.19
477.471	115.19
477.69	115.19
477.908	114.19
478.127	121.19
478.346	105.19
478.564	117.19
478.783	113.19
479.002	135.19
479.22	120.19
479.439	121.19
479.658	116.19
479.876	135.19
480.095	121.19
480.313	118.19
480.532	132.19
480.751	116.19
480.969	102.19
481.188	115.19
481.406	119.19
481.624	113.19
481.843	122.19
482.061	109.19
482.28	116.19
482.498	106.19
482.717	121.19
482.935	116.19
483.153	114.19
483.372	127.19
483.59	128.19
483.808	136.19
484.027	126.19
484.245	120.19
484.463	111.19
484.681	123.19
484.9	121.19
485.118	129.19
485.336	124.19
485.554	121.19
485.772	121.19
485.99	132.19
486.209	139.19
486.427	101.19
486.645	125.19
486.863	113.19
487.081	122.19
487.299	122.19
487.517	131.19
487.735	149.19
487.953	147.19
488.171	149.19
488.389	151.19
488.607	147.19
488.825	139.19
489.043	123.19
489.261	118.19
489.479	128.19
489.696	135.19
489.914	135.19
490.132	135.19
490.35	150.19
490.568	138.19
490.786	152.19
491.003	137.19
491.221	149.19
491.439	137.19
491.657	157.19
491.874	156.19
492.092	164.19
492.31	157.19
492.527	157.19
492.745	152.19
492.963	157.19
493.18	151.19
493.398	149.19
493.615	163.19
493.833	143.19
494.05	153.19
494.268	151.19
494.485	138.19
494.703	135.19
494.92	141.19
495.138	136.19
495.355	154.19
495.573	153.19
495.79	125.19
496.008	147.19
496.225	143.19
496.442	125.19
496.66	130.19
496.877	139.19
497.094	149.19
497.312	155.19
497.529	135.19
497.746	151.19
497.963	130.19
498.181	135.19
498.398	127.19
498.615	148.19
498.832	145.19
499.049	135.19
499.267	145.19
499.484	166.19
499.701	170.19
499.918	179.19
500.135	198.19
500.352	227.19
500.569	230.19
500.786	230.19
501.003	202.19
501.22	201.19
501.437	181.19
501.654	181.19
501.871	141.19
502.088	155.19
502.305	156.19
502.522	140.19
502.739	150.19
502.956	146.19
503.172	131.19
503.389	124.19
503.606	124.19
503.823	141.19
504.04	135.19
504.256	136.19
504.473	143.19
504.69	133.19
504.907	141.19
505.123	134.19
505.34	125.19
505.557	126.19
505.773	123.19
505.99	130.19
506.207	119.19
506.423	125.19
506.64	141.19
506.856	132.19
507.073	123.19
507.289	133.19
507.506	115.19
507.722	118.19
507.939	124.19
508.155	114.19
508.372	128.19
508.588	113.19
508.805	109.19
509.021	131.19
509.238	126.19
509.454	116.19
509.67	115.19
509.887	104.19
510.103	115.19
510.319	118.19
510.536	123.19
510.752	119.19
510.968	119.19
511.184	109.19
511.401	119.19
