Data from StandardFe(NO3)3.TAE.3%Agarose.FlatLispGreen.Lamp.Energy10.07252019_HRD10591_11-56-15-442.txt Node
Date: Thu Jul 25 11:56:15 EDT 2019
User: cochatt
Spectrometer: HR+D1059
Trigger mode: 1
Integration Time (sec): 1.000000E-1
Scans to average: 1
Electric dark correction enabled: true
Nonlinearity correction enabled: false
Boxcar width: 0
XAxis mode: Wavelengths
Number of Pixels in Spectrum: 2048
>>>>>Begin Spectral Data<<<<<
223.165	-12.94
223.4	-12.94
223.635	-12.94
223.869	-19.94
224.104	-11.94
224.338	-13.94
224.573	-15.94
224.808	-11.94
225.042	-3.94
225.277	-1.94
225.511	3.06
225.746	0.06
225.98	14.06
226.215	12.06
226.449	4.06
226.683	17.06
226.918	16.06
227.152	26.06
227.387	28.06
227.621	41.06
227.856	44.06
228.09	35.06
228.324	68.06
228.559	66.06
228.793	60.06
229.027	62.06
229.262	61.06
229.496	61.06
229.73	69.06
229.964	67.06
230.199	69.06
230.433	76.06
230.667	78.06
230.901	81.06
231.136	84.06
231.37	72.06
231.604	87.06
231.838	80.06
232.072	71.06
232.306	77.06
232.541	71.06
232.775	87.06
233.009	92.06
233.243	82.06
233.477	70.06
233.711	82.06
233.945	88.06
234.179	86.06
234.413	79.06
234.647	85.06
234.881	85.06
235.115	93.06
235.349	77.06
235.583	83.06
235.817	77.06
236.051	66.06
236.285	79.06
236.519	78.06
236.753	86.06
236.987	72.06
237.221	92.06
237.455	88.06
237.689	79.06
237.922	91.06
238.156	88.06
238.39	81.06
238.624	76.06
238.858	80.06
239.091	80.06
239.325	78.06
239.559	68.06
239.793	69.06
240.027	74.06
240.26	79.06
240.494	78.06
240.728	91.06
240.961	82.06
241.195	88.06
241.429	93.06
241.662	82.06
241.896	73.06
242.13	76.06
242.363	78.06
242.597	89.06
242.83	74.06
243.064	79.06
243.298	77.06
243.531	90.06
243.765	80.06
243.998	78.06
244.232	69.06
244.465	77.06
244.699	71.06
244.932	83.06
245.166	80.06
245.399	76.06
245.633	90.06
245.866	75.06
246.099	69.06
246.333	71.06
246.566	69.06
246.8	76.06
247.033	83.06
247.266	82.06
247.5	92.06
247.733	77.06
247.966	71.06
248.2	80.06
248.433	82.06
248.666	77.06
248.899	70.06
249.133	68.06
249.366	81.06
249.599	76.06
249.832	76.06
250.066	91.06
250.299	84.06
250.532	84.06
250.765	76.06
250.998	77.06
251.231	83.06
251.465	89.06
251.698	77.06
251.931	74.06
252.164	77.06
252.397	82.06
252.63	69.06
252.863	67.06
253.096	84.06
253.329	89.06
253.562	86.06
253.795	77.06
254.028	105.06
254.261	84.06
254.494	89.06
254.727	66.06
254.96	60.06
255.193	82.06
255.426	74.06
255.659	81.06
255.892	91.06
256.124	88.06
256.357	102.06
256.59	86.06
256.823	83.06
257.056	74.06
257.289	71.06
257.521	69.06
257.754	89.06
257.987	84.06
258.22	85.06
258.452	72.06
258.685	98.06
258.918	83.06
259.151	76.06
259.383	84.06
259.616	90.06
259.849	76.06
260.081	88.06
260.314	90.06
260.547	97.06
260.779	71.06
261.012	79.06
261.244	89.06
261.477	81.06
261.71	90.06
261.942	83.06
262.175	73.06
262.407	91.06
262.64	77.06
262.872	87.06
263.105	92.06
263.337	93.06
263.57	85.06
263.802	77.06
264.035	88.06
264.267	98.06
264.499	84.06
264.732	86.06
264.964	81.06
265.197	86.06
265.429	76.06
265.661	83.06
265.894	89.06
266.126	87.06
266.358	80.06
266.591	85.06
266.823	81.06
267.055	80.06
267.287	78.06
267.52	98.06
267.752	89.06
267.984	88.06
268.216	77.06
268.448	84.06
268.681	80.06
268.913	77.06
269.145	91.06
269.377	82.06
269.609	81.06
269.841	83.06
270.073	88.06
270.306	90.06
270.538	84.06
270.77	86.06
271.002	76.06
271.234	91.06
271.466	88.06
271.698	77.06
271.93	76.06
272.162	94.06
272.394	93.06
272.626	81.06
272.858	95.06
273.09	73.06
273.322	80.06
273.553	70.06
273.785	84.06
274.017	70.06
274.249	92.06
274.481	93.06
274.713	88.06
274.945	86.06
275.176	90.06
275.408	86.06
275.64	88.06
275.872	87.06
276.104	81.06
276.335	98.06
276.567	89.06
276.799	83.06
277.031	80.06
277.262	79.06
277.494	82.06
277.726	89.06
277.957	88.06
278.189	85.06
278.421	80.06
278.652	90.06
278.884	96.06
279.115	85.06
279.347	66.06
279.579	82.06
279.81	96.06
280.042	74.06
280.273	81.06
280.505	87.06
280.736	85.06
280.968	75.06
281.199	82.06
281.431	68.06
281.662	81.06
281.894	84.06
282.125	83.06
282.356	78.06
282.588	85.06
282.819	92.06
283.051	90.06
283.282	87.06
283.513	93.06
283.745	84.06
283.976	88.06
284.207	90.06
284.439	84.06
284.67	87.06
284.901	76.06
285.132	77.06
285.364	74.06
285.595	80.06
285.826	84.06
286.057	92.06
286.288	77.06
286.52	75.06
286.751	93.06
286.982	92.06
287.213	96.06
287.444	84.06
287.675	90.06
287.906	81.06
288.138	97.06
288.369	88.06
288.6	83.06
288.831	77.06
289.062	88.06
289.293	88.06
289.524	96.06
289.755	83.06
289.986	79.06
290.217	77.06
290.448	92.06
290.679	72.06
290.91	90.06
291.141	82.06
291.371	86.06
291.602	102.06
291.833	99.06
292.064	72.06
292.295	76.06
292.526	82.06
292.757	74.06
292.987	89.06
293.218	96.06
293.449	92.06
293.68	91.06
293.91	83.06
294.141	81.06
294.372	93.06
294.603	77.06
294.833	93.06
295.064	105.06
295.295	86.06
295.525	77.06
295.756	82.06
295.987	83.06
296.217	67.06
296.448	81.06
296.679	70.06
296.909	85.06
297.14	84.06
297.37	93.06
297.601	71.06
297.831	86.06
298.062	79.06
298.292	78.06
298.523	78.06
298.753	84.06
298.984	90.06
299.214	94.06
299.445	104.06
299.675	87.06
299.905	94.06
300.136	88.06
300.366	81.06
300.597	84.06
300.827	95.06
301.057	94.06
301.288	89.06
301.518	91.06
301.748	80.06
301.979	89.06
302.209	89.06
302.439	80.06
302.669	70.06
302.9	89.06
303.13	83.06
303.36	90.06
303.59	78.06
303.82	86.06
304.051	88.06
304.281	92.06
304.511	94.06
304.741	81.06
304.971	77.06
305.201	85.06
305.431	76.06
305.661	78.06
305.891	84.06
306.121	85.06
306.352	92.06
306.582	86.06
306.812	103.06
307.042	91.06
307.272	85.06
307.502	85.06
307.731	76.06
307.961	90.06
308.191	81.06
308.421	97.06
308.651	93.06
308.881	98.06
309.111	92.06
309.341	78.06
309.571	93.06
309.8	87.06
310.03	77.06
310.26	92.06
310.49	81.06
310.72	86.06
310.949	92.06
311.179	84.06
311.409	75.06
311.639	74.06
311.868	94.06
312.098	90.06
312.328	78.06
312.557	99.06
312.787	87.06
313.017	88.06
313.246	94.06
313.476	91.06
313.706	91.06
313.935	97.06
314.165	81.06
314.394	74.06
314.624	77.06
314.853	88.06
315.083	82.06
315.312	80.06
315.542	88.06
315.771	86.06
316.001	75.06
316.23	82.06
316.46	74.06
316.689	75.06
316.919	91.06
317.148	79.06
317.377	101.06
317.607	92.06
317.836	73.06
318.065	80.06
318.295	77.06
318.524	86.06
318.753	89.06
318.983	69.06
319.212	86.06
319.441	91.06
319.67	90.06
319.9	88.06
320.129	73.06
320.358	83.06
320.587	91.06
320.816	92.06
321.046	83.06
321.275	96.06
321.504	88.06
321.733	77.06
321.962	85.06
322.191	92.06
322.42	85.06
322.649	63.06
322.878	97.06
323.108	82.06
323.337	86.06
323.566	69.06
323.795	91.06
324.024	94.06
324.253	84.06
324.482	83.06
324.71	88.06
324.939	89.06
325.168	83.06
325.397	102.06
325.626	68.06
325.855	85.06
326.084	79.06
326.313	92.06
326.542	78.06
326.77	76.06
326.999	80.06
327.228	82.06
327.457	82.06
327.686	90.06
327.914	78.06
328.143	78.06
328.372	87.06
328.6	79.06
328.829	107.06
329.058	85.06
329.287	86.06
329.515	91.06
329.744	97.06
329.972	91.06
330.201	83.06
330.43	90.06
330.658	91.06
330.887	88.06
331.115	88.06
331.344	83.06
331.572	89.06
331.801	79.06
332.03	94.06
332.258	87.06
332.486	76.06
332.715	91.06
332.943	85.06
333.172	84.06
333.4	72.06
333.629	72.06
333.857	102.06
334.085	92.06
334.314	85.06
334.542	86.06
334.771	87.06
334.999	80.06
335.227	94.06
335.455	90.06
335.684	91.06
335.912	96.06
336.14	96.06
336.369	93.06
336.597	82.06
336.825	94.06
337.053	79.06
337.281	90.06
337.51	94.06
337.738	86.06
337.966	92.06
338.194	93.06
338.422	78.06
338.65	85.06
338.878	84.06
339.106	83.06
339.334	79.06
339.562	88.06
339.79	93.06
340.018	96.06
340.246	74.06
340.474	73.06
340.702	77.06
340.93	77.06
341.158	89.06
341.386	80.06
341.614	89.06
341.842	89.06
342.07	91.06
342.298	84.06
342.526	100.06
342.754	83.06
342.981	100.06
343.209	83.06
343.437	84.06
343.665	92.06
343.893	81.06
344.12	75.06
344.348	98.06
344.576	85.06
344.804	78.06
345.031	75.06
345.259	84.06
345.487	82.06
345.714	83.06
345.942	78.06
346.17	91.06
346.397	75.06
346.625	73.06
346.853	81.06
347.08	88.06
347.308	100.06
347.535	72.06
347.763	89.06
347.99	71.06
348.218	91.06
348.445	90.06
348.673	77.06
348.9	96.06
349.128	75.06
349.355	99.06
349.583	97.06
349.81	90.06
350.037	84.06
350.265	71.06
350.492	93.06
350.72	93.06
350.947	78.06
351.174	79.06
351.402	80.06
351.629	79.06
351.856	97.06
352.083	94.06
352.311	89.06
352.538	73.06
352.765	76.06
352.992	89.06
353.22	86.06
353.447	83.06
353.674	86.06
353.901	72.06
354.128	82.06
354.355	81.06
354.583	87.06
354.81	73.06
355.037	79.06
355.264	83.06
355.491	83.06
355.718	81.06
355.945	80.06
356.172	94.06
356.399	90.06
356.626	97.06
356.853	82.06
357.08	83.06
357.307	98.06
357.534	81.06
357.761	91.06
357.988	88.06
358.215	93.06
358.441	89.06
358.668	91.06
358.895	88.06
359.122	83.06
359.349	97.06
359.576	74.06
359.802	83.06
360.029	86.06
360.256	83.06
360.483	88.06
360.709	89.06
360.936	80.06
361.163	84.06
361.39	77.06
361.616	82.06
361.843	93.06
362.07	84.06
362.296	85.06
362.523	83.06
362.749	86.06
362.976	85.06
363.203	78.06
363.429	87.06
363.656	87.06
363.882	87.06
364.109	81.06
364.335	92.06
364.562	88.06
364.788	74.06
365.015	76.06
365.241	92.06
365.468	86.06
365.694	88.06
365.92	89.06
366.147	96.06
366.373	90.06
366.599	82.06
366.826	69.06
367.052	90.06
367.278	102.06
367.505	75.06
367.731	86.06
367.957	100.06
368.184	90.06
368.41	90.06
368.636	73.06
368.862	87.06
369.089	86.06
369.315	98.06
369.541	84.06
369.767	81.06
369.993	88.06
370.219	76.06
370.445	76.06
370.672	94.06
370.898	78.06
371.124	82.06
371.35	92.06
371.576	91.06
371.802	74.06
372.028	72.06
372.254	79.06
372.48	86.06
372.706	102.06
372.932	82.06
373.158	99.06
373.384	97.06
373.61	97.06
373.835	83.06
374.061	98.06
374.287	91.06
374.513	92.06
374.739	82.06
374.965	87.06
375.191	81.06
375.416	89.06
375.642	90.06
375.868	87.06
376.094	100.06
376.319	80.06
376.545	103.06
376.771	85.06
376.997	85.06
377.222	97.06
377.448	91.06
377.674	85.06
377.899	100.06
378.125	100.06
378.35	92.06
378.576	92.06
378.802	97.06
379.027	94.06
379.253	86.06
379.478	86.06
379.704	93.06
379.929	78.06
380.155	85.06
380.38	80.06
380.606	83.06
380.831	86.06
381.057	79.06
381.282	95.06
381.507	88.06
381.733	88.06
381.958	79.06
382.184	96.06
382.409	90.06
382.634	83.06
382.86	92.06
383.085	87.06
383.31	91.06
383.535	94.06
383.761	84.06
383.986	101.06
384.211	90.06
384.436	104.06
384.662	84.06
384.887	104.06
385.112	84.06
385.337	73.06
385.562	91.06
385.787	105.06
386.013	112.06
386.238	96.06
386.463	87.06
386.688	85.06
386.913	81.06
387.138	83.06
387.363	94.06
387.588	110.06
387.813	89.06
388.038	88.06
388.263	98.06
388.488	91.06
388.713	88.06
388.938	98.06
389.163	98.06
389.387	100.06
389.612	85.06
389.837	89.06
390.062	91.06
390.287	100.06
390.512	87.06
390.736	91.06
390.961	74.06
391.186	90.06
391.411	100.06
391.636	102.06
391.86	110.06
392.085	107.06
392.31	98.06
392.534	103.06
392.759	109.06
392.984	107.06
393.208	92.06
393.433	102.06
393.658	89.06
393.882	93.06
394.107	98.06
394.331	100.06
394.556	101.06
394.78	100.06
395.005	95.06
395.229	105.06
395.454	102.06
395.678	105.06
395.903	102.06
396.127	100.06
396.352	119.06
396.576	99.06
396.801	93.06
397.025	95.06
397.249	115.06
397.474	108.06
397.698	114.06
397.922	88.06
398.147	97.06
398.371	106.06
398.595	109.06
398.82	116.06
399.044	112.06
399.268	111.06
399.492	108.06
399.717	110.06
399.941	122.06
400.165	110.06
400.389	119.06
400.613	108.06
400.837	98.06
401.062	94.06
401.286	104.06
401.51	110.06
401.734	93.06
401.958	94.06
402.182	94.06
402.406	108.06
402.63	98.06
402.854	108.06
403.078	112.06
403.302	101.06
403.526	113.06
403.75	115.06
403.974	108.06
404.198	117.06
404.422	104.06
404.645	104.06
404.869	118.06
405.093	106.06
405.317	112.06
405.541	103.06
405.765	105.06
405.988	92.06
406.212	93.06
406.436	97.06
406.66	112.06
406.883	116.06
407.107	109.06
407.331	118.06
407.555	118.06
407.778	126.06
408.002	117.06
408.226	114.06
408.449	114.06
408.673	102.06
408.896	101.06
409.12	104.06
409.344	102.06
409.567	106.06
409.791	116.06
410.014	108.06
410.238	105.06
410.461	107.06
410.685	100.06
410.908	102.06
411.132	113.06
411.355	126.06
411.578	110.06
411.802	113.06
412.025	116.06
412.249	110.06
412.472	99.06
412.695	109.06
412.919	101.06
413.142	124.06
413.365	118.06
413.589	100.06
413.812	106.06
414.035	119.06
414.258	102.06
414.482	123.06
414.705	128.06
414.928	110.06
415.151	117.06
415.374	112.06
415.597	103.06
415.821	108.06
416.044	104.06
416.267	109.06
416.49	122.06
416.713	108.06
416.936	108.06
417.159	100.06
417.382	117.06
417.605	101.06
417.828	118.06
418.051	117.06
418.274	122.06
418.497	117.06
418.72	112.06
418.943	114.06
419.166	109.06
419.389	112.06
419.611	121.06
419.834	106.06
420.057	124.06
420.28	121.06
420.503	118.06
420.726	112.06
420.948	107.06
421.171	107.06
421.394	125.06
421.617	121.06
421.839	103.06
422.062	118.06
422.285	108.06
422.507	112.06
422.73	115.06
422.953	113.06
423.175	111.06
423.398	110.06
423.621	122.06
423.843	118.06
424.066	117.06
424.288	120.06
424.511	120.06
424.733	137.06
424.956	120.06
425.178	98.06
425.401	102.06
425.623	113.06
425.846	103.06
426.068	104.06
426.291	114.06
426.513	132.06
426.735	113.06
426.958	108.06
427.18	105.06
427.402	115.06
427.625	109.06
427.847	105.06
428.069	114.06
428.292	120.06
428.514	120.06
428.736	121.06
428.958	91.06
429.181	104.06
429.403	106.06
429.625	113.06
429.847	108.06
430.069	118.06
430.292	128.06
430.514	107.06
430.736	115.06
430.958	100.06
431.18	109.06
431.402	122.06
431.624	115.06
431.846	112.06
432.068	93.06
432.29	116.06
432.512	113.06
432.734	117.06
432.956	116.06
433.178	124.06
433.4	118.06
433.622	96.06
433.844	112.06
434.066	119.06
434.287	106.06
434.509	86.06
434.731	105.06
434.953	98.06
435.175	113.06
435.397	106.06
435.618	105.06
435.84	109.06
436.062	98.06
436.284	108.06
436.505	108.06
436.727	98.06
436.949	104.06
437.17	117.06
437.392	112.06
437.614	116.06
437.835	121.06
438.057	112.06
438.278	97.06
438.5	108.06
438.721	109.06
438.943	116.06
439.165	103.06
439.386	120.06
439.608	120.06
439.829	115.06
440.05	115.06
440.272	96.06
440.493	100.06
440.715	124.06
440.936	109.06
441.158	120.06
441.379	120.06
441.6	109.06
441.822	132.06
442.043	120.06
442.264	123.06
442.486	102.06
442.707	110.06
442.928	117.06
443.149	120.06
443.371	116.06
443.592	108.06
443.813	114.06
444.034	122.06
444.255	125.06
444.476	121.06
444.698	108.06
444.919	132.06
445.14	263.06
445.361	178.06
445.582	120.06
445.803	102.06
446.024	126.06
446.245	125.06
446.466	112.06
446.687	116.06
446.908	116.06
447.129	116.06
447.35	128.06
447.571	112.06
447.792	102.06
448.013	122.06
448.234	98.06
448.455	116.06
448.675	121.06
448.896	97.06
449.117	128.06
449.338	109.06
449.559	122.06
449.779	107.06
450	112.06
450.221	110.06
450.442	111.06
450.662	108.06
450.883	94.06
451.104	118.06
451.324	93.06
451.545	109.06
451.766	115.06
451.986	120.06
452.207	95.06
452.428	121.06
452.648	106.06
452.869	103.06
453.089	110.06
453.31	109.06
453.53	101.06
453.751	112.06
453.971	116.06
454.192	94.06
454.412	85.06
454.633	113.06
454.853	113.06
455.073	112.06
455.294	101.06
455.514	106.06
455.734	102.06
455.955	117.06
456.175	93.06
456.395	98.06
456.616	113.06
456.836	111.06
457.056	105.06
457.276	97.06
457.497	93.06
457.717	104.06
457.937	102.06
458.157	106.06
458.377	102.06
458.598	122.06
458.818	125.06
459.038	105.06
459.258	95.06
459.478	111.06
459.698	100.06
459.918	79.06
460.138	118.06
460.358	111.06
460.578	112.06
460.798	113.06
461.018	113.06
461.238	92.06
461.458	120.06
461.678	119.06
461.898	111.06
462.118	126.06
462.338	118.06
462.558	117.06
462.777	125.06
462.997	124.06
463.217	129.06
463.437	109.06
463.657	136.06
463.876	112.06
464.096	101.06
464.316	112.06
464.536	116.06
464.755	126.06
464.975	130.06
465.195	120.06
465.414	119.06
465.634	117.06
465.854	124.06
466.073	120.06
466.293	119.06
466.512	117.06
466.732	110.06
466.951	112.06
467.171	128.06
467.391	118.06
467.61	119.06
467.829	110.06
468.049	112.06
468.268	122.06
468.488	121.06
468.707	116.06
468.927	125.06
469.146	112.06
469.365	122.06
469.585	118.06
469.804	120.06
470.023	111.06
470.243	119.06
470.462	122.06
470.681	123.06
470.901	121.06
471.12	124.06
471.339	128.06
471.558	132.06
471.777	109.06
471.997	109.06
472.216	108.06
472.435	122.06
472.654	111.06
472.873	103.06
473.092	102.06
473.311	110.06
473.53	108.06
473.749	118.06
473.968	121.06
474.187	119.06
474.406	117.06
474.625	99.06
474.844	125.06
475.063	116.06
475.282	113.06
475.501	116.06
475.72	97.06
475.939	104.06
476.158	120.06
476.377	128.06
476.596	116.06
476.814	112.06
477.033	116.06
477.252	130.06
477.471	111.06
477.69	127.06
477.908	131.06
478.127	130.06
478.346	123.06
478.564	114.06
478.783	123.06
479.002	119.06
479.22	126.06
479.439	132.06
479.658	125.06
479.876	111.06
480.095	118.06
480.313	116.06
480.532	119.06
480.751	126.06
480.969	130.06
481.188	112.06
481.406	125.06
481.624	106.06
481.843	122.06
482.061	95.06
482.28	116.06
482.498	108.06
482.717	123.06
482.935	118.06
483.153	120.06
483.372	124.06
483.59	135.06
483.808	116.06
484.027	123.06
484.245	136.06
484.463	113.06
484.681	128.06
484.9	126.06
485.118	120.06
485.336	120.06
485.554	108.06
485.772	114.06
485.99	126.06
486.209	119.06
486.427	125.06
486.645	135.06
486.863	122.06
487.081	124.06
487.299	126.06
487.517	139.06
487.735	134.06
487.953	158.06
488.171	148.06
488.389	151.06
488.607	129.06
488.825	131.06
489.043	128.06
489.261	123.06
489.479	122.06
489.696	136.06
489.914	128.06
490.132	134.06
490.35	139.06
490.568	147.06
490.786	144.06
491.003	148.06
491.221	132.06
491.439	137.06
491.657	163.06
491.874	156.06
492.092	157.06
492.31	165.06
492.527	159.06
492.745	166.06
492.963	160.06
493.18	136.06
493.398	137.06
493.615	131.06
493.833	146.06
494.05	144.06
494.268	150.06
494.485	164.06
494.703	154.06
494.92	148.06
495.138	152.06
495.355	130.06
495.573	142.06
495.79	158.06
496.008	143.06
496.225	140.06
496.442	149.06
496.66	135.06
496.877	146.06
497.094	148.06
497.312	140.06
497.529	147.06
497.746	161.06
497.963	131.06
498.181	157.06
498.398	149.06
498.615	161.06
498.832	145.06
499.049	153.06
499.267	160.06
499.484	173.06
499.701	176.06
499.918	192.06
500.135	207.06
500.352	206.06
500.569	230.06
500.786	226.06
501.003	205.06
501.22	192.06
501.437	190.06
501.654	183.06
501.871	170.06
502.088	148.06
502.305	148.06
502.522	152.06
502.739	138.06
502.956	147.06
503.172	132.06
503.389	152.06
503.606	136.06
503.823	137.06
504.04	135.06
504.256	127.06
504.473	125.06
504.69	141.06
504.907	145.06
505.123	154.06
505.34	133.06
505.557	138.06
505.773	141.06
505.99	127.06
506.207	130.06
506.423	124.06
506.64	107.06
506.856	129.06
507.073	114.06
507.289	132.06
507.506	123.06
507.722	122.06
507.939	125.06
508.155	106.06
508.372	122.06
508.588	120.06
508.805	131.06
509.021	126.06
509.238	119.06
509.454	114.06
509.67	115.06
509.887	112.06
510.103	105.06
510.319	120.06
510.536	116.06
510.752	111.06
510.968	119.06
511.184	109.06
511.401	110.06
511.617	109.06
