Data from StandardFe(NO3)3.TAE.3%Agarose.FlatLispGreen.Lamp.Energy10.07252019_HRD10591_11-56-20-442.txt Node
Date: Thu Jul 25 11:56:20 EDT 2019
User: cochatt
Spectrometer: HR+D1059
Trigger mode: 1
Integration Time (sec): 1.000000E-1
Scans to average: 1
Electric dark correction enabled: true
Nonlinearity correction enabled: false
Boxcar width: 0
XAxis mode: Wavelengths
Number of Pixels in Spectrum: 2048
>>>>>Begin Spectral Data<<<<<
223.165	-14.5
223.4	-14.5
223.635	-14.5
223.869	-16.5
224.104	-4.5
224.338	-20.5
224.573	-19.5
224.808	-19.5
225.042	-2.5
225.277	1.5
225.511	-22.5
225.746	0.5
225.98	4.5
226.215	16.5
226.449	21.5
226.683	20.5
226.918	22.5
227.152	32.5
227.387	34.5
227.621	29.5
227.856	45.5
228.09	44.5
228.324	44.5
228.559	51.5
228.793	67.5
229.027	69.5
229.262	57.5
229.496	58.5
229.73	61.5
229.964	74.5
230.199	74.5
230.433	67.5
230.667	70.5
230.901	72.5
231.136	84.5
231.37	71.5
231.604	72.5
231.838	78.5
232.072	61.5
232.306	81.5
232.541	76.5
232.775	69.5
233.009	76.5
233.243	76.5
233.477	85.5
233.711	70.5
233.945	95.5
234.179	68.5
234.413	69.5
234.647	81.5
234.881	80.5
235.115	71.5
235.349	82.5
235.583	83.5
235.817	85.5
236.051	79.5
236.285	82.5
236.519	92.5
236.753	79.5
236.987	68.5
237.221	71.5
237.455	84.5
237.689	77.5
237.922	66.5
238.156	82.5
238.39	63.5
238.624	82.5
238.858	73.5
239.091	68.5
239.325	76.5
239.559	68.5
239.793	88.5
240.027	65.5
240.26	73.5
240.494	81.5
240.728	73.5
240.961	81.5
241.195	86.5
241.429	83.5
241.662	61.5
241.896	75.5
242.13	72.5
242.363	77.5
242.597	78.5
242.83	80.5
243.064	68.5
243.298	70.5
243.531	86.5
243.765	87.5
243.998	61.5
244.232	79.5
244.465	72.5
244.699	74.5
244.932	84.5
245.166	72.5
245.399	83.5
245.633	82.5
245.866	81.5
246.099	70.5
246.333	83.5
246.566	87.5
246.8	70.5
247.033	74.5
247.266	73.5
247.5	72.5
247.733	88.5
247.966	72.5
248.2	79.5
248.433	78.5
248.666	88.5
248.899	74.5
249.133	77.5
249.366	82.5
249.599	83.5
249.832	76.5
250.066	77.5
250.299	75.5
250.532	80.5
250.765	65.5
250.998	84.5
251.231	72.5
251.465	74.5
251.698	71.5
251.931	80.5
252.164	71.5
252.397	82.5
252.63	70.5
252.863	85.5
253.096	75.5
253.329	68.5
253.562	63.5
253.795	90.5
254.028	69.5
254.261	72.5
254.494	88.5
254.727	98.5
254.96	86.5
255.193	85.5
255.426	87.5
255.659	80.5
255.892	71.5
256.124	74.5
256.357	82.5
256.59	80.5
256.823	80.5
257.056	75.5
257.289	69.5
257.521	72.5
257.754	66.5
257.987	73.5
258.22	75.5
258.452	75.5
258.685	74.5
258.918	87.5
259.151	80.5
259.383	65.5
259.616	69.5
259.849	82.5
260.081	86.5
260.314	82.5
260.547	78.5
260.779	96.5
261.012	84.5
261.244	81.5
261.477	90.5
261.71	92.5
261.942	70.5
262.175	83.5
262.407	74.5
262.64	71.5
262.872	87.5
263.105	69.5
263.337	69.5
263.57	68.5
263.802	73.5
264.035	79.5
264.267	78.5
264.499	72.5
264.732	94.5
264.964	73.5
265.197	83.5
265.429	71.5
265.661	78.5
265.894	95.5
266.126	75.5
266.358	78.5
266.591	79.5
266.823	72.5
267.055	85.5
267.287	81.5
267.52	77.5
267.752	85.5
267.984	74.5
268.216	70.5
268.448	89.5
268.681	92.5
268.913	89.5
269.145	73.5
269.377	65.5
269.609	85.5
269.841	88.5
270.073	92.5
270.306	76.5
270.538	66.5
270.77	84.5
271.002	76.5
271.234	70.5
271.466	70.5
271.698	92.5
271.93	74.5
272.162	82.5
272.394	88.5
272.626	77.5
272.858	88.5
273.09	70.5
273.322	72.5
273.553	75.5
273.785	91.5
274.017	80.5
274.249	70.5
274.481	75.5
274.713	78.5
274.945	94.5
275.176	81.5
275.408	78.5
275.64	76.5
275.872	57.5
276.104	81.5
276.335	89.5
276.567	90.5
276.799	78.5
277.031	72.5
277.262	76.5
277.494	89.5
277.726	91.5
277.957	83.5
278.189	80.5
278.421	89.5
278.652	74.5
278.884	86.5
279.115	85.5
279.347	85.5
279.579	72.5
279.81	84.5
280.042	76.5
280.273	68.5
280.505	77.5
280.736	82.5
280.968	88.5
281.199	84.5
281.431	84.5
281.662	92.5
281.894	69.5
282.125	84.5
282.356	82.5
282.588	102.5
282.819	89.5
283.051	74.5
283.282	85.5
283.513	84.5
283.745	79.5
283.976	77.5
284.207	80.5
284.439	75.5
284.67	84.5
284.901	86.5
285.132	89.5
285.364	82.5
285.595	87.5
285.826	80.5
286.057	77.5
286.288	72.5
286.52	68.5
286.751	84.5
286.982	81.5
287.213	79.5
287.444	86.5
287.675	73.5
287.906	84.5
288.138	73.5
288.369	85.5
288.6	88.5
288.831	86.5
289.062	77.5
289.293	84.5
289.524	84.5
289.755	79.5
289.986	70.5
290.217	73.5
290.448	89.5
290.679	82.5
290.91	77.5
291.141	89.5
291.371	91.5
291.602	96.5
291.833	77.5
292.064	75.5
292.295	87.5
292.526	84.5
292.757	75.5
292.987	86.5
293.218	83.5
293.449	88.5
293.68	84.5
293.91	78.5
294.141	81.5
294.372	95.5
294.603	77.5
294.833	74.5
295.064	82.5
295.295	82.5
295.525	94.5
295.756	67.5
295.987	83.5
296.217	84.5
296.448	85.5
296.679	98.5
296.909	90.5
297.14	90.5
297.37	81.5
297.601	84.5
297.831	80.5
298.062	81.5
298.292	80.5
298.523	84.5
298.753	70.5
298.984	79.5
299.214	92.5
299.445	82.5
299.675	83.5
299.905	80.5
300.136	77.5
300.366	69.5
300.597	82.5
300.827	74.5
301.057	74.5
301.288	80.5
301.518	88.5
301.748	81.5
301.979	93.5
302.209	72.5
302.439	84.5
302.669	93.5
302.9	82.5
303.13	85.5
303.36	88.5
303.59	65.5
303.82	90.5
304.051	82.5
304.281	78.5
304.511	81.5
304.741	87.5
304.971	86.5
305.201	88.5
305.431	68.5
305.661	79.5
305.891	74.5
306.121	88.5
306.352	85.5
306.582	75.5
306.812	78.5
307.042	82.5
307.272	91.5
307.502	80.5
307.731	63.5
307.961	85.5
308.191	73.5
308.421	82.5
308.651	78.5
308.881	81.5
309.111	74.5
309.341	65.5
309.571	75.5
309.8	88.5
310.03	74.5
310.26	90.5
310.49	87.5
310.72	83.5
310.949	93.5
311.179	75.5
311.409	80.5
311.639	87.5
311.868	79.5
312.098	92.5
312.328	89.5
312.557	89.5
312.787	93.5
313.017	88.5
313.246	79.5
313.476	80.5
313.706	87.5
313.935	86.5
314.165	85.5
314.394	74.5
314.624	68.5
314.853	71.5
315.083	85.5
315.312	88.5
315.542	79.5
315.771	83.5
316.001	72.5
316.23	90.5
316.46	93.5
316.689	72.5
316.919	84.5
317.148	79.5
317.377	87.5
317.607	72.5
317.836	75.5
318.065	77.5
318.295	90.5
318.524	75.5
318.753	70.5
318.983	74.5
319.212	97.5
319.441	79.5
319.67	64.5
319.9	75.5
320.129	82.5
320.358	75.5
320.587	80.5
320.816	74.5
321.046	85.5
321.275	89.5
321.504	86.5
321.733	81.5
321.962	84.5
322.191	77.5
322.42	76.5
322.649	83.5
322.878	81.5
323.108	85.5
323.337	95.5
323.566	88.5
323.795	84.5
324.024	85.5
324.253	85.5
324.482	81.5
324.71	79.5
324.939	70.5
325.168	80.5
325.397	79.5
325.626	78.5
325.855	64.5
326.084	72.5
326.313	94.5
326.542	71.5
326.77	90.5
326.999	77.5
327.228	85.5
327.457	87.5
327.686	93.5
327.914	84.5
328.143	77.5
328.372	85.5
328.6	97.5
328.829	82.5
329.058	79.5
329.287	79.5
329.515	81.5
329.744	92.5
329.972	85.5
330.201	75.5
330.43	94.5
330.658	86.5
330.887	92.5
331.115	65.5
331.344	78.5
331.572	82.5
331.801	76.5
332.03	81.5
332.258	98.5
332.486	76.5
332.715	80.5
332.943	75.5
333.172	82.5
333.4	70.5
333.629	85.5
333.857	76.5
334.085	80.5
334.314	70.5
334.542	78.5
334.771	71.5
334.999	88.5
335.227	68.5
335.455	81.5
335.684	67.5
335.912	72.5
336.14	63.5
336.369	80.5
336.597	80.5
336.825	73.5
337.053	89.5
337.281	79.5
337.51	78.5
337.738	83.5
337.966	74.5
338.194	79.5
338.422	71.5
338.65	92.5
338.878	91.5
339.106	76.5
339.334	80.5
339.562	80.5
339.79	75.5
340.018	78.5
340.246	90.5
340.474	78.5
340.702	85.5
340.93	84.5
341.158	74.5
341.386	76.5
341.614	95.5
341.842	80.5
342.07	75.5
342.298	74.5
342.526	85.5
342.754	80.5
342.981	84.5
343.209	78.5
343.437	92.5
343.665	82.5
343.893	81.5
344.12	78.5
344.348	73.5
344.576	78.5
344.804	92.5
345.031	66.5
345.259	68.5
345.487	70.5
345.714	73.5
345.942	73.5
346.17	83.5
346.397	98.5
346.625	80.5
346.853	72.5
347.08	84.5
347.308	85.5
347.535	90.5
347.763	95.5
347.99	87.5
348.218	96.5
348.445	73.5
348.673	92.5
348.9	76.5
349.128	90.5
349.355	95.5
349.583	93.5
349.81	76.5
350.037	95.5
350.265	86.5
350.492	73.5
350.72	82.5
350.947	85.5
351.174	89.5
351.402	87.5
351.629	77.5
351.856	97.5
352.083	83.5
352.311	74.5
352.538	78.5
352.765	82.5
352.992	81.5
353.22	69.5
353.447	80.5
353.674	74.5
353.901	97.5
354.128	95.5
354.355	99.5
354.583	81.5
354.81	90.5
355.037	88.5
355.264	69.5
355.491	75.5
355.718	86.5
355.945	82.5
356.172	86.5
356.399	81.5
356.626	74.5
356.853	82.5
357.08	77.5
357.307	72.5
357.534	84.5
357.761	67.5
357.988	98.5
358.215	95.5
358.441	93.5
358.668	70.5
358.895	79.5
359.122	79.5
359.349	85.5
359.576	85.5
359.802	77.5
360.029	92.5
360.256	92.5
360.483	95.5
360.709	69.5
360.936	81.5
361.163	81.5
361.39	78.5
361.616	82.5
361.843	86.5
362.07	70.5
362.296	76.5
362.523	76.5
362.749	75.5
362.976	80.5
363.203	98.5
363.429	96.5
363.656	77.5
363.882	87.5
364.109	78.5
364.335	88.5
364.562	86.5
364.788	84.5
365.015	85.5
365.241	81.5
365.468	71.5
365.694	80.5
365.92	85.5
366.147	75.5
366.373	89.5
366.599	96.5
366.826	87.5
367.052	84.5
367.278	84.5
367.505	85.5
367.731	87.5
367.957	83.5
368.184	80.5
368.41	74.5
368.636	78.5
368.862	84.5
369.089	94.5
369.315	79.5
369.541	83.5
369.767	77.5
369.993	89.5
370.219	82.5
370.445	80.5
370.672	84.5
370.898	96.5
371.124	78.5
371.35	84.5
371.576	82.5
371.802	80.5
372.028	68.5
372.254	88.5
372.48	88.5
372.706	87.5
372.932	77.5
373.158	83.5
373.384	86.5
373.61	88.5
373.835	72.5
374.061	76.5
374.287	70.5
374.513	70.5
374.739	67.5
374.965	84.5
375.191	80.5
375.416	93.5
375.642	103.5
375.868	78.5
376.094	88.5
376.319	76.5
376.545	97.5
376.771	96.5
376.997	82.5
377.222	95.5
377.448	84.5
377.674	83.5
377.899	84.5
378.125	89.5
378.35	85.5
378.576	87.5
378.802	74.5
379.027	88.5
379.253	100.5
379.478	86.5
379.704	77.5
379.929	82.5
380.155	91.5
380.38	82.5
380.606	84.5
380.831	77.5
381.057	96.5
381.282	94.5
381.507	89.5
381.733	89.5
381.958	94.5
382.184	82.5
382.409	82.5
382.634	88.5
382.86	90.5
383.085	84.5
383.31	94.5
383.535	101.5
383.761	81.5
383.986	94.5
384.211	89.5
384.436	69.5
384.662	85.5
384.887	89.5
385.112	91.5
385.337	90.5
385.562	102.5
385.787	92.5
386.013	109.5
386.238	97.5
386.463	106.5
386.688	96.5
386.913	106.5
387.138	88.5
387.363	74.5
387.588	105.5
387.813	98.5
388.038	77.5
388.263	90.5
388.488	94.5
388.713	71.5
388.938	78.5
389.163	81.5
389.387	101.5
389.612	95.5
389.837	73.5
390.062	80.5
390.287	97.5
390.512	89.5
390.736	93.5
390.961	96.5
391.186	86.5
391.411	90.5
391.636	92.5
391.86	74.5
392.085	101.5
392.31	96.5
392.534	89.5
392.759	86.5
392.984	86.5
393.208	93.5
393.433	103.5
393.658	83.5
393.882	92.5
394.107	106.5
394.331	99.5
394.556	108.5
394.78	96.5
395.005	110.5
395.229	85.5
395.454	81.5
395.678	111.5
395.903	95.5
396.127	87.5
396.352	92.5
396.576	105.5
396.801	87.5
397.025	91.5
397.249	86.5
397.474	102.5
397.698	96.5
397.922	100.5
398.147	87.5
398.371	86.5
398.595	108.5
398.82	100.5
399.044	106.5
399.268	99.5
399.492	93.5
399.717	98.5
399.941	107.5
400.165	97.5
400.389	94.5
400.613	92.5
400.837	106.5
401.062	106.5
401.286	104.5
401.51	104.5
401.734	100.5
401.958	110.5
402.182	103.5
402.406	92.5
402.63	120.5
402.854	99.5
403.078	114.5
403.302	94.5
403.526	98.5
403.75	112.5
403.974	111.5
404.198	96.5
404.422	96.5
404.645	113.5
404.869	103.5
405.093	96.5
405.317	114.5
405.541	105.5
405.765	92.5
405.988	101.5
406.212	120.5
406.436	120.5
406.66	103.5
406.883	109.5
407.107	111.5
407.331	119.5
407.555	108.5
407.778	97.5
408.002	108.5
408.226	101.5
408.449	98.5
408.673	108.5
408.896	111.5
409.12	112.5
409.344	116.5
409.567	109.5
409.791	103.5
410.014	108.5
410.238	102.5
410.461	102.5
410.685	111.5
410.908	114.5
411.132	95.5
411.355	102.5
411.578	90.5
411.802	108.5
412.025	116.5
412.249	116.5
412.472	93.5
412.695	100.5
412.919	110.5
413.142	96.5
413.365	120.5
413.589	89.5
413.812	109.5
414.035	106.5
414.258	115.5
414.482	105.5
414.705	120.5
414.928	110.5
415.151	103.5
415.374	101.5
415.597	104.5
415.821	102.5
416.044	107.5
416.267	114.5
416.49	98.5
416.713	114.5
416.936	120.5
417.159	105.5
417.382	100.5
417.605	106.5
417.828	117.5
418.051	108.5
418.274	110.5
418.497	118.5
418.72	97.5
418.943	107.5
419.166	118.5
419.389	101.5
419.611	124.5
419.834	121.5
420.057	109.5
420.28	117.5
420.503	108.5
420.726	102.5
420.948	114.5
421.171	102.5
421.394	86.5
421.617	103.5
421.839	106.5
422.062	115.5
422.285	116.5
422.507	113.5
422.73	99.5
422.953	124.5
423.175	107.5
423.398	109.5
423.621	119.5
423.843	112.5
424.066	123.5
424.288	109.5
424.511	130.5
424.733	115.5
424.956	124.5
425.178	125.5
425.401	102.5
425.623	110.5
425.846	108.5
426.068	113.5
426.291	124.5
426.513	115.5
426.735	114.5
426.958	104.5
427.18	108.5
427.402	111.5
427.625	111.5
427.847	105.5
428.069	120.5
428.292	103.5
428.514	100.5
428.736	110.5
428.958	101.5
429.181	95.5
429.403	107.5
429.625	100.5
429.847	94.5
430.069	111.5
430.292	106.5
430.514	101.5
430.736	110.5
430.958	86.5
431.18	109.5
431.402	115.5
431.624	106.5
431.846	96.5
432.068	115.5
432.29	104.5
432.512	114.5
432.734	108.5
432.956	126.5
433.178	117.5
433.4	108.5
433.622	98.5
433.844	106.5
434.066	123.5
434.287	101.5
434.509	104.5
434.731	110.5
434.953	110.5
435.175	102.5
435.397	104.5
435.618	113.5
435.84	95.5
436.062	104.5
436.284	111.5
436.505	103.5
436.727	112.5
436.949	98.5
437.17	111.5
437.392	102.5
437.614	119.5
437.835	97.5
438.057	108.5
438.278	117.5
438.5	105.5
438.721	116.5
438.943	113.5
439.165	128.5
439.386	111.5
439.608	102.5
439.829	122.5
440.05	119.5
440.272	128.5
440.493	94.5
440.715	116.5
440.936	114.5
441.158	118.5
441.379	120.5
441.6	120.5
441.822	122.5
442.043	114.5
442.264	120.5
442.486	104.5
442.707	111.5
442.928	107.5
443.149	115.5
443.371	131.5
443.592	113.5
443.813	104.5
444.034	120.5
444.255	124.5
444.476	110.5
444.698	114.5
444.919	111.5
445.14	265.5
445.361	180.5
445.582	117.5
445.803	108.5
446.024	124.5
446.245	99.5
446.466	129.5
446.687	105.5
446.908	118.5
447.129	112.5
447.35	111.5
447.571	111.5
447.792	122.5
448.013	109.5
448.234	108.5
448.455	98.5
448.675	101.5
448.896	92.5
449.117	103.5
449.338	109.5
449.559	103.5
449.779	105.5
450	122.5
450.221	103.5
450.442	93.5
450.662	106.5
450.883	114.5
451.104	119.5
451.324	100.5
451.545	105.5
451.766	116.5
451.986	96.5
452.207	105.5
452.428	113.5
452.648	97.5
452.869	105.5
453.089	113.5
453.31	90.5
453.53	90.5
453.751	104.5
453.971	89.5
454.192	92.5
454.412	93.5
454.633	97.5
454.853	88.5
455.073	125.5
455.294	108.5
455.514	116.5
455.734	112.5
455.955	105.5
456.175	107.5
456.395	108.5
456.616	89.5
456.836	102.5
457.056	104.5
457.276	109.5
457.497	102.5
457.717	108.5
457.937	94.5
458.157	101.5
458.377	113.5
458.598	103.5
458.818	120.5
459.038	108.5
459.258	88.5
459.478	102.5
459.698	90.5
459.918	103.5
460.138	124.5
460.358	104.5
460.578	115.5
460.798	117.5
461.018	106.5
461.238	106.5
461.458	126.5
461.678	112.5
461.898	114.5
462.118	107.5
462.338	129.5
462.558	131.5
462.777	110.5
462.997	106.5
463.217	126.5
463.437	116.5
463.657	105.5
463.876	120.5
464.096	120.5
464.316	128.5
464.536	112.5
464.755	113.5
464.975	114.5
465.195	108.5
465.414	101.5
465.634	118.5
465.854	112.5
466.073	117.5
466.293	108.5
466.512	105.5
466.732	118.5
466.951	119.5
467.171	124.5
467.391	120.5
467.61	116.5
467.829	113.5
468.049	120.5
468.268	104.5
468.488	101.5
468.707	118.5
468.927	116.5
469.146	113.5
469.365	110.5
469.585	119.5
469.804	110.5
470.023	117.5
470.243	120.5
470.462	124.5
470.681	126.5
470.901	113.5
471.12	116.5
471.339	103.5
471.558	113.5
471.777	126.5
471.997	118.5
472.216	103.5
472.435	118.5
472.654	96.5
472.873	104.5
473.092	123.5
473.311	108.5
473.53	121.5
473.749	118.5
473.968	117.5
474.187	105.5
474.406	102.5
474.625	118.5
474.844	122.5
475.063	115.5
475.282	128.5
475.501	105.5
475.72	108.5
475.939	119.5
476.158	108.5
476.377	99.5
476.596	101.5
476.814	113.5
477.033	110.5
477.252	115.5
477.471	120.5
477.69	126.5
477.908	110.5
478.127	117.5
478.346	118.5
478.564	125.5
478.783	129.5
479.002	147.5
479.22	125.5
479.439	125.5
479.658	127.5
479.876	124.5
480.095	113.5
480.313	102.5
480.532	114.5
480.751	106.5
480.969	102.5
481.188	117.5
481.406	117.5
481.624	119.5
481.843	112.5
482.061	117.5
482.28	108.5
482.498	103.5
482.717	104.5
482.935	114.5
483.153	120.5
483.372	128.5
483.59	118.5
483.808	119.5
484.027	134.5
484.245	131.5
484.463	133.5
484.681	142.5
484.9	118.5
485.118	125.5
485.336	122.5
485.554	122.5
485.772	117.5
485.99	121.5
486.209	111.5
486.427	119.5
486.645	126.5
486.863	138.5
487.081	129.5
487.299	117.5
487.517	118.5
487.735	148.5
487.953	132.5
488.171	154.5
488.389	151.5
488.607	144.5
488.825	142.5
489.043	116.5
489.261	136.5
489.479	125.5
489.696	122.5
489.914	126.5
490.132	111.5
490.35	143.5
490.568	135.5
490.786	134.5
491.003	130.5
491.221	143.5
491.439	150.5
491.657	150.5
491.874	157.5
492.092	161.5
492.31	170.5
492.527	138.5
492.745	159.5
492.963	164.5
493.18	150.5
493.398	164.5
493.615	145.5
493.833	140.5
494.05	154.5
494.268	144.5
494.485	152.5
494.703	147.5
494.92	128.5
495.138	142.5
495.355	157.5
495.573	152.5
495.79	145.5
496.008	144.5
496.225	152.5
496.442	146.5
496.66	168.5
496.877	141.5
497.094	147.5
497.312	141.5
497.529	137.5
497.746	134.5
497.963	134.5
498.181	149.5
498.398	135.5
498.615	138.5
498.832	157.5
499.049	143.5
499.267	183.5
499.484	144.5
499.701	165.5
499.918	180.5
500.135	192.5
500.352	211.5
500.569	213.5
500.786	224.5
501.003	196.5
501.22	185.5
501.437	185.5
501.654	182.5
501.871	164.5
502.088	147.5
502.305	149.5
502.522	145.5
502.739	135.5
502.956	138.5
503.172	138.5
503.389	130.5
503.606	111.5
503.823	136.5
504.04	140.5
504.256	142.5
504.473	131.5
504.69	146.5
504.907	129.5
505.123	124.5
505.34	129.5
505.557	121.5
505.773	118.5
505.99	109.5
506.207	126.5
506.423	122.5
506.64	120.5
506.856	113.5
507.073	119.5
507.289	125.5
507.506	116.5
507.722	122.5
507.939	125.5
508.155	135.5
508.372	119.5
508.588	123.5
508.805	117.5
509.021	124.5
509.238	126.5
509.454	113.5
509.67	114.5
509.887	114.5
510.103	119.5
510.319	114.5
510.536	114.5
510.752	127.5
510.968	122.5
511.184	108.5
511.401	128.5
511.617	120.5
511.833	121.5
512.049	121.5
512.265	114.5
512.481	106.5
512.698	116.5
512.914	107.5
513.13	124.5
513.346	110.5
513.562	115.5
513.778	110.5
513.994	111.5
514.21	127.5
514.426	103.5
514.642	105.5
514.858	117.5
515.074	112.5
515.29	113.5
515.506	111.5
515.721	122.5
515.937	123.5
516.153	108.5
516.369	120.5
516.585	112.5
516.801	104.5
517.016	128.5
517.232	126.5
517.448	128.5
517.664	132.5
517.879	129.5
518.095	136.5
518.311	130.5
518.527	141.5
518.742	136.5
518.958	106.5
519.173	116.5
519.389	122.5
519.605	139.5
519.82	116.5
520.036	120.5
520.251	119.5
520.467	115.5
520.682	97.5
520.898	117.5
521.113	125.5
521.329	113.5
521.544	116.5
521.76	113.5
521.975	118.5
522.19	122.5
522.406	109.5
522.621	115.5
522.836	110.5
523.052	129.5
523.267	113.5
523.482	117.5
523.698	109.5
523.913	121.5
524.128	115.5
524.343	127.5
524.559	133.5
524.774	120.5
524.989	124.5
525.204	112.5
525.419	114.5
525.634	115.5
525.849	117.5
526.064	103.5
526.28	130.5
526.495	115.5
526.71	104.5
526.925	117.5
527.14	106.5
527.355	106.5
527.57	109.5
527.785	105.5
527.999	121.5
528.214	110.5
528.429	106.5
528.644	117.5
528.859	122.5
529.074	125.5
529.289	130.5
529.503	142.5
529.718	108.5
529.933	119.5
530.148	104.5
530.363	114.5
530.577	108.5
530.792	107.5
