Data from StandardFe(NO3)3.TAE.3%Agarose.FlatLispGreen.Lamp.Energy10.07252019_HRD10591_11-55-06-441.txt Node
Date: Thu Jul 25 11:55:06 EDT 2019
User: cochatt
Spectrometer: HR+D1059
Trigger mode: 1
Integration Time (sec): 1.000000E-1
Scans to average: 1
Electric dark correction enabled: true
Nonlinearity correction enabled: false
Boxcar width: 0
XAxis mode: Wavelengths
Number of Pixels in Spectrum: 2048
>>>>>Begin Spectral Data<<<<<
223.165	-18.38
223.4	-18.38
223.635	-18.38
223.869	-4.38
224.104	-10.38
224.338	-15.38
224.573	-18.38
224.808	-15.38
225.042	-3.38
225.277	-8.38
225.511	4.62
225.746	-12.38
225.98	6.62
226.215	13.62
226.449	-0.38
226.683	24.62
226.918	28.62
227.152	28.62
227.387	43.62
227.621	40.62
227.856	53.62
228.09	35.62
228.324	56.62
228.559	51.62
228.793	52.62
229.027	58.62
229.262	59.62
229.496	71.62
229.73	68.62
229.964	69.62
230.199	69.62
230.433	73.62
230.667	80.62
230.901	83.62
231.136	70.62
231.37	74.62
231.604	84.62
231.838	75.62
232.072	91.62
232.306	81.62
232.541	81.62
232.775	72.62
233.009	83.62
233.243	91.62
233.477	73.62
233.711	77.62
233.945	94.62
234.179	88.62
234.413	72.62
234.647	90.62
234.881	72.62
235.115	73.62
235.349	72.62
235.583	75.62
235.817	83.62
236.051	87.62
236.285	70.62
236.519	68.62
236.753	78.62
236.987	76.62
237.221	76.62
237.455	96.62
237.689	72.62
237.922	78.62
238.156	88.62
238.39	72.62
238.624	66.62
238.858	64.62
239.091	83.62
239.325	67.62
239.559	70.62
239.793	74.62
240.027	92.62
240.26	76.62
240.494	84.62
240.728	51.62
240.961	71.62
241.195	67.62
241.429	84.62
241.662	95.62
241.896	80.62
242.13	87.62
242.363	81.62
242.597	69.62
242.83	74.62
243.064	81.62
243.298	81.62
243.531	88.62
243.765	61.62
243.998	73.62
244.232	86.62
244.465	75.62
244.699	56.62
244.932	71.62
245.166	74.62
245.399	74.62
245.633	80.62
245.866	97.62
246.099	82.62
246.333	75.62
246.566	83.62
246.8	70.62
247.033	57.62
247.266	82.62
247.5	83.62
247.733	75.62
247.966	64.62
248.2	87.62
248.433	81.62
248.666	79.62
248.899	106.62
249.133	73.62
249.366	79.62
249.599	79.62
249.832	76.62
250.066	81.62
250.299	72.62
250.532	81.62
250.765	87.62
250.998	79.62
251.231	72.62
251.465	77.62
251.698	77.62
251.931	83.62
252.164	85.62
252.397	92.62
252.63	81.62
252.863	88.62
253.096	93.62
253.329	81.62
253.562	75.62
253.795	91.62
254.028	78.62
254.261	87.62
254.494	76.62
254.727	85.62
254.96	77.62
255.193	75.62
255.426	83.62
255.659	94.62
255.892	72.62
256.124	74.62
256.357	88.62
256.59	76.62
256.823	85.62
257.056	92.62
257.289	91.62
257.521	73.62
257.754	71.62
257.987	88.62
258.22	74.62
258.452	78.62
258.685	69.62
258.918	73.62
259.151	71.62
259.383	77.62
259.616	74.62
259.849	76.62
260.081	80.62
260.314	77.62
260.547	77.62
260.779	83.62
261.012	78.62
261.244	90.62
261.477	100.62
261.71	82.62
261.942	83.62
262.175	84.62
262.407	87.62
262.64	79.62
262.872	71.62
263.105	83.62
263.337	88.62
263.57	86.62
263.802	88.62
264.035	85.62
264.267	89.62
264.499	88.62
264.732	78.62
264.964	90.62
265.197	62.62
265.429	75.62
265.661	101.62
265.894	87.62
266.126	83.62
266.358	84.62
266.591	77.62
266.823	91.62
267.055	81.62
267.287	88.62
267.52	72.62
267.752	68.62
267.984	72.62
268.216	76.62
268.448	95.62
268.681	95.62
268.913	80.62
269.145	95.62
269.377	84.62
269.609	73.62
269.841	84.62
270.073	74.62
270.306	89.62
270.538	72.62
270.77	86.62
271.002	84.62
271.234	74.62
271.466	103.62
271.698	79.62
271.93	92.62
272.162	66.62
272.394	82.62
272.626	88.62
272.858	85.62
273.09	72.62
273.322	77.62
273.553	74.62
273.785	76.62
274.017	80.62
274.249	80.62
274.481	92.62
274.713	76.62
274.945	102.62
275.176	79.62
275.408	84.62
275.64	83.62
275.872	89.62
276.104	87.62
276.335	91.62
276.567	75.62
276.799	81.62
277.031	72.62
277.262	89.62
277.494	87.62
277.726	96.62
277.957	72.62
278.189	78.62
278.421	77.62
278.652	85.62
278.884	80.62
279.115	101.62
279.347	83.62
279.579	81.62
279.81	78.62
280.042	91.62
280.273	77.62
280.505	82.62
280.736	84.62
280.968	96.62
281.199	84.62
281.431	71.62
281.662	75.62
281.894	87.62
282.125	74.62
282.356	91.62
282.588	97.62
282.819	94.62
283.051	87.62
283.282	88.62
283.513	76.62
283.745	92.62
283.976	80.62
284.207	88.62
284.439	83.62
284.67	90.62
284.901	84.62
285.132	72.62
285.364	83.62
285.595	83.62
285.826	82.62
286.057	77.62
286.288	98.62
286.52	78.62
286.751	93.62
286.982	84.62
287.213	77.62
287.444	84.62
287.675	84.62
287.906	85.62
288.138	86.62
288.369	87.62
288.6	99.62
288.831	85.62
289.062	98.62
289.293	94.62
289.524	88.62
289.755	85.62
289.986	79.62
290.217	87.62
290.448	94.62
290.679	79.62
290.91	69.62
291.141	79.62
291.371	82.62
291.602	78.62
291.833	93.62
292.064	89.62
292.295	93.62
292.526	86.62
292.757	92.62
292.987	80.62
293.218	92.62
293.449	83.62
293.68	79.62
293.91	84.62
294.141	93.62
294.372	89.62
294.603	91.62
294.833	82.62
295.064	85.62
295.295	81.62
295.525	87.62
295.756	81.62
295.987	80.62
296.217	79.62
296.448	100.62
296.679	82.62
296.909	91.62
297.14	85.62
297.37	85.62
297.601	84.62
297.831	91.62
298.062	91.62
298.292	68.62
298.523	93.62
298.753	91.62
298.984	81.62
299.214	77.62
299.445	98.62
299.675	96.62
299.905	77.62
300.136	75.62
300.366	83.62
300.597	81.62
300.827	84.62
301.057	85.62
301.288	87.62
301.518	84.62
301.748	69.62
301.979	79.62
302.209	93.62
302.439	81.62
302.669	85.62
302.9	92.62
303.13	100.62
303.36	80.62
303.59	91.62
303.82	88.62
304.051	81.62
304.281	91.62
304.511	80.62
304.741	71.62
304.971	73.62
305.201	90.62
305.431	75.62
305.661	80.62
305.891	91.62
306.121	87.62
306.352	88.62
306.582	88.62
306.812	89.62
307.042	85.62
307.272	96.62
307.502	78.62
307.731	91.62
307.961	76.62
308.191	81.62
308.421	81.62
308.651	93.62
308.881	100.62
309.111	89.62
309.341	83.62
309.571	85.62
309.8	79.62
310.03	76.62
310.26	84.62
310.49	83.62
310.72	82.62
310.949	72.62
311.179	92.62
311.409	79.62
311.639	88.62
311.868	79.62
312.098	83.62
312.328	72.62
312.557	91.62
312.787	84.62
313.017	88.62
313.246	88.62
313.476	76.62
313.706	90.62
313.935	92.62
314.165	76.62
314.394	86.62
314.624	81.62
314.853	78.62
315.083	81.62
315.312	92.62
315.542	86.62
315.771	82.62
316.001	98.62
316.23	81.62
316.46	81.62
316.689	81.62
316.919	82.62
317.148	96.62
317.377	94.62
317.607	82.62
317.836	87.62
318.065	70.62
318.295	74.62
318.524	83.62
318.753	88.62
318.983	91.62
319.212	95.62
319.441	92.62
319.67	88.62
319.9	76.62
320.129	87.62
320.358	89.62
320.587	75.62
320.816	76.62
321.046	87.62
321.275	94.62
321.504	80.62
321.733	83.62
321.962	90.62
322.191	90.62
322.42	78.62
322.649	66.62
322.878	97.62
323.108	84.62
323.337	89.62
323.566	75.62
323.795	95.62
324.024	71.62
324.253	86.62
324.482	84.62
324.71	84.62
324.939	89.62
325.168	96.62
325.397	92.62
325.626	81.62
325.855	88.62
326.084	83.62
326.313	69.62
326.542	86.62
326.77	80.62
326.999	89.62
327.228	100.62
327.457	81.62
327.686	99.62
327.914	81.62
328.143	86.62
328.372	95.62
328.6	78.62
328.829	88.62
329.058	86.62
329.287	85.62
329.515	79.62
329.744	91.62
329.972	78.62
330.201	83.62
330.43	82.62
330.658	83.62
330.887	80.62
331.115	84.62
331.344	87.62
331.572	88.62
331.801	72.62
332.03	85.62
332.258	96.62
332.486	94.62
332.715	91.62
332.943	99.62
333.172	92.62
333.4	87.62
333.629	88.62
333.857	107.62
334.085	91.62
334.314	80.62
334.542	81.62
334.771	84.62
334.999	99.62
335.227	100.62
335.455	74.62
335.684	111.62
335.912	81.62
336.14	95.62
336.369	89.62
336.597	86.62
336.825	88.62
337.053	79.62
337.281	92.62
337.51	96.62
337.738	81.62
337.966	101.62
338.194	84.62
338.422	83.62
338.65	85.62
338.878	92.62
339.106	100.62
339.334	108.62
339.562	99.62
339.79	96.62
340.018	79.62
340.246	83.62
340.474	90.62
340.702	85.62
340.93	84.62
341.158	89.62
341.386	86.62
341.614	85.62
341.842	106.62
342.07	83.62
342.298	88.62
342.526	80.62
342.754	86.62
342.981	89.62
343.209	99.62
343.437	81.62
343.665	94.62
343.893	88.62
344.12	96.62
344.348	91.62
344.576	80.62
344.804	79.62
345.031	94.62
345.259	107.62
345.487	96.62
345.714	92.62
345.942	84.62
346.17	93.62
346.397	80.62
346.625	87.62
346.853	78.62
347.08	86.62
347.308	86.62
347.535	98.62
347.763	93.62
347.99	84.62
348.218	86.62
348.445	88.62
348.673	87.62
348.9	89.62
349.128	88.62
349.355	78.62
349.583	78.62
349.81	74.62
350.037	86.62
350.265	92.62
350.492	72.62
350.72	83.62
350.947	84.62
351.174	91.62
351.402	88.62
351.629	73.62
351.856	88.62
352.083	95.62
352.311	97.62
352.538	80.62
352.765	81.62
352.992	90.62
353.22	84.62
353.447	85.62
353.674	66.62
353.901	83.62
354.128	74.62
354.355	91.62
354.583	84.62
354.81	96.62
355.037	76.62
355.264	90.62
355.491	90.62
355.718	76.62
355.945	96.62
356.172	96.62
356.399	78.62
356.626	76.62
356.853	84.62
357.08	89.62
357.307	84.62
357.534	84.62
357.761	82.62
357.988	95.62
358.215	90.62
358.441	95.62
358.668	84.62
358.895	83.62
359.122	85.62
359.349	94.62
359.576	82.62
359.802	91.62
360.029	81.62
360.256	93.62
360.483	92.62
360.709	88.62
360.936	87.62
361.163	89.62
361.39	85.62
361.616	79.62
361.843	91.62
362.07	88.62
362.296	83.62
362.523	86.62
362.749	81.62
362.976	94.62
363.203	93.62
363.429	95.62
363.656	86.62
363.882	83.62
364.109	85.62
364.335	76.62
364.562	82.62
364.788	79.62
365.015	81.62
365.241	101.62
365.468	100.62
365.694	89.62
365.92	91.62
366.147	85.62
366.373	89.62
366.599	86.62
366.826	87.62
367.052	88.62
367.278	85.62
367.505	96.62
367.731	92.62
367.957	82.62
368.184	78.62
368.41	108.62
368.636	67.62
368.862	74.62
369.089	78.62
369.315	92.62
369.541	84.62
369.767	82.62
369.993	87.62
370.219	95.62
370.445	89.62
370.672	80.62
370.898	92.62
371.124	71.62
371.35	89.62
371.576	84.62
371.802	98.62
372.028	91.62
372.254	89.62
372.48	101.62
372.706	97.62
372.932	89.62
373.158	96.62
373.384	101.62
373.61	100.62
373.835	105.62
374.061	99.62
374.287	85.62
374.513	87.62
374.739	70.62
374.965	90.62
375.191	95.62
375.416	97.62
375.642	105.62
375.868	84.62
376.094	95.62
376.319	90.62
376.545	97.62
376.771	100.62
376.997	92.62
377.222	99.62
377.448	91.62
377.674	76.62
377.899	80.62
378.125	98.62
378.35	86.62
378.576	84.62
378.802	89.62
379.027	76.62
379.253	78.62
379.478	98.62
379.704	83.62
379.929	94.62
380.155	89.62
380.38	96.62
380.606	92.62
380.831	75.62
381.057	93.62
381.282	98.62
381.507	99.62
381.733	97.62
381.958	87.62
382.184	85.62
382.409	102.62
382.634	86.62
382.86	96.62
383.085	84.62
383.31	97.62
383.535	100.62
383.761	100.62
383.986	102.62
384.211	93.62
384.436	91.62
384.662	102.62
384.887	90.62
385.112	92.62
385.337	93.62
385.562	104.62
385.787	92.62
386.013	103.62
386.238	87.62
386.463	83.62
386.688	98.62
386.913	83.62
387.138	97.62
387.363	95.62
387.588	88.62
387.813	85.62
388.038	104.62
388.263	88.62
388.488	96.62
388.713	102.62
388.938	90.62
389.163	92.62
389.387	91.62
389.612	99.62
389.837	96.62
390.062	106.62
390.287	90.62
390.512	104.62
390.736	96.62
390.961	118.62
391.186	96.62
391.411	102.62
391.636	118.62
391.86	108.62
392.085	101.62
392.31	111.62
392.534	84.62
392.759	94.62
392.984	101.62
393.208	94.62
393.433	96.62
393.658	97.62
393.882	105.62
394.107	101.62
394.331	108.62
394.556	101.62
394.78	97.62
395.005	106.62
395.229	101.62
395.454	93.62
395.678	91.62
395.903	91.62
396.127	100.62
396.352	95.62
396.576	111.62
396.801	101.62
397.025	105.62
397.249	99.62
397.474	113.62
397.698	94.62
397.922	103.62
398.147	92.62
398.371	98.62
398.595	111.62
398.82	87.62
399.044	109.62
399.268	112.62
399.492	115.62
399.717	116.62
399.941	111.62
400.165	119.62
400.389	112.62
400.613	113.62
400.837	112.62
401.062	118.62
401.286	117.62
401.51	112.62
401.734	114.62
401.958	110.62
402.182	101.62
402.406	99.62
402.63	108.62
402.854	115.62
403.078	92.62
403.302	119.62
403.526	95.62
403.75	97.62
403.974	112.62
404.198	115.62
404.422	124.62
404.645	115.62
404.869	114.62
405.093	109.62
405.317	114.62
405.541	115.62
405.765	117.62
405.988	114.62
406.212	115.62
406.436	106.62
406.66	110.62
406.883	116.62
407.107	116.62
407.331	117.62
407.555	115.62
407.778	118.62
408.002	104.62
408.226	102.62
408.449	96.62
408.673	105.62
408.896	112.62
409.12	119.62
409.344	103.62
409.567	107.62
409.791	116.62
410.014	118.62
410.238	119.62
410.461	103.62
410.685	122.62
410.908	107.62
411.132	117.62
411.355	107.62
411.578	120.62
411.802	119.62
412.025	116.62
412.249	105.62
412.472	117.62
412.695	115.62
412.919	99.62
413.142	95.62
413.365	120.62
413.589	119.62
413.812	103.62
414.035	117.62
414.258	119.62
414.482	108.62
414.705	113.62
414.928	105.62
415.151	111.62
415.374	113.62
415.597	101.62
415.821	98.62
416.044	129.62
416.267	126.62
416.49	106.62
416.713	119.62
416.936	110.62
417.159	116.62
417.382	119.62
417.605	114.62
417.828	111.62
418.051	129.62
418.274	111.62
418.497	107.62
418.72	121.62
418.943	121.62
419.166	97.62
419.389	111.62
419.611	121.62
419.834	130.62
420.057	125.62
420.28	114.62
420.503	110.62
420.726	113.62
420.948	90.62
421.171	108.62
421.394	110.62
421.617	118.62
421.839	119.62
422.062	108.62
422.285	131.62
422.507	115.62
422.73	114.62
422.953	112.62
423.175	109.62
423.398	110.62
423.621	119.62
423.843	120.62
424.066	121.62
424.288	108.62
424.511	116.62
424.733	120.62
424.956	126.62
425.178	124.62
425.401	106.62
425.623	111.62
425.846	103.62
426.068	120.62
426.291	115.62
426.513	121.62
426.735	127.62
426.958	113.62
427.18	122.62
427.402	107.62
427.625	104.62
427.847	108.62
428.069	114.62
428.292	123.62
428.514	120.62
428.736	120.62
428.958	116.62
429.181	120.62
429.403	125.62
429.625	104.62
429.847	109.62
430.069	100.62
430.292	103.62
430.514	121.62
430.736	123.62
430.958	120.62
431.18	109.62
431.402	117.62
431.624	121.62
431.846	111.62
432.068	124.62
432.29	113.62
432.512	109.62
432.734	115.62
432.956	121.62
433.178	121.62
433.4	129.62
433.622	108.62
433.844	94.62
434.066	106.62
434.287	104.62
434.509	102.62
434.731	115.62
434.953	108.62
435.175	116.62
435.397	121.62
435.618	115.62
435.84	98.62
436.062	118.62
436.284	116.62
436.505	123.62
436.727	107.62
436.949	108.62
437.17	120.62
437.392	106.62
437.614	98.62
437.835	107.62
438.057	95.62
438.278	106.62
438.5	120.62
438.721	120.62
438.943	115.62
439.165	113.62
439.386	125.62
439.608	124.62
439.829	109.62
440.05	113.62
440.272	113.62
440.493	119.62
440.715	115.62
440.936	103.62
441.158	123.62
441.379	131.62
441.6	125.62
441.822	121.62
442.043	116.62
442.264	121.62
442.486	128.62
442.707	117.62
442.928	124.62
443.149	115.62
443.371	114.62
443.592	119.62
443.813	123.62
444.034	123.62
444.255	117.62
444.476	125.62
444.698	113.62
444.919	127.62
445.14	232.62
445.361	179.62
445.582	109.62
445.803	123.62
446.024	122.62
446.245	114.62
446.466	113.62
446.687	112.62
446.908	127.62
447.129	125.62
447.35	116.62
447.571	117.62
447.792	120.62
448.013	109.62
448.234	139.62
448.455	111.62
448.675	120.62
448.896	108.62
449.117	111.62
449.338	104.62
449.559	128.62
449.779	122.62
450	121.62
450.221	119.62
450.442	119.62
450.662	109.62
450.883	100.62
451.104	118.62
451.324	116.62
451.545	114.62
451.766	114.62
451.986	99.62
452.207	123.62
452.428	100.62
452.648	111.62
452.869	107.62
453.089	107.62
453.31	99.62
453.53	109.62
453.751	116.62
453.971	103.62
454.192	101.62
454.412	108.62
454.633	104.62
454.853	116.62
455.073	104.62
455.294	102.62
455.514	103.62
455.734	116.62
455.955	113.62
456.175	118.62
456.395	97.62
456.616	93.62
456.836	87.62
457.056	115.62
457.276	90.62
457.497	99.62
457.717	100.62
457.937	114.62
458.157	104.62
458.377	111.62
458.598	108.62
458.818	104.62
459.038	119.62
459.258	101.62
459.478	102.62
459.698	108.62
459.918	115.62
460.138	106.62
460.358	104.62
460.578	127.62
460.798	122.62
461.018	119.62
461.238	115.62
461.458	120.62
461.678	106.62
461.898	117.62
462.118	108.62
462.338	108.62
462.558	112.62
462.777	123.62
462.997	129.62
463.217	121.62
463.437	112.62
463.657	120.62
463.876	118.62
464.096	122.62
464.316	127.62
464.536	118.62
464.755	135.62
464.975	123.62
465.195	118.62
465.414	111.62
465.634	117.62
465.854	127.62
466.073	108.62
466.293	108.62
466.512	121.62
466.732	113.62
466.951	103.62
467.171	118.62
467.391	108.62
467.61	115.62
467.829	124.62
468.049	120.62
468.268	121.62
468.488	124.62
468.707	108.62
468.927	109.62
469.146	105.62
469.365	119.62
469.585	96.62
469.804	111.62
470.023	121.62
470.243	117.62
470.462	130.62
470.681	123.62
470.901	126.62
471.12	131.62
471.339	128.62
471.558	128.62
471.777	124.62
471.997	101.62
472.216	106.62
472.435	122.62
472.654	97.62
472.873	99.62
473.092	101.62
473.311	116.62
473.53	113.62
473.749	110.62
473.968	119.62
474.187	115.62
474.406	105.62
474.625	111.62
474.844	102.62
475.063	123.62
475.282	103.62
475.501	117.62
475.72	108.62
475.939	121.62
476.158	113.62
476.377	112.62
476.596	111.62
476.814	114.62
477.033	119.62
477.252	109.62
477.471	127.62
477.69	117.62
477.908	113.62
478.127	124.62
478.346	130.62
478.564	127.62
478.783	127.62
479.002	122.62
479.22	123.62
479.439	123.62
479.658	135.62
479.876	123.62
480.095	119.62
480.313	113.62
480.532	129.62
480.751	115.62
480.969	114.62
481.188	112.62
481.406	123.62
481.624	117.62
481.843	99.62
482.061	106.62
482.28	132.62
482.498	108.62
482.717	121.62
482.935	121.62
483.153	121.62
483.372	140.62
483.59	114.62
483.808	133.62
484.027	124.62
484.245	126.62
484.463	124.62
484.681	115.62
484.9	136.62
485.118	140.62
485.336	130.62
485.554	124.62
485.772	113.62
485.99	133.62
486.209	104.62
486.427	114.62
486.645	117.62
486.863	127.62
487.081	142.62
487.299	126.62
487.517	117.62
487.735	139.62
487.953	138.62
488.171	146.62
488.389	134.62
488.607	124.62
488.825	117.62
489.043	123.62
489.261	139.62
489.479	135.62
489.696	136.62
489.914	120.62
490.132	132.62
490.35	139.62
490.568	139.62
490.786	132.62
491.003	154.62
491.221	147.62
491.439	150.62
491.657	151.62
491.874	171.62
492.092	167.62
492.31	175.62
492.527	166.62
492.745	147.62
492.963	161.62
493.18	150.62
493.398	154.62
493.615	156.62
493.833	154.62
494.05	146.62
494.268	140.62
494.485	165.62
494.703	151.62
494.92	151.62
495.138	156.62
495.355	155.62
495.573	148.62
495.79	139.62
496.008	143.62
496.225	155.62
496.442	149.62
496.66	141.62
496.877	147.62
497.094	141.62
497.312	157.62
497.529	147.62
497.746	152.62
497.963	135.62
498.181	150.62
498.398	152.62
498.615	146.62
498.832	143.62
499.049	149.62
499.267	152.62
499.484	160.62
499.701	176.62
499.918	204.62
500.135	205.62
500.352	228.62
500.569	218.62
500.786	219.62
501.003	226.62
501.22	199.62
501.437	188.62
501.654	170.62
501.871	158.62
502.088	164.62
502.305	159.62
502.522	145.62
502.739	150.62
502.956	135.62
503.172	137.62
503.389	132.62
503.606	135.62
503.823	139.62
504.04	137.62
504.256	144.62
504.473	139.62
504.69	147.62
504.907	134.62
505.123	127.62
505.34	143.62
505.557	142.62
505.773	127.62
505.99	114.62
506.207	128.62
506.423	132.62
506.64	136.62
506.856	124.62
507.073	127.62
507.289	129.62
507.506	134.62
507.722	136.62
507.939	129.62
508.155	112.62
508.372	115.62
508.588	120.62
508.805	111.62
509.021	147.62
509.238	130.62
509.454	118.62
509.67	111.62
509.887	120.62
510.103	112.62
510.319	116.62
510.536	117.62
510.752	118.62
510.968	113.62
511.184	98.62
511.401	123.62
