Data from StandardFe(NO3)3.TAE.3%Agarose.FlatLispGreen.Lamp.Energy10.07252019_HRD10591_11-53-16-439.txt Node
Date: Thu Jul 25 11:53:16 EDT 2019
User: cochatt
Spectrometer: HR+D1059
Trigger mode: 1
Integration Time (sec): 1.000000E-1
Scans to average: 1
Electric dark correction enabled: true
Nonlinearity correction enabled: false
Boxcar width: 0
XAxis mode: Wavelengths
Number of Pixels in Spectrum: 2048
>>>>>Begin Spectral Data<<<<<
223.165	-14.81
223.4	-14.81
223.635	-14.81
223.869	-22.81
224.104	-15.81
224.338	-2.81
224.573	-22.81
224.808	-17.81
225.042	-11.81
225.277	-1.81
225.511	11.19
225.746	11.19
225.98	-3.81
226.215	3.19
226.449	19.19
226.683	29.19
226.918	12.19
227.152	28.19
227.387	19.19
227.621	29.19
227.856	35.19
228.09	41.19
228.324	49.19
228.559	54.19
228.793	52.19
229.027	45.19
229.262	57.19
229.496	82.19
229.73	75.19
229.964	66.19
230.199	74.19
230.433	73.19
230.667	73.19
230.901	77.19
231.136	87.19
231.37	67.19
231.604	79.19
231.838	86.19
232.072	76.19
232.306	75.19
232.541	84.19
232.775	76.19
233.009	97.19
233.243	92.19
233.477	80.19
233.711	93.19
233.945	76.19
234.179	84.19
234.413	70.19
234.647	84.19
234.881	85.19
235.115	84.19
235.349	70.19
235.583	84.19
235.817	86.19
236.051	83.19
236.285	69.19
236.519	81.19
236.753	79.19
236.987	80.19
237.221	68.19
237.455	83.19
237.689	81.19
237.922	79.19
238.156	88.19
238.39	84.19
238.624	74.19
238.858	82.19
239.091	80.19
239.325	75.19
239.559	84.19
239.793	79.19
240.027	79.19
240.26	65.19
240.494	70.19
240.728	78.19
240.961	94.19
241.195	81.19
241.429	83.19
241.662	74.19
241.896	77.19
242.13	89.19
242.363	74.19
242.597	74.19
242.83	72.19
243.064	74.19
243.298	67.19
243.531	74.19
243.765	78.19
243.998	73.19
244.232	85.19
244.465	74.19
244.699	67.19
244.932	94.19
245.166	72.19
245.399	71.19
245.633	75.19
245.866	90.19
246.099	61.19
246.333	68.19
246.566	78.19
246.8	81.19
247.033	75.19
247.266	88.19
247.5	69.19
247.733	87.19
247.966	74.19
248.2	76.19
248.433	88.19
248.666	74.19
248.899	80.19
249.133	95.19
249.366	98.19
249.599	83.19
249.832	66.19
250.066	84.19
250.299	65.19
250.532	103.19
250.765	80.19
250.998	97.19
251.231	69.19
251.465	82.19
251.698	79.19
251.931	84.19
252.164	74.19
252.397	88.19
252.63	84.19
252.863	75.19
253.096	84.19
253.329	79.19
253.562	88.19
253.795	81.19
254.028	96.19
254.261	89.19
254.494	71.19
254.727	76.19
254.96	83.19
255.193	88.19
255.426	68.19
255.659	84.19
255.892	94.19
256.124	79.19
256.357	78.19
256.59	80.19
256.823	81.19
257.056	79.19
257.289	84.19
257.521	89.19
257.754	81.19
257.987	80.19
258.22	85.19
258.452	85.19
258.685	84.19
258.918	76.19
259.151	86.19
259.383	83.19
259.616	79.19
259.849	98.19
260.081	85.19
260.314	83.19
260.547	90.19
260.779	78.19
261.012	88.19
261.244	89.19
261.477	87.19
261.71	90.19
261.942	77.19
262.175	90.19
262.407	79.19
262.64	77.19
262.872	88.19
263.105	84.19
263.337	86.19
263.57	79.19
263.802	86.19
264.035	79.19
264.267	70.19
264.499	91.19
264.732	98.19
264.964	74.19
265.197	93.19
265.429	87.19
265.661	94.19
265.894	86.19
266.126	91.19
266.358	81.19
266.591	82.19
266.823	89.19
267.055	92.19
267.287	77.19
267.52	75.19
267.752	82.19
267.984	79.19
268.216	80.19
268.448	78.19
268.681	83.19
268.913	76.19
269.145	71.19
269.377	90.19
269.609	76.19
269.841	83.19
270.073	84.19
270.306	86.19
270.538	83.19
270.77	84.19
271.002	89.19
271.234	76.19
271.466	85.19
271.698	92.19
271.93	78.19
272.162	80.19
272.394	94.19
272.626	93.19
272.858	75.19
273.09	75.19
273.322	77.19
273.553	79.19
273.785	82.19
274.017	96.19
274.249	89.19
274.481	88.19
274.713	76.19
274.945	90.19
275.176	74.19
275.408	86.19
275.64	92.19
275.872	81.19
276.104	95.19
276.335	72.19
276.567	71.19
276.799	73.19
277.031	83.19
277.262	92.19
277.494	78.19
277.726	91.19
277.957	96.19
278.189	85.19
278.421	99.19
278.652	93.19
278.884	84.19
279.115	83.19
279.347	90.19
279.579	84.19
279.81	88.19
280.042	93.19
280.273	84.19
280.505	92.19
280.736	81.19
280.968	85.19
281.199	85.19
281.431	90.19
281.662	91.19
281.894	89.19
282.125	83.19
282.356	106.19
282.588	89.19
282.819	73.19
283.051	91.19
283.282	82.19
283.513	91.19
283.745	79.19
283.976	90.19
284.207	82.19
284.439	78.19
284.67	86.19
284.901	92.19
285.132	93.19
285.364	76.19
285.595	66.19
285.826	68.19
286.057	94.19
286.288	85.19
286.52	94.19
286.751	84.19
286.982	84.19
287.213	77.19
287.444	88.19
287.675	96.19
287.906	78.19
288.138	83.19
288.369	84.19
288.6	76.19
288.831	83.19
289.062	81.19
289.293	84.19
289.524	84.19
289.755	81.19
289.986	94.19
290.217	77.19
290.448	95.19
290.679	80.19
290.91	99.19
291.141	84.19
291.371	81.19
291.602	85.19
291.833	89.19
292.064	81.19
292.295	90.19
292.526	79.19
292.757	79.19
292.987	85.19
293.218	77.19
293.449	82.19
293.68	77.19
293.91	76.19
294.141	95.19
294.372	73.19
294.603	93.19
294.833	117.19
295.064	92.19
295.295	79.19
295.525	100.19
295.756	88.19
295.987	88.19
296.217	76.19
296.448	79.19
296.679	70.19
296.909	79.19
297.14	85.19
297.37	92.19
297.601	83.19
297.831	78.19
298.062	70.19
298.292	74.19
298.523	73.19
298.753	79.19
298.984	83.19
299.214	72.19
299.445	74.19
299.675	78.19
299.905	81.19
300.136	76.19
300.366	93.19
300.597	90.19
300.827	85.19
301.057	77.19
301.288	82.19
301.518	93.19
301.748	76.19
301.979	87.19
302.209	91.19
302.439	89.19
302.669	84.19
302.9	100.19
303.13	87.19
303.36	103.19
303.59	94.19
303.82	85.19
304.051	97.19
304.281	82.19
304.511	97.19
304.741	99.19
304.971	93.19
305.201	91.19
305.431	91.19
305.661	89.19
305.891	87.19
306.121	82.19
306.352	83.19
306.582	84.19
306.812	92.19
307.042	79.19
307.272	83.19
307.502	75.19
307.731	79.19
307.961	78.19
308.191	87.19
308.421	88.19
308.651	74.19
308.881	95.19
309.111	91.19
309.341	84.19
309.571	74.19
309.8	77.19
310.03	84.19
310.26	94.19
310.49	62.19
310.72	73.19
310.949	79.19
311.179	90.19
311.409	82.19
311.639	84.19
311.868	84.19
312.098	81.19
312.328	89.19
312.557	77.19
312.787	83.19
313.017	84.19
313.246	79.19
313.476	74.19
313.706	75.19
313.935	103.19
314.165	87.19
314.394	91.19
314.624	88.19
314.853	85.19
315.083	71.19
315.312	77.19
315.542	91.19
315.771	87.19
316.001	86.19
316.23	79.19
316.46	87.19
316.689	107.19
316.919	110.19
317.148	96.19
317.377	89.19
317.607	90.19
317.836	98.19
318.065	71.19
318.295	90.19
318.524	89.19
318.753	89.19
318.983	88.19
319.212	100.19
319.441	85.19
319.67	82.19
319.9	78.19
320.129	84.19
320.358	83.19
320.587	90.19
320.816	91.19
321.046	90.19
321.275	91.19
321.504	97.19
321.733	84.19
321.962	86.19
322.191	97.19
322.42	82.19
322.649	79.19
322.878	85.19
323.108	90.19
323.337	79.19
323.566	91.19
323.795	92.19
324.024	90.19
324.253	93.19
324.482	83.19
324.71	95.19
324.939	81.19
325.168	76.19
325.397	88.19
325.626	91.19
325.855	72.19
326.084	85.19
326.313	96.19
326.542	103.19
326.77	87.19
326.999	86.19
327.228	84.19
327.457	76.19
327.686	88.19
327.914	79.19
328.143	88.19
328.372	99.19
328.6	78.19
328.829	96.19
329.058	100.19
329.287	97.19
329.515	89.19
329.744	94.19
329.972	83.19
330.201	83.19
330.43	97.19
330.658	77.19
330.887	85.19
331.115	86.19
331.344	88.19
331.572	77.19
331.801	83.19
332.03	81.19
332.258	86.19
332.486	74.19
332.715	68.19
332.943	80.19
333.172	95.19
333.4	88.19
333.629	98.19
333.857	93.19
334.085	79.19
334.314	87.19
334.542	77.19
334.771	90.19
334.999	80.19
335.227	71.19
335.455	94.19
335.684	83.19
335.912	66.19
336.14	93.19
336.369	70.19
336.597	97.19
336.825	95.19
337.053	94.19
337.281	94.19
337.51	82.19
337.738	87.19
337.966	89.19
338.194	70.19
338.422	89.19
338.65	106.19
338.878	88.19
339.106	88.19
339.334	93.19
339.562	71.19
339.79	74.19
340.018	76.19
340.246	86.19
340.474	84.19
340.702	84.19
340.93	85.19
341.158	71.19
341.386	94.19
341.614	84.19
341.842	94.19
342.07	81.19
342.298	89.19
342.526	71.19
342.754	95.19
342.981	75.19
343.209	89.19
343.437	85.19
343.665	81.19
343.893	79.19
344.12	94.19
344.348	72.19
344.576	79.19
344.804	81.19
345.031	93.19
345.259	74.19
345.487	83.19
345.714	81.19
345.942	65.19
346.17	96.19
346.397	79.19
346.625	93.19
346.853	77.19
347.08	95.19
347.308	89.19
347.535	83.19
347.763	93.19
347.99	79.19
348.218	72.19
348.445	73.19
348.673	79.19
348.9	96.19
349.128	87.19
349.355	90.19
349.583	93.19
349.81	88.19
350.037	88.19
350.265	87.19
350.492	81.19
350.72	73.19
350.947	86.19
351.174	90.19
351.402	99.19
351.629	99.19
351.856	97.19
352.083	86.19
352.311	74.19
352.538	83.19
352.765	85.19
352.992	74.19
353.22	92.19
353.447	99.19
353.674	84.19
353.901	95.19
354.128	95.19
354.355	76.19
354.583	73.19
354.81	87.19
355.037	92.19
355.264	95.19
355.491	78.19
355.718	95.19
355.945	85.19
356.172	93.19
356.399	84.19
356.626	90.19
356.853	83.19
357.08	90.19
357.307	101.19
357.534	91.19
357.761	84.19
357.988	95.19
358.215	87.19
358.441	77.19
358.668	77.19
358.895	90.19
359.122	77.19
359.349	90.19
359.576	82.19
359.802	85.19
360.029	101.19
360.256	94.19
360.483	86.19
360.709	77.19
360.936	90.19
361.163	97.19
361.39	93.19
361.616	84.19
361.843	88.19
362.07	81.19
362.296	77.19
362.523	88.19
362.749	93.19
362.976	84.19
363.203	82.19
363.429	75.19
363.656	90.19
363.882	91.19
364.109	85.19
364.335	82.19
364.562	79.19
364.788	87.19
365.015	109.19
365.241	109.19
365.468	94.19
365.694	104.19
365.92	87.19
366.147	85.19
366.373	78.19
366.599	85.19
366.826	81.19
367.052	80.19
367.278	86.19
367.505	73.19
367.731	70.19
367.957	94.19
368.184	94.19
368.41	79.19
368.636	93.19
368.862	97.19
369.089	87.19
369.315	79.19
369.541	106.19
369.767	86.19
369.993	82.19
370.219	81.19
370.445	91.19
370.672	85.19
370.898	99.19
371.124	86.19
371.35	98.19
371.576	91.19
371.802	95.19
372.028	91.19
372.254	86.19
372.48	89.19
372.706	91.19
372.932	90.19
373.158	83.19
373.384	83.19
373.61	90.19
373.835	88.19
374.061	67.19
374.287	87.19
374.513	97.19
374.739	103.19
374.965	91.19
375.191	93.19
375.416	87.19
375.642	94.19
375.868	97.19
376.094	94.19
376.319	89.19
376.545	84.19
376.771	82.19
376.997	93.19
377.222	104.19
377.448	75.19
377.674	102.19
377.899	92.19
378.125	88.19
378.35	93.19
378.576	78.19
378.802	78.19
379.027	98.19
379.253	103.19
379.478	100.19
379.704	94.19
379.929	100.19
380.155	100.19
380.38	100.19
380.606	90.19
380.831	101.19
381.057	93.19
381.282	95.19
381.507	92.19
381.733	99.19
381.958	106.19
382.184	98.19
382.409	113.19
382.634	99.19
382.86	103.19
383.085	99.19
383.31	95.19
383.535	95.19
383.761	86.19
383.986	94.19
384.211	101.19
384.436	89.19
384.662	97.19
384.887	92.19
385.112	83.19
385.337	87.19
385.562	75.19
385.787	90.19
386.013	110.19
386.238	95.19
386.463	101.19
386.688	104.19
386.913	100.19
387.138	96.19
387.363	95.19
387.588	100.19
387.813	89.19
388.038	100.19
388.263	98.19
388.488	93.19
388.713	108.19
388.938	98.19
389.163	94.19
389.387	86.19
389.612	104.19
389.837	97.19
390.062	82.19
390.287	91.19
390.512	97.19
390.736	98.19
390.961	95.19
391.186	92.19
391.411	93.19
391.636	97.19
391.86	89.19
392.085	103.19
392.31	96.19
392.534	102.19
392.759	101.19
392.984	109.19
393.208	108.19
393.433	117.19
393.658	88.19
393.882	97.19
394.107	106.19
394.331	113.19
394.556	104.19
394.78	106.19
395.005	119.19
395.229	115.19
395.454	125.19
395.678	117.19
395.903	91.19
396.127	105.19
396.352	123.19
396.576	108.19
396.801	99.19
397.025	111.19
397.249	107.19
397.474	114.19
397.698	107.19
397.922	94.19
398.147	117.19
398.371	102.19
398.595	101.19
398.82	92.19
399.044	117.19
399.268	123.19
399.492	113.19
399.717	106.19
399.941	113.19
400.165	122.19
400.389	122.19
400.613	117.19
400.837	112.19
401.062	132.19
401.286	98.19
401.51	106.19
401.734	97.19
401.958	109.19
402.182	108.19
402.406	117.19
402.63	111.19
402.854	110.19
403.078	118.19
403.302	101.19
403.526	101.19
403.75	114.19
403.974	115.19
404.198	118.19
404.422	125.19
404.645	119.19
404.869	109.19
405.093	101.19
405.317	99.19
405.541	95.19
405.765	114.19
405.988	113.19
406.212	115.19
406.436	102.19
406.66	104.19
406.883	105.19
407.107	108.19
407.331	120.19
407.555	117.19
407.778	118.19
408.002	122.19
408.226	113.19
408.449	113.19
408.673	121.19
408.896	111.19
409.12	127.19
409.344	117.19
409.567	113.19
409.791	119.19
410.014	134.19
410.238	111.19
410.461	108.19
410.685	116.19
410.908	126.19
411.132	129.19
411.355	102.19
411.578	113.19
411.802	112.19
412.025	105.19
412.249	118.19
412.472	119.19
412.695	116.19
412.919	108.19
413.142	125.19
413.365	115.19
413.589	117.19
413.812	106.19
414.035	112.19
414.258	109.19
414.482	114.19
414.705	113.19
414.928	121.19
415.151	105.19
415.374	133.19
415.597	121.19
415.821	115.19
416.044	109.19
416.267	106.19
416.49	118.19
416.713	125.19
416.936	114.19
417.159	109.19
417.382	115.19
417.605	109.19
417.828	118.19
418.051	114.19
418.274	110.19
418.497	128.19
418.72	116.19
418.943	97.19
419.166	121.19
419.389	120.19
419.611	120.19
419.834	114.19
420.057	121.19
420.28	111.19
420.503	121.19
420.726	133.19
420.948	113.19
421.171	117.19
421.394	122.19
421.617	122.19
421.839	118.19
422.062	111.19
422.285	110.19
422.507	119.19
422.73	116.19
422.953	121.19
423.175	118.19
423.398	125.19
423.621	111.19
423.843	116.19
424.066	112.19
424.288	122.19
424.511	120.19
424.733	118.19
424.956	118.19
425.178	136.19
425.401	125.19
425.623	118.19
425.846	106.19
426.068	115.19
426.291	114.19
426.513	97.19
426.735	122.19
426.958	124.19
427.18	126.19
427.402	114.19
427.625	113.19
427.847	124.19
428.069	107.19
428.292	122.19
428.514	107.19
428.736	101.19
428.958	101.19
429.181	113.19
429.403	110.19
429.625	123.19
429.847	115.19
430.069	106.19
430.292	109.19
430.514	110.19
430.736	117.19
430.958	109.19
431.18	120.19
431.402	114.19
431.624	117.19
431.846	115.19
432.068	106.19
432.29	109.19
432.512	112.19
432.734	117.19
432.956	113.19
433.178	117.19
433.4	120.19
433.622	115.19
433.844	124.19
434.066	111.19
434.287	129.19
434.509	107.19
434.731	106.19
434.953	116.19
435.175	115.19
435.397	115.19
435.618	119.19
435.84	116.19
436.062	113.19
436.284	115.19
436.505	110.19
436.727	123.19
436.949	117.19
437.17	124.19
437.392	101.19
437.614	109.19
437.835	111.19
438.057	117.19
438.278	125.19
438.5	109.19
438.721	113.19
438.943	122.19
439.165	123.19
439.386	120.19
439.608	125.19
439.829	120.19
440.05	110.19
440.272	125.19
440.493	127.19
440.715	145.19
440.936	122.19
441.158	122.19
441.379	130.19
441.6	136.19
441.822	151.19
442.043	125.19
442.264	145.19
442.486	119.19
442.707	132.19
442.928	118.19
443.149	122.19
443.371	122.19
443.592	113.19
443.813	125.19
444.034	114.19
444.255	134.19
444.476	132.19
444.698	142.19
444.919	147.19
445.14	253.19
445.361	173.19
445.582	133.19
445.803	123.19
446.024	117.19
446.245	136.19
446.466	143.19
446.687	125.19
446.908	117.19
447.129	121.19
447.35	125.19
447.571	124.19
447.792	119.19
448.013	118.19
448.234	127.19
448.455	110.19
448.675	121.19
448.896	130.19
449.117	126.19
449.338	114.19
449.559	115.19
449.779	125.19
450	119.19
450.221	105.19
450.442	105.19
450.662	110.19
450.883	117.19
451.104	119.19
451.324	125.19
451.545	102.19
451.766	117.19
451.986	104.19
452.207	113.19
452.428	97.19
452.648	109.19
452.869	115.19
453.089	99.19
453.31	107.19
453.53	93.19
453.751	100.19
453.971	107.19
454.192	125.19
454.412	99.19
454.633	107.19
454.853	102.19
455.073	113.19
455.294	99.19
455.514	113.19
455.734	107.19
455.955	116.19
456.175	117.19
456.395	125.19
456.616	94.19
456.836	105.19
457.056	105.19
457.276	111.19
457.497	108.19
457.717	114.19
457.937	99.19
458.157	116.19
458.377	103.19
458.598	116.19
458.818	121.19
459.038	104.19
459.258	111.19
459.478	107.19
459.698	108.19
459.918	105.19
460.138	105.19
460.358	119.19
460.578	118.19
460.798	119.19
461.018	106.19
461.238	118.19
461.458	132.19
461.678	103.19
461.898	112.19
462.118	125.19
462.338	119.19
462.558	124.19
462.777	118.19
462.997	126.19
463.217	128.19
463.437	134.19
463.657	120.19
463.876	136.19
464.096	132.19
464.316	126.19
464.536	124.19
464.755	116.19
464.975	129.19
465.195	135.19
465.414	122.19
465.634	129.19
465.854	118.19
466.073	131.19
466.293	111.19
466.512	114.19
466.732	105.19
466.951	113.19
467.171	125.19
467.391	129.19
467.61	116.19
467.829	125.19
468.049	125.19
468.268	105.19
468.488	120.19
468.707	123.19
468.927	129.19
469.146	128.19
469.365	125.19
469.585	125.19
469.804	123.19
470.023	125.19
470.243	121.19
470.462	115.19
470.681	123.19
470.901	119.19
471.12	133.19
471.339	121.19
471.558	135.19
471.777	132.19
471.997	117.19
472.216	126.19
472.435	114.19
472.654	108.19
472.873	107.19
473.092	116.19
473.311	129.19
473.53	110.19
473.749	115.19
473.968	115.19
474.187	112.19
474.406	109.19
474.625	122.19
474.844	125.19
475.063	106.19
475.282	111.19
475.501	114.19
475.72	109.19
475.939	121.19
476.158	118.19
476.377	121.19
476.596	111.19
476.814	113.19
477.033	103.19
477.252	118.19
477.471	135.19
477.69	121.19
477.908	142.19
478.127	138.19
478.346	117.19
478.564	126.19
478.783	121.19
479.002	125.19
479.22	137.19
479.439	120.19
479.658	125.19
479.876	125.19
480.095	118.19
480.313	127.19
480.532	120.19
480.751	125.19
480.969	129.19
481.188	115.19
481.406	118.19
481.624	105.19
481.843	108.19
482.061	115.19
482.28	125.19
482.498	115.19
482.717	116.19
482.935	116.19
483.153	129.19
483.372	152.19
483.59	131.19
483.808	137.19
484.027	152.19
484.245	115.19
484.463	137.19
484.681	163.19
484.9	129.19
485.118	137.19
485.336	135.19
485.554	124.19
485.772	113.19
485.99	119.19
486.209	121.19
486.427	117.19
486.645	133.19
486.863	134.19
487.081	120.19
487.299	125.19
487.517	131.19
487.735	142.19
487.953	152.19
488.171	169.19
488.389	133.19
488.607	134.19
488.825	123.19
489.043	142.19
489.261	132.19
489.479	121.19
489.696	120.19
489.914	130.19
490.132	142.19
490.35	135.19
490.568	161.19
490.786	161.19
491.003	158.19
491.221	151.19
491.439	159.19
491.657	153.19
491.874	177.19
492.092	172.19
492.31	190.19
492.527	175.19
492.745	161.19
492.963	147.19
493.18	162.19
493.398	143.19
493.615	158.19
493.833	152.19
494.05	151.19
494.268	155.19
494.485	154.19
494.703	149.19
494.92	158.19
495.138	151.19
495.355	143.19
495.573	152.19
495.79	155.19
496.008	140.19
496.225	141.19
496.442	154.19
496.66	172.19
496.877	160.19
497.094	159.19
497.312	159.19
497.529	159.19
497.746	166.19
497.963	147.19
498.181	135.19
498.398	134.19
498.615	130.19
498.832	170.19
499.049	142.19
499.267	169.19
499.484	149.19
499.701	180.19
499.918	195.19
500.135	198.19
500.352	221.19
500.569	235.19
500.786	215.19
501.003	210.19
501.22	206.19
501.437	189.19
501.654	177.19
501.871	171.19
502.088	172.19
502.305	173.19
502.522	160.19
502.739	147.19
502.956	141.19
503.172	151.19
503.389	150.19
503.606	132.19
503.823	147.19
504.04	138.19
504.256	145.19
504.473	153.19
504.69	133.19
504.907	146.19
505.123	151.19
505.34	131.19
505.557	137.19
505.773	127.19
505.99	141.19
506.207	126.19
506.423	126.19
506.64	136.19
506.856	130.19
507.073	134.19
507.289	123.19
507.506	125.19
507.722	116.19
507.939	126.19
508.155	128.19
508.372	128.19
508.588	122.19
508.805	128.19
509.021	133.19
509.238	120.19
509.454	121.19
509.67	130.19
509.887	121.19
510.103	120.19
510.319	114.19
510.536	131.19
510.752	120.19
510.968	133.19
511.184	102.19
