Data from StandardFe(NO3)3.TAE.3%Agarose.FlatLispGreen.Lamp.Energy10.07252019_HRD10591_11-54-27-440.txt Node
Date: Thu Jul 25 11:54:27 EDT 2019
User: cochatt
Spectrometer: HR+D1059
Trigger mode: 1
Integration Time (sec): 1.000000E-1
Scans to average: 1
Electric dark correction enabled: true
Nonlinearity correction enabled: false
Boxcar width: 0
XAxis mode: Wavelengths
Number of Pixels in Spectrum: 2048
>>>>>Begin Spectral Data<<<<<
223.165	-13.38
223.4	-13.38
223.635	-13.38
223.869	-13.38
224.104	-24.38
224.338	-19.38
224.573	-10.38
224.808	-13.38
225.042	6.62
225.277	-16.38
225.511	7.62
225.746	5.62
225.98	-7.38
226.215	6.62
226.449	18.62
226.683	21.62
226.918	16.62
227.152	34.62
227.387	33.62
227.621	25.62
227.856	32.62
228.09	43.62
228.324	61.62
228.559	48.62
228.793	67.62
229.027	51.62
229.262	64.62
229.496	58.62
229.73	65.62
229.964	64.62
230.199	73.62
230.433	63.62
230.667	67.62
230.901	80.62
231.136	87.62
231.37	80.62
231.604	67.62
231.838	84.62
232.072	74.62
232.306	84.62
232.541	82.62
232.775	82.62
233.009	85.62
233.243	90.62
233.477	79.62
233.711	89.62
233.945	80.62
234.179	81.62
234.413	90.62
234.647	88.62
234.881	82.62
235.115	74.62
235.349	78.62
235.583	78.62
235.817	90.62
236.051	82.62
236.285	84.62
236.519	84.62
236.753	71.62
236.987	76.62
237.221	87.62
237.455	77.62
237.689	75.62
237.922	87.62
238.156	69.62
238.39	70.62
238.624	83.62
238.858	73.62
239.091	69.62
239.325	77.62
239.559	76.62
239.793	70.62
240.027	80.62
240.26	60.62
240.494	77.62
240.728	68.62
240.961	80.62
241.195	78.62
241.429	84.62
241.662	76.62
241.896	70.62
242.13	69.62
242.363	78.62
242.597	84.62
242.83	83.62
243.064	89.62
243.298	74.62
243.531	80.62
243.765	76.62
243.998	82.62
244.232	74.62
244.465	80.62
244.699	65.62
244.932	71.62
245.166	83.62
245.399	89.62
245.633	82.62
245.866	74.62
246.099	64.62
246.333	78.62
246.566	76.62
246.8	90.62
247.033	73.62
247.266	62.62
247.5	70.62
247.733	84.62
247.966	75.62
248.2	76.62
248.433	92.62
248.666	70.62
248.899	85.62
249.133	82.62
249.366	92.62
249.599	75.62
249.832	83.62
250.066	64.62
250.299	64.62
250.532	74.62
250.765	73.62
250.998	67.62
251.231	67.62
251.465	78.62
251.698	80.62
251.931	68.62
252.164	69.62
252.397	67.62
252.63	78.62
252.863	74.62
253.096	71.62
253.329	82.62
253.562	80.62
253.795	74.62
254.028	82.62
254.261	75.62
254.494	93.62
254.727	86.62
254.96	76.62
255.193	75.62
255.426	85.62
255.659	90.62
255.892	76.62
256.124	69.62
256.357	71.62
256.59	74.62
256.823	74.62
257.056	76.62
257.289	89.62
257.521	74.62
257.754	77.62
257.987	82.62
258.22	94.62
258.452	76.62
258.685	69.62
258.918	82.62
259.151	76.62
259.383	83.62
259.616	83.62
259.849	69.62
260.081	70.62
260.314	82.62
260.547	79.62
260.779	70.62
261.012	72.62
261.244	81.62
261.477	85.62
261.71	73.62
261.942	81.62
262.175	92.62
262.407	68.62
262.64	78.62
262.872	83.62
263.105	76.62
263.337	65.62
263.57	89.62
263.802	73.62
264.035	95.62
264.267	98.62
264.499	90.62
264.732	80.62
264.964	87.62
265.197	100.62
265.429	87.62
265.661	84.62
265.894	74.62
266.126	91.62
266.358	71.62
266.591	90.62
266.823	84.62
267.055	76.62
267.287	82.62
267.52	78.62
267.752	88.62
267.984	72.62
268.216	83.62
268.448	78.62
268.681	83.62
268.913	91.62
269.145	87.62
269.377	83.62
269.609	82.62
269.841	84.62
270.073	80.62
270.306	88.62
270.538	88.62
270.77	66.62
271.002	87.62
271.234	76.62
271.466	78.62
271.698	67.62
271.93	80.62
272.162	92.62
272.394	82.62
272.626	83.62
272.858	87.62
273.09	84.62
273.322	87.62
273.553	82.62
273.785	88.62
274.017	66.62
274.249	78.62
274.481	90.62
274.713	70.62
274.945	85.62
275.176	84.62
275.408	82.62
275.64	84.62
275.872	88.62
276.104	80.62
276.335	71.62
276.567	70.62
276.799	80.62
277.031	74.62
277.262	77.62
277.494	80.62
277.726	90.62
277.957	86.62
278.189	87.62
278.421	90.62
278.652	83.62
278.884	88.62
279.115	83.62
279.347	69.62
279.579	93.62
279.81	91.62
280.042	72.62
280.273	84.62
280.505	74.62
280.736	81.62
280.968	73.62
281.199	85.62
281.431	74.62
281.662	84.62
281.894	99.62
282.125	86.62
282.356	78.62
282.588	77.62
282.819	78.62
283.051	88.62
283.282	87.62
283.513	81.62
283.745	72.62
283.976	85.62
284.207	66.62
284.439	76.62
284.67	88.62
284.901	90.62
285.132	91.62
285.364	86.62
285.595	67.62
285.826	80.62
286.057	89.62
286.288	82.62
286.52	84.62
286.751	81.62
286.982	84.62
287.213	86.62
287.444	77.62
287.675	83.62
287.906	82.62
288.138	85.62
288.369	95.62
288.6	87.62
288.831	82.62
289.062	96.62
289.293	86.62
289.524	90.62
289.755	87.62
289.986	78.62
290.217	76.62
290.448	74.62
290.679	76.62
290.91	86.62
291.141	88.62
291.371	82.62
291.602	81.62
291.833	82.62
292.064	84.62
292.295	67.62
292.526	77.62
292.757	89.62
292.987	79.62
293.218	78.62
293.449	82.62
293.68	69.62
293.91	84.62
294.141	77.62
294.372	87.62
294.603	83.62
294.833	82.62
295.064	87.62
295.295	83.62
295.525	86.62
295.756	94.62
295.987	83.62
296.217	82.62
296.448	86.62
296.679	89.62
296.909	75.62
297.14	91.62
297.37	94.62
297.601	86.62
297.831	85.62
298.062	89.62
298.292	82.62
298.523	88.62
298.753	74.62
298.984	83.62
299.214	84.62
299.445	81.62
299.675	90.62
299.905	84.62
300.136	78.62
300.366	91.62
300.597	85.62
300.827	79.62
301.057	79.62
301.288	81.62
301.518	99.62
301.748	103.62
301.979	83.62
302.209	80.62
302.439	79.62
302.669	100.62
302.9	86.62
303.13	74.62
303.36	81.62
303.59	82.62
303.82	87.62
304.051	89.62
304.281	81.62
304.511	79.62
304.741	82.62
304.971	74.62
305.201	79.62
305.431	82.62
305.661	82.62
305.891	79.62
306.121	80.62
306.352	86.62
306.582	77.62
306.812	75.62
307.042	81.62
307.272	64.62
307.502	91.62
307.731	77.62
307.961	70.62
308.191	73.62
308.421	76.62
308.651	80.62
308.881	80.62
309.111	88.62
309.341	77.62
309.571	81.62
309.8	87.62
310.03	92.62
310.26	80.62
310.49	94.62
310.72	78.62
310.949	77.62
311.179	86.62
311.409	82.62
311.639	83.62
311.868	97.62
312.098	94.62
312.328	91.62
312.557	66.62
312.787	82.62
313.017	84.62
313.246	77.62
313.476	94.62
313.706	81.62
313.935	73.62
314.165	79.62
314.394	76.62
314.624	76.62
314.853	82.62
315.083	84.62
315.312	73.62
315.542	72.62
315.771	78.62
316.001	95.62
316.23	80.62
316.46	85.62
316.689	85.62
316.919	85.62
317.148	83.62
317.377	77.62
317.607	78.62
317.836	82.62
318.065	90.62
318.295	76.62
318.524	99.62
318.753	84.62
318.983	83.62
319.212	94.62
319.441	87.62
319.67	80.62
319.9	77.62
320.129	90.62
320.358	88.62
320.587	83.62
320.816	87.62
321.046	89.62
321.275	75.62
321.504	88.62
321.733	73.62
321.962	82.62
322.191	88.62
322.42	82.62
322.649	64.62
322.878	89.62
323.108	71.62
323.337	64.62
323.566	78.62
323.795	86.62
324.024	85.62
324.253	79.62
324.482	82.62
324.71	78.62
324.939	81.62
325.168	100.62
325.397	80.62
325.626	74.62
325.855	82.62
326.084	71.62
326.313	86.62
326.542	80.62
326.77	89.62
326.999	84.62
327.228	82.62
327.457	86.62
327.686	97.62
327.914	87.62
328.143	91.62
328.372	76.62
328.6	84.62
328.829	86.62
329.058	86.62
329.287	91.62
329.515	66.62
329.744	85.62
329.972	76.62
330.201	83.62
330.43	95.62
330.658	78.62
330.887	84.62
331.115	79.62
331.344	74.62
331.572	80.62
331.801	84.62
332.03	85.62
332.258	80.62
332.486	84.62
332.715	83.62
332.943	88.62
333.172	90.62
333.4	78.62
333.629	83.62
333.857	85.62
334.085	91.62
334.314	73.62
334.542	80.62
334.771	82.62
334.999	71.62
335.227	86.62
335.455	83.62
335.684	84.62
335.912	85.62
336.14	93.62
336.369	66.62
336.597	74.62
336.825	80.62
337.053	91.62
337.281	91.62
337.51	81.62
337.738	84.62
337.966	85.62
338.194	88.62
338.422	88.62
338.65	70.62
338.878	78.62
339.106	80.62
339.334	82.62
339.562	73.62
339.79	82.62
340.018	79.62
340.246	91.62
340.474	77.62
340.702	90.62
340.93	84.62
341.158	79.62
341.386	94.62
341.614	86.62
341.842	84.62
342.07	80.62
342.298	91.62
342.526	90.62
342.754	79.62
342.981	88.62
343.209	78.62
343.437	81.62
343.665	73.62
343.893	80.62
344.12	86.62
344.348	83.62
344.576	91.62
344.804	74.62
345.031	79.62
345.259	83.62
345.487	91.62
345.714	86.62
345.942	74.62
346.17	87.62
346.397	73.62
346.625	77.62
346.853	96.62
347.08	80.62
347.308	79.62
347.535	83.62
347.763	73.62
347.99	81.62
348.218	74.62
348.445	98.62
348.673	77.62
348.9	78.62
349.128	93.62
349.355	82.62
349.583	63.62
349.81	76.62
350.037	81.62
350.265	87.62
350.492	77.62
350.72	81.62
350.947	76.62
351.174	93.62
351.402	76.62
351.629	86.62
351.856	74.62
352.083	86.62
352.311	94.62
352.538	87.62
352.765	78.62
352.992	77.62
353.22	87.62
353.447	73.62
353.674	75.62
353.901	84.62
354.128	72.62
354.355	89.62
354.583	94.62
354.81	95.62
355.037	74.62
355.264	89.62
355.491	73.62
355.718	77.62
355.945	74.62
356.172	86.62
356.399	79.62
356.626	84.62
356.853	69.62
357.08	91.62
357.307	96.62
357.534	88.62
357.761	74.62
357.988	83.62
358.215	78.62
358.441	71.62
358.668	96.62
358.895	86.62
359.122	76.62
359.349	87.62
359.576	92.62
359.802	83.62
360.029	75.62
360.256	83.62
360.483	93.62
360.709	96.62
360.936	93.62
361.163	89.62
361.39	81.62
361.616	82.62
361.843	70.62
362.07	98.62
362.296	84.62
362.523	95.62
362.749	91.62
362.976	93.62
363.203	87.62
363.429	88.62
363.656	84.62
363.882	83.62
364.109	83.62
364.335	76.62
364.562	68.62
364.788	76.62
365.015	89.62
365.241	91.62
365.468	90.62
365.694	85.62
365.92	79.62
366.147	73.62
366.373	75.62
366.599	78.62
366.826	82.62
367.052	93.62
367.278	76.62
367.505	81.62
367.731	94.62
367.957	78.62
368.184	81.62
368.41	83.62
368.636	90.62
368.862	88.62
369.089	88.62
369.315	79.62
369.541	80.62
369.767	87.62
369.993	95.62
370.219	88.62
370.445	95.62
370.672	86.62
370.898	92.62
371.124	93.62
371.35	84.62
371.576	85.62
371.802	72.62
372.028	79.62
372.254	86.62
372.48	74.62
372.706	83.62
372.932	88.62
373.158	102.62
373.384	93.62
373.61	74.62
373.835	87.62
374.061	72.62
374.287	92.62
374.513	80.62
374.739	91.62
374.965	95.62
375.191	86.62
375.416	82.62
375.642	73.62
375.868	76.62
376.094	86.62
376.319	70.62
376.545	81.62
376.771	93.62
376.997	83.62
377.222	86.62
377.448	90.62
377.674	81.62
377.899	79.62
378.125	99.62
378.35	97.62
378.576	76.62
378.802	87.62
379.027	82.62
379.253	96.62
379.478	77.62
379.704	84.62
379.929	86.62
380.155	99.62
380.38	95.62
380.606	92.62
380.831	79.62
381.057	92.62
381.282	105.62
381.507	100.62
381.733	77.62
381.958	89.62
382.184	84.62
382.409	83.62
382.634	88.62
382.86	96.62
383.085	83.62
383.31	90.62
383.535	97.62
383.761	96.62
383.986	87.62
384.211	103.62
384.436	79.62
384.662	107.62
384.887	100.62
385.112	95.62
385.337	91.62
385.562	92.62
385.787	99.62
386.013	92.62
386.238	88.62
386.463	92.62
386.688	92.62
386.913	97.62
387.138	103.62
387.363	96.62
387.588	101.62
387.813	86.62
388.038	83.62
388.263	83.62
388.488	99.62
388.713	81.62
388.938	110.62
389.163	103.62
389.387	90.62
389.612	94.62
389.837	86.62
390.062	102.62
390.287	83.62
390.512	89.62
390.736	87.62
390.961	90.62
391.186	76.62
391.411	89.62
391.636	98.62
391.86	108.62
392.085	91.62
392.31	107.62
392.534	98.62
392.759	87.62
392.984	106.62
393.208	106.62
393.433	94.62
393.658	90.62
393.882	97.62
394.107	106.62
394.331	98.62
394.556	98.62
394.78	87.62
395.005	95.62
395.229	99.62
395.454	86.62
395.678	92.62
395.903	117.62
396.127	97.62
396.352	93.62
396.576	101.62
396.801	95.62
397.025	101.62
397.249	94.62
397.474	108.62
397.698	115.62
397.922	102.62
398.147	106.62
398.371	95.62
398.595	122.62
398.82	107.62
399.044	95.62
399.268	104.62
399.492	108.62
399.717	117.62
399.941	102.62
400.165	113.62
400.389	103.62
400.613	103.62
400.837	92.62
401.062	92.62
401.286	97.62
401.51	104.62
401.734	103.62
401.958	106.62
402.182	94.62
402.406	108.62
402.63	107.62
402.854	107.62
403.078	110.62
403.302	116.62
403.526	107.62
403.75	107.62
403.974	120.62
404.198	94.62
404.422	104.62
404.645	99.62
404.869	109.62
405.093	111.62
405.317	114.62
405.541	100.62
405.765	98.62
405.988	100.62
406.212	105.62
406.436	116.62
406.66	111.62
406.883	113.62
407.107	112.62
407.331	126.62
407.555	117.62
407.778	113.62
408.002	114.62
408.226	120.62
408.449	124.62
408.673	100.62
408.896	121.62
409.12	103.62
409.344	107.62
409.567	102.62
409.791	114.62
410.014	116.62
410.238	105.62
410.461	100.62
410.685	100.62
410.908	110.62
411.132	118.62
411.355	110.62
411.578	102.62
411.802	110.62
412.025	115.62
412.249	105.62
412.472	102.62
412.695	109.62
412.919	119.62
413.142	123.62
413.365	120.62
413.589	116.62
413.812	101.62
414.035	114.62
414.258	116.62
414.482	107.62
414.705	110.62
414.928	113.62
415.151	98.62
415.374	104.62
415.597	107.62
415.821	89.62
416.044	110.62
416.267	119.62
416.49	115.62
416.713	107.62
416.936	99.62
417.159	111.62
417.382	104.62
417.605	117.62
417.828	114.62
418.051	116.62
418.274	107.62
418.497	110.62
418.72	119.62
418.943	103.62
419.166	106.62
419.389	123.62
419.611	105.62
419.834	118.62
420.057	124.62
420.28	118.62
420.503	107.62
420.726	116.62
420.948	115.62
421.171	110.62
421.394	126.62
421.617	119.62
421.839	122.62
422.062	134.62
422.285	107.62
422.507	122.62
422.73	121.62
422.953	107.62
423.175	113.62
423.398	103.62
423.621	97.62
423.843	130.62
424.066	108.62
424.288	122.62
424.511	121.62
424.733	115.62
424.956	99.62
425.178	123.62
425.401	121.62
425.623	114.62
425.846	129.62
426.068	116.62
426.291	127.62
426.513	112.62
426.735	104.62
426.958	107.62
427.18	114.62
427.402	101.62
427.625	120.62
427.847	104.62
428.069	106.62
428.292	100.62
428.514	104.62
428.736	127.62
428.958	111.62
429.181	126.62
429.403	124.62
429.625	112.62
429.847	105.62
430.069	104.62
430.292	119.62
430.514	103.62
430.736	107.62
430.958	112.62
431.18	115.62
431.402	92.62
431.624	108.62
431.846	100.62
432.068	89.62
432.29	117.62
432.512	94.62
432.734	94.62
432.956	121.62
433.178	107.62
433.4	130.62
433.622	120.62
433.844	120.62
434.066	104.62
434.287	101.62
434.509	98.62
434.731	107.62
434.953	110.62
435.175	118.62
435.397	118.62
435.618	106.62
435.84	128.62
436.062	105.62
436.284	104.62
436.505	103.62
436.727	114.62
436.949	118.62
437.17	121.62
437.392	106.62
437.614	115.62
437.835	103.62
438.057	112.62
438.278	100.62
438.5	100.62
438.721	98.62
438.943	101.62
439.165	99.62
439.386	101.62
439.608	105.62
439.829	104.62
440.05	120.62
440.272	119.62
440.493	120.62
440.715	107.62
440.936	111.62
441.158	119.62
441.379	115.62
441.6	124.62
441.822	119.62
442.043	117.62
442.264	121.62
442.486	126.62
442.707	112.62
442.928	116.62
443.149	123.62
443.371	121.62
443.592	106.62
443.813	113.62
444.034	120.62
444.255	131.62
444.476	126.62
444.698	133.62
444.919	124.62
445.14	229.62
445.361	182.62
445.582	121.62
445.803	110.62
446.024	123.62
446.245	122.62
446.466	126.62
446.687	119.62
446.908	116.62
447.129	118.62
447.35	119.62
447.571	104.62
447.792	114.62
448.013	112.62
448.234	107.62
448.455	122.62
448.675	96.62
448.896	122.62
449.117	122.62
449.338	105.62
449.559	95.62
449.779	108.62
450	115.62
450.221	105.62
450.442	110.62
450.662	107.62
450.883	96.62
451.104	112.62
451.324	98.62
451.545	108.62
451.766	114.62
451.986	104.62
452.207	94.62
452.428	113.62
452.648	107.62
452.869	109.62
453.089	104.62
453.31	114.62
453.53	111.62
453.751	91.62
453.971	97.62
454.192	92.62
454.412	98.62
454.633	109.62
454.853	90.62
455.073	110.62
455.294	100.62
455.514	94.62
455.734	93.62
455.955	100.62
456.175	100.62
456.395	102.62
456.616	92.62
456.836	95.62
457.056	99.62
457.276	111.62
457.497	101.62
457.717	94.62
457.937	89.62
458.157	105.62
458.377	94.62
458.598	112.62
458.818	111.62
459.038	100.62
459.258	92.62
459.478	87.62
459.698	100.62
459.918	95.62
460.138	101.62
460.358	116.62
460.578	98.62
460.798	106.62
461.018	115.62
461.238	118.62
461.458	115.62
461.678	122.62
461.898	119.62
462.118	109.62
462.338	112.62
462.558	113.62
462.777	117.62
462.997	118.62
463.217	134.62
463.437	127.62
463.657	107.62
463.876	115.62
464.096	116.62
464.316	119.62
464.536	119.62
464.755	121.62
464.975	96.62
465.195	108.62
465.414	115.62
465.634	112.62
465.854	118.62
466.073	113.62
466.293	125.62
466.512	143.62
466.732	121.62
466.951	122.62
467.171	108.62
467.391	99.62
467.61	106.62
467.829	106.62
468.049	122.62
468.268	102.62
468.488	116.62
468.707	120.62
468.927	117.62
469.146	124.62
469.365	118.62
469.585	114.62
469.804	108.62
470.023	120.62
470.243	130.62
470.462	114.62
470.681	130.62
470.901	114.62
471.12	107.62
471.339	104.62
471.558	106.62
471.777	121.62
471.997	112.62
472.216	110.62
472.435	119.62
472.654	107.62
472.873	112.62
473.092	103.62
473.311	110.62
473.53	100.62
473.749	112.62
473.968	138.62
474.187	121.62
474.406	95.62
474.625	122.62
474.844	124.62
475.063	115.62
475.282	112.62
475.501	107.62
475.72	102.62
475.939	126.62
476.158	118.62
476.377	119.62
476.596	115.62
476.814	129.62
477.033	112.62
477.252	115.62
477.471	119.62
477.69	130.62
477.908	120.62
478.127	111.62
478.346	100.62
478.564	123.62
478.783	132.62
479.002	120.62
479.22	115.62
479.439	112.62
479.658	124.62
479.876	118.62
480.095	115.62
480.313	106.62
480.532	120.62
480.751	114.62
480.969	105.62
481.188	105.62
481.406	102.62
481.624	103.62
481.843	99.62
482.061	110.62
482.28	116.62
482.498	112.62
482.717	116.62
482.935	128.62
483.153	121.62
483.372	120.62
483.59	123.62
483.808	116.62
484.027	114.62
484.245	114.62
484.463	122.62
484.681	132.62
484.9	116.62
485.118	125.62
485.336	128.62
485.554	131.62
485.772	122.62
485.99	122.62
486.209	132.62
486.427	123.62
486.645	120.62
486.863	121.62
487.081	126.62
487.299	122.62
487.517	129.62
487.735	142.62
487.953	155.62
488.171	136.62
488.389	132.62
488.607	130.62
488.825	119.62
489.043	120.62
489.261	138.62
489.479	135.62
489.696	140.62
489.914	137.62
490.132	131.62
490.35	136.62
490.568	152.62
490.786	133.62
491.003	126.62
491.221	143.62
491.439	135.62
491.657	147.62
491.874	164.62
492.092	162.62
492.31	162.62
492.527	152.62
492.745	147.62
492.963	144.62
493.18	142.62
493.398	138.62
493.615	158.62
493.833	146.62
494.05	153.62
494.268	137.62
494.485	140.62
494.703	132.62
494.92	152.62
495.138	129.62
495.355	149.62
495.573	144.62
495.79	146.62
496.008	149.62
496.225	136.62
496.442	148.62
496.66	142.62
496.877	147.62
497.094	166.62
497.312	146.62
497.529	146.62
497.746	141.62
497.963	135.62
498.181	128.62
498.398	136.62
498.615	143.62
498.832	140.62
499.049	142.62
499.267	162.62
499.484	164.62
499.701	186.62
499.918	183.62
500.135	198.62
500.352	212.62
500.569	234.62
500.786	231.62
501.003	202.62
501.22	186.62
501.437	197.62
501.654	160.62
501.871	149.62
502.088	149.62
502.305	161.62
502.522	146.62
502.739	147.62
502.956	136.62
503.172	149.62
503.389	134.62
503.606	139.62
503.823	142.62
504.04	124.62
504.256	117.62
504.473	135.62
504.69	126.62
504.907	140.62
505.123	136.62
505.34	123.62
505.557	135.62
505.773	128.62
505.99	141.62
506.207	126.62
506.423	119.62
506.64	105.62
506.856	122.62
507.073	115.62
507.289	113.62
507.506	119.62
507.722	116.62
507.939	130.62
508.155	110.62
508.372	112.62
508.588	126.62
508.805	110.62
509.021	130.62
509.238	115.62
509.454	117.62
509.67	113.62
509.887	110.62
510.103	119.62
510.319	111.62
510.536	112.62
510.752	105.62
510.968	112.62
511.184	105.62
511.401	113.62
511.617	101.62
511.833	114.62
512.049	100.62
