Data from StandardFe(NO3)3.TAE.3%Agarose.FlatLispGreen.Lamp.Energy10.07252019_HRD10591_11-54-49-440.txt Node
Date: Thu Jul 25 11:54:49 EDT 2019
User: cochatt
Spectrometer: HR+D1059
Trigger mode: 1
Integration Time (sec): 1.000000E-1
Scans to average: 1
Electric dark correction enabled: true
Nonlinearity correction enabled: false
Boxcar width: 0
XAxis mode: Wavelengths
Number of Pixels in Spectrum: 2048
>>>>>Begin Spectral Data<<<<<
223.165	-5.19
223.4	-5.19
223.635	-5.19
223.869	-6.19
224.104	-18.19
224.338	-10.19
224.573	-12.19
224.808	-23.19
225.042	7.81
225.277	-4.19
225.511	-13.19
225.746	0.81
225.98	-2.19
226.215	11.81
226.449	5.81
226.683	7.81
226.918	32.81
227.152	27.81
227.387	24.81
227.621	24.81
227.856	40.81
228.09	38.81
228.324	47.81
228.559	55.81
228.793	58.81
229.027	51.81
229.262	48.81
229.496	51.81
229.73	72.81
229.964	76.81
230.199	77.81
230.433	64.81
230.667	72.81
230.901	79.81
231.136	73.81
231.37	90.81
231.604	85.81
231.838	80.81
232.072	81.81
232.306	80.81
232.541	76.81
232.775	71.81
233.009	77.81
233.243	81.81
233.477	79.81
233.711	84.81
233.945	83.81
234.179	82.81
234.413	74.81
234.647	82.81
234.881	69.81
235.115	71.81
235.349	71.81
235.583	70.81
235.817	64.81
236.051	75.81
236.285	56.81
236.519	60.81
236.753	69.81
236.987	63.81
237.221	79.81
237.455	70.81
237.689	96.81
237.922	75.81
238.156	72.81
238.39	77.81
238.624	67.81
238.858	69.81
239.091	68.81
239.325	83.81
239.559	73.81
239.793	80.81
240.027	73.81
240.26	78.81
240.494	69.81
240.728	67.81
240.961	81.81
241.195	71.81
241.429	74.81
241.662	75.81
241.896	68.81
242.13	60.81
242.363	71.81
242.597	63.81
242.83	78.81
243.064	77.81
243.298	74.81
243.531	82.81
243.765	76.81
243.998	78.81
244.232	77.81
244.465	78.81
244.699	71.81
244.932	65.81
245.166	86.81
245.399	92.81
245.633	73.81
245.866	64.81
246.099	78.81
246.333	73.81
246.566	63.81
246.8	68.81
247.033	86.81
247.266	79.81
247.5	67.81
247.733	75.81
247.966	89.81
248.2	96.81
248.433	91.81
248.666	56.81
248.899	80.81
249.133	78.81
249.366	71.81
249.599	83.81
249.832	73.81
250.066	78.81
250.299	82.81
250.532	77.81
250.765	56.81
250.998	69.81
251.231	89.81
251.465	79.81
251.698	79.81
251.931	74.81
252.164	90.81
252.397	73.81
252.63	77.81
252.863	77.81
253.096	64.81
253.329	85.81
253.562	80.81
253.795	79.81
254.028	78.81
254.261	72.81
254.494	71.81
254.727	80.81
254.96	66.81
255.193	85.81
255.426	76.81
255.659	72.81
255.892	68.81
256.124	65.81
256.357	79.81
256.59	75.81
256.823	66.81
257.056	72.81
257.289	93.81
257.521	85.81
257.754	68.81
257.987	60.81
258.22	77.81
258.452	85.81
258.685	76.81
258.918	72.81
259.151	84.81
259.383	80.81
259.616	78.81
259.849	76.81
260.081	83.81
260.314	88.81
260.547	80.81
260.779	68.81
261.012	93.81
261.244	73.81
261.477	78.81
261.71	77.81
261.942	73.81
262.175	82.81
262.407	79.81
262.64	80.81
262.872	81.81
263.105	84.81
263.337	89.81
263.57	84.81
263.802	72.81
264.035	84.81
264.267	78.81
264.499	79.81
264.732	84.81
264.964	77.81
265.197	76.81
265.429	80.81
265.661	77.81
265.894	71.81
266.126	88.81
266.358	82.81
266.591	68.81
266.823	67.81
267.055	84.81
267.287	75.81
267.52	91.81
267.752	79.81
267.984	77.81
268.216	81.81
268.448	75.81
268.681	81.81
268.913	83.81
269.145	68.81
269.377	72.81
269.609	90.81
269.841	91.81
270.073	70.81
270.306	82.81
270.538	87.81
270.77	84.81
271.002	87.81
271.234	78.81
271.466	84.81
271.698	84.81
271.93	77.81
272.162	87.81
272.394	79.81
272.626	66.81
272.858	84.81
273.09	77.81
273.322	73.81
273.553	78.81
273.785	90.81
274.017	66.81
274.249	81.81
274.481	92.81
274.713	73.81
274.945	82.81
275.176	75.81
275.408	82.81
275.64	73.81
275.872	71.81
276.104	94.81
276.335	82.81
276.567	70.81
276.799	77.81
277.031	79.81
277.262	88.81
277.494	73.81
277.726	73.81
277.957	80.81
278.189	77.81
278.421	67.81
278.652	85.81
278.884	84.81
279.115	77.81
279.347	82.81
279.579	72.81
279.81	77.81
280.042	86.81
280.273	79.81
280.505	68.81
280.736	67.81
280.968	76.81
281.199	79.81
281.431	79.81
281.662	95.81
281.894	87.81
282.125	79.81
282.356	95.81
282.588	72.81
282.819	76.81
283.051	72.81
283.282	83.81
283.513	89.81
283.745	70.81
283.976	71.81
284.207	75.81
284.439	82.81
284.67	81.81
284.901	76.81
285.132	81.81
285.364	88.81
285.595	79.81
285.826	75.81
286.057	71.81
286.288	88.81
286.52	87.81
286.751	83.81
286.982	70.81
287.213	80.81
287.444	90.81
287.675	86.81
287.906	84.81
288.138	87.81
288.369	87.81
288.6	78.81
288.831	86.81
289.062	83.81
289.293	84.81
289.524	91.81
289.755	77.81
289.986	80.81
290.217	78.81
290.448	90.81
290.679	84.81
290.91	96.81
291.141	88.81
291.371	86.81
291.602	77.81
291.833	71.81
292.064	78.81
292.295	86.81
292.526	80.81
292.757	74.81
292.987	76.81
293.218	81.81
293.449	83.81
293.68	61.81
293.91	85.81
294.141	83.81
294.372	86.81
294.603	79.81
294.833	73.81
295.064	77.81
295.295	93.81
295.525	93.81
295.756	64.81
295.987	79.81
296.217	75.81
296.448	78.81
296.679	75.81
296.909	83.81
297.14	78.81
297.37	85.81
297.601	84.81
297.831	84.81
298.062	82.81
298.292	80.81
298.523	75.81
298.753	76.81
298.984	71.81
299.214	83.81
299.445	77.81
299.675	83.81
299.905	87.81
300.136	86.81
300.366	81.81
300.597	75.81
300.827	91.81
301.057	76.81
301.288	74.81
301.518	71.81
301.748	78.81
301.979	77.81
302.209	83.81
302.439	72.81
302.669	69.81
302.9	77.81
303.13	87.81
303.36	80.81
303.59	84.81
303.82	80.81
304.051	83.81
304.281	81.81
304.511	95.81
304.741	85.81
304.971	79.81
305.201	88.81
305.431	70.81
305.661	77.81
305.891	78.81
306.121	78.81
306.352	77.81
306.582	88.81
306.812	88.81
307.042	91.81
307.272	74.81
307.502	81.81
307.731	94.81
307.961	70.81
308.191	75.81
308.421	81.81
308.651	89.81
308.881	74.81
309.111	80.81
309.341	84.81
309.571	94.81
309.8	86.81
310.03	80.81
310.26	80.81
310.49	65.81
310.72	72.81
310.949	84.81
311.179	82.81
311.409	74.81
311.639	75.81
311.868	58.81
312.098	72.81
312.328	82.81
312.557	83.81
312.787	93.81
313.017	69.81
313.246	75.81
313.476	80.81
313.706	79.81
313.935	72.81
314.165	75.81
314.394	81.81
314.624	75.81
314.853	70.81
315.083	92.81
315.312	83.81
315.542	75.81
315.771	84.81
316.001	89.81
316.23	77.81
316.46	81.81
316.689	80.81
316.919	95.81
317.148	82.81
317.377	89.81
317.607	91.81
317.836	94.81
318.065	66.81
318.295	93.81
318.524	77.81
318.753	82.81
318.983	74.81
319.212	80.81
319.441	97.81
319.67	84.81
319.9	82.81
320.129	87.81
320.358	79.81
320.587	69.81
320.816	69.81
321.046	80.81
321.275	77.81
321.504	90.81
321.733	84.81
321.962	77.81
322.191	91.81
322.42	67.81
322.649	84.81
322.878	79.81
323.108	83.81
323.337	95.81
323.566	81.81
323.795	67.81
324.024	86.81
324.253	72.81
324.482	88.81
324.71	90.81
324.939	78.81
325.168	84.81
325.397	90.81
325.626	84.81
325.855	90.81
326.084	82.81
326.313	82.81
326.542	72.81
326.77	73.81
326.999	75.81
327.228	78.81
327.457	84.81
327.686	89.81
327.914	68.81
328.143	79.81
328.372	81.81
328.6	77.81
328.829	76.81
329.058	77.81
329.287	93.81
329.515	87.81
329.744	88.81
329.972	83.81
330.201	78.81
330.43	72.81
330.658	92.81
330.887	76.81
331.115	70.81
331.344	66.81
331.572	78.81
331.801	77.81
332.03	81.81
332.258	76.81
332.486	68.81
332.715	82.81
332.943	88.81
333.172	89.81
333.4	91.81
333.629	79.81
333.857	81.81
334.085	84.81
334.314	85.81
334.542	88.81
334.771	74.81
334.999	72.81
335.227	68.81
335.455	91.81
335.684	101.81
335.912	94.81
336.14	85.81
336.369	86.81
336.597	83.81
336.825	71.81
337.053	80.81
337.281	74.81
337.51	91.81
337.738	86.81
337.966	91.81
338.194	84.81
338.422	91.81
338.65	75.81
338.878	82.81
339.106	94.81
339.334	88.81
339.562	74.81
339.79	79.81
340.018	78.81
340.246	83.81
340.474	80.81
340.702	81.81
340.93	82.81
341.158	94.81
341.386	82.81
341.614	84.81
341.842	63.81
342.07	77.81
342.298	76.81
342.526	73.81
342.754	66.81
342.981	86.81
343.209	73.81
343.437	83.81
343.665	84.81
343.893	73.81
344.12	73.81
344.348	88.81
344.576	82.81
344.804	73.81
345.031	95.81
345.259	83.81
345.487	81.81
345.714	79.81
345.942	83.81
346.17	80.81
346.397	72.81
346.625	73.81
346.853	61.81
347.08	69.81
347.308	84.81
347.535	76.81
347.763	78.81
347.99	90.81
348.218	79.81
348.445	91.81
348.673	85.81
348.9	78.81
349.128	73.81
349.355	69.81
349.583	95.81
349.81	85.81
350.037	73.81
350.265	89.81
350.492	68.81
350.72	71.81
350.947	78.81
351.174	89.81
351.402	75.81
351.629	81.81
351.856	83.81
352.083	73.81
352.311	68.81
352.538	89.81
352.765	79.81
352.992	95.81
353.22	95.81
353.447	79.81
353.674	71.81
353.901	78.81
354.128	75.81
354.355	83.81
354.583	73.81
354.81	82.81
355.037	77.81
355.264	77.81
355.491	75.81
355.718	75.81
355.945	84.81
356.172	73.81
356.399	82.81
356.626	84.81
356.853	80.81
357.08	94.81
357.307	89.81
357.534	87.81
357.761	85.81
357.988	86.81
358.215	78.81
358.441	70.81
358.668	87.81
358.895	92.81
359.122	96.81
359.349	68.81
359.576	74.81
359.802	90.81
360.029	82.81
360.256	76.81
360.483	81.81
360.709	79.81
360.936	79.81
361.163	76.81
361.39	85.81
361.616	88.81
361.843	85.81
362.07	77.81
362.296	81.81
362.523	80.81
362.749	63.81
362.976	78.81
363.203	99.81
363.429	77.81
363.656	93.81
363.882	68.81
364.109	73.81
364.335	82.81
364.562	84.81
364.788	76.81
365.015	87.81
365.241	82.81
365.468	79.81
365.694	59.81
365.92	86.81
366.147	81.81
366.373	72.81
366.599	80.81
366.826	85.81
367.052	98.81
367.278	91.81
367.505	95.81
367.731	87.81
367.957	84.81
368.184	86.81
368.41	88.81
368.636	73.81
368.862	83.81
369.089	87.81
369.315	84.81
369.541	85.81
369.767	69.81
369.993	83.81
370.219	71.81
370.445	83.81
370.672	84.81
370.898	101.81
371.124	83.81
371.35	72.81
371.576	101.81
371.802	91.81
372.028	83.81
372.254	79.81
372.48	81.81
372.706	85.81
372.932	80.81
373.158	82.81
373.384	81.81
373.61	84.81
373.835	72.81
374.061	86.81
374.287	72.81
374.513	84.81
374.739	82.81
374.965	76.81
375.191	86.81
375.416	84.81
375.642	83.81
375.868	78.81
376.094	87.81
376.319	76.81
376.545	84.81
376.771	101.81
376.997	92.81
377.222	80.81
377.448	78.81
377.674	85.81
377.899	70.81
378.125	92.81
378.35	99.81
378.576	82.81
378.802	89.81
379.027	86.81
379.253	91.81
379.478	84.81
379.704	89.81
379.929	86.81
380.155	79.81
380.38	73.81
380.606	80.81
380.831	78.81
381.057	91.81
381.282	94.81
381.507	87.81
381.733	77.81
381.958	79.81
382.184	91.81
382.409	89.81
382.634	70.81
382.86	96.81
383.085	103.81
383.31	82.81
383.535	102.81
383.761	87.81
383.986	84.81
384.211	91.81
384.436	92.81
384.662	87.81
384.887	83.81
385.112	89.81
385.337	87.81
385.562	92.81
385.787	93.81
386.013	83.81
386.238	81.81
386.463	95.81
386.688	93.81
386.913	81.81
387.138	93.81
387.363	84.81
387.588	100.81
387.813	88.81
388.038	100.81
388.263	90.81
388.488	80.81
388.713	74.81
388.938	92.81
389.163	91.81
389.387	87.81
389.612	94.81
389.837	103.81
390.062	96.81
390.287	76.81
390.512	98.81
390.736	91.81
390.961	72.81
391.186	96.81
391.411	96.81
391.636	97.81
391.86	94.81
392.085	104.81
392.31	96.81
392.534	92.81
392.759	94.81
392.984	81.81
393.208	91.81
393.433	116.81
393.658	101.81
393.882	88.81
394.107	100.81
394.331	84.81
394.556	105.81
394.78	87.81
395.005	88.81
395.229	85.81
395.454	93.81
395.678	102.81
395.903	104.81
396.127	111.81
396.352	100.81
396.576	103.81
396.801	90.81
397.025	82.81
397.249	87.81
397.474	102.81
397.698	92.81
397.922	100.81
398.147	105.81
398.371	95.81
398.595	98.81
398.82	112.81
399.044	115.81
399.268	101.81
399.492	101.81
399.717	123.81
399.941	115.81
400.165	111.81
400.389	104.81
400.613	107.81
400.837	90.81
401.062	108.81
401.286	87.81
401.51	100.81
401.734	103.81
401.958	103.81
402.182	107.81
402.406	109.81
402.63	110.81
402.854	109.81
403.078	87.81
403.302	104.81
403.526	100.81
403.75	94.81
403.974	124.81
404.198	99.81
404.422	106.81
404.645	107.81
404.869	96.81
405.093	101.81
405.317	117.81
405.541	102.81
405.765	109.81
405.988	111.81
406.212	88.81
406.436	109.81
406.66	113.81
406.883	84.81
407.107	131.81
407.331	104.81
407.555	111.81
407.778	108.81
408.002	115.81
408.226	112.81
408.449	121.81
408.673	99.81
408.896	92.81
409.12	105.81
409.344	107.81
409.567	121.81
409.791	110.81
410.014	110.81
410.238	103.81
410.461	118.81
410.685	119.81
410.908	109.81
411.132	109.81
411.355	100.81
411.578	114.81
411.802	103.81
412.025	115.81
412.249	104.81
412.472	109.81
412.695	105.81
412.919	119.81
413.142	113.81
413.365	105.81
413.589	91.81
413.812	89.81
414.035	108.81
414.258	117.81
414.482	95.81
414.705	111.81
414.928	114.81
415.151	116.81
415.374	114.81
415.597	105.81
415.821	117.81
416.044	103.81
416.267	103.81
416.49	108.81
416.713	95.81
416.936	111.81
417.159	108.81
417.382	119.81
417.605	101.81
417.828	100.81
418.051	98.81
418.274	107.81
418.497	120.81
418.72	112.81
418.943	116.81
419.166	123.81
419.389	120.81
419.611	110.81
419.834	104.81
420.057	109.81
420.28	95.81
420.503	123.81
420.726	117.81
420.948	110.81
421.171	111.81
421.394	103.81
421.617	116.81
421.839	117.81
422.062	125.81
422.285	133.81
422.507	97.81
422.73	110.81
422.953	98.81
423.175	107.81
423.398	115.81
423.621	107.81
423.843	109.81
424.066	113.81
424.288	128.81
424.511	100.81
424.733	115.81
424.956	112.81
425.178	113.81
425.401	100.81
425.623	116.81
425.846	117.81
426.068	105.81
426.291	92.81
426.513	88.81
426.735	101.81
426.958	108.81
427.18	102.81
427.402	120.81
427.625	111.81
427.847	127.81
428.069	116.81
428.292	109.81
428.514	109.81
428.736	102.81
428.958	101.81
429.181	108.81
429.403	98.81
429.625	115.81
429.847	109.81
430.069	116.81
430.292	109.81
430.514	105.81
430.736	118.81
430.958	125.81
431.18	115.81
431.402	116.81
431.624	112.81
431.846	109.81
432.068	96.81
432.29	102.81
432.512	99.81
432.734	101.81
432.956	136.81
433.178	118.81
433.4	119.81
433.622	104.81
433.844	104.81
434.066	110.81
434.287	96.81
434.509	97.81
434.731	123.81
434.953	104.81
435.175	107.81
435.397	102.81
435.618	110.81
435.84	114.81
436.062	97.81
436.284	97.81
436.505	112.81
436.727	107.81
436.949	107.81
437.17	105.81
437.392	97.81
437.614	98.81
437.835	100.81
438.057	100.81
438.278	115.81
438.5	108.81
438.721	100.81
438.943	108.81
439.165	119.81
439.386	115.81
439.608	116.81
439.829	107.81
440.05	119.81
440.272	103.81
440.493	96.81
440.715	121.81
440.936	107.81
441.158	124.81
441.379	117.81
441.6	130.81
441.822	126.81
442.043	115.81
442.264	123.81
442.486	117.81
442.707	118.81
442.928	103.81
443.149	110.81
443.371	120.81
443.592	123.81
443.813	110.81
444.034	123.81
444.255	102.81
444.476	125.81
444.698	117.81
444.919	123.81
445.14	226.81
445.361	169.81
445.582	127.81
445.803	107.81
446.024	114.81
446.245	110.81
446.466	111.81
446.687	108.81
446.908	124.81
447.129	111.81
447.35	109.81
447.571	116.81
447.792	112.81
448.013	103.81
448.234	113.81
448.455	116.81
448.675	101.81
448.896	117.81
449.117	103.81
449.338	101.81
449.559	114.81
449.779	112.81
450	113.81
450.221	105.81
450.442	106.81
450.662	94.81
450.883	117.81
451.104	99.81
451.324	121.81
451.545	116.81
451.766	105.81
451.986	96.81
452.207	116.81
452.428	111.81
452.648	112.81
452.869	102.81
453.089	100.81
453.31	96.81
453.53	92.81
453.751	98.81
453.971	90.81
454.192	104.81
454.412	99.81
454.633	117.81
454.853	121.81
455.073	120.81
455.294	118.81
455.514	104.81
455.734	114.81
455.955	88.81
456.175	93.81
456.395	118.81
456.616	83.81
456.836	100.81
457.056	93.81
457.276	104.81
457.497	97.81
457.717	110.81
457.937	100.81
458.157	101.81
458.377	88.81
458.598	86.81
458.818	111.81
459.038	107.81
459.258	92.81
459.478	103.81
459.698	117.81
459.918	96.81
460.138	109.81
460.358	106.81
460.578	116.81
460.798	119.81
461.018	92.81
461.238	113.81
461.458	115.81
461.678	99.81
461.898	109.81
462.118	103.81
462.338	117.81
462.558	102.81
462.777	121.81
462.997	111.81
463.217	125.81
463.437	132.81
463.657	123.81
463.876	118.81
464.096	120.81
464.316	114.81
464.536	119.81
464.755	118.81
464.975	119.81
465.195	119.81
465.414	118.81
465.634	104.81
465.854	105.81
466.073	114.81
466.293	115.81
466.512	117.81
466.732	116.81
466.951	117.81
467.171	108.81
467.391	111.81
467.61	105.81
467.829	111.81
468.049	107.81
468.268	117.81
468.488	126.81
468.707	111.81
468.927	126.81
469.146	107.81
469.365	112.81
469.585	130.81
469.804	119.81
470.023	108.81
470.243	122.81
470.462	133.81
470.681	119.81
470.901	123.81
471.12	129.81
471.339	126.81
471.558	137.81
471.777	132.81
471.997	121.81
472.216	99.81
472.435	102.81
472.654	104.81
472.873	105.81
473.092	116.81
473.311	116.81
473.53	119.81
473.749	110.81
473.968	115.81
474.187	103.81
474.406	110.81
474.625	117.81
474.844	119.81
475.063	110.81
475.282	133.81
475.501	119.81
475.72	113.81
475.939	113.81
476.158	108.81
476.377	130.81
476.596	119.81
476.814	115.81
477.033	109.81
477.252	104.81
477.471	113.81
477.69	110.81
477.908	131.81
478.127	138.81
478.346	118.81
478.564	120.81
478.783	113.81
479.002	122.81
479.22	129.81
479.439	111.81
479.658	114.81
479.876	122.81
480.095	105.81
480.313	116.81
480.532	129.81
480.751	114.81
480.969	114.81
481.188	114.81
481.406	114.81
481.624	126.81
481.843	104.81
482.061	101.81
482.28	113.81
482.498	102.81
482.717	123.81
482.935	123.81
483.153	125.81
483.372	125.81
483.59	119.81
483.808	105.81
484.027	113.81
484.245	130.81
484.463	120.81
484.681	133.81
484.9	120.81
485.118	121.81
485.336	112.81
485.554	120.81
485.772	113.81
485.99	134.81
486.209	104.81
486.427	99.81
486.645	118.81
486.863	145.81
487.081	129.81
487.299	127.81
487.517	130.81
487.735	141.81
487.953	159.81
488.171	130.81
488.389	138.81
488.607	140.81
488.825	128.81
489.043	115.81
489.261	115.81
489.479	131.81
489.696	126.81
489.914	127.81
490.132	125.81
490.35	137.81
490.568	131.81
490.786	127.81
491.003	140.81
491.221	149.81
491.439	156.81
491.657	155.81
491.874	152.81
492.092	166.81
492.31	164.81
492.527	168.81
492.745	155.81
492.963	141.81
493.18	134.81
493.398	143.81
493.615	145.81
493.833	143.81
494.05	159.81
494.268	148.81
494.485	147.81
494.703	146.81
494.92	149.81
495.138	142.81
495.355	150.81
495.573	144.81
495.79	134.81
496.008	139.81
496.225	133.81
496.442	143.81
496.66	155.81
496.877	140.81
497.094	143.81
497.312	131.81
497.529	142.81
497.746	149.81
497.963	147.81
498.181	121.81
498.398	139.81
498.615	136.81
498.832	123.81
499.049	149.81
499.267	150.81
499.484	162.81
499.701	171.81
499.918	175.81
500.135	200.81
500.352	186.81
500.569	222.81
500.786	224.81
501.003	221.81
501.22	198.81
501.437	181.81
501.654	176.81
501.871	148.81
502.088	153.81
502.305	149.81
502.522	132.81
502.739	144.81
502.956	153.81
503.172	141.81
503.389	134.81
503.606	127.81
503.823	132.81
504.04	138.81
504.256	140.81
504.473	126.81
504.69	134.81
504.907	111.81
505.123	145.81
505.34	136.81
505.557	137.81
505.773	119.81
505.99	115.81
506.207	133.81
506.423	121.81
506.64	120.81
506.856	115.81
507.073	108.81
507.289	104.81
507.506	129.81
507.722	118.81
507.939	123.81
508.155	106.81
508.372	119.81
508.588	127.81
508.805	134.81
509.021	117.81
509.238	105.81
509.454	111.81
509.67	120.81
509.887	121.81
510.103	109.81
510.319	111.81
510.536	116.81
510.752	109.81
510.968	123.81
511.184	104.81
511.401	99.81
511.617	103.81
511.833	116.81
512.049	95.81
512.265	112.81
