Data from StandardFe(NO3)3.TAE.3%Agarose.FlatLispGreen.Lamp.Energy10.07252019_HRD10591_11-56-21-441.txt Node
Date: Thu Jul 25 11:56:21 EDT 2019
User: cochatt
Spectrometer: HR+D1059
Trigger mode: 1
Integration Time (sec): 1.000000E-1
Scans to average: 1
Electric dark correction enabled: true
Nonlinearity correction enabled: false
Boxcar width: 0
XAxis mode: Wavelengths
Number of Pixels in Spectrum: 2048
>>>>>Begin Spectral Data<<<<<
223.165	-38.69
223.4	-38.69
223.635	-38.69
223.869	-13.69
224.104	-11.69
224.338	-19.69
224.573	-14.69
224.808	0.31
225.042	-6.69
225.277	6.31
225.511	4.31
225.746	-18.69
225.98	7.31
226.215	9.31
226.449	23.31
226.683	21.31
226.918	28.31
227.152	23.31
227.387	31.31
227.621	37.31
227.856	39.31
228.09	48.31
228.324	40.31
228.559	61.31
228.793	65.31
229.027	76.31
229.262	86.31
229.496	62.31
229.73	78.31
229.964	61.31
230.199	73.31
230.433	78.31
230.667	79.31
230.901	78.31
231.136	71.31
231.37	80.31
231.604	85.31
231.838	83.31
232.072	83.31
232.306	77.31
232.541	100.31
232.775	88.31
233.009	87.31
233.243	95.31
233.477	73.31
233.711	86.31
233.945	84.31
234.179	97.31
234.413	83.31
234.647	74.31
234.881	74.31
235.115	88.31
235.349	82.31
235.583	82.31
235.817	76.31
236.051	74.31
236.285	93.31
236.519	83.31
236.753	99.31
236.987	77.31
237.221	84.31
237.455	78.31
237.689	75.31
237.922	80.31
238.156	93.31
238.39	73.31
238.624	81.31
238.858	80.31
239.091	72.31
239.325	81.31
239.559	70.31
239.793	82.31
240.027	89.31
240.26	83.31
240.494	79.31
240.728	84.31
240.961	72.31
241.195	92.31
241.429	91.31
241.662	82.31
241.896	88.31
242.13	80.31
242.363	84.31
242.597	80.31
242.83	69.31
243.064	67.31
243.298	68.31
243.531	81.31
243.765	91.31
243.998	86.31
244.232	61.31
244.465	78.31
244.699	69.31
244.932	76.31
245.166	70.31
245.399	80.31
245.633	95.31
245.866	67.31
246.099	81.31
246.333	82.31
246.566	77.31
246.8	71.31
247.033	69.31
247.266	75.31
247.5	78.31
247.733	80.31
247.966	85.31
248.2	75.31
248.433	77.31
248.666	77.31
248.899	92.31
249.133	80.31
249.366	89.31
249.599	87.31
249.832	89.31
250.066	74.31
250.299	71.31
250.532	90.31
250.765	90.31
250.998	67.31
251.231	68.31
251.465	94.31
251.698	74.31
251.931	88.31
252.164	96.31
252.397	85.31
252.63	76.31
252.863	81.31
253.096	95.31
253.329	94.31
253.562	78.31
253.795	79.31
254.028	90.31
254.261	109.31
254.494	94.31
254.727	96.31
254.96	90.31
255.193	85.31
255.426	79.31
255.659	89.31
255.892	74.31
256.124	85.31
256.357	88.31
256.59	84.31
256.823	100.31
257.056	79.31
257.289	78.31
257.521	82.31
257.754	65.31
257.987	83.31
258.22	86.31
258.452	86.31
258.685	74.31
258.918	83.31
259.151	75.31
259.383	88.31
259.616	80.31
259.849	93.31
260.081	79.31
260.314	83.31
260.547	80.31
260.779	83.31
261.012	80.31
261.244	72.31
261.477	80.31
261.71	87.31
261.942	77.31
262.175	84.31
262.407	87.31
262.64	91.31
262.872	75.31
263.105	71.31
263.337	82.31
263.57	64.31
263.802	87.31
264.035	93.31
264.267	80.31
264.499	68.31
264.732	91.31
264.964	85.31
265.197	79.31
265.429	84.31
265.661	96.31
265.894	93.31
266.126	91.31
266.358	86.31
266.591	91.31
266.823	73.31
267.055	91.31
267.287	95.31
267.52	77.31
267.752	90.31
267.984	81.31
268.216	72.31
268.448	97.31
268.681	96.31
268.913	76.31
269.145	80.31
269.377	88.31
269.609	75.31
269.841	86.31
270.073	96.31
270.306	84.31
270.538	101.31
270.77	88.31
271.002	85.31
271.234	103.31
271.466	83.31
271.698	79.31
271.93	81.31
272.162	83.31
272.394	90.31
272.626	89.31
272.858	82.31
273.09	85.31
273.322	87.31
273.553	85.31
273.785	91.31
274.017	96.31
274.249	83.31
274.481	86.31
274.713	84.31
274.945	93.31
275.176	83.31
275.408	84.31
275.64	90.31
275.872	87.31
276.104	99.31
276.335	90.31
276.567	71.31
276.799	93.31
277.031	81.31
277.262	81.31
277.494	86.31
277.726	83.31
277.957	82.31
278.189	84.31
278.421	91.31
278.652	78.31
278.884	86.31
279.115	84.31
279.347	77.31
279.579	72.31
279.81	75.31
280.042	74.31
280.273	88.31
280.505	82.31
280.736	87.31
280.968	75.31
281.199	94.31
281.431	88.31
281.662	80.31
281.894	97.31
282.125	90.31
282.356	89.31
282.588	79.31
282.819	81.31
283.051	83.31
283.282	77.31
283.513	79.31
283.745	92.31
283.976	70.31
284.207	92.31
284.439	84.31
284.67	94.31
284.901	96.31
285.132	82.31
285.364	87.31
285.595	83.31
285.826	93.31
286.057	76.31
286.288	95.31
286.52	95.31
286.751	78.31
286.982	82.31
287.213	87.31
287.444	81.31
287.675	88.31
287.906	99.31
288.138	72.31
288.369	91.31
288.6	81.31
288.831	91.31
289.062	103.31
289.293	99.31
289.524	93.31
289.755	87.31
289.986	87.31
290.217	84.31
290.448	94.31
290.679	96.31
290.91	91.31
291.141	90.31
291.371	88.31
291.602	92.31
291.833	80.31
292.064	98.31
292.295	99.31
292.526	95.31
292.757	87.31
292.987	89.31
293.218	86.31
293.449	94.31
293.68	91.31
293.91	85.31
294.141	79.31
294.372	95.31
294.603	91.31
294.833	87.31
295.064	90.31
295.295	87.31
295.525	91.31
295.756	98.31
295.987	79.31
296.217	83.31
296.448	78.31
296.679	98.31
296.909	84.31
297.14	81.31
297.37	87.31
297.601	98.31
297.831	83.31
298.062	93.31
298.292	94.31
298.523	91.31
298.753	92.31
298.984	81.31
299.214	88.31
299.445	87.31
299.675	83.31
299.905	90.31
300.136	73.31
300.366	85.31
300.597	85.31
300.827	94.31
301.057	90.31
301.288	90.31
301.518	81.31
301.748	99.31
301.979	94.31
302.209	86.31
302.439	93.31
302.669	91.31
302.9	87.31
303.13	94.31
303.36	92.31
303.59	100.31
303.82	102.31
304.051	85.31
304.281	86.31
304.511	81.31
304.741	92.31
304.971	82.31
305.201	93.31
305.431	88.31
305.661	82.31
305.891	87.31
306.121	91.31
306.352	80.31
306.582	87.31
306.812	95.31
307.042	94.31
307.272	80.31
307.502	90.31
307.731	94.31
307.961	95.31
308.191	82.31
308.421	78.31
308.651	92.31
308.881	93.31
309.111	104.31
309.341	96.31
309.571	87.31
309.8	78.31
310.03	88.31
310.26	85.31
310.49	80.31
310.72	86.31
310.949	96.31
311.179	92.31
311.409	94.31
311.639	88.31
311.868	83.31
312.098	83.31
312.328	80.31
312.557	65.31
312.787	92.31
313.017	77.31
313.246	86.31
313.476	84.31
313.706	92.31
313.935	89.31
314.165	74.31
314.394	86.31
314.624	84.31
314.853	85.31
315.083	105.31
315.312	93.31
315.542	88.31
315.771	90.31
316.001	85.31
316.23	75.31
316.46	88.31
316.689	89.31
316.919	71.31
317.148	88.31
317.377	95.31
317.607	90.31
317.836	101.31
318.065	102.31
318.295	85.31
318.524	93.31
318.753	95.31
318.983	105.31
319.212	91.31
319.441	91.31
319.67	87.31
319.9	97.31
320.129	85.31
320.358	91.31
320.587	76.31
320.816	103.31
321.046	91.31
321.275	90.31
321.504	93.31
321.733	86.31
321.962	88.31
322.191	76.31
322.42	76.31
322.649	91.31
322.878	84.31
323.108	90.31
323.337	91.31
323.566	80.31
323.795	80.31
324.024	83.31
324.253	91.31
324.482	85.31
324.71	95.31
324.939	99.31
325.168	86.31
325.397	103.31
325.626	93.31
325.855	91.31
326.084	88.31
326.313	96.31
326.542	92.31
326.77	82.31
326.999	93.31
327.228	92.31
327.457	86.31
327.686	104.31
327.914	83.31
328.143	103.31
328.372	90.31
328.6	109.31
328.829	86.31
329.058	100.31
329.287	78.31
329.515	94.31
329.744	86.31
329.972	87.31
330.201	84.31
330.43	86.31
330.658	81.31
330.887	86.31
331.115	94.31
331.344	69.31
331.572	66.31
331.801	85.31
332.03	95.31
332.258	94.31
332.486	95.31
332.715	80.31
332.943	91.31
333.172	81.31
333.4	81.31
333.629	89.31
333.857	88.31
334.085	83.31
334.314	101.31
334.542	88.31
334.771	93.31
334.999	83.31
335.227	87.31
335.455	95.31
335.684	92.31
335.912	93.31
336.14	79.31
336.369	81.31
336.597	84.31
336.825	88.31
337.053	83.31
337.281	88.31
337.51	92.31
337.738	91.31
337.966	89.31
338.194	82.31
338.422	83.31
338.65	104.31
338.878	82.31
339.106	91.31
339.334	83.31
339.562	82.31
339.79	85.31
340.018	84.31
340.246	99.31
340.474	80.31
340.702	94.31
340.93	83.31
341.158	99.31
341.386	86.31
341.614	76.31
341.842	83.31
342.07	75.31
342.298	84.31
342.526	72.31
342.754	87.31
342.981	82.31
343.209	94.31
343.437	90.31
343.665	102.31
343.893	96.31
344.12	92.31
344.348	79.31
344.576	91.31
344.804	92.31
345.031	93.31
345.259	90.31
345.487	89.31
345.714	90.31
345.942	92.31
346.17	87.31
346.397	91.31
346.625	91.31
346.853	79.31
347.08	96.31
347.308	87.31
347.535	85.31
347.763	94.31
347.99	87.31
348.218	99.31
348.445	93.31
348.673	69.31
348.9	85.31
349.128	93.31
349.355	94.31
349.583	80.31
349.81	85.31
350.037	84.31
350.265	91.31
350.492	81.31
350.72	69.31
350.947	94.31
351.174	103.31
351.402	80.31
351.629	88.31
351.856	89.31
352.083	87.31
352.311	83.31
352.538	84.31
352.765	80.31
352.992	94.31
353.22	89.31
353.447	86.31
353.674	92.31
353.901	98.31
354.128	87.31
354.355	86.31
354.583	90.31
354.81	88.31
355.037	81.31
355.264	88.31
355.491	76.31
355.718	87.31
355.945	97.31
356.172	87.31
356.399	84.31
356.626	78.31
356.853	85.31
357.08	72.31
357.307	86.31
357.534	93.31
357.761	90.31
357.988	89.31
358.215	85.31
358.441	73.31
358.668	77.31
358.895	87.31
359.122	78.31
359.349	83.31
359.576	78.31
359.802	85.31
360.029	87.31
360.256	80.31
360.483	90.31
360.709	95.31
360.936	88.31
361.163	101.31
361.39	86.31
361.616	70.31
361.843	70.31
362.07	82.31
362.296	94.31
362.523	82.31
362.749	100.31
362.976	83.31
363.203	93.31
363.429	89.31
363.656	105.31
363.882	86.31
364.109	80.31
364.335	78.31
364.562	77.31
364.788	92.31
365.015	91.31
365.241	86.31
365.468	85.31
365.694	95.31
365.92	83.31
366.147	89.31
366.373	89.31
366.599	80.31
366.826	79.31
367.052	82.31
367.278	100.31
367.505	95.31
367.731	93.31
367.957	79.31
368.184	86.31
368.41	98.31
368.636	96.31
368.862	100.31
369.089	95.31
369.315	75.31
369.541	90.31
369.767	101.31
369.993	100.31
370.219	76.31
370.445	78.31
370.672	93.31
370.898	85.31
371.124	82.31
371.35	93.31
371.576	99.31
371.802	95.31
372.028	79.31
372.254	93.31
372.48	83.31
372.706	88.31
372.932	94.31
373.158	87.31
373.384	86.31
373.61	94.31
373.835	84.31
374.061	100.31
374.287	102.31
374.513	80.31
374.739	85.31
374.965	86.31
375.191	80.31
375.416	73.31
375.642	83.31
375.868	94.31
376.094	75.31
376.319	94.31
376.545	95.31
376.771	85.31
376.997	80.31
377.222	85.31
377.448	89.31
377.674	79.31
377.899	87.31
378.125	90.31
378.35	87.31
378.576	93.31
378.802	89.31
379.027	107.31
379.253	85.31
379.478	85.31
379.704	87.31
379.929	92.31
380.155	87.31
380.38	82.31
380.606	93.31
380.831	86.31
381.057	98.31
381.282	95.31
381.507	77.31
381.733	98.31
381.958	99.31
382.184	107.31
382.409	99.31
382.634	99.31
382.86	102.31
383.085	86.31
383.31	77.31
383.535	90.31
383.761	87.31
383.986	91.31
384.211	80.31
384.436	87.31
384.662	100.31
384.887	91.31
385.112	103.31
385.337	106.31
385.562	91.31
385.787	87.31
386.013	105.31
386.238	90.31
386.463	92.31
386.688	88.31
386.913	75.31
387.138	92.31
387.363	83.31
387.588	91.31
387.813	93.31
388.038	90.31
388.263	106.31
388.488	98.31
388.713	82.31
388.938	88.31
389.163	95.31
389.387	100.31
389.612	101.31
389.837	93.31
390.062	119.31
390.287	92.31
390.512	103.31
390.736	104.31
390.961	87.31
391.186	88.31
391.411	115.31
391.636	93.31
391.86	98.31
392.085	77.31
392.31	80.31
392.534	100.31
392.759	98.31
392.984	87.31
393.208	100.31
393.433	102.31
393.658	107.31
393.882	106.31
394.107	106.31
394.331	97.31
394.556	100.31
394.78	91.31
395.005	103.31
395.229	105.31
395.454	99.31
395.678	104.31
395.903	100.31
396.127	104.31
396.352	92.31
396.576	115.31
396.801	107.31
397.025	86.31
397.249	106.31
397.474	116.31
397.698	114.31
397.922	101.31
398.147	100.31
398.371	94.31
398.595	109.31
398.82	96.31
399.044	112.31
399.268	105.31
399.492	108.31
399.717	110.31
399.941	125.31
400.165	103.31
400.389	107.31
400.613	109.31
400.837	102.31
401.062	86.31
401.286	106.31
401.51	89.31
401.734	98.31
401.958	98.31
402.182	87.31
402.406	88.31
402.63	102.31
402.854	106.31
403.078	114.31
403.302	117.31
403.526	116.31
403.75	102.31
403.974	111.31
404.198	108.31
404.422	110.31
404.645	117.31
404.869	100.31
405.093	97.31
405.317	95.31
405.541	98.31
405.765	117.31
405.988	111.31
406.212	126.31
406.436	107.31
406.66	121.31
406.883	110.31
407.107	100.31
407.331	110.31
407.555	104.31
407.778	125.31
408.002	124.31
408.226	116.31
408.449	122.31
408.673	96.31
408.896	103.31
409.12	101.31
409.344	109.31
409.567	116.31
409.791	106.31
410.014	103.31
410.238	118.31
410.461	119.31
410.685	115.31
410.908	108.31
411.132	108.31
411.355	111.31
411.578	116.31
411.802	117.31
412.025	116.31
412.249	102.31
412.472	105.31
412.695	95.31
412.919	91.31
413.142	103.31
413.365	95.31
413.589	104.31
413.812	98.31
414.035	104.31
414.258	111.31
414.482	104.31
414.705	97.31
414.928	107.31
415.151	94.31
415.374	116.31
415.597	103.31
415.821	105.31
416.044	109.31
416.267	97.31
416.49	116.31
416.713	109.31
416.936	105.31
417.159	98.31
417.382	110.31
417.605	109.31
417.828	134.31
418.051	109.31
418.274	108.31
418.497	114.31
418.72	101.31
418.943	114.31
419.166	98.31
419.389	117.31
419.611	118.31
419.834	123.31
420.057	111.31
420.28	100.31
420.503	110.31
420.726	99.31
420.948	117.31
421.171	110.31
421.394	116.31
421.617	110.31
421.839	105.31
422.062	101.31
422.285	110.31
422.507	112.31
422.73	117.31
422.953	113.31
423.175	108.31
423.398	106.31
423.621	104.31
423.843	102.31
424.066	124.31
424.288	120.31
424.511	116.31
424.733	114.31
424.956	105.31
425.178	114.31
425.401	98.31
425.623	105.31
425.846	122.31
426.068	118.31
426.291	109.31
426.513	107.31
426.735	109.31
426.958	114.31
427.18	114.31
427.402	119.31
427.625	111.31
427.847	119.31
428.069	99.31
428.292	114.31
428.514	116.31
428.736	108.31
428.958	117.31
429.181	124.31
429.403	116.31
429.625	117.31
429.847	110.31
430.069	103.31
430.292	107.31
430.514	119.31
430.736	94.31
430.958	107.31
431.18	107.31
431.402	121.31
431.624	115.31
431.846	118.31
432.068	112.31
432.29	103.31
432.512	103.31
432.734	106.31
432.956	111.31
433.178	108.31
433.4	112.31
433.622	124.31
433.844	117.31
434.066	105.31
434.287	107.31
434.509	108.31
434.731	98.31
434.953	105.31
435.175	110.31
435.397	105.31
435.618	108.31
435.84	115.31
436.062	114.31
436.284	105.31
436.505	108.31
436.727	110.31
436.949	116.31
437.17	120.31
437.392	118.31
437.614	121.31
437.835	108.31
438.057	86.31
438.278	104.31
438.5	103.31
438.721	103.31
438.943	117.31
439.165	120.31
439.386	126.31
439.608	123.31
439.829	137.31
440.05	123.31
440.272	112.31
440.493	119.31
440.715	122.31
440.936	125.31
441.158	123.31
441.379	122.31
441.6	119.31
441.822	129.31
442.043	110.31
442.264	115.31
442.486	120.31
442.707	121.31
442.928	111.31
443.149	114.31
443.371	122.31
443.592	118.31
443.813	104.31
444.034	117.31
444.255	118.31
444.476	108.31
444.698	122.31
444.919	128.31
445.14	249.31
445.361	180.31
445.582	120.31
445.803	118.31
446.024	119.31
446.245	130.31
446.466	124.31
446.687	115.31
446.908	117.31
447.129	112.31
447.35	120.31
447.571	118.31
447.792	123.31
448.013	114.31
448.234	108.31
448.455	114.31
448.675	118.31
448.896	102.31
449.117	119.31
449.338	104.31
449.559	120.31
449.779	106.31
450	100.31
450.221	95.31
450.442	118.31
450.662	108.31
450.883	106.31
451.104	109.31
451.324	124.31
451.545	94.31
451.766	108.31
451.986	96.31
452.207	100.31
452.428	108.31
452.648	100.31
452.869	102.31
453.089	105.31
453.31	89.31
453.53	108.31
453.751	100.31
453.971	104.31
454.192	97.31
454.412	95.31
454.633	107.31
454.853	117.31
455.073	112.31
455.294	128.31
455.514	112.31
455.734	90.31
455.955	102.31
456.175	99.31
456.395	89.31
456.616	105.31
456.836	113.31
457.056	100.31
457.276	99.31
457.497	105.31
457.717	103.31
457.937	107.31
458.157	106.31
458.377	106.31
458.598	99.31
458.818	100.31
459.038	99.31
459.258	100.31
459.478	101.31
459.698	96.31
459.918	110.31
460.138	110.31
460.358	118.31
460.578	125.31
460.798	99.31
461.018	111.31
461.238	122.31
461.458	116.31
461.678	118.31
461.898	115.31
462.118	98.31
462.338	123.31
462.558	109.31
462.777	139.31
462.997	128.31
463.217	135.31
463.437	125.31
463.657	119.31
463.876	122.31
464.096	122.31
464.316	119.31
464.536	128.31
464.755	118.31
464.975	115.31
465.195	126.31
465.414	110.31
465.634	124.31
465.854	118.31
466.073	104.31
466.293	105.31
466.512	102.31
466.732	110.31
466.951	108.31
467.171	115.31
467.391	119.31
467.61	112.31
467.829	119.31
468.049	112.31
468.268	124.31
468.488	132.31
468.707	117.31
468.927	124.31
469.146	110.31
469.365	119.31
469.585	118.31
469.804	126.31
470.023	123.31
470.243	107.31
470.462	116.31
470.681	121.31
470.901	118.31
471.12	132.31
471.339	123.31
471.558	115.31
471.777	129.31
471.997	106.31
472.216	117.31
472.435	123.31
472.654	123.31
472.873	107.31
473.092	121.31
473.311	117.31
473.53	111.31
473.749	123.31
473.968	109.31
474.187	111.31
474.406	122.31
474.625	114.31
474.844	123.31
475.063	120.31
475.282	124.31
475.501	115.31
475.72	135.31
475.939	110.31
476.158	111.31
476.377	112.31
476.596	119.31
476.814	106.31
477.033	96.31
477.252	102.31
477.471	125.31
477.69	126.31
477.908	121.31
478.127	126.31
478.346	119.31
478.564	117.31
478.783	129.31
479.002	116.31
479.22	128.31
479.439	125.31
479.658	126.31
479.876	113.31
480.095	115.31
480.313	136.31
480.532	140.31
480.751	125.31
480.969	122.31
481.188	119.31
481.406	114.31
481.624	119.31
481.843	104.31
482.061	122.31
482.28	121.31
482.498	118.31
482.717	107.31
482.935	124.31
483.153	127.31
483.372	119.31
483.59	122.31
483.808	118.31
484.027	124.31
484.245	128.31
484.463	139.31
484.681	151.31
484.9	128.31
485.118	117.31
485.336	127.31
485.554	120.31
485.772	117.31
485.99	122.31
486.209	117.31
486.427	105.31
486.645	103.31
486.863	119.31
487.081	120.31
487.299	113.31
487.517	128.31
487.735	140.31
487.953	138.31
488.171	153.31
488.389	131.31
488.607	129.31
488.825	120.31
489.043	115.31
489.261	118.31
489.479	126.31
489.696	128.31
489.914	131.31
490.132	125.31
490.35	136.31
490.568	136.31
490.786	149.31
491.003	127.31
491.221	139.31
491.439	143.31
491.657	154.31
491.874	141.31
492.092	150.31
492.31	164.31
492.527	156.31
492.745	171.31
492.963	159.31
493.18	148.31
493.398	152.31
493.615	154.31
493.833	147.31
494.05	134.31
494.268	139.31
494.485	148.31
494.703	145.31
494.92	142.31
495.138	141.31
495.355	142.31
495.573	135.31
495.79	141.31
496.008	164.31
496.225	148.31
496.442	154.31
496.66	152.31
496.877	145.31
497.094	142.31
497.312	142.31
497.529	150.31
497.746	140.31
497.963	139.31
498.181	130.31
498.398	137.31
498.615	126.31
498.832	145.31
499.049	139.31
499.267	154.31
499.484	150.31
499.701	165.31
499.918	182.31
500.135	210.31
500.352	204.31
500.569	222.31
500.786	214.31
501.003	212.31
501.22	186.31
501.437	180.31
501.654	176.31
501.871	154.31
502.088	153.31
502.305	156.31
502.522	151.31
502.739	133.31
502.956	150.31
503.172	123.31
503.389	132.31
503.606	124.31
503.823	128.31
504.04	130.31
504.256	134.31
504.473	117.31
504.69	150.31
504.907	145.31
505.123	139.31
505.34	126.31
505.557	136.31
505.773	124.31
505.99	102.31
506.207	130.31
506.423	104.31
506.64	123.31
506.856	114.31
507.073	125.31
507.289	127.31
507.506	110.31
507.722	110.31
507.939	131.31
508.155	128.31
508.372	106.31
508.588	119.31
508.805	138.31
509.021	120.31
509.238	118.31
509.454	115.31
509.67	100.31
509.887	117.31
510.103	111.31
510.319	108.31
510.536	104.31
510.752	116.31
510.968	126.31
511.184	128.31
511.401	138.31
511.617	116.31
