Data from StandardFe(NO3)3.TAE.3%Agarose.FlatLispGreen.Lamp.Energy10.07252019_HRD10591_11-54-55-440.txt Node
Date: Thu Jul 25 11:54:55 EDT 2019
User: cochatt
Spectrometer: HR+D1059
Trigger mode: 1
Integration Time (sec): 1.000000E-1
Scans to average: 1
Electric dark correction enabled: true
Nonlinearity correction enabled: false
Boxcar width: 0
XAxis mode: Wavelengths
Number of Pixels in Spectrum: 2048
>>>>>Begin Spectral Data<<<<<
223.165	-16.88
223.4	-16.88
223.635	-16.88
223.869	-30.88
224.104	-19.88
224.338	0.12
224.573	-21.88
224.808	-13.88
225.042	-1.88
225.277	-7.88
225.511	1.12
225.746	6.12
225.98	12.12
226.215	7.12
226.449	18.12
226.683	33.12
226.918	8.12
227.152	27.12
227.387	18.12
227.621	35.12
227.856	37.12
228.09	45.12
228.324	52.12
228.559	60.12
228.793	48.12
229.027	61.12
229.262	59.12
229.496	66.12
229.73	72.12
229.964	81.12
230.199	69.12
230.433	77.12
230.667	72.12
230.901	70.12
231.136	77.12
231.37	73.12
231.604	95.12
231.838	82.12
232.072	87.12
232.306	73.12
232.541	79.12
232.775	84.12
233.009	73.12
233.243	92.12
233.477	79.12
233.711	74.12
233.945	76.12
234.179	79.12
234.413	77.12
234.647	75.12
234.881	68.12
235.115	64.12
235.349	69.12
235.583	68.12
235.817	88.12
236.051	87.12
236.285	69.12
236.519	82.12
236.753	80.12
236.987	77.12
237.221	75.12
237.455	67.12
237.689	70.12
237.922	77.12
238.156	80.12
238.39	85.12
238.624	74.12
238.858	83.12
239.091	75.12
239.325	67.12
239.559	75.12
239.793	87.12
240.027	86.12
240.26	76.12
240.494	68.12
240.728	69.12
240.961	73.12
241.195	70.12
241.429	65.12
241.662	76.12
241.896	64.12
242.13	67.12
242.363	75.12
242.597	72.12
242.83	67.12
243.064	83.12
243.298	85.12
243.531	81.12
243.765	88.12
243.998	89.12
244.232	76.12
244.465	90.12
244.699	80.12
244.932	84.12
245.166	81.12
245.399	66.12
245.633	71.12
245.866	76.12
246.099	85.12
246.333	87.12
246.566	69.12
246.8	67.12
247.033	63.12
247.266	66.12
247.5	76.12
247.733	69.12
247.966	79.12
248.2	82.12
248.433	77.12
248.666	84.12
248.899	79.12
249.133	73.12
249.366	74.12
249.599	74.12
249.832	64.12
250.066	87.12
250.299	84.12
250.532	71.12
250.765	71.12
250.998	89.12
251.231	74.12
251.465	83.12
251.698	81.12
251.931	83.12
252.164	94.12
252.397	77.12
252.63	83.12
252.863	79.12
253.096	99.12
253.329	84.12
253.562	75.12
253.795	71.12
254.028	81.12
254.261	79.12
254.494	75.12
254.727	78.12
254.96	77.12
255.193	83.12
255.426	75.12
255.659	69.12
255.892	89.12
256.124	76.12
256.357	84.12
256.59	76.12
256.823	81.12
257.056	69.12
257.289	84.12
257.521	75.12
257.754	83.12
257.987	76.12
258.22	75.12
258.452	93.12
258.685	76.12
258.918	81.12
259.151	81.12
259.383	92.12
259.616	88.12
259.849	73.12
260.081	82.12
260.314	82.12
260.547	76.12
260.779	99.12
261.012	84.12
261.244	91.12
261.477	75.12
261.71	89.12
261.942	82.12
262.175	79.12
262.407	80.12
262.64	83.12
262.872	85.12
263.105	81.12
263.337	88.12
263.57	73.12
263.802	82.12
264.035	78.12
264.267	71.12
264.499	88.12
264.732	89.12
264.964	83.12
265.197	92.12
265.429	84.12
265.661	70.12
265.894	77.12
266.126	83.12
266.358	80.12
266.591	84.12
266.823	89.12
267.055	74.12
267.287	83.12
267.52	78.12
267.752	91.12
267.984	82.12
268.216	79.12
268.448	83.12
268.681	89.12
268.913	85.12
269.145	80.12
269.377	88.12
269.609	72.12
269.841	71.12
270.073	85.12
270.306	68.12
270.538	70.12
270.77	82.12
271.002	88.12
271.234	71.12
271.466	87.12
271.698	86.12
271.93	98.12
272.162	82.12
272.394	86.12
272.626	79.12
272.858	72.12
273.09	75.12
273.322	85.12
273.553	69.12
273.785	80.12
274.017	73.12
274.249	95.12
274.481	84.12
274.713	73.12
274.945	75.12
275.176	83.12
275.408	87.12
275.64	87.12
275.872	91.12
276.104	73.12
276.335	71.12
276.567	73.12
276.799	76.12
277.031	81.12
277.262	79.12
277.494	75.12
277.726	91.12
277.957	86.12
278.189	74.12
278.421	88.12
278.652	88.12
278.884	87.12
279.115	91.12
279.347	68.12
279.579	92.12
279.81	78.12
280.042	73.12
280.273	88.12
280.505	90.12
280.736	82.12
280.968	66.12
281.199	81.12
281.431	88.12
281.662	83.12
281.894	100.12
282.125	103.12
282.356	79.12
282.588	79.12
282.819	85.12
283.051	90.12
283.282	67.12
283.513	85.12
283.745	74.12
283.976	85.12
284.207	82.12
284.439	68.12
284.67	81.12
284.901	82.12
285.132	94.12
285.364	82.12
285.595	71.12
285.826	85.12
286.057	83.12
286.288	83.12
286.52	92.12
286.751	83.12
286.982	83.12
287.213	83.12
287.444	81.12
287.675	77.12
287.906	83.12
288.138	80.12
288.369	84.12
288.6	76.12
288.831	74.12
289.062	77.12
289.293	85.12
289.524	103.12
289.755	72.12
289.986	79.12
290.217	73.12
290.448	84.12
290.679	91.12
290.91	82.12
291.141	65.12
291.371	73.12
291.602	90.12
291.833	76.12
292.064	78.12
292.295	93.12
292.526	78.12
292.757	83.12
292.987	80.12
293.218	82.12
293.449	88.12
293.68	94.12
293.91	86.12
294.141	73.12
294.372	80.12
294.603	89.12
294.833	81.12
295.064	76.12
295.295	81.12
295.525	91.12
295.756	88.12
295.987	95.12
296.217	96.12
296.448	81.12
296.679	86.12
296.909	80.12
297.14	90.12
297.37	100.12
297.601	90.12
297.831	83.12
298.062	88.12
298.292	81.12
298.523	90.12
298.753	87.12
298.984	84.12
299.214	84.12
299.445	85.12
299.675	77.12
299.905	83.12
300.136	83.12
300.366	88.12
300.597	97.12
300.827	88.12
301.057	77.12
301.288	89.12
301.518	98.12
301.748	95.12
301.979	84.12
302.209	84.12
302.439	89.12
302.669	80.12
302.9	84.12
303.13	76.12
303.36	85.12
303.59	74.12
303.82	84.12
304.051	88.12
304.281	85.12
304.511	87.12
304.741	92.12
304.971	85.12
305.201	98.12
305.431	95.12
305.661	87.12
305.891	75.12
306.121	72.12
306.352	95.12
306.582	73.12
306.812	75.12
307.042	83.12
307.272	83.12
307.502	88.12
307.731	85.12
307.961	87.12
308.191	83.12
308.421	81.12
308.651	82.12
308.881	87.12
309.111	71.12
309.341	73.12
309.571	85.12
309.8	85.12
310.03	90.12
310.26	90.12
310.49	77.12
310.72	84.12
310.949	80.12
311.179	102.12
311.409	66.12
311.639	98.12
311.868	88.12
312.098	77.12
312.328	79.12
312.557	96.12
312.787	77.12
313.017	77.12
313.246	80.12
313.476	84.12
313.706	70.12
313.935	81.12
314.165	85.12
314.394	91.12
314.624	98.12
314.853	79.12
315.083	74.12
315.312	67.12
315.542	77.12
315.771	87.12
316.001	77.12
316.23	83.12
316.46	93.12
316.689	79.12
316.919	87.12
317.148	92.12
317.377	68.12
317.607	73.12
317.836	83.12
318.065	75.12
318.295	73.12
318.524	89.12
318.753	80.12
318.983	73.12
319.212	88.12
319.441	75.12
319.67	75.12
319.9	103.12
320.129	84.12
320.358	86.12
320.587	75.12
320.816	80.12
321.046	82.12
321.275	91.12
321.504	91.12
321.733	86.12
321.962	91.12
322.191	77.12
322.42	74.12
322.649	80.12
322.878	83.12
323.108	71.12
323.337	74.12
323.566	79.12
323.795	78.12
324.024	88.12
324.253	83.12
324.482	86.12
324.71	85.12
324.939	88.12
325.168	85.12
325.397	76.12
325.626	100.12
325.855	86.12
326.084	88.12
326.313	81.12
326.542	76.12
326.77	79.12
326.999	94.12
327.228	85.12
327.457	90.12
327.686	90.12
327.914	74.12
328.143	96.12
328.372	93.12
328.6	94.12
328.829	83.12
329.058	79.12
329.287	83.12
329.515	82.12
329.744	77.12
329.972	76.12
330.201	87.12
330.43	95.12
330.658	80.12
330.887	88.12
331.115	79.12
331.344	88.12
331.572	76.12
331.801	89.12
332.03	73.12
332.258	106.12
332.486	85.12
332.715	86.12
332.943	70.12
333.172	83.12
333.4	83.12
333.629	78.12
333.857	87.12
334.085	68.12
334.314	75.12
334.542	96.12
334.771	97.12
334.999	78.12
335.227	98.12
335.455	86.12
335.684	95.12
335.912	81.12
336.14	87.12
336.369	92.12
336.597	95.12
336.825	84.12
337.053	85.12
337.281	69.12
337.51	83.12
337.738	87.12
337.966	80.12
338.194	77.12
338.422	84.12
338.65	88.12
338.878	75.12
339.106	88.12
339.334	87.12
339.562	81.12
339.79	95.12
340.018	80.12
340.246	83.12
340.474	80.12
340.702	75.12
340.93	89.12
341.158	95.12
341.386	77.12
341.614	97.12
341.842	88.12
342.07	87.12
342.298	92.12
342.526	89.12
342.754	75.12
342.981	85.12
343.209	92.12
343.437	94.12
343.665	84.12
343.893	89.12
344.12	75.12
344.348	82.12
344.576	69.12
344.804	86.12
345.031	93.12
345.259	85.12
345.487	87.12
345.714	81.12
345.942	79.12
346.17	91.12
346.397	83.12
346.625	89.12
346.853	85.12
347.08	84.12
347.308	81.12
347.535	74.12
347.763	80.12
347.99	89.12
348.218	91.12
348.445	76.12
348.673	96.12
348.9	75.12
349.128	102.12
349.355	89.12
349.583	98.12
349.81	83.12
350.037	84.12
350.265	79.12
350.492	96.12
350.72	99.12
350.947	90.12
351.174	81.12
351.402	96.12
351.629	93.12
351.856	86.12
352.083	92.12
352.311	79.12
352.538	84.12
352.765	75.12
352.992	93.12
353.22	74.12
353.447	71.12
353.674	65.12
353.901	81.12
354.128	95.12
354.355	88.12
354.583	98.12
354.81	75.12
355.037	76.12
355.264	91.12
355.491	88.12
355.718	72.12
355.945	84.12
356.172	83.12
356.399	78.12
356.626	88.12
356.853	95.12
357.08	75.12
357.307	84.12
357.534	78.12
357.761	81.12
357.988	101.12
358.215	90.12
358.441	85.12
358.668	76.12
358.895	69.12
359.122	77.12
359.349	87.12
359.576	75.12
359.802	84.12
360.029	93.12
360.256	74.12
360.483	93.12
360.709	89.12
360.936	89.12
361.163	77.12
361.39	88.12
361.616	83.12
361.843	86.12
362.07	83.12
362.296	88.12
362.523	72.12
362.749	80.12
362.976	88.12
363.203	81.12
363.429	89.12
363.656	80.12
363.882	87.12
364.109	85.12
364.335	92.12
364.562	90.12
364.788	92.12
365.015	89.12
365.241	106.12
365.468	75.12
365.694	81.12
365.92	66.12
366.147	75.12
366.373	88.12
366.599	97.12
366.826	90.12
367.052	81.12
367.278	87.12
367.505	79.12
367.731	86.12
367.957	79.12
368.184	85.12
368.41	95.12
368.636	97.12
368.862	77.12
369.089	86.12
369.315	87.12
369.541	81.12
369.767	80.12
369.993	79.12
370.219	85.12
370.445	88.12
370.672	87.12
370.898	86.12
371.124	82.12
371.35	82.12
371.576	84.12
371.802	92.12
372.028	91.12
372.254	83.12
372.48	84.12
372.706	99.12
372.932	91.12
373.158	77.12
373.384	88.12
373.61	81.12
373.835	88.12
374.061	59.12
374.287	89.12
374.513	91.12
374.739	77.12
374.965	91.12
375.191	92.12
375.416	86.12
375.642	93.12
375.868	83.12
376.094	93.12
376.319	81.12
376.545	89.12
376.771	95.12
376.997	83.12
377.222	89.12
377.448	85.12
377.674	98.12
377.899	87.12
378.125	84.12
378.35	89.12
378.576	99.12
378.802	100.12
379.027	97.12
379.253	88.12
379.478	89.12
379.704	78.12
379.929	93.12
380.155	96.12
380.38	95.12
380.606	82.12
380.831	90.12
381.057	91.12
381.282	91.12
381.507	86.12
381.733	93.12
381.958	88.12
382.184	87.12
382.409	83.12
382.634	104.12
382.86	112.12
383.085	106.12
383.31	89.12
383.535	94.12
383.761	97.12
383.986	103.12
384.211	85.12
384.436	89.12
384.662	90.12
384.887	96.12
385.112	79.12
385.337	90.12
385.562	92.12
385.787	99.12
386.013	99.12
386.238	87.12
386.463	78.12
386.688	77.12
386.913	89.12
387.138	78.12
387.363	103.12
387.588	99.12
387.813	91.12
388.038	90.12
388.263	95.12
388.488	100.12
388.713	99.12
388.938	92.12
389.163	83.12
389.387	95.12
389.612	89.12
389.837	100.12
390.062	100.12
390.287	106.12
390.512	105.12
390.736	89.12
390.961	104.12
391.186	105.12
391.411	96.12
391.636	92.12
391.86	90.12
392.085	107.12
392.31	104.12
392.534	80.12
392.759	91.12
392.984	88.12
393.208	101.12
393.433	99.12
393.658	93.12
393.882	99.12
394.107	92.12
394.331	88.12
394.556	88.12
394.78	101.12
395.005	103.12
395.229	108.12
395.454	100.12
395.678	106.12
395.903	87.12
396.127	103.12
396.352	100.12
396.576	101.12
396.801	96.12
397.025	97.12
397.249	116.12
397.474	115.12
397.698	100.12
397.922	105.12
398.147	106.12
398.371	89.12
398.595	95.12
398.82	98.12
399.044	108.12
399.268	102.12
399.492	121.12
399.717	110.12
399.941	91.12
400.165	98.12
400.389	99.12
400.613	92.12
400.837	114.12
401.062	101.12
401.286	95.12
401.51	110.12
401.734	118.12
401.958	88.12
402.182	91.12
402.406	99.12
402.63	114.12
402.854	99.12
403.078	104.12
403.302	115.12
403.526	116.12
403.75	96.12
403.974	104.12
404.198	123.12
404.422	117.12
404.645	118.12
404.869	94.12
405.093	115.12
405.317	97.12
405.541	108.12
405.765	103.12
405.988	113.12
406.212	111.12
406.436	102.12
406.66	108.12
406.883	118.12
407.107	103.12
407.331	112.12
407.555	119.12
407.778	100.12
408.002	109.12
408.226	121.12
408.449	120.12
408.673	100.12
408.896	114.12
409.12	109.12
409.344	94.12
409.567	113.12
409.791	103.12
410.014	115.12
410.238	113.12
410.461	112.12
410.685	124.12
410.908	118.12
411.132	124.12
411.355	108.12
411.578	100.12
411.802	118.12
412.025	101.12
412.249	115.12
412.472	117.12
412.695	103.12
412.919	108.12
413.142	113.12
413.365	100.12
413.589	117.12
413.812	109.12
414.035	104.12
414.258	105.12
414.482	107.12
414.705	111.12
414.928	113.12
415.151	108.12
415.374	116.12
415.597	100.12
415.821	107.12
416.044	111.12
416.267	102.12
416.49	111.12
416.713	117.12
416.936	121.12
417.159	107.12
417.382	96.12
417.605	100.12
417.828	121.12
418.051	110.12
418.274	131.12
418.497	122.12
418.72	122.12
418.943	115.12
419.166	108.12
419.389	117.12
419.611	119.12
419.834	104.12
420.057	107.12
420.28	120.12
420.503	115.12
420.726	114.12
420.948	109.12
421.171	115.12
421.394	119.12
421.617	98.12
421.839	113.12
422.062	118.12
422.285	119.12
422.507	120.12
422.73	123.12
422.953	105.12
423.175	98.12
423.398	112.12
423.621	118.12
423.843	125.12
424.066	113.12
424.288	106.12
424.511	107.12
424.733	120.12
424.956	121.12
425.178	118.12
425.401	116.12
425.623	111.12
425.846	104.12
426.068	126.12
426.291	130.12
426.513	124.12
426.735	132.12
426.958	109.12
427.18	113.12
427.402	119.12
427.625	106.12
427.847	104.12
428.069	99.12
428.292	92.12
428.514	118.12
428.736	104.12
428.958	116.12
429.181	112.12
429.403	106.12
429.625	111.12
429.847	123.12
430.069	122.12
430.292	112.12
430.514	117.12
430.736	118.12
430.958	126.12
431.18	107.12
431.402	122.12
431.624	99.12
431.846	126.12
432.068	113.12
432.29	100.12
432.512	120.12
432.734	111.12
432.956	123.12
433.178	125.12
433.4	112.12
433.622	116.12
433.844	112.12
434.066	107.12
434.287	119.12
434.509	107.12
434.731	115.12
434.953	94.12
435.175	121.12
435.397	109.12
435.618	118.12
435.84	101.12
436.062	112.12
436.284	106.12
436.505	116.12
436.727	106.12
436.949	120.12
437.17	113.12
437.392	106.12
437.614	100.12
437.835	106.12
438.057	97.12
438.278	111.12
438.5	120.12
438.721	118.12
438.943	116.12
439.165	112.12
439.386	119.12
439.608	104.12
439.829	100.12
440.05	103.12
440.272	120.12
440.493	101.12
440.715	115.12
440.936	123.12
441.158	132.12
441.379	119.12
441.6	126.12
441.822	133.12
442.043	110.12
442.264	124.12
442.486	124.12
442.707	114.12
442.928	94.12
443.149	123.12
443.371	139.12
443.592	132.12
443.813	125.12
444.034	123.12
444.255	125.12
444.476	124.12
444.698	108.12
444.919	115.12
445.14	233.12
445.361	179.12
445.582	123.12
445.803	123.12
446.024	126.12
446.245	119.12
446.466	120.12
446.687	123.12
446.908	118.12
447.129	122.12
447.35	123.12
447.571	112.12
447.792	115.12
448.013	121.12
448.234	123.12
448.455	108.12
448.675	121.12
448.896	123.12
449.117	108.12
449.338	113.12
449.559	111.12
449.779	109.12
450	100.12
450.221	113.12
450.442	114.12
450.662	119.12
450.883	117.12
451.104	123.12
451.324	120.12
451.545	115.12
451.766	106.12
451.986	95.12
452.207	105.12
452.428	121.12
452.648	117.12
452.869	105.12
453.089	100.12
453.31	100.12
453.53	104.12
453.751	112.12
453.971	95.12
454.192	113.12
454.412	99.12
454.633	103.12
454.853	103.12
455.073	109.12
455.294	93.12
455.514	124.12
455.734	106.12
455.955	108.12
456.175	109.12
456.395	102.12
456.616	107.12
456.836	107.12
457.056	109.12
457.276	94.12
457.497	90.12
457.717	107.12
457.937	105.12
458.157	102.12
458.377	118.12
458.598	103.12
458.818	94.12
459.038	91.12
459.258	103.12
459.478	121.12
459.698	89.12
459.918	117.12
460.138	108.12
460.358	110.12
460.578	124.12
460.798	117.12
461.018	114.12
461.238	135.12
461.458	121.12
461.678	110.12
461.898	116.12
462.118	120.12
462.338	121.12
462.558	119.12
462.777	121.12
462.997	117.12
463.217	129.12
463.437	107.12
463.657	117.12
463.876	131.12
464.096	137.12
464.316	113.12
464.536	118.12
464.755	121.12
464.975	109.12
465.195	121.12
465.414	115.12
465.634	120.12
465.854	108.12
466.073	124.12
466.293	108.12
466.512	106.12
466.732	122.12
466.951	103.12
467.171	116.12
467.391	106.12
467.61	111.12
467.829	113.12
468.049	118.12
468.268	108.12
468.488	114.12
468.707	123.12
468.927	124.12
469.146	140.12
469.365	118.12
469.585	112.12
469.804	114.12
470.023	122.12
470.243	124.12
470.462	141.12
470.681	125.12
470.901	114.12
471.12	135.12
471.339	117.12
471.558	117.12
471.777	119.12
471.997	121.12
472.216	119.12
472.435	117.12
472.654	103.12
472.873	115.12
473.092	109.12
473.311	107.12
473.53	123.12
473.749	116.12
473.968	133.12
474.187	121.12
474.406	100.12
474.625	123.12
474.844	111.12
475.063	108.12
475.282	117.12
475.501	115.12
475.72	121.12
475.939	118.12
476.158	119.12
476.377	122.12
476.596	125.12
476.814	123.12
477.033	115.12
477.252	103.12
477.471	113.12
477.69	126.12
477.908	129.12
478.127	119.12
478.346	131.12
478.564	136.12
478.783	133.12
479.002	122.12
479.22	136.12
479.439	133.12
479.658	121.12
479.876	126.12
480.095	125.12
480.313	117.12
480.532	116.12
480.751	126.12
480.969	133.12
481.188	137.12
481.406	115.12
481.624	122.12
481.843	123.12
482.061	123.12
482.28	125.12
482.498	115.12
482.717	125.12
482.935	112.12
483.153	113.12
483.372	128.12
483.59	125.12
483.808	144.12
484.027	131.12
484.245	121.12
484.463	123.12
484.681	123.12
484.9	138.12
485.118	128.12
485.336	123.12
485.554	103.12
485.772	121.12
485.99	123.12
486.209	121.12
486.427	132.12
486.645	137.12
486.863	127.12
487.081	118.12
487.299	122.12
487.517	124.12
487.735	128.12
487.953	157.12
488.171	146.12
488.389	127.12
488.607	135.12
488.825	124.12
489.043	135.12
489.261	137.12
489.479	136.12
489.696	132.12
489.914	127.12
490.132	126.12
490.35	129.12
490.568	125.12
490.786	141.12
491.003	147.12
491.221	158.12
491.439	153.12
491.657	132.12
491.874	167.12
492.092	147.12
492.31	169.12
492.527	166.12
492.745	165.12
492.963	154.12
493.18	158.12
493.398	150.12
493.615	151.12
493.833	153.12
494.05	144.12
494.268	138.12
494.485	145.12
494.703	151.12
494.92	164.12
495.138	159.12
495.355	160.12
495.573	141.12
495.79	129.12
496.008	139.12
496.225	160.12
496.442	151.12
496.66	163.12
496.877	137.12
497.094	151.12
497.312	131.12
497.529	151.12
497.746	141.12
497.963	150.12
498.181	140.12
498.398	151.12
498.615	141.12
498.832	142.12
499.049	141.12
499.267	159.12
499.484	175.12
499.701	164.12
499.918	180.12
500.135	192.12
500.352	225.12
500.569	235.12
500.786	214.12
501.003	210.12
501.22	196.12
501.437	177.12
501.654	158.12
501.871	151.12
502.088	150.12
502.305	154.12
502.522	168.12
502.739	145.12
502.956	138.12
503.172	131.12
503.389	137.12
503.606	138.12
503.823	113.12
504.04	138.12
504.256	129.12
504.473	136.12
504.69	115.12
504.907	156.12
505.123	135.12
505.34	139.12
505.557	145.12
505.773	119.12
505.99	134.12
506.207	122.12
506.423	121.12
506.64	109.12
506.856	126.12
507.073	117.12
507.289	114.12
507.506	123.12
507.722	131.12
507.939	131.12
508.155	133.12
508.372	106.12
508.588	114.12
508.805	128.12
509.021	119.12
509.238	111.12
509.454	123.12
509.67	121.12
509.887	134.12
510.103	111.12
510.319	106.12
510.536	106.12
510.752	107.12
510.968	125.12
511.184	99.12
511.401	104.12
511.617	113.12
511.833	106.12
