Data from StandardFe(NO3)3.TAE.3%Agarose.FlatLispGreen.Lamp.Energy10.07252019_HRD10591_11-55-11-441.txt Node
Date: Thu Jul 25 11:55:11 EDT 2019
User: cochatt
Spectrometer: HR+D1059
Trigger mode: 1
Integration Time (sec): 1.000000E-1
Scans to average: 1
Electric dark correction enabled: true
Nonlinearity correction enabled: false
Boxcar width: 0
XAxis mode: Wavelengths
Number of Pixels in Spectrum: 2048
>>>>>Begin Spectral Data<<<<<
223.165	-29.38
223.4	-29.38
223.635	-29.38
223.869	-19.38
224.104	-12.38
224.338	-19.38
224.573	-10.38
224.808	-13.38
225.042	-12.38
225.277	-11.38
225.511	-5.38
225.746	10.62
225.98	14.62
226.215	21.62
226.449	18.62
226.683	12.62
226.918	26.62
227.152	28.62
227.387	51.62
227.621	27.62
227.856	41.62
228.09	51.62
228.324	44.62
228.559	47.62
228.793	64.62
229.027	62.62
229.262	65.62
229.496	71.62
229.73	66.62
229.964	74.62
230.199	76.62
230.433	72.62
230.667	79.62
230.901	67.62
231.136	87.62
231.37	85.62
231.604	80.62
231.838	83.62
232.072	81.62
232.306	83.62
232.541	78.62
232.775	81.62
233.009	84.62
233.243	59.62
233.477	83.62
233.711	69.62
233.945	97.62
234.179	72.62
234.413	100.62
234.647	88.62
234.881	63.62
235.115	77.62
235.349	87.62
235.583	76.62
235.817	77.62
236.051	70.62
236.285	77.62
236.519	72.62
236.753	71.62
236.987	89.62
237.221	81.62
237.455	74.62
237.689	94.62
237.922	71.62
238.156	78.62
238.39	71.62
238.624	79.62
238.858	84.62
239.091	58.62
239.325	79.62
239.559	75.62
239.793	75.62
240.027	72.62
240.26	74.62
240.494	79.62
240.728	82.62
240.961	67.62
241.195	70.62
241.429	73.62
241.662	68.62
241.896	83.62
242.13	74.62
242.363	78.62
242.597	80.62
242.83	73.62
243.064	70.62
243.298	71.62
243.531	76.62
243.765	71.62
243.998	66.62
244.232	80.62
244.465	88.62
244.699	77.62
244.932	82.62
245.166	79.62
245.399	74.62
245.633	71.62
245.866	68.62
246.099	75.62
246.333	74.62
246.566	73.62
246.8	70.62
247.033	87.62
247.266	62.62
247.5	72.62
247.733	69.62
247.966	89.62
248.2	69.62
248.433	66.62
248.666	69.62
248.899	88.62
249.133	83.62
249.366	84.62
249.599	80.62
249.832	73.62
250.066	84.62
250.299	77.62
250.532	82.62
250.765	65.62
250.998	73.62
251.231	74.62
251.465	83.62
251.698	88.62
251.931	67.62
252.164	85.62
252.397	87.62
252.63	78.62
252.863	79.62
253.096	75.62
253.329	71.62
253.562	70.62
253.795	92.62
254.028	86.62
254.261	94.62
254.494	87.62
254.727	81.62
254.96	75.62
255.193	66.62
255.426	72.62
255.659	70.62
255.892	71.62
256.124	79.62
256.357	70.62
256.59	81.62
256.823	87.62
257.056	73.62
257.289	87.62
257.521	76.62
257.754	78.62
257.987	81.62
258.22	73.62
258.452	90.62
258.685	82.62
258.918	76.62
259.151	81.62
259.383	78.62
259.616	76.62
259.849	73.62
260.081	81.62
260.314	64.62
260.547	74.62
260.779	79.62
261.012	81.62
261.244	75.62
261.477	90.62
261.71	83.62
261.942	78.62
262.175	90.62
262.407	75.62
262.64	72.62
262.872	85.62
263.105	81.62
263.337	85.62
263.57	75.62
263.802	76.62
264.035	73.62
264.267	82.62
264.499	92.62
264.732	83.62
264.964	81.62
265.197	75.62
265.429	72.62
265.661	70.62
265.894	90.62
266.126	75.62
266.358	81.62
266.591	87.62
266.823	80.62
267.055	71.62
267.287	84.62
267.52	76.62
267.752	87.62
267.984	75.62
268.216	76.62
268.448	95.62
268.681	76.62
268.913	80.62
269.145	71.62
269.377	91.62
269.609	93.62
269.841	94.62
270.073	74.62
270.306	92.62
270.538	84.62
270.77	76.62
271.002	88.62
271.234	78.62
271.466	85.62
271.698	76.62
271.93	73.62
272.162	80.62
272.394	87.62
272.626	84.62
272.858	74.62
273.09	80.62
273.322	83.62
273.553	90.62
273.785	76.62
274.017	85.62
274.249	68.62
274.481	75.62
274.713	77.62
274.945	86.62
275.176	78.62
275.408	80.62
275.64	90.62
275.872	85.62
276.104	89.62
276.335	90.62
276.567	84.62
276.799	78.62
277.031	89.62
277.262	75.62
277.494	90.62
277.726	79.62
277.957	65.62
278.189	86.62
278.421	74.62
278.652	77.62
278.884	99.62
279.115	90.62
279.347	67.62
279.579	85.62
279.81	82.62
280.042	94.62
280.273	77.62
280.505	105.62
280.736	90.62
280.968	76.62
281.199	80.62
281.431	86.62
281.662	84.62
281.894	74.62
282.125	80.62
282.356	74.62
282.588	84.62
282.819	91.62
283.051	76.62
283.282	87.62
283.513	75.62
283.745	82.62
283.976	87.62
284.207	90.62
284.439	86.62
284.67	74.62
284.901	86.62
285.132	90.62
285.364	78.62
285.595	75.62
285.826	75.62
286.057	82.62
286.288	80.62
286.52	88.62
286.751	70.62
286.982	87.62
287.213	87.62
287.444	79.62
287.675	83.62
287.906	83.62
288.138	82.62
288.369	86.62
288.6	81.62
288.831	81.62
289.062	65.62
289.293	88.62
289.524	81.62
289.755	97.62
289.986	87.62
290.217	80.62
290.448	87.62
290.679	84.62
290.91	91.62
291.141	93.62
291.371	82.62
291.602	87.62
291.833	78.62
292.064	76.62
292.295	82.62
292.526	91.62
292.757	81.62
292.987	88.62
293.218	82.62
293.449	79.62
293.68	79.62
293.91	90.62
294.141	76.62
294.372	83.62
294.603	99.62
294.833	73.62
295.064	76.62
295.295	83.62
295.525	83.62
295.756	66.62
295.987	71.62
296.217	90.62
296.448	97.62
296.679	83.62
296.909	81.62
297.14	91.62
297.37	77.62
297.601	101.62
297.831	89.62
298.062	100.62
298.292	89.62
298.523	92.62
298.753	76.62
298.984	83.62
299.214	86.62
299.445	97.62
299.675	71.62
299.905	75.62
300.136	85.62
300.366	83.62
300.597	84.62
300.827	83.62
301.057	83.62
301.288	81.62
301.518	90.62
301.748	86.62
301.979	81.62
302.209	84.62
302.439	87.62
302.669	76.62
302.9	84.62
303.13	82.62
303.36	85.62
303.59	95.62
303.82	68.62
304.051	78.62
304.281	70.62
304.511	77.62
304.741	86.62
304.971	91.62
305.201	89.62
305.431	85.62
305.661	100.62
305.891	84.62
306.121	77.62
306.352	95.62
306.582	90.62
306.812	93.62
307.042	87.62
307.272	89.62
307.502	91.62
307.731	75.62
307.961	76.62
308.191	86.62
308.421	75.62
308.651	89.62
308.881	70.62
309.111	79.62
309.341	85.62
309.571	93.62
309.8	77.62
310.03	76.62
310.26	85.62
310.49	88.62
310.72	94.62
310.949	74.62
311.179	77.62
311.409	82.62
311.639	89.62
311.868	78.62
312.098	90.62
312.328	81.62
312.557	87.62
312.787	78.62
313.017	83.62
313.246	70.62
313.476	94.62
313.706	86.62
313.935	72.62
314.165	84.62
314.394	72.62
314.624	89.62
314.853	82.62
315.083	91.62
315.312	83.62
315.542	77.62
315.771	95.62
316.001	80.62
316.23	83.62
316.46	83.62
316.689	83.62
316.919	83.62
317.148	91.62
317.377	84.62
317.607	87.62
317.836	87.62
318.065	74.62
318.295	87.62
318.524	73.62
318.753	75.62
318.983	82.62
319.212	88.62
319.441	86.62
319.67	77.62
319.9	86.62
320.129	79.62
320.358	90.62
320.587	91.62
320.816	87.62
321.046	76.62
321.275	82.62
321.504	81.62
321.733	88.62
321.962	70.62
322.191	85.62
322.42	85.62
322.649	73.62
322.878	82.62
323.108	92.62
323.337	94.62
323.566	86.62
323.795	91.62
324.024	74.62
324.253	78.62
324.482	86.62
324.71	91.62
324.939	89.62
325.168	77.62
325.397	79.62
325.626	83.62
325.855	74.62
326.084	87.62
326.313	86.62
326.542	79.62
326.77	83.62
326.999	75.62
327.228	91.62
327.457	76.62
327.686	77.62
327.914	72.62
328.143	87.62
328.372	94.62
328.6	97.62
328.829	89.62
329.058	77.62
329.287	85.62
329.515	80.62
329.744	99.62
329.972	83.62
330.201	83.62
330.43	85.62
330.658	82.62
330.887	88.62
331.115	90.62
331.344	84.62
331.572	89.62
331.801	71.62
332.03	73.62
332.258	89.62
332.486	85.62
332.715	86.62
332.943	76.62
333.172	92.62
333.4	73.62
333.629	74.62
333.857	93.62
334.085	89.62
334.314	77.62
334.542	97.62
334.771	76.62
334.999	84.62
335.227	86.62
335.455	91.62
335.684	84.62
335.912	83.62
336.14	66.62
336.369	90.62
336.597	75.62
336.825	82.62
337.053	107.62
337.281	90.62
337.51	88.62
337.738	94.62
337.966	79.62
338.194	85.62
338.422	101.62
338.65	69.62
338.878	82.62
339.106	87.62
339.334	95.62
339.562	79.62
339.79	87.62
340.018	77.62
340.246	91.62
340.474	90.62
340.702	87.62
340.93	80.62
341.158	67.62
341.386	89.62
341.614	83.62
341.842	83.62
342.07	81.62
342.298	83.62
342.526	81.62
342.754	90.62
342.981	85.62
343.209	85.62
343.437	85.62
343.665	87.62
343.893	91.62
344.12	88.62
344.348	98.62
344.576	89.62
344.804	95.62
345.031	82.62
345.259	94.62
345.487	93.62
345.714	83.62
345.942	83.62
346.17	88.62
346.397	88.62
346.625	92.62
346.853	82.62
347.08	94.62
347.308	85.62
347.535	86.62
347.763	89.62
347.99	84.62
348.218	75.62
348.445	90.62
348.673	96.62
348.9	85.62
349.128	87.62
349.355	98.62
349.583	98.62
349.81	86.62
350.037	93.62
350.265	85.62
350.492	99.62
350.72	76.62
350.947	90.62
351.174	78.62
351.402	98.62
351.629	87.62
351.856	76.62
352.083	78.62
352.311	88.62
352.538	75.62
352.765	88.62
352.992	83.62
353.22	87.62
353.447	85.62
353.674	79.62
353.901	99.62
354.128	85.62
354.355	70.62
354.583	94.62
354.81	79.62
355.037	92.62
355.264	91.62
355.491	72.62
355.718	79.62
355.945	103.62
356.172	71.62
356.399	87.62
356.626	93.62
356.853	89.62
357.08	74.62
357.307	83.62
357.534	82.62
357.761	85.62
357.988	86.62
358.215	74.62
358.441	97.62
358.668	87.62
358.895	92.62
359.122	91.62
359.349	87.62
359.576	91.62
359.802	84.62
360.029	91.62
360.256	88.62
360.483	68.62
360.709	89.62
360.936	88.62
361.163	74.62
361.39	75.62
361.616	78.62
361.843	79.62
362.07	79.62
362.296	80.62
362.523	72.62
362.749	80.62
362.976	84.62
363.203	96.62
363.429	92.62
363.656	68.62
363.882	89.62
364.109	104.62
364.335	86.62
364.562	81.62
364.788	102.62
365.015	86.62
365.241	91.62
365.468	86.62
365.694	90.62
365.92	83.62
366.147	78.62
366.373	90.62
366.599	86.62
366.826	84.62
367.052	91.62
367.278	87.62
367.505	84.62
367.731	86.62
367.957	87.62
368.184	83.62
368.41	76.62
368.636	92.62
368.862	76.62
369.089	85.62
369.315	78.62
369.541	85.62
369.767	84.62
369.993	101.62
370.219	87.62
370.445	97.62
370.672	91.62
370.898	87.62
371.124	93.62
371.35	95.62
371.576	84.62
371.802	75.62
372.028	72.62
372.254	86.62
372.48	78.62
372.706	104.62
372.932	99.62
373.158	92.62
373.384	87.62
373.61	79.62
373.835	82.62
374.061	85.62
374.287	87.62
374.513	85.62
374.739	87.62
374.965	87.62
375.191	81.62
375.416	91.62
375.642	95.62
375.868	78.62
376.094	100.62
376.319	84.62
376.545	78.62
376.771	95.62
376.997	85.62
377.222	83.62
377.448	87.62
377.674	92.62
377.899	84.62
378.125	78.62
378.35	95.62
378.576	80.62
378.802	79.62
379.027	83.62
379.253	88.62
379.478	82.62
379.704	74.62
379.929	96.62
380.155	89.62
380.38	82.62
380.606	94.62
380.831	106.62
381.057	101.62
381.282	87.62
381.507	88.62
381.733	66.62
381.958	101.62
382.184	92.62
382.409	89.62
382.634	103.62
382.86	103.62
383.085	87.62
383.31	98.62
383.535	89.62
383.761	81.62
383.986	87.62
384.211	94.62
384.436	88.62
384.662	73.62
384.887	90.62
385.112	83.62
385.337	92.62
385.562	107.62
385.787	95.62
386.013	95.62
386.238	80.62
386.463	88.62
386.688	102.62
386.913	82.62
387.138	99.62
387.363	114.62
387.588	76.62
387.813	92.62
388.038	95.62
388.263	108.62
388.488	112.62
388.713	91.62
388.938	87.62
389.163	91.62
389.387	98.62
389.612	102.62
389.837	89.62
390.062	103.62
390.287	107.62
390.512	95.62
390.736	95.62
390.961	93.62
391.186	93.62
391.411	86.62
391.636	94.62
391.86	98.62
392.085	104.62
392.31	104.62
392.534	91.62
392.759	91.62
392.984	98.62
393.208	124.62
393.433	94.62
393.658	100.62
393.882	98.62
394.107	104.62
394.331	112.62
394.556	104.62
394.78	98.62
395.005	105.62
395.229	96.62
395.454	89.62
395.678	114.62
395.903	108.62
396.127	103.62
396.352	104.62
396.576	99.62
396.801	89.62
397.025	101.62
397.249	116.62
397.474	90.62
397.698	91.62
397.922	96.62
398.147	104.62
398.371	92.62
398.595	103.62
398.82	100.62
399.044	97.62
399.268	118.62
399.492	100.62
399.717	94.62
399.941	111.62
400.165	100.62
400.389	102.62
400.613	116.62
400.837	94.62
401.062	107.62
401.286	118.62
401.51	110.62
401.734	117.62
401.958	110.62
402.182	96.62
402.406	105.62
402.63	97.62
402.854	99.62
403.078	82.62
403.302	93.62
403.526	108.62
403.75	121.62
403.974	112.62
404.198	111.62
404.422	126.62
404.645	96.62
404.869	103.62
405.093	105.62
405.317	107.62
405.541	103.62
405.765	104.62
405.988	96.62
406.212	106.62
406.436	114.62
406.66	116.62
406.883	107.62
407.107	107.62
407.331	105.62
407.555	106.62
407.778	110.62
408.002	115.62
408.226	110.62
408.449	118.62
408.673	97.62
408.896	110.62
409.12	104.62
409.344	106.62
409.567	112.62
409.791	112.62
410.014	112.62
410.238	102.62
410.461	102.62
410.685	104.62
410.908	110.62
411.132	106.62
411.355	106.62
411.578	102.62
411.802	114.62
412.025	115.62
412.249	120.62
412.472	111.62
412.695	106.62
412.919	110.62
413.142	106.62
413.365	105.62
413.589	95.62
413.812	118.62
414.035	110.62
414.258	106.62
414.482	108.62
414.705	105.62
414.928	114.62
415.151	113.62
415.374	119.62
415.597	104.62
415.821	93.62
416.044	94.62
416.267	122.62
416.49	118.62
416.713	120.62
416.936	93.62
417.159	111.62
417.382	101.62
417.605	124.62
417.828	110.62
418.051	122.62
418.274	112.62
418.497	100.62
418.72	104.62
418.943	106.62
419.166	112.62
419.389	103.62
419.611	112.62
419.834	97.62
420.057	116.62
420.28	114.62
420.503	101.62
420.726	104.62
420.948	114.62
421.171	122.62
421.394	97.62
421.617	113.62
421.839	123.62
422.062	128.62
422.285	111.62
422.507	123.62
422.73	103.62
422.953	106.62
423.175	103.62
423.398	111.62
423.621	113.62
423.843	118.62
424.066	118.62
424.288	124.62
424.511	113.62
424.733	107.62
424.956	107.62
425.178	110.62
425.401	99.62
425.623	114.62
425.846	103.62
426.068	138.62
426.291	122.62
426.513	113.62
426.735	96.62
426.958	99.62
427.18	108.62
427.402	131.62
427.625	111.62
427.847	108.62
428.069	115.62
428.292	122.62
428.514	96.62
428.736	110.62
428.958	105.62
429.181	104.62
429.403	111.62
429.625	111.62
429.847	120.62
430.069	118.62
430.292	107.62
430.514	107.62
430.736	100.62
430.958	116.62
431.18	111.62
431.402	110.62
431.624	108.62
431.846	106.62
432.068	103.62
432.29	101.62
432.512	119.62
432.734	110.62
432.956	118.62
433.178	114.62
433.4	133.62
433.622	108.62
433.844	118.62
434.066	108.62
434.287	101.62
434.509	100.62
434.731	100.62
434.953	109.62
435.175	97.62
435.397	110.62
435.618	100.62
435.84	115.62
436.062	113.62
436.284	118.62
436.505	114.62
436.727	106.62
436.949	110.62
437.17	112.62
437.392	106.62
437.614	102.62
437.835	111.62
438.057	112.62
438.278	110.62
438.5	111.62
438.721	112.62
438.943	98.62
439.165	98.62
439.386	95.62
439.608	105.62
439.829	119.62
440.05	134.62
440.272	114.62
440.493	109.62
440.715	110.62
440.936	118.62
441.158	122.62
441.379	114.62
441.6	128.62
441.822	111.62
442.043	115.62
442.264	117.62
442.486	114.62
442.707	128.62
442.928	123.62
443.149	126.62
443.371	121.62
443.592	124.62
443.813	123.62
444.034	119.62
444.255	104.62
444.476	136.62
444.698	124.62
444.919	118.62
445.14	235.62
445.361	170.62
445.582	126.62
445.803	117.62
446.024	123.62
446.245	108.62
446.466	102.62
446.687	133.62
446.908	127.62
447.129	104.62
447.35	110.62
447.571	116.62
447.792	121.62
448.013	123.62
448.234	102.62
448.455	118.62
448.675	117.62
448.896	118.62
449.117	104.62
449.338	118.62
449.559	100.62
449.779	114.62
450	117.62
450.221	96.62
450.442	99.62
450.662	92.62
450.883	106.62
451.104	115.62
451.324	104.62
451.545	108.62
451.766	107.62
451.986	117.62
452.207	105.62
452.428	117.62
452.648	114.62
452.869	97.62
453.089	90.62
453.31	98.62
453.53	103.62
453.751	90.62
453.971	106.62
454.192	103.62
454.412	93.62
454.633	104.62
454.853	112.62
455.073	103.62
455.294	110.62
455.514	110.62
455.734	108.62
455.955	106.62
456.175	94.62
456.395	104.62
456.616	115.62
456.836	104.62
457.056	120.62
457.276	114.62
457.497	114.62
457.717	102.62
457.937	107.62
458.157	77.62
458.377	98.62
458.598	100.62
458.818	108.62
459.038	105.62
459.258	100.62
459.478	91.62
459.698	103.62
459.918	100.62
460.138	102.62
460.358	98.62
460.578	128.62
460.798	116.62
461.018	123.62
461.238	116.62
461.458	116.62
461.678	91.62
461.898	107.62
462.118	114.62
462.338	120.62
462.558	106.62
462.777	138.62
462.997	119.62
463.217	115.62
463.437	128.62
463.657	117.62
463.876	103.62
464.096	118.62
464.316	108.62
464.536	114.62
464.755	118.62
464.975	125.62
465.195	129.62
465.414	121.62
465.634	113.62
465.854	113.62
466.073	111.62
466.293	95.62
466.512	123.62
466.732	118.62
466.951	110.62
467.171	121.62
467.391	104.62
467.61	106.62
467.829	129.62
468.049	138.62
468.268	121.62
468.488	113.62
468.707	111.62
468.927	114.62
469.146	117.62
469.365	110.62
469.585	130.62
469.804	117.62
470.023	126.62
470.243	120.62
470.462	130.62
470.681	128.62
470.901	132.62
471.12	120.62
471.339	136.62
471.558	130.62
471.777	106.62
471.997	106.62
472.216	97.62
472.435	119.62
472.654	114.62
472.873	110.62
473.092	94.62
473.311	108.62
473.53	114.62
473.749	110.62
473.968	120.62
474.187	113.62
474.406	103.62
474.625	123.62
474.844	120.62
475.063	105.62
475.282	125.62
475.501	119.62
475.72	100.62
475.939	112.62
476.158	117.62
476.377	121.62
476.596	111.62
476.814	113.62
477.033	111.62
477.252	117.62
477.471	110.62
477.69	122.62
477.908	106.62
478.127	128.62
478.346	121.62
478.564	119.62
478.783	128.62
479.002	122.62
479.22	113.62
479.439	137.62
479.658	122.62
479.876	114.62
480.095	116.62
480.313	111.62
480.532	120.62
480.751	113.62
480.969	104.62
481.188	98.62
481.406	119.62
481.624	104.62
481.843	99.62
482.061	103.62
482.28	113.62
482.498	114.62
482.717	101.62
482.935	114.62
483.153	123.62
483.372	126.62
483.59	138.62
483.808	123.62
484.027	122.62
484.245	130.62
484.463	114.62
484.681	124.62
484.9	116.62
485.118	133.62
485.336	114.62
485.554	115.62
485.772	118.62
485.99	112.62
486.209	124.62
486.427	123.62
486.645	120.62
486.863	134.62
487.081	121.62
487.299	116.62
487.517	128.62
487.735	132.62
487.953	151.62
488.171	132.62
488.389	121.62
488.607	121.62
488.825	120.62
489.043	106.62
489.261	111.62
489.479	121.62
489.696	124.62
489.914	128.62
490.132	138.62
490.35	124.62
490.568	141.62
490.786	143.62
491.003	131.62
491.221	153.62
491.439	160.62
491.657	152.62
491.874	159.62
492.092	175.62
492.31	171.62
492.527	160.62
492.745	148.62
492.963	166.62
493.18	131.62
493.398	142.62
493.615	139.62
493.833	128.62
494.05	140.62
494.268	146.62
494.485	138.62
494.703	147.62
494.92	155.62
495.138	151.62
495.355	136.62
495.573	140.62
495.79	145.62
496.008	135.62
496.225	133.62
496.442	143.62
496.66	152.62
496.877	134.62
497.094	165.62
497.312	163.62
497.529	136.62
497.746	146.62
497.963	128.62
498.181	118.62
498.398	137.62
498.615	128.62
498.832	137.62
499.049	142.62
499.267	146.62
499.484	169.62
499.701	171.62
499.918	189.62
500.135	185.62
500.352	221.62
500.569	225.62
500.786	219.62
501.003	194.62
501.22	199.62
501.437	163.62
501.654	157.62
501.871	167.62
502.088	144.62
502.305	164.62
502.522	148.62
502.739	149.62
502.956	140.62
503.172	132.62
503.389	138.62
503.606	132.62
503.823	133.62
504.04	140.62
504.256	137.62
504.473	142.62
504.69	138.62
504.907	135.62
505.123	130.62
505.34	122.62
505.557	126.62
505.773	128.62
505.99	116.62
506.207	110.62
506.423	115.62
506.64	137.62
506.856	116.62
507.073	114.62
507.289	112.62
507.506	122.62
507.722	99.62
507.939	102.62
508.155	122.62
508.372	119.62
508.588	126.62
508.805	106.62
509.021	131.62
509.238	116.62
509.454	125.62
509.67	100.62
509.887	117.62
510.103	106.62
510.319	93.62
510.536	113.62
510.752	103.62
510.968	109.62
511.184	114.62
511.401	121.62
511.617	112.62
511.833	110.62
