Data from StandardFe(NO3)3.TAE.3%Agarose.FlatLispGreen.Lamp.Energy10.07252019_HRD10591_11-54-17-439.txt Node
Date: Thu Jul 25 11:54:17 EDT 2019
User: cochatt
Spectrometer: HR+D1059
Trigger mode: 1
Integration Time (sec): 1.000000E-1
Scans to average: 1
Electric dark correction enabled: true
Nonlinearity correction enabled: false
Boxcar width: 0
XAxis mode: Wavelengths
Number of Pixels in Spectrum: 2048
>>>>>Begin Spectral Data<<<<<
223.165	-14.56
223.4	-14.56
223.635	-14.56
223.869	-24.56
224.104	-13.56
224.338	-10.56
224.573	-5.56
224.808	-13.56
225.042	0.44
225.277	-11.56
225.511	-6.56
225.746	6.44
225.98	4.44
226.215	7.44
226.449	19.44
226.683	11.44
226.918	27.44
227.152	23.44
227.387	21.44
227.621	33.44
227.856	42.44
228.09	38.44
228.324	60.44
228.559	65.44
228.793	58.44
229.027	56.44
229.262	54.44
229.496	57.44
229.73	61.44
229.964	73.44
230.199	68.44
230.433	70.44
230.667	76.44
230.901	83.44
231.136	72.44
231.37	73.44
231.604	85.44
231.838	79.44
232.072	88.44
232.306	77.44
232.541	89.44
232.775	81.44
233.009	86.44
233.243	88.44
233.477	86.44
233.711	87.44
233.945	84.44
234.179	86.44
234.413	78.44
234.647	77.44
234.881	84.44
235.115	89.44
235.349	76.44
235.583	93.44
235.817	79.44
236.051	85.44
236.285	81.44
236.519	76.44
236.753	77.44
236.987	75.44
237.221	67.44
237.455	78.44
237.689	64.44
237.922	85.44
238.156	84.44
238.39	83.44
238.624	83.44
238.858	83.44
239.091	90.44
239.325	76.44
239.559	73.44
239.793	78.44
240.027	91.44
240.26	77.44
240.494	95.44
240.728	76.44
240.961	79.44
241.195	78.44
241.429	85.44
241.662	65.44
241.896	60.44
242.13	77.44
242.363	71.44
242.597	76.44
242.83	92.44
243.064	79.44
243.298	81.44
243.531	83.44
243.765	83.44
243.998	88.44
244.232	77.44
244.465	81.44
244.699	65.44
244.932	85.44
245.166	92.44
245.399	68.44
245.633	90.44
245.866	100.44
246.099	83.44
246.333	84.44
246.566	73.44
246.8	84.44
247.033	82.44
247.266	75.44
247.5	90.44
247.733	74.44
247.966	84.44
248.2	82.44
248.433	84.44
248.666	84.44
248.899	78.44
249.133	83.44
249.366	80.44
249.599	79.44
249.832	87.44
250.066	85.44
250.299	86.44
250.532	77.44
250.765	84.44
250.998	78.44
251.231	91.44
251.465	84.44
251.698	75.44
251.931	77.44
252.164	85.44
252.397	72.44
252.63	75.44
252.863	82.44
253.096	88.44
253.329	80.44
253.562	95.44
253.795	80.44
254.028	93.44
254.261	76.44
254.494	82.44
254.727	89.44
254.96	77.44
255.193	75.44
255.426	75.44
255.659	65.44
255.892	69.44
256.124	83.44
256.357	86.44
256.59	84.44
256.823	81.44
257.056	95.44
257.289	76.44
257.521	85.44
257.754	79.44
257.987	71.44
258.22	77.44
258.452	71.44
258.685	79.44
258.918	85.44
259.151	85.44
259.383	74.44
259.616	82.44
259.849	95.44
260.081	78.44
260.314	77.44
260.547	79.44
260.779	73.44
261.012	81.44
261.244	71.44
261.477	85.44
261.71	78.44
261.942	85.44
262.175	76.44
262.407	97.44
262.64	80.44
262.872	79.44
263.105	84.44
263.337	82.44
263.57	79.44
263.802	69.44
264.035	75.44
264.267	84.44
264.499	85.44
264.732	90.44
264.964	81.44
265.197	83.44
265.429	83.44
265.661	75.44
265.894	86.44
266.126	84.44
266.358	79.44
266.591	83.44
266.823	74.44
267.055	84.44
267.287	77.44
267.52	92.44
267.752	78.44
267.984	81.44
268.216	90.44
268.448	86.44
268.681	77.44
268.913	80.44
269.145	75.44
269.377	79.44
269.609	84.44
269.841	96.44
270.073	76.44
270.306	73.44
270.538	87.44
270.77	79.44
271.002	88.44
271.234	82.44
271.466	86.44
271.698	92.44
271.93	88.44
272.162	92.44
272.394	99.44
272.626	88.44
272.858	87.44
273.09	74.44
273.322	83.44
273.553	77.44
273.785	69.44
274.017	83.44
274.249	86.44
274.481	100.44
274.713	81.44
274.945	89.44
275.176	83.44
275.408	72.44
275.64	68.44
275.872	72.44
276.104	92.44
276.335	82.44
276.567	84.44
276.799	86.44
277.031	77.44
277.262	78.44
277.494	93.44
277.726	69.44
277.957	88.44
278.189	79.44
278.421	79.44
278.652	87.44
278.884	86.44
279.115	103.44
279.347	93.44
279.579	88.44
279.81	83.44
280.042	93.44
280.273	77.44
280.505	83.44
280.736	74.44
280.968	76.44
281.199	71.44
281.431	77.44
281.662	68.44
281.894	82.44
282.125	76.44
282.356	86.44
282.588	86.44
282.819	82.44
283.051	77.44
283.282	81.44
283.513	91.44
283.745	84.44
283.976	91.44
284.207	101.44
284.439	76.44
284.67	89.44
284.901	86.44
285.132	64.44
285.364	90.44
285.595	95.44
285.826	82.44
286.057	106.44
286.288	84.44
286.52	75.44
286.751	76.44
286.982	72.44
287.213	83.44
287.444	91.44
287.675	85.44
287.906	90.44
288.138	88.44
288.369	85.44
288.6	76.44
288.831	75.44
289.062	97.44
289.293	74.44
289.524	92.44
289.755	90.44
289.986	86.44
290.217	87.44
290.448	93.44
290.679	83.44
290.91	88.44
291.141	72.44
291.371	87.44
291.602	81.44
291.833	90.44
292.064	85.44
292.295	80.44
292.526	82.44
292.757	76.44
292.987	91.44
293.218	69.44
293.449	68.44
293.68	101.44
293.91	92.44
294.141	89.44
294.372	80.44
294.603	91.44
294.833	88.44
295.064	87.44
295.295	89.44
295.525	78.44
295.756	87.44
295.987	77.44
296.217	87.44
296.448	92.44
296.679	82.44
296.909	94.44
297.14	80.44
297.37	95.44
297.601	77.44
297.831	92.44
298.062	92.44
298.292	81.44
298.523	75.44
298.753	78.44
298.984	81.44
299.214	87.44
299.445	81.44
299.675	80.44
299.905	93.44
300.136	89.44
300.366	92.44
300.597	95.44
300.827	96.44
301.057	81.44
301.288	75.44
301.518	84.44
301.748	90.44
301.979	92.44
302.209	95.44
302.439	90.44
302.669	93.44
302.9	75.44
303.13	98.44
303.36	74.44
303.59	90.44
303.82	76.44
304.051	87.44
304.281	77.44
304.511	73.44
304.741	92.44
304.971	91.44
305.201	88.44
305.431	76.44
305.661	94.44
305.891	87.44
306.121	93.44
306.352	72.44
306.582	87.44
306.812	84.44
307.042	94.44
307.272	80.44
307.502	76.44
307.731	90.44
307.961	88.44
308.191	76.44
308.421	87.44
308.651	75.44
308.881	78.44
309.111	88.44
309.341	72.44
309.571	73.44
309.8	87.44
310.03	85.44
310.26	85.44
310.49	81.44
310.72	88.44
310.949	81.44
311.179	65.44
311.409	88.44
311.639	82.44
311.868	75.44
312.098	82.44
312.328	83.44
312.557	80.44
312.787	77.44
313.017	90.44
313.246	78.44
313.476	92.44
313.706	96.44
313.935	80.44
314.165	81.44
314.394	93.44
314.624	83.44
314.853	103.44
315.083	73.44
315.312	75.44
315.542	87.44
315.771	77.44
316.001	72.44
316.23	85.44
316.46	91.44
316.689	76.44
316.919	93.44
317.148	95.44
317.377	66.44
317.607	77.44
317.836	78.44
318.065	70.44
318.295	87.44
318.524	76.44
318.753	95.44
318.983	84.44
319.212	90.44
319.441	82.44
319.67	91.44
319.9	78.44
320.129	93.44
320.358	82.44
320.587	86.44
320.816	84.44
321.046	77.44
321.275	90.44
321.504	89.44
321.733	82.44
321.962	78.44
322.191	77.44
322.42	78.44
322.649	93.44
322.878	99.44
323.108	86.44
323.337	86.44
323.566	97.44
323.795	89.44
324.024	92.44
324.253	70.44
324.482	85.44
324.71	78.44
324.939	85.44
325.168	78.44
325.397	105.44
325.626	87.44
325.855	89.44
326.084	91.44
326.313	92.44
326.542	98.44
326.77	84.44
326.999	95.44
327.228	86.44
327.457	91.44
327.686	84.44
327.914	81.44
328.143	73.44
328.372	64.44
328.6	84.44
328.829	79.44
329.058	81.44
329.287	96.44
329.515	90.44
329.744	77.44
329.972	83.44
330.201	89.44
330.43	93.44
330.658	85.44
330.887	80.44
331.115	91.44
331.344	85.44
331.572	88.44
331.801	86.44
332.03	68.44
332.258	101.44
332.486	99.44
332.715	77.44
332.943	86.44
333.172	79.44
333.4	86.44
333.629	90.44
333.857	83.44
334.085	85.44
334.314	90.44
334.542	83.44
334.771	90.44
334.999	79.44
335.227	84.44
335.455	92.44
335.684	88.44
335.912	90.44
336.14	91.44
336.369	82.44
336.597	96.44
336.825	81.44
337.053	100.44
337.281	106.44
337.51	82.44
337.738	99.44
337.966	83.44
338.194	67.44
338.422	84.44
338.65	92.44
338.878	82.44
339.106	93.44
339.334	91.44
339.562	81.44
339.79	87.44
340.018	93.44
340.246	86.44
340.474	80.44
340.702	92.44
340.93	91.44
341.158	82.44
341.386	87.44
341.614	97.44
341.842	65.44
342.07	83.44
342.298	89.44
342.526	68.44
342.754	85.44
342.981	71.44
343.209	85.44
343.437	89.44
343.665	82.44
343.893	85.44
344.12	87.44
344.348	86.44
344.576	81.44
344.804	78.44
345.031	90.44
345.259	87.44
345.487	85.44
345.714	90.44
345.942	77.44
346.17	94.44
346.397	95.44
346.625	81.44
346.853	94.44
347.08	93.44
347.308	92.44
347.535	83.44
347.763	70.44
347.99	91.44
348.218	89.44
348.445	92.44
348.673	83.44
348.9	88.44
349.128	90.44
349.355	82.44
349.583	74.44
349.81	84.44
350.037	91.44
350.265	82.44
350.492	86.44
350.72	81.44
350.947	95.44
351.174	78.44
351.402	94.44
351.629	77.44
351.856	82.44
352.083	81.44
352.311	81.44
352.538	80.44
352.765	82.44
352.992	83.44
353.22	76.44
353.447	77.44
353.674	74.44
353.901	83.44
354.128	78.44
354.355	79.44
354.583	103.44
354.81	87.44
355.037	89.44
355.264	98.44
355.491	83.44
355.718	75.44
355.945	78.44
356.172	83.44
356.399	102.44
356.626	77.44
356.853	80.44
357.08	92.44
357.307	96.44
357.534	75.44
357.761	88.44
357.988	89.44
358.215	90.44
358.441	76.44
358.668	76.44
358.895	74.44
359.122	89.44
359.349	82.44
359.576	71.44
359.802	80.44
360.029	76.44
360.256	91.44
360.483	97.44
360.709	81.44
360.936	89.44
361.163	80.44
361.39	89.44
361.616	80.44
361.843	78.44
362.07	81.44
362.296	95.44
362.523	98.44
362.749	82.44
362.976	85.44
363.203	95.44
363.429	86.44
363.656	92.44
363.882	80.44
364.109	86.44
364.335	97.44
364.562	89.44
364.788	86.44
365.015	90.44
365.241	92.44
365.468	81.44
365.694	86.44
365.92	83.44
366.147	83.44
366.373	87.44
366.599	96.44
366.826	85.44
367.052	88.44
367.278	80.44
367.505	79.44
367.731	81.44
367.957	82.44
368.184	77.44
368.41	81.44
368.636	85.44
368.862	88.44
369.089	83.44
369.315	89.44
369.541	74.44
369.767	82.44
369.993	77.44
370.219	96.44
370.445	88.44
370.672	91.44
370.898	86.44
371.124	86.44
371.35	97.44
371.576	83.44
371.802	85.44
372.028	86.44
372.254	109.44
372.48	99.44
372.706	81.44
372.932	90.44
373.158	93.44
373.384	95.44
373.61	93.44
373.835	91.44
374.061	89.44
374.287	92.44
374.513	97.44
374.739	86.44
374.965	85.44
375.191	102.44
375.416	95.44
375.642	87.44
375.868	90.44
376.094	87.44
376.319	83.44
376.545	91.44
376.771	93.44
376.997	81.44
377.222	84.44
377.448	107.44
377.674	78.44
377.899	83.44
378.125	95.44
378.35	87.44
378.576	94.44
378.802	102.44
379.027	90.44
379.253	88.44
379.478	81.44
379.704	98.44
379.929	95.44
380.155	85.44
380.38	87.44
380.606	93.44
380.831	83.44
381.057	102.44
381.282	81.44
381.507	93.44
381.733	98.44
381.958	104.44
382.184	84.44
382.409	102.44
382.634	111.44
382.86	94.44
383.085	77.44
383.31	99.44
383.535	90.44
383.761	92.44
383.986	91.44
384.211	87.44
384.436	75.44
384.662	87.44
384.887	99.44
385.112	85.44
385.337	94.44
385.562	103.44
385.787	81.44
386.013	95.44
386.238	102.44
386.463	86.44
386.688	97.44
386.913	99.44
387.138	94.44
387.363	100.44
387.588	97.44
387.813	84.44
388.038	100.44
388.263	95.44
388.488	95.44
388.713	91.44
388.938	102.44
389.163	123.44
389.387	95.44
389.612	96.44
389.837	98.44
390.062	95.44
390.287	97.44
390.512	92.44
390.736	78.44
390.961	93.44
391.186	88.44
391.411	86.44
391.636	97.44
391.86	91.44
392.085	88.44
392.31	109.44
392.534	93.44
392.759	109.44
392.984	94.44
393.208	88.44
393.433	103.44
393.658	103.44
393.882	98.44
394.107	99.44
394.331	106.44
394.556	113.44
394.78	104.44
395.005	91.44
395.229	90.44
395.454	95.44
395.678	86.44
395.903	103.44
396.127	103.44
396.352	104.44
396.576	91.44
396.801	97.44
397.025	97.44
397.249	97.44
397.474	104.44
397.698	107.44
397.922	104.44
398.147	106.44
398.371	98.44
398.595	97.44
398.82	98.44
399.044	109.44
399.268	111.44
399.492	108.44
399.717	115.44
399.941	117.44
400.165	113.44
400.389	111.44
400.613	112.44
400.837	109.44
401.062	119.44
401.286	97.44
401.51	114.44
401.734	108.44
401.958	115.44
402.182	111.44
402.406	90.44
402.63	100.44
402.854	112.44
403.078	105.44
403.302	122.44
403.526	112.44
403.75	120.44
403.974	108.44
404.198	103.44
404.422	123.44
404.645	114.44
404.869	108.44
405.093	120.44
405.317	105.44
405.541	120.44
405.765	99.44
405.988	117.44
406.212	115.44
406.436	104.44
406.66	125.44
406.883	119.44
407.107	98.44
407.331	111.44
407.555	123.44
407.778	98.44
408.002	111.44
408.226	105.44
408.449	119.44
408.673	122.44
408.896	111.44
409.12	115.44
409.344	104.44
409.567	119.44
409.791	101.44
410.014	124.44
410.238	119.44
410.461	114.44
410.685	119.44
410.908	115.44
411.132	122.44
411.355	114.44
411.578	108.44
411.802	105.44
412.025	111.44
412.249	129.44
412.472	94.44
412.695	117.44
412.919	102.44
413.142	91.44
413.365	114.44
413.589	125.44
413.812	120.44
414.035	124.44
414.258	105.44
414.482	129.44
414.705	116.44
414.928	101.44
415.151	124.44
415.374	100.44
415.597	107.44
415.821	116.44
416.044	115.44
416.267	111.44
416.49	105.44
416.713	111.44
416.936	118.44
417.159	92.44
417.382	120.44
417.605	122.44
417.828	107.44
418.051	128.44
418.274	113.44
418.497	104.44
418.72	123.44
418.943	125.44
419.166	116.44
419.389	124.44
419.611	105.44
419.834	99.44
420.057	120.44
420.28	99.44
420.503	104.44
420.726	104.44
420.948	119.44
421.171	108.44
421.394	118.44
421.617	112.44
421.839	125.44
422.062	124.44
422.285	115.44
422.507	109.44
422.73	109.44
422.953	108.44
423.175	99.44
423.398	121.44
423.621	105.44
423.843	111.44
424.066	103.44
424.288	132.44
424.511	114.44
424.733	127.44
424.956	123.44
425.178	113.44
425.401	134.44
425.623	107.44
425.846	115.44
426.068	112.44
426.291	107.44
426.513	123.44
426.735	125.44
426.958	111.44
427.18	104.44
427.402	111.44
427.625	119.44
427.847	124.44
428.069	107.44
428.292	126.44
428.514	111.44
428.736	121.44
428.958	123.44
429.181	112.44
429.403	112.44
429.625	119.44
429.847	114.44
430.069	113.44
430.292	121.44
430.514	101.44
430.736	117.44
430.958	100.44
431.18	106.44
431.402	112.44
431.624	119.44
431.846	111.44
432.068	110.44
432.29	106.44
432.512	122.44
432.734	119.44
432.956	114.44
433.178	123.44
433.4	120.44
433.622	107.44
433.844	121.44
434.066	105.44
434.287	119.44
434.509	114.44
434.731	109.44
434.953	118.44
435.175	103.44
435.397	121.44
435.618	112.44
435.84	101.44
436.062	100.44
436.284	102.44
436.505	108.44
436.727	126.44
436.949	133.44
437.17	122.44
437.392	95.44
437.614	113.44
437.835	105.44
438.057	93.44
438.278	117.44
438.5	116.44
438.721	105.44
438.943	112.44
439.165	113.44
439.386	101.44
439.608	127.44
439.829	121.44
440.05	121.44
440.272	109.44
440.493	124.44
440.715	123.44
440.936	116.44
441.158	119.44
441.379	121.44
441.6	116.44
441.822	132.44
442.043	120.44
442.264	128.44
442.486	112.44
442.707	115.44
442.928	124.44
443.149	124.44
443.371	129.44
443.592	127.44
443.813	120.44
444.034	114.44
444.255	128.44
444.476	129.44
444.698	121.44
444.919	125.44
445.14	243.44
445.361	163.44
445.582	127.44
445.803	122.44
446.024	130.44
446.245	121.44
446.466	129.44
446.687	122.44
446.908	120.44
447.129	117.44
447.35	117.44
447.571	117.44
447.792	115.44
448.013	116.44
448.234	126.44
448.455	122.44
448.675	113.44
448.896	113.44
449.117	114.44
449.338	96.44
449.559	115.44
449.779	113.44
450	120.44
450.221	130.44
450.442	107.44
450.662	119.44
450.883	109.44
451.104	106.44
451.324	101.44
451.545	122.44
451.766	119.44
451.986	126.44
452.207	111.44
452.428	118.44
452.648	108.44
452.869	115.44
453.089	98.44
453.31	107.44
453.53	100.44
453.751	103.44
453.971	109.44
454.192	104.44
454.412	110.44
454.633	105.44
454.853	97.44
455.073	100.44
455.294	107.44
455.514	102.44
455.734	99.44
455.955	105.44
456.175	105.44
456.395	107.44
456.616	118.44
456.836	89.44
457.056	97.44
457.276	109.44
457.497	112.44
457.717	110.44
457.937	112.44
458.157	107.44
458.377	113.44
458.598	103.44
458.818	100.44
459.038	95.44
459.258	98.44
459.478	101.44
459.698	104.44
459.918	104.44
460.138	115.44
460.358	107.44
460.578	120.44
460.798	103.44
461.018	122.44
461.238	114.44
461.458	122.44
461.678	111.44
461.898	116.44
462.118	114.44
462.338	126.44
462.558	114.44
462.777	121.44
462.997	132.44
463.217	132.44
463.437	121.44
463.657	131.44
463.876	129.44
464.096	129.44
464.316	118.44
464.536	120.44
464.755	128.44
464.975	131.44
465.195	120.44
465.414	112.44
465.634	123.44
465.854	117.44
466.073	118.44
466.293	104.44
466.512	112.44
466.732	123.44
466.951	130.44
467.171	113.44
467.391	113.44
467.61	107.44
467.829	123.44
468.049	113.44
468.268	111.44
468.488	122.44
468.707	125.44
468.927	112.44
469.146	113.44
469.365	118.44
469.585	124.44
469.804	118.44
470.023	110.44
470.243	132.44
470.462	123.44
470.681	123.44
470.901	111.44
471.12	120.44
471.339	112.44
471.558	115.44
471.777	122.44
471.997	113.44
472.216	122.44
472.435	134.44
472.654	101.44
472.873	121.44
473.092	121.44
473.311	111.44
473.53	113.44
473.749	124.44
473.968	126.44
474.187	123.44
474.406	114.44
474.625	122.44
474.844	111.44
475.063	119.44
475.282	114.44
475.501	104.44
475.72	127.44
475.939	117.44
476.158	108.44
476.377	109.44
476.596	119.44
476.814	115.44
477.033	121.44
477.252	105.44
477.471	125.44
477.69	106.44
477.908	129.44
478.127	137.44
478.346	135.44
478.564	116.44
478.783	136.44
479.002	125.44
479.22	131.44
479.439	123.44
479.658	125.44
479.876	119.44
480.095	121.44
480.313	114.44
480.532	133.44
480.751	129.44
480.969	120.44
481.188	115.44
481.406	118.44
481.624	111.44
481.843	107.44
482.061	106.44
482.28	124.44
482.498	124.44
482.717	107.44
482.935	115.44
483.153	134.44
483.372	126.44
483.59	126.44
483.808	117.44
484.027	123.44
484.245	126.44
484.463	126.44
484.681	140.44
484.9	127.44
485.118	121.44
485.336	130.44
485.554	135.44
485.772	111.44
485.99	117.44
486.209	115.44
486.427	116.44
486.645	133.44
486.863	139.44
487.081	141.44
487.299	119.44
487.517	123.44
487.735	140.44
487.953	130.44
488.171	135.44
488.389	127.44
488.607	143.44
488.825	136.44
489.043	127.44
489.261	117.44
489.479	122.44
489.696	121.44
489.914	121.44
490.132	140.44
490.35	140.44
490.568	127.44
490.786	156.44
491.003	139.44
491.221	150.44
491.439	149.44
491.657	163.44
491.874	140.44
492.092	173.44
492.31	166.44
492.527	167.44
492.745	170.44
492.963	142.44
493.18	140.44
493.398	140.44
493.615	149.44
493.833	164.44
494.05	150.44
494.268	143.44
494.485	134.44
494.703	155.44
494.92	138.44
495.138	160.44
495.355	151.44
495.573	147.44
495.79	145.44
496.008	145.44
496.225	147.44
496.442	154.44
496.66	162.44
496.877	155.44
497.094	144.44
497.312	146.44
497.529	153.44
497.746	141.44
497.963	147.44
498.181	133.44
498.398	141.44
498.615	147.44
498.832	154.44
499.049	134.44
499.267	148.44
499.484	153.44
499.701	178.44
499.918	190.44
500.135	210.44
500.352	209.44
500.569	209.44
500.786	216.44
501.003	179.44
501.22	201.44
501.437	183.44
501.654	163.44
501.871	164.44
502.088	152.44
502.305	146.44
502.522	139.44
502.739	140.44
502.956	140.44
503.172	142.44
503.389	134.44
503.606	138.44
503.823	135.44
504.04	135.44
504.256	138.44
504.473	129.44
504.69	136.44
504.907	145.44
505.123	146.44
505.34	127.44
505.557	121.44
505.773	131.44
505.99	143.44
506.207	136.44
506.423	123.44
506.64	125.44
506.856	126.44
507.073	139.44
507.289	132.44
507.506	125.44
507.722	123.44
507.939	122.44
508.155	133.44
508.372	112.44
508.588	118.44
508.805	118.44
509.021	113.44
509.238	121.44
509.454	111.44
509.67	125.44
509.887	109.44
510.103	121.44
510.319	125.44
510.536	123.44
510.752	113.44
510.968	98.44
511.184	108.44
511.401	110.44
511.617	113.44
