Data from StandardFe(NO3)3.TAE.3%Agarose.FlatLispGreen.Lamp.Energy10.07252019_HRD10591_11-53-41-439.txt Node
Date: Thu Jul 25 11:53:41 EDT 2019
User: cochatt
Spectrometer: HR+D1059
Trigger mode: 1
Integration Time (sec): 1.000000E-1
Scans to average: 1
Electric dark correction enabled: true
Nonlinearity correction enabled: false
Boxcar width: 0
XAxis mode: Wavelengths
Number of Pixels in Spectrum: 2048
>>>>>Begin Spectral Data<<<<<
223.165	-27.12
223.4	-27.12
223.635	-27.12
223.869	-13.12
224.104	-7.12
224.338	-5.12
224.573	-17.12
224.808	-9.12
225.042	-9.12
225.277	-18.12
225.511	1.88
225.746	-5.12
225.98	3.88
226.215	8.88
226.449	12.88
226.683	34.88
226.918	14.88
227.152	33.88
227.387	31.88
227.621	40.88
227.856	57.88
228.09	38.88
228.324	57.88
228.559	58.88
228.793	52.88
229.027	49.88
229.262	72.88
229.496	64.88
229.73	69.88
229.964	73.88
230.199	78.88
230.433	85.88
230.667	70.88
230.901	75.88
231.136	82.88
231.37	85.88
231.604	82.88
231.838	85.88
232.072	86.88
232.306	84.88
232.541	75.88
232.775	75.88
233.009	61.88
233.243	78.88
233.477	86.88
233.711	94.88
233.945	84.88
234.179	83.88
234.413	86.88
234.647	90.88
234.881	91.88
235.115	62.88
235.349	78.88
235.583	78.88
235.817	72.88
236.051	81.88
236.285	79.88
236.519	74.88
236.753	70.88
236.987	77.88
237.221	77.88
237.455	78.88
237.689	87.88
237.922	84.88
238.156	77.88
238.39	86.88
238.624	74.88
238.858	80.88
239.091	82.88
239.325	73.88
239.559	76.88
239.793	73.88
240.027	81.88
240.26	78.88
240.494	98.88
240.728	74.88
240.961	73.88
241.195	76.88
241.429	78.88
241.662	84.88
241.896	67.88
242.13	80.88
242.363	76.88
242.597	82.88
242.83	78.88
243.064	74.88
243.298	81.88
243.531	78.88
243.765	78.88
243.998	75.88
244.232	79.88
244.465	88.88
244.699	72.88
244.932	73.88
245.166	71.88
245.399	76.88
245.633	62.88
245.866	74.88
246.099	83.88
246.333	92.88
246.566	73.88
246.8	73.88
247.033	73.88
247.266	81.88
247.5	85.88
247.733	75.88
247.966	83.88
248.2	82.88
248.433	88.88
248.666	83.88
248.899	75.88
249.133	84.88
249.366	85.88
249.599	93.88
249.832	79.88
250.066	76.88
250.299	88.88
250.532	87.88
250.765	82.88
250.998	77.88
251.231	60.88
251.465	81.88
251.698	75.88
251.931	84.88
252.164	75.88
252.397	79.88
252.63	93.88
252.863	104.88
253.096	84.88
253.329	76.88
253.562	87.88
253.795	69.88
254.028	76.88
254.261	88.88
254.494	85.88
254.727	89.88
254.96	84.88
255.193	86.88
255.426	85.88
255.659	66.88
255.892	75.88
256.124	81.88
256.357	78.88
256.59	70.88
256.823	91.88
257.056	95.88
257.289	82.88
257.521	98.88
257.754	81.88
257.987	82.88
258.22	85.88
258.452	86.88
258.685	85.88
258.918	88.88
259.151	84.88
259.383	91.88
259.616	87.88
259.849	75.88
260.081	78.88
260.314	68.88
260.547	65.88
260.779	88.88
261.012	88.88
261.244	82.88
261.477	86.88
261.71	70.88
261.942	78.88
262.175	85.88
262.407	96.88
262.64	78.88
262.872	83.88
263.105	91.88
263.337	82.88
263.57	78.88
263.802	77.88
264.035	75.88
264.267	67.88
264.499	96.88
264.732	92.88
264.964	85.88
265.197	86.88
265.429	84.88
265.661	80.88
265.894	82.88
266.126	78.88
266.358	73.88
266.591	80.88
266.823	96.88
267.055	84.88
267.287	71.88
267.52	74.88
267.752	90.88
267.984	85.88
268.216	80.88
268.448	92.88
268.681	83.88
268.913	69.88
269.145	81.88
269.377	75.88
269.609	65.88
269.841	106.88
270.073	76.88
270.306	105.88
270.538	95.88
270.77	82.88
271.002	87.88
271.234	95.88
271.466	91.88
271.698	72.88
271.93	90.88
272.162	87.88
272.394	74.88
272.626	84.88
272.858	81.88
273.09	84.88
273.322	87.88
273.553	100.88
273.785	82.88
274.017	88.88
274.249	110.88
274.481	77.88
274.713	84.88
274.945	85.88
275.176	70.88
275.408	95.88
275.64	80.88
275.872	73.88
276.104	82.88
276.335	78.88
276.567	71.88
276.799	83.88
277.031	85.88
277.262	80.88
277.494	97.88
277.726	72.88
277.957	81.88
278.189	100.88
278.421	74.88
278.652	83.88
278.884	91.88
279.115	78.88
279.347	85.88
279.579	85.88
279.81	88.88
280.042	64.88
280.273	87.88
280.505	79.88
280.736	85.88
280.968	90.88
281.199	90.88
281.431	95.88
281.662	91.88
281.894	78.88
282.125	101.88
282.356	94.88
282.588	89.88
282.819	82.88
283.051	94.88
283.282	90.88
283.513	92.88
283.745	91.88
283.976	86.88
284.207	82.88
284.439	97.88
284.67	89.88
284.901	80.88
285.132	84.88
285.364	97.88
285.595	84.88
285.826	89.88
286.057	92.88
286.288	83.88
286.52	66.88
286.751	84.88
286.982	90.88
287.213	88.88
287.444	89.88
287.675	99.88
287.906	87.88
288.138	80.88
288.369	75.88
288.6	85.88
288.831	109.88
289.062	93.88
289.293	98.88
289.524	87.88
289.755	80.88
289.986	76.88
290.217	76.88
290.448	85.88
290.679	104.88
290.91	91.88
291.141	90.88
291.371	68.88
291.602	84.88
291.833	108.88
292.064	92.88
292.295	89.88
292.526	88.88
292.757	68.88
292.987	87.88
293.218	88.88
293.449	82.88
293.68	89.88
293.91	71.88
294.141	97.88
294.372	89.88
294.603	78.88
294.833	88.88
295.064	88.88
295.295	81.88
295.525	100.88
295.756	102.88
295.987	91.88
296.217	89.88
296.448	78.88
296.679	76.88
296.909	75.88
297.14	90.88
297.37	98.88
297.601	78.88
297.831	86.88
298.062	88.88
298.292	95.88
298.523	91.88
298.753	86.88
298.984	83.88
299.214	92.88
299.445	76.88
299.675	82.88
299.905	84.88
300.136	78.88
300.366	93.88
300.597	81.88
300.827	74.88
301.057	84.88
301.288	76.88
301.518	80.88
301.748	84.88
301.979	89.88
302.209	72.88
302.439	83.88
302.669	91.88
302.9	70.88
303.13	80.88
303.36	87.88
303.59	96.88
303.82	91.88
304.051	88.88
304.281	89.88
304.511	93.88
304.741	83.88
304.971	89.88
305.201	85.88
305.431	78.88
305.661	90.88
305.891	76.88
306.121	74.88
306.352	86.88
306.582	96.88
306.812	93.88
307.042	82.88
307.272	81.88
307.502	86.88
307.731	92.88
307.961	100.88
308.191	94.88
308.421	81.88
308.651	92.88
308.881	84.88
309.111	76.88
309.341	90.88
309.571	81.88
309.8	78.88
310.03	86.88
310.26	88.88
310.49	81.88
310.72	87.88
310.949	88.88
311.179	79.88
311.409	74.88
311.639	77.88
311.868	92.88
312.098	100.88
312.328	86.88
312.557	94.88
312.787	90.88
313.017	88.88
313.246	74.88
313.476	80.88
313.706	96.88
313.935	89.88
314.165	96.88
314.394	83.88
314.624	85.88
314.853	85.88
315.083	85.88
315.312	84.88
315.542	92.88
315.771	78.88
316.001	87.88
316.23	76.88
316.46	83.88
316.689	93.88
316.919	61.88
317.148	86.88
317.377	90.88
317.607	82.88
317.836	88.88
318.065	78.88
318.295	74.88
318.524	99.88
318.753	75.88
318.983	94.88
319.212	109.88
319.441	83.88
319.67	97.88
319.9	70.88
320.129	92.88
320.358	88.88
320.587	101.88
320.816	89.88
321.046	89.88
321.275	85.88
321.504	94.88
321.733	90.88
321.962	87.88
322.191	97.88
322.42	91.88
322.649	88.88
322.878	101.88
323.108	75.88
323.337	84.88
323.566	74.88
323.795	93.88
324.024	86.88
324.253	98.88
324.482	82.88
324.71	80.88
324.939	82.88
325.168	86.88
325.397	83.88
325.626	100.88
325.855	95.88
326.084	89.88
326.313	95.88
326.542	97.88
326.77	97.88
326.999	83.88
327.228	74.88
327.457	90.88
327.686	87.88
327.914	83.88
328.143	103.88
328.372	97.88
328.6	78.88
328.829	97.88
329.058	71.88
329.287	81.88
329.515	86.88
329.744	91.88
329.972	89.88
330.201	77.88
330.43	76.88
330.658	88.88
330.887	89.88
331.115	76.88
331.344	91.88
331.572	80.88
331.801	84.88
332.03	98.88
332.258	82.88
332.486	94.88
332.715	80.88
332.943	88.88
333.172	88.88
333.4	81.88
333.629	81.88
333.857	85.88
334.085	94.88
334.314	96.88
334.542	77.88
334.771	86.88
334.999	84.88
335.227	85.88
335.455	95.88
335.684	81.88
335.912	98.88
336.14	92.88
336.369	93.88
336.597	80.88
336.825	75.88
337.053	90.88
337.281	82.88
337.51	93.88
337.738	104.88
337.966	87.88
338.194	83.88
338.422	74.88
338.65	78.88
338.878	102.88
339.106	79.88
339.334	80.88
339.562	84.88
339.79	77.88
340.018	87.88
340.246	96.88
340.474	88.88
340.702	78.88
340.93	87.88
341.158	84.88
341.386	92.88
341.614	86.88
341.842	86.88
342.07	92.88
342.298	76.88
342.526	90.88
342.754	102.88
342.981	85.88
343.209	88.88
343.437	80.88
343.665	85.88
343.893	85.88
344.12	91.88
344.348	97.88
344.576	90.88
344.804	94.88
345.031	86.88
345.259	89.88
345.487	89.88
345.714	90.88
345.942	93.88
346.17	90.88
346.397	91.88
346.625	84.88
346.853	96.88
347.08	76.88
347.308	85.88
347.535	80.88
347.763	90.88
347.99	78.88
348.218	86.88
348.445	87.88
348.673	88.88
348.9	80.88
349.128	89.88
349.355	82.88
349.583	86.88
349.81	85.88
350.037	77.88
350.265	87.88
350.492	79.88
350.72	86.88
350.947	81.88
351.174	92.88
351.402	81.88
351.629	77.88
351.856	87.88
352.083	89.88
352.311	106.88
352.538	88.88
352.765	98.88
352.992	79.88
353.22	92.88
353.447	80.88
353.674	91.88
353.901	81.88
354.128	87.88
354.355	90.88
354.583	86.88
354.81	83.88
355.037	92.88
355.264	74.88
355.491	77.88
355.718	82.88
355.945	84.88
356.172	82.88
356.399	100.88
356.626	92.88
356.853	86.88
357.08	91.88
357.307	85.88
357.534	85.88
357.761	84.88
357.988	88.88
358.215	82.88
358.441	85.88
358.668	94.88
358.895	92.88
359.122	89.88
359.349	88.88
359.576	84.88
359.802	100.88
360.029	87.88
360.256	90.88
360.483	88.88
360.709	100.88
360.936	96.88
361.163	87.88
361.39	85.88
361.616	73.88
361.843	102.88
362.07	92.88
362.296	99.88
362.523	73.88
362.749	81.88
362.976	95.88
363.203	94.88
363.429	89.88
363.656	69.88
363.882	99.88
364.109	77.88
364.335	77.88
364.562	95.88
364.788	103.88
365.015	91.88
365.241	90.88
365.468	75.88
365.694	89.88
365.92	92.88
366.147	79.88
366.373	86.88
366.599	90.88
366.826	112.88
367.052	82.88
367.278	89.88
367.505	86.88
367.731	93.88
367.957	79.88
368.184	86.88
368.41	95.88
368.636	100.88
368.862	89.88
369.089	97.88
369.315	104.88
369.541	95.88
369.767	91.88
369.993	105.88
370.219	92.88
370.445	86.88
370.672	92.88
370.898	84.88
371.124	97.88
371.35	82.88
371.576	86.88
371.802	87.88
372.028	75.88
372.254	84.88
372.48	77.88
372.706	96.88
372.932	86.88
373.158	89.88
373.384	101.88
373.61	91.88
373.835	100.88
374.061	84.88
374.287	103.88
374.513	87.88
374.739	90.88
374.965	94.88
375.191	86.88
375.416	88.88
375.642	105.88
375.868	84.88
376.094	78.88
376.319	77.88
376.545	102.88
376.771	91.88
376.997	93.88
377.222	92.88
377.448	83.88
377.674	91.88
377.899	83.88
378.125	87.88
378.35	93.88
378.576	102.88
378.802	88.88
379.027	82.88
379.253	92.88
379.478	93.88
379.704	93.88
379.929	85.88
380.155	88.88
380.38	104.88
380.606	95.88
380.831	103.88
381.057	106.88
381.282	85.88
381.507	93.88
381.733	98.88
381.958	95.88
382.184	115.88
382.409	93.88
382.634	93.88
382.86	97.88
383.085	101.88
383.31	114.88
383.535	110.88
383.761	78.88
383.986	96.88
384.211	97.88
384.436	102.88
384.662	95.88
384.887	91.88
385.112	88.88
385.337	85.88
385.562	96.88
385.787	101.88
386.013	100.88
386.238	88.88
386.463	110.88
386.688	94.88
386.913	87.88
387.138	82.88
387.363	97.88
387.588	93.88
387.813	96.88
388.038	93.88
388.263	90.88
388.488	97.88
388.713	112.88
388.938	92.88
389.163	96.88
389.387	105.88
389.612	103.88
389.837	104.88
390.062	77.88
390.287	106.88
390.512	107.88
390.736	101.88
390.961	104.88
391.186	100.88
391.411	115.88
391.636	105.88
391.86	106.88
392.085	110.88
392.31	99.88
392.534	114.88
392.759	96.88
392.984	107.88
393.208	102.88
393.433	113.88
393.658	107.88
393.882	112.88
394.107	109.88
394.331	101.88
394.556	84.88
394.78	95.88
395.005	105.88
395.229	103.88
395.454	112.88
395.678	92.88
395.903	102.88
396.127	107.88
396.352	98.88
396.576	109.88
396.801	100.88
397.025	103.88
397.249	106.88
397.474	102.88
397.698	110.88
397.922	93.88
398.147	98.88
398.371	112.88
398.595	107.88
398.82	112.88
399.044	107.88
399.268	98.88
399.492	116.88
399.717	130.88
399.941	108.88
400.165	120.88
400.389	94.88
400.613	123.88
400.837	104.88
401.062	105.88
401.286	108.88
401.51	100.88
401.734	94.88
401.958	113.88
402.182	111.88
402.406	119.88
402.63	109.88
402.854	111.88
403.078	109.88
403.302	117.88
403.526	100.88
403.75	112.88
403.974	109.88
404.198	119.88
404.422	124.88
404.645	105.88
404.869	110.88
405.093	118.88
405.317	119.88
405.541	121.88
405.765	106.88
405.988	116.88
406.212	115.88
406.436	110.88
406.66	116.88
406.883	113.88
407.107	118.88
407.331	90.88
407.555	119.88
407.778	98.88
408.002	118.88
408.226	117.88
408.449	119.88
408.673	105.88
408.896	131.88
409.12	118.88
409.344	102.88
409.567	105.88
409.791	124.88
410.014	121.88
410.238	124.88
410.461	124.88
410.685	114.88
410.908	109.88
411.132	118.88
411.355	114.88
411.578	116.88
411.802	116.88
412.025	101.88
412.249	104.88
412.472	107.88
412.695	122.88
412.919	120.88
413.142	123.88
413.365	107.88
413.589	123.88
413.812	114.88
414.035	106.88
414.258	121.88
414.482	113.88
414.705	120.88
414.928	105.88
415.151	117.88
415.374	106.88
415.597	118.88
415.821	103.88
416.044	122.88
416.267	110.88
416.49	108.88
416.713	125.88
416.936	124.88
417.159	129.88
417.382	107.88
417.605	122.88
417.828	106.88
418.051	118.88
418.274	122.88
418.497	113.88
418.72	98.88
418.943	106.88
419.166	123.88
419.389	121.88
419.611	119.88
419.834	110.88
420.057	123.88
420.28	126.88
420.503	114.88
420.726	120.88
420.948	113.88
421.171	114.88
421.394	121.88
421.617	90.88
421.839	113.88
422.062	117.88
422.285	115.88
422.507	113.88
422.73	110.88
422.953	114.88
423.175	125.88
423.398	118.88
423.621	108.88
423.843	103.88
424.066	105.88
424.288	132.88
424.511	120.88
424.733	138.88
424.956	135.88
425.178	115.88
425.401	123.88
425.623	108.88
425.846	119.88
426.068	112.88
426.291	122.88
426.513	120.88
426.735	120.88
426.958	125.88
427.18	124.88
427.402	108.88
427.625	110.88
427.847	122.88
428.069	110.88
428.292	116.88
428.514	114.88
428.736	116.88
428.958	113.88
429.181	103.88
429.403	108.88
429.625	99.88
429.847	101.88
430.069	107.88
430.292	119.88
430.514	121.88
430.736	132.88
430.958	117.88
431.18	120.88
431.402	106.88
431.624	119.88
431.846	111.88
432.068	106.88
432.29	120.88
432.512	122.88
432.734	120.88
432.956	123.88
433.178	115.88
433.4	121.88
433.622	128.88
433.844	120.88
434.066	118.88
434.287	110.88
434.509	106.88
434.731	106.88
434.953	103.88
435.175	121.88
435.397	115.88
435.618	115.88
435.84	116.88
436.062	134.88
436.284	117.88
436.505	124.88
436.727	117.88
436.949	122.88
437.17	124.88
437.392	99.88
437.614	105.88
437.835	99.88
438.057	118.88
438.278	100.88
438.5	114.88
438.721	118.88
438.943	113.88
439.165	103.88
439.386	124.88
439.608	112.88
439.829	121.88
440.05	125.88
440.272	114.88
440.493	120.88
440.715	119.88
440.936	128.88
441.158	122.88
441.379	124.88
441.6	112.88
441.822	107.88
442.043	125.88
442.264	120.88
442.486	123.88
442.707	123.88
442.928	138.88
443.149	124.88
443.371	126.88
443.592	142.88
443.813	120.88
444.034	112.88
444.255	123.88
444.476	126.88
444.698	123.88
444.919	134.88
445.14	229.88
445.361	180.88
445.582	132.88
445.803	124.88
446.024	123.88
446.245	129.88
446.466	129.88
446.687	106.88
446.908	121.88
447.129	128.88
447.35	125.88
447.571	118.88
447.792	126.88
448.013	119.88
448.234	103.88
448.455	125.88
448.675	116.88
448.896	120.88
449.117	122.88
449.338	131.88
449.559	105.88
449.779	120.88
450	101.88
450.221	124.88
450.442	112.88
450.662	110.88
450.883	118.88
451.104	119.88
451.324	118.88
451.545	120.88
451.766	128.88
451.986	126.88
452.207	114.88
452.428	121.88
452.648	106.88
452.869	100.88
453.089	119.88
453.31	104.88
453.53	106.88
453.751	113.88
453.971	114.88
454.192	107.88
454.412	103.88
454.633	104.88
454.853	120.88
455.073	102.88
455.294	119.88
455.514	101.88
455.734	114.88
455.955	121.88
456.175	108.88
456.395	97.88
456.616	90.88
456.836	106.88
457.056	105.88
457.276	103.88
457.497	90.88
457.717	101.88
457.937	112.88
458.157	114.88
458.377	99.88
458.598	108.88
458.818	99.88
459.038	97.88
459.258	93.88
459.478	110.88
459.698	129.88
459.918	126.88
460.138	110.88
460.358	128.88
460.578	113.88
460.798	119.88
461.018	127.88
461.238	121.88
461.458	118.88
461.678	122.88
461.898	131.88
462.118	118.88
462.338	130.88
462.558	139.88
462.777	121.88
462.997	125.88
463.217	136.88
463.437	134.88
463.657	119.88
463.876	114.88
464.096	117.88
464.316	122.88
464.536	113.88
464.755	117.88
464.975	120.88
465.195	133.88
465.414	114.88
465.634	116.88
465.854	122.88
466.073	132.88
466.293	116.88
466.512	113.88
466.732	122.88
466.951	108.88
467.171	113.88
467.391	120.88
467.61	121.88
467.829	125.88
468.049	125.88
468.268	124.88
468.488	115.88
468.707	131.88
468.927	115.88
469.146	118.88
469.365	121.88
469.585	121.88
469.804	136.88
470.023	128.88
470.243	125.88
470.462	121.88
470.681	116.88
470.901	123.88
471.12	116.88
471.339	128.88
471.558	116.88
471.777	121.88
471.997	121.88
472.216	124.88
472.435	101.88
472.654	109.88
472.873	114.88
473.092	98.88
473.311	110.88
473.53	112.88
473.749	118.88
473.968	129.88
474.187	132.88
474.406	121.88
474.625	122.88
474.844	122.88
475.063	119.88
475.282	119.88
475.501	115.88
475.72	123.88
475.939	114.88
476.158	113.88
476.377	113.88
476.596	104.88
476.814	105.88
477.033	115.88
477.252	119.88
477.471	110.88
477.69	120.88
477.908	122.88
478.127	137.88
478.346	131.88
478.564	127.88
478.783	130.88
479.002	132.88
479.22	128.88
479.439	130.88
479.658	132.88
479.876	113.88
480.095	106.88
480.313	121.88
480.532	119.88
480.751	123.88
480.969	123.88
481.188	124.88
481.406	106.88
481.624	113.88
481.843	112.88
482.061	114.88
482.28	101.88
482.498	120.88
482.717	123.88
482.935	112.88
483.153	145.88
483.372	139.88
483.59	144.88
483.808	130.88
484.027	121.88
484.245	122.88
484.463	124.88
484.681	124.88
484.9	140.88
485.118	134.88
485.336	130.88
485.554	121.88
485.772	140.88
485.99	126.88
486.209	108.88
486.427	116.88
486.645	128.88
486.863	135.88
487.081	123.88
487.299	128.88
487.517	137.88
487.735	129.88
487.953	145.88
488.171	153.88
488.389	142.88
488.607	140.88
488.825	127.88
489.043	128.88
489.261	126.88
489.479	140.88
489.696	131.88
489.914	117.88
490.132	125.88
490.35	133.88
490.568	141.88
490.786	162.88
491.003	157.88
491.221	159.88
491.439	162.88
491.657	144.88
491.874	150.88
492.092	170.88
492.31	167.88
492.527	157.88
492.745	153.88
492.963	137.88
493.18	161.88
493.398	162.88
493.615	151.88
493.833	146.88
494.05	155.88
494.268	161.88
494.485	156.88
494.703	152.88
494.92	142.88
495.138	161.88
495.355	153.88
495.573	148.88
495.79	144.88
496.008	153.88
496.225	156.88
496.442	147.88
496.66	161.88
496.877	163.88
497.094	162.88
497.312	154.88
497.529	157.88
497.746	150.88
497.963	143.88
498.181	148.88
498.398	140.88
498.615	144.88
498.832	161.88
499.049	166.88
499.267	168.88
499.484	172.88
499.701	173.88
499.918	188.88
500.135	198.88
500.352	232.88
500.569	231.88
500.786	218.88
501.003	207.88
501.22	208.88
501.437	189.88
501.654	178.88
501.871	149.88
502.088	162.88
502.305	149.88
502.522	166.88
502.739	172.88
502.956	145.88
503.172	139.88
503.389	134.88
503.606	131.88
503.823	142.88
504.04	131.88
504.256	137.88
504.473	144.88
504.69	149.88
504.907	147.88
505.123	136.88
505.34	126.88
505.557	128.88
505.773	130.88
505.99	135.88
506.207	141.88
506.423	120.88
506.64	125.88
506.856	136.88
507.073	137.88
507.289	116.88
507.506	134.88
507.722	123.88
507.939	116.88
508.155	118.88
508.372	130.88
508.588	120.88
508.805	121.88
509.021	122.88
509.238	117.88
509.454	102.88
509.67	128.88
509.887	112.88
510.103	117.88
510.319	106.88
510.536	112.88
510.752	119.88
510.968	122.88
