Data from StandardFe(NO3)3.TAE.3%Agarose.FlatLispGreen.Lamp.Energy10.07252019_HRD10591_11-55-39-441.txt Node
Date: Thu Jul 25 11:55:39 EDT 2019
User: cochatt
Spectrometer: HR+D1059
Trigger mode: 1
Integration Time (sec): 1.000000E-1
Scans to average: 1
Electric dark correction enabled: true
Nonlinearity correction enabled: false
Boxcar width: 0
XAxis mode: Wavelengths
Number of Pixels in Spectrum: 2048
>>>>>Begin Spectral Data<<<<<
223.165	-6.19
223.4	-6.19
223.635	-6.19
223.869	-11.19
224.104	-17.19
224.338	-24.19
224.573	-21.19
224.808	-11.19
225.042	-1.19
225.277	-11.19
225.511	0.81
225.746	8.81
225.98	9.81
226.215	3.81
226.449	20.81
226.683	14.81
226.918	8.81
227.152	35.81
227.387	23.81
227.621	38.81
227.856	35.81
228.09	45.81
228.324	46.81
228.559	59.81
228.793	53.81
229.027	66.81
229.262	70.81
229.496	68.81
229.73	72.81
229.964	73.81
230.199	82.81
230.433	79.81
230.667	76.81
230.901	63.81
231.136	77.81
231.37	70.81
231.604	84.81
231.838	81.81
232.072	88.81
232.306	79.81
232.541	86.81
232.775	90.81
233.009	85.81
233.243	81.81
233.477	87.81
233.711	69.81
233.945	90.81
234.179	82.81
234.413	73.81
234.647	90.81
234.881	90.81
235.115	91.81
235.349	79.81
235.583	77.81
235.817	84.81
236.051	78.81
236.285	73.81
236.519	85.81
236.753	68.81
236.987	79.81
237.221	75.81
237.455	86.81
237.689	76.81
237.922	72.81
238.156	71.81
238.39	76.81
238.624	69.81
238.858	86.81
239.091	80.81
239.325	69.81
239.559	82.81
239.793	66.81
240.027	77.81
240.26	78.81
240.494	91.81
240.728	80.81
240.961	90.81
241.195	92.81
241.429	76.81
241.662	86.81
241.896	77.81
242.13	79.81
242.363	100.81
242.597	78.81
242.83	87.81
243.064	66.81
243.298	62.81
243.531	72.81
243.765	73.81
243.998	74.81
244.232	88.81
244.465	80.81
244.699	81.81
244.932	73.81
245.166	78.81
245.399	77.81
245.633	76.81
245.866	78.81
246.099	94.81
246.333	77.81
246.566	71.81
246.8	72.81
247.033	73.81
247.266	77.81
247.5	76.81
247.733	84.81
247.966	91.81
248.2	90.81
248.433	74.81
248.666	89.81
248.899	66.81
249.133	73.81
249.366	80.81
249.599	83.81
249.832	79.81
250.066	96.81
250.299	74.81
250.532	84.81
250.765	77.81
250.998	77.81
251.231	89.81
251.465	71.81
251.698	93.81
251.931	87.81
252.164	73.81
252.397	78.81
252.63	81.81
252.863	89.81
253.096	83.81
253.329	74.81
253.562	75.81
253.795	71.81
254.028	104.81
254.261	84.81
254.494	83.81
254.727	76.81
254.96	77.81
255.193	82.81
255.426	92.81
255.659	72.81
255.892	81.81
256.124	87.81
256.357	69.81
256.59	84.81
256.823	74.81
257.056	94.81
257.289	80.81
257.521	69.81
257.754	75.81
257.987	89.81
258.22	73.81
258.452	87.81
258.685	88.81
258.918	73.81
259.151	80.81
259.383	77.81
259.616	99.81
259.849	87.81
260.081	88.81
260.314	85.81
260.547	87.81
260.779	84.81
261.012	77.81
261.244	86.81
261.477	75.81
261.71	83.81
261.942	80.81
262.175	80.81
262.407	71.81
262.64	66.81
262.872	81.81
263.105	94.81
263.337	78.81
263.57	88.81
263.802	87.81
264.035	86.81
264.267	85.81
264.499	70.81
264.732	101.81
264.964	98.81
265.197	86.81
265.429	82.81
265.661	81.81
265.894	88.81
266.126	70.81
266.358	71.81
266.591	81.81
266.823	89.81
267.055	102.81
267.287	97.81
267.52	81.81
267.752	84.81
267.984	84.81
268.216	91.81
268.448	93.81
268.681	74.81
268.913	76.81
269.145	96.81
269.377	81.81
269.609	87.81
269.841	90.81
270.073	84.81
270.306	62.81
270.538	88.81
270.77	74.81
271.002	90.81
271.234	90.81
271.466	85.81
271.698	86.81
271.93	77.81
272.162	92.81
272.394	95.81
272.626	85.81
272.858	87.81
273.09	98.81
273.322	90.81
273.553	90.81
273.785	90.81
274.017	82.81
274.249	83.81
274.481	78.81
274.713	82.81
274.945	80.81
275.176	78.81
275.408	94.81
275.64	78.81
275.872	76.81
276.104	84.81
276.335	88.81
276.567	87.81
276.799	78.81
277.031	77.81
277.262	84.81
277.494	74.81
277.726	88.81
277.957	97.81
278.189	96.81
278.421	91.81
278.652	79.81
278.884	75.81
279.115	85.81
279.347	98.81
279.579	88.81
279.81	94.81
280.042	79.81
280.273	92.81
280.505	88.81
280.736	78.81
280.968	92.81
281.199	88.81
281.431	80.81
281.662	77.81
281.894	88.81
282.125	81.81
282.356	97.81
282.588	94.81
282.819	87.81
283.051	74.81
283.282	90.81
283.513	86.81
283.745	87.81
283.976	92.81
284.207	91.81
284.439	89.81
284.67	86.81
284.901	87.81
285.132	74.81
285.364	81.81
285.595	75.81
285.826	91.81
286.057	88.81
286.288	99.81
286.52	89.81
286.751	84.81
286.982	89.81
287.213	89.81
287.444	75.81
287.675	90.81
287.906	86.81
288.138	85.81
288.369	80.81
288.6	76.81
288.831	77.81
289.062	74.81
289.293	83.81
289.524	92.81
289.755	74.81
289.986	67.81
290.217	73.81
290.448	96.81
290.679	90.81
290.91	92.81
291.141	77.81
291.371	88.81
291.602	82.81
291.833	82.81
292.064	88.81
292.295	94.81
292.526	82.81
292.757	81.81
292.987	86.81
293.218	101.81
293.449	105.81
293.68	95.81
293.91	98.81
294.141	86.81
294.372	78.81
294.603	82.81
294.833	86.81
295.064	83.81
295.295	92.81
295.525	84.81
295.756	85.81
295.987	78.81
296.217	80.81
296.448	83.81
296.679	85.81
296.909	77.81
297.14	88.81
297.37	89.81
297.601	96.81
297.831	88.81
298.062	85.81
298.292	82.81
298.523	93.81
298.753	82.81
298.984	86.81
299.214	82.81
299.445	81.81
299.675	82.81
299.905	91.81
300.136	93.81
300.366	91.81
300.597	83.81
300.827	101.81
301.057	105.81
301.288	89.81
301.518	96.81
301.748	75.81
301.979	91.81
302.209	81.81
302.439	93.81
302.669	85.81
302.9	93.81
303.13	85.81
303.36	98.81
303.59	74.81
303.82	77.81
304.051	88.81
304.281	98.81
304.511	91.81
304.741	79.81
304.971	82.81
305.201	78.81
305.431	79.81
305.661	76.81
305.891	88.81
306.121	96.81
306.352	85.81
306.582	83.81
306.812	99.81
307.042	75.81
307.272	70.81
307.502	80.81
307.731	90.81
307.961	78.81
308.191	86.81
308.421	93.81
308.651	74.81
308.881	93.81
309.111	86.81
309.341	85.81
309.571	96.81
309.8	70.81
310.03	85.81
310.26	81.81
310.49	94.81
310.72	86.81
310.949	78.81
311.179	88.81
311.409	86.81
311.639	74.81
311.868	85.81
312.098	88.81
312.328	80.81
312.557	82.81
312.787	91.81
313.017	92.81
313.246	77.81
313.476	99.81
313.706	88.81
313.935	92.81
314.165	86.81
314.394	90.81
314.624	84.81
314.853	89.81
315.083	79.81
315.312	76.81
315.542	71.81
315.771	95.81
316.001	86.81
316.23	88.81
316.46	77.81
316.689	100.81
316.919	94.81
317.148	79.81
317.377	95.81
317.607	94.81
317.836	103.81
318.065	83.81
318.295	90.81
318.524	93.81
318.753	90.81
318.983	81.81
319.212	97.81
319.441	90.81
319.67	81.81
319.9	78.81
320.129	83.81
320.358	94.81
320.587	92.81
320.816	85.81
321.046	92.81
321.275	85.81
321.504	90.81
321.733	92.81
321.962	75.81
322.191	77.81
322.42	75.81
322.649	88.81
322.878	73.81
323.108	101.81
323.337	81.81
323.566	97.81
323.795	74.81
324.024	83.81
324.253	75.81
324.482	104.81
324.71	90.81
324.939	78.81
325.168	83.81
325.397	90.81
325.626	92.81
325.855	88.81
326.084	86.81
326.313	86.81
326.542	92.81
326.77	84.81
326.999	84.81
327.228	76.81
327.457	82.81
327.686	88.81
327.914	88.81
328.143	96.81
328.372	96.81
328.6	89.81
328.829	94.81
329.058	89.81
329.287	99.81
329.515	91.81
329.744	85.81
329.972	71.81
330.201	84.81
330.43	88.81
330.658	83.81
330.887	100.81
331.115	93.81
331.344	82.81
331.572	91.81
331.801	91.81
332.03	79.81
332.258	86.81
332.486	89.81
332.715	90.81
332.943	91.81
333.172	82.81
333.4	73.81
333.629	92.81
333.857	75.81
334.085	79.81
334.314	81.81
334.542	93.81
334.771	90.81
334.999	86.81
335.227	86.81
335.455	91.81
335.684	89.81
335.912	83.81
336.14	80.81
336.369	82.81
336.597	84.81
336.825	84.81
337.053	90.81
337.281	79.81
337.51	84.81
337.738	93.81
337.966	90.81
338.194	89.81
338.422	88.81
338.65	82.81
338.878	90.81
339.106	69.81
339.334	75.81
339.562	92.81
339.79	87.81
340.018	83.81
340.246	87.81
340.474	88.81
340.702	91.81
340.93	85.81
341.158	90.81
341.386	96.81
341.614	84.81
341.842	76.81
342.07	93.81
342.298	88.81
342.526	91.81
342.754	96.81
342.981	86.81
343.209	88.81
343.437	95.81
343.665	97.81
343.893	84.81
344.12	92.81
344.348	85.81
344.576	80.81
344.804	85.81
345.031	100.81
345.259	77.81
345.487	92.81
345.714	87.81
345.942	85.81
346.17	86.81
346.397	78.81
346.625	95.81
346.853	69.81
347.08	90.81
347.308	91.81
347.535	97.81
347.763	93.81
347.99	97.81
348.218	97.81
348.445	78.81
348.673	91.81
348.9	87.81
349.128	85.81
349.355	75.81
349.583	95.81
349.81	81.81
350.037	84.81
350.265	79.81
350.492	84.81
350.72	90.81
350.947	90.81
351.174	84.81
351.402	81.81
351.629	88.81
351.856	90.81
352.083	73.81
352.311	77.81
352.538	70.81
352.765	87.81
352.992	77.81
353.22	88.81
353.447	93.81
353.674	82.81
353.901	88.81
354.128	97.81
354.355	80.81
354.583	76.81
354.81	86.81
355.037	93.81
355.264	94.81
355.491	95.81
355.718	74.81
355.945	84.81
356.172	86.81
356.399	75.81
356.626	84.81
356.853	98.81
357.08	91.81
357.307	79.81
357.534	82.81
357.761	72.81
357.988	79.81
358.215	81.81
358.441	86.81
358.668	96.81
358.895	93.81
359.122	91.81
359.349	93.81
359.576	83.81
359.802	89.81
360.029	73.81
360.256	86.81
360.483	83.81
360.709	75.81
360.936	91.81
361.163	85.81
361.39	95.81
361.616	81.81
361.843	83.81
362.07	79.81
362.296	76.81
362.523	78.81
362.749	76.81
362.976	85.81
363.203	85.81
363.429	70.81
363.656	93.81
363.882	88.81
364.109	88.81
364.335	79.81
364.562	84.81
364.788	93.81
365.015	92.81
365.241	89.81
365.468	99.81
365.694	79.81
365.92	89.81
366.147	96.81
366.373	82.81
366.599	91.81
366.826	84.81
367.052	82.81
367.278	87.81
367.505	73.81
367.731	94.81
367.957	89.81
368.184	88.81
368.41	93.81
368.636	75.81
368.862	90.81
369.089	90.81
369.315	96.81
369.541	77.81
369.767	82.81
369.993	72.81
370.219	78.81
370.445	84.81
370.672	104.81
370.898	76.81
371.124	99.81
371.35	93.81
371.576	90.81
371.802	84.81
372.028	85.81
372.254	90.81
372.48	86.81
372.706	89.81
372.932	106.81
373.158	92.81
373.384	92.81
373.61	86.81
373.835	85.81
374.061	76.81
374.287	76.81
374.513	88.81
374.739	86.81
374.965	91.81
375.191	95.81
375.416	101.81
375.642	83.81
375.868	83.81
376.094	86.81
376.319	84.81
376.545	82.81
376.771	77.81
376.997	87.81
377.222	90.81
377.448	92.81
377.674	96.81
377.899	103.81
378.125	84.81
378.35	75.81
378.576	84.81
378.802	83.81
379.027	102.81
379.253	89.81
379.478	83.81
379.704	83.81
379.929	91.81
380.155	92.81
380.38	99.81
380.606	97.81
380.831	91.81
381.057	80.81
381.282	93.81
381.507	93.81
381.733	101.81
381.958	89.81
382.184	95.81
382.409	95.81
382.634	85.81
382.86	93.81
383.085	91.81
383.31	80.81
383.535	100.81
383.761	95.81
383.986	83.81
384.211	81.81
384.436	94.81
384.662	93.81
384.887	104.81
385.112	100.81
385.337	93.81
385.562	93.81
385.787	98.81
386.013	102.81
386.238	83.81
386.463	92.81
386.688	102.81
386.913	104.81
387.138	120.81
387.363	101.81
387.588	99.81
387.813	89.81
388.038	95.81
388.263	83.81
388.488	90.81
388.713	95.81
388.938	100.81
389.163	89.81
389.387	82.81
389.612	100.81
389.837	98.81
390.062	85.81
390.287	94.81
390.512	93.81
390.736	102.81
390.961	100.81
391.186	98.81
391.411	104.81
391.636	114.81
391.86	105.81
392.085	109.81
392.31	97.81
392.534	97.81
392.759	108.81
392.984	88.81
393.208	92.81
393.433	97.81
393.658	94.81
393.882	102.81
394.107	91.81
394.331	94.81
394.556	95.81
394.78	106.81
395.005	88.81
395.229	100.81
395.454	112.81
395.678	94.81
395.903	102.81
396.127	86.81
396.352	104.81
396.576	92.81
396.801	99.81
397.025	101.81
397.249	103.81
397.474	100.81
397.698	93.81
397.922	110.81
398.147	92.81
398.371	99.81
398.595	115.81
398.82	105.81
399.044	121.81
399.268	114.81
399.492	102.81
399.717	116.81
399.941	114.81
400.165	102.81
400.389	112.81
400.613	106.81
400.837	103.81
401.062	105.81
401.286	118.81
401.51	112.81
401.734	105.81
401.958	99.81
402.182	100.81
402.406	106.81
402.63	121.81
402.854	95.81
403.078	101.81
403.302	97.81
403.526	116.81
403.75	115.81
403.974	109.81
404.198	107.81
404.422	108.81
404.645	114.81
404.869	118.81
405.093	108.81
405.317	109.81
405.541	114.81
405.765	124.81
405.988	112.81
406.212	105.81
406.436	115.81
406.66	112.81
406.883	107.81
407.107	126.81
407.331	116.81
407.555	110.81
407.778	106.81
408.002	122.81
408.226	131.81
408.449	109.81
408.673	122.81
408.896	98.81
409.12	119.81
409.344	120.81
409.567	105.81
409.791	107.81
410.014	107.81
410.238	112.81
410.461	120.81
410.685	112.81
410.908	103.81
411.132	116.81
411.355	110.81
411.578	122.81
411.802	117.81
412.025	104.81
412.249	104.81
412.472	101.81
412.695	120.81
412.919	104.81
413.142	110.81
413.365	109.81
413.589	112.81
413.812	107.81
414.035	113.81
414.258	115.81
414.482	125.81
414.705	108.81
414.928	120.81
415.151	109.81
415.374	123.81
415.597	104.81
415.821	112.81
416.044	112.81
416.267	115.81
416.49	131.81
416.713	115.81
416.936	113.81
417.159	106.81
417.382	117.81
417.605	102.81
417.828	107.81
418.051	101.81
418.274	113.81
418.497	121.81
418.72	121.81
418.943	126.81
419.166	121.81
419.389	118.81
419.611	116.81
419.834	107.81
420.057	109.81
420.28	109.81
420.503	122.81
420.726	120.81
420.948	104.81
421.171	122.81
421.394	107.81
421.617	128.81
421.839	121.81
422.062	102.81
422.285	101.81
422.507	105.81
422.73	106.81
422.953	120.81
423.175	117.81
423.398	107.81
423.621	120.81
423.843	110.81
424.066	117.81
424.288	112.81
424.511	126.81
424.733	138.81
424.956	125.81
425.178	123.81
425.401	118.81
425.623	102.81
425.846	120.81
426.068	116.81
426.291	113.81
426.513	109.81
426.735	114.81
426.958	116.81
427.18	107.81
427.402	118.81
427.625	128.81
427.847	110.81
428.069	110.81
428.292	102.81
428.514	103.81
428.736	112.81
428.958	125.81
429.181	114.81
429.403	127.81
429.625	107.81
429.847	130.81
430.069	105.81
430.292	112.81
430.514	118.81
430.736	118.81
430.958	109.81
431.18	99.81
431.402	100.81
431.624	97.81
431.846	100.81
432.068	99.81
432.29	108.81
432.512	113.81
432.734	115.81
432.956	113.81
433.178	122.81
433.4	126.81
433.622	105.81
433.844	102.81
434.066	107.81
434.287	115.81
434.509	112.81
434.731	105.81
434.953	107.81
435.175	103.81
435.397	105.81
435.618	123.81
435.84	97.81
436.062	98.81
436.284	103.81
436.505	115.81
436.727	106.81
436.949	114.81
437.17	100.81
437.392	102.81
437.614	87.81
437.835	92.81
438.057	103.81
438.278	117.81
438.5	116.81
438.721	95.81
438.943	110.81
439.165	120.81
439.386	108.81
439.608	103.81
439.829	117.81
440.05	106.81
440.272	103.81
440.493	120.81
440.715	123.81
440.936	119.81
441.158	132.81
441.379	114.81
441.6	116.81
441.822	124.81
442.043	118.81
442.264	124.81
442.486	101.81
442.707	118.81
442.928	125.81
443.149	125.81
443.371	133.81
443.592	114.81
443.813	127.81
444.034	131.81
444.255	121.81
444.476	122.81
444.698	117.81
444.919	134.81
445.14	213.81
445.361	150.81
445.582	139.81
445.803	116.81
446.024	127.81
446.245	124.81
446.466	132.81
446.687	106.81
446.908	116.81
447.129	115.81
447.35	114.81
447.571	117.81
447.792	128.81
448.013	119.81
448.234	115.81
448.455	111.81
448.675	124.81
448.896	121.81
449.117	117.81
449.338	114.81
449.559	121.81
449.779	114.81
450	128.81
450.221	121.81
450.442	126.81
450.662	128.81
450.883	108.81
451.104	112.81
451.324	116.81
451.545	114.81
451.766	115.81
451.986	114.81
452.207	108.81
452.428	117.81
452.648	100.81
452.869	104.81
453.089	103.81
453.31	108.81
453.53	109.81
453.751	100.81
453.971	98.81
454.192	113.81
454.412	101.81
454.633	113.81
454.853	98.81
455.073	106.81
455.294	116.81
455.514	106.81
455.734	100.81
455.955	107.81
456.175	100.81
456.395	104.81
456.616	114.81
456.836	96.81
457.056	115.81
457.276	96.81
457.497	98.81
457.717	90.81
457.937	95.81
458.157	98.81
458.377	114.81
458.598	96.81
458.818	114.81
459.038	94.81
459.258	102.81
459.478	102.81
459.698	101.81
459.918	105.81
460.138	108.81
460.358	113.81
460.578	115.81
460.798	120.81
461.018	109.81
461.238	126.81
461.458	119.81
461.678	92.81
461.898	128.81
462.118	121.81
462.338	124.81
462.558	120.81
462.777	121.81
462.997	123.81
463.217	122.81
463.437	134.81
463.657	119.81
463.876	129.81
464.096	125.81
464.316	123.81
464.536	125.81
464.755	118.81
464.975	131.81
465.195	122.81
465.414	120.81
465.634	104.81
465.854	120.81
466.073	111.81
466.293	106.81
466.512	121.81
466.732	108.81
466.951	112.81
467.171	116.81
467.391	101.81
467.61	113.81
467.829	116.81
468.049	126.81
468.268	108.81
468.488	100.81
468.707	122.81
468.927	108.81
469.146	103.81
469.365	119.81
469.585	130.81
469.804	124.81
470.023	117.81
470.243	130.81
470.462	123.81
470.681	126.81
470.901	112.81
471.12	108.81
471.339	124.81
471.558	130.81
471.777	120.81
471.997	115.81
472.216	121.81
472.435	115.81
472.654	112.81
472.873	110.81
473.092	115.81
473.311	103.81
473.53	113.81
473.749	118.81
473.968	124.81
474.187	117.81
474.406	123.81
474.625	106.81
474.844	115.81
475.063	114.81
475.282	128.81
475.501	112.81
475.72	119.81
475.939	105.81
476.158	124.81
476.377	115.81
476.596	106.81
476.814	125.81
477.033	111.81
477.252	115.81
477.471	103.81
477.69	121.81
477.908	123.81
478.127	140.81
478.346	128.81
478.564	129.81
478.783	134.81
479.002	134.81
479.22	134.81
479.439	115.81
479.658	111.81
479.876	121.81
480.095	124.81
480.313	125.81
480.532	121.81
480.751	122.81
480.969	124.81
481.188	117.81
481.406	108.81
481.624	124.81
481.843	112.81
482.061	106.81
482.28	108.81
482.498	122.81
482.717	114.81
482.935	131.81
483.153	124.81
483.372	128.81
483.59	128.81
483.808	131.81
484.027	116.81
484.245	129.81
484.463	128.81
484.681	137.81
484.9	126.81
485.118	105.81
485.336	118.81
485.554	122.81
485.772	120.81
485.99	123.81
486.209	126.81
486.427	128.81
486.645	136.81
486.863	138.81
487.081	135.81
487.299	128.81
487.517	128.81
487.735	133.81
487.953	157.81
488.171	144.81
488.389	140.81
488.607	125.81
488.825	125.81
489.043	132.81
489.261	121.81
489.479	134.81
489.696	137.81
489.914	121.81
490.132	134.81
490.35	132.81
490.568	135.81
490.786	124.81
491.003	151.81
491.221	150.81
491.439	148.81
491.657	154.81
491.874	155.81
492.092	163.81
492.31	167.81
492.527	166.81
492.745	157.81
492.963	154.81
493.18	156.81
493.398	150.81
493.615	138.81
493.833	146.81
494.05	148.81
494.268	146.81
494.485	143.81
494.703	137.81
494.92	156.81
495.138	155.81
495.355	162.81
495.573	161.81
495.79	160.81
496.008	159.81
496.225	146.81
496.442	156.81
496.66	154.81
496.877	148.81
497.094	156.81
497.312	148.81
497.529	134.81
497.746	142.81
497.963	140.81
498.181	149.81
498.398	131.81
498.615	141.81
498.832	169.81
499.049	159.81
499.267	147.81
499.484	181.81
499.701	164.81
499.918	168.81
500.135	193.81
500.352	196.81
500.569	217.81
500.786	220.81
501.003	206.81
501.22	169.81
501.437	196.81
501.654	162.81
501.871	139.81
502.088	157.81
502.305	151.81
502.522	146.81
502.739	147.81
502.956	138.81
503.172	146.81
503.389	130.81
503.606	128.81
503.823	125.81
504.04	139.81
504.256	145.81
504.473	142.81
504.69	144.81
504.907	146.81
505.123	135.81
505.34	121.81
505.557	130.81
505.773	125.81
505.99	123.81
506.207	117.81
506.423	120.81
506.64	124.81
506.856	129.81
507.073	130.81
507.289	120.81
507.506	121.81
507.722	121.81
507.939	126.81
508.155	124.81
508.372	117.81
508.588	122.81
508.805	127.81
509.021	118.81
509.238	120.81
509.454	126.81
509.67	130.81
509.887	122.81
510.103	125.81
510.319	113.81
510.536	110.81
510.752	109.81
510.968	118.81
511.184	122.81
511.401	122.81
511.617	122.81
