Data from StandardFe(NO3)3.TAE.3%Agarose.FlatLispGreen.Lamp.Energy10.07252019_HRD10591_11-56-11-442.txt Node
Date: Thu Jul 25 11:56:11 EDT 2019
User: cochatt
Spectrometer: HR+D1059
Trigger mode: 1
Integration Time (sec): 1.000000E-1
Scans to average: 1
Electric dark correction enabled: true
Nonlinearity correction enabled: false
Boxcar width: 0
XAxis mode: Wavelengths
Number of Pixels in Spectrum: 2048
>>>>>Begin Spectral Data<<<<<
223.165	-20.69
223.4	-20.69
223.635	-20.69
223.869	-8.69
224.104	-7.69
224.338	-16.69
224.573	-15.69
224.808	-21.69
225.042	-4.69
225.277	1.31
225.511	8.31
225.746	15.31
225.98	2.31
226.215	8.31
226.449	3.31
226.683	9.31
226.918	19.31
227.152	28.31
227.387	34.31
227.621	23.31
227.856	30.31
228.09	35.31
228.324	35.31
228.559	42.31
228.793	41.31
229.027	45.31
229.262	63.31
229.496	59.31
229.73	56.31
229.964	72.31
230.199	61.31
230.433	65.31
230.667	87.31
230.901	79.31
231.136	80.31
231.37	80.31
231.604	86.31
231.838	64.31
232.072	86.31
232.306	78.31
232.541	74.31
232.775	71.31
233.009	70.31
233.243	72.31
233.477	60.31
233.711	86.31
233.945	71.31
234.179	80.31
234.413	87.31
234.647	80.31
234.881	71.31
235.115	76.31
235.349	77.31
235.583	77.31
235.817	66.31
236.051	67.31
236.285	80.31
236.519	102.31
236.753	80.31
236.987	70.31
237.221	74.31
237.455	81.31
237.689	83.31
237.922	82.31
238.156	83.31
238.39	66.31
238.624	89.31
238.858	72.31
239.091	71.31
239.325	75.31
239.559	62.31
239.793	76.31
240.027	81.31
240.26	80.31
240.494	82.31
240.728	76.31
240.961	71.31
241.195	68.31
241.429	76.31
241.662	85.31
241.896	74.31
242.13	88.31
242.363	71.31
242.597	68.31
242.83	84.31
243.064	75.31
243.298	74.31
243.531	70.31
243.765	83.31
243.998	91.31
244.232	85.31
244.465	62.31
244.699	76.31
244.932	86.31
245.166	74.31
245.399	79.31
245.633	72.31
245.866	76.31
246.099	84.31
246.333	69.31
246.566	77.31
246.8	82.31
247.033	80.31
247.266	81.31
247.5	73.31
247.733	70.31
247.966	75.31
248.2	74.31
248.433	91.31
248.666	66.31
248.899	78.31
249.133	81.31
249.366	76.31
249.599	84.31
249.832	76.31
250.066	65.31
250.299	76.31
250.532	71.31
250.765	75.31
250.998	72.31
251.231	86.31
251.465	74.31
251.698	67.31
251.931	89.31
252.164	75.31
252.397	72.31
252.63	79.31
252.863	84.31
253.096	80.31
253.329	68.31
253.562	80.31
253.795	92.31
254.028	83.31
254.261	70.31
254.494	74.31
254.727	78.31
254.96	78.31
255.193	80.31
255.426	68.31
255.659	84.31
255.892	85.31
256.124	87.31
256.357	72.31
256.59	75.31
256.823	98.31
257.056	80.31
257.289	85.31
257.521	75.31
257.754	72.31
257.987	78.31
258.22	79.31
258.452	75.31
258.685	89.31
258.918	86.31
259.151	97.31
259.383	75.31
259.616	84.31
259.849	79.31
260.081	86.31
260.314	70.31
260.547	85.31
260.779	88.31
261.012	88.31
261.244	96.31
261.477	85.31
261.71	79.31
261.942	70.31
262.175	84.31
262.407	81.31
262.64	96.31
262.872	81.31
263.105	72.31
263.337	78.31
263.57	88.31
263.802	77.31
264.035	81.31
264.267	84.31
264.499	81.31
264.732	87.31
264.964	84.31
265.197	70.31
265.429	80.31
265.661	77.31
265.894	85.31
266.126	89.31
266.358	80.31
266.591	79.31
266.823	76.31
267.055	83.31
267.287	84.31
267.52	74.31
267.752	81.31
267.984	87.31
268.216	88.31
268.448	66.31
268.681	84.31
268.913	80.31
269.145	82.31
269.377	78.31
269.609	88.31
269.841	91.31
270.073	79.31
270.306	71.31
270.538	71.31
270.77	85.31
271.002	81.31
271.234	77.31
271.466	81.31
271.698	79.31
271.93	85.31
272.162	69.31
272.394	73.31
272.626	71.31
272.858	84.31
273.09	79.31
273.322	87.31
273.553	71.31
273.785	86.31
274.017	85.31
274.249	96.31
274.481	77.31
274.713	99.31
274.945	78.31
275.176	84.31
275.408	75.31
275.64	82.31
275.872	89.31
276.104	88.31
276.335	96.31
276.567	84.31
276.799	87.31
277.031	79.31
277.262	86.31
277.494	99.31
277.726	93.31
277.957	69.31
278.189	83.31
278.421	91.31
278.652	71.31
278.884	84.31
279.115	101.31
279.347	84.31
279.579	70.31
279.81	78.31
280.042	71.31
280.273	68.31
280.505	81.31
280.736	89.31
280.968	85.31
281.199	82.31
281.431	81.31
281.662	68.31
281.894	81.31
282.125	79.31
282.356	70.31
282.588	77.31
282.819	96.31
283.051	73.31
283.282	83.31
283.513	97.31
283.745	72.31
283.976	72.31
284.207	69.31
284.439	88.31
284.67	85.31
284.901	77.31
285.132	70.31
285.364	80.31
285.595	84.31
285.826	84.31
286.057	95.31
286.288	88.31
286.52	73.31
286.751	72.31
286.982	77.31
287.213	84.31
287.444	83.31
287.675	80.31
287.906	85.31
288.138	80.31
288.369	81.31
288.6	76.31
288.831	94.31
289.062	75.31
289.293	72.31
289.524	77.31
289.755	81.31
289.986	86.31
290.217	83.31
290.448	81.31
290.679	82.31
290.91	79.31
291.141	73.31
291.371	92.31
291.602	84.31
291.833	93.31
292.064	74.31
292.295	82.31
292.526	81.31
292.757	76.31
292.987	76.31
293.218	77.31
293.449	84.31
293.68	90.31
293.91	89.31
294.141	77.31
294.372	88.31
294.603	87.31
294.833	87.31
295.064	79.31
295.295	88.31
295.525	66.31
295.756	91.31
295.987	78.31
296.217	99.31
296.448	82.31
296.679	90.31
296.909	84.31
297.14	79.31
297.37	90.31
297.601	82.31
297.831	71.31
298.062	86.31
298.292	84.31
298.523	82.31
298.753	85.31
298.984	83.31
299.214	81.31
299.445	84.31
299.675	84.31
299.905	90.31
300.136	67.31
300.366	72.31
300.597	70.31
300.827	81.31
301.057	88.31
301.288	88.31
301.518	75.31
301.748	85.31
301.979	74.31
302.209	85.31
302.439	87.31
302.669	79.31
302.9	88.31
303.13	93.31
303.36	91.31
303.59	83.31
303.82	84.31
304.051	78.31
304.281	81.31
304.511	86.31
304.741	76.31
304.971	80.31
305.201	85.31
305.431	91.31
305.661	84.31
305.891	94.31
306.121	89.31
306.352	89.31
306.582	78.31
306.812	84.31
307.042	84.31
307.272	85.31
307.502	76.31
307.731	104.31
307.961	93.31
308.191	76.31
308.421	91.31
308.651	80.31
308.881	82.31
309.111	79.31
309.341	74.31
309.571	76.31
309.8	92.31
310.03	78.31
310.26	89.31
310.49	75.31
310.72	78.31
310.949	75.31
311.179	72.31
311.409	68.31
311.639	95.31
311.868	73.31
312.098	93.31
312.328	99.31
312.557	84.31
312.787	79.31
313.017	59.31
313.246	79.31
313.476	80.31
313.706	87.31
313.935	89.31
314.165	75.31
314.394	77.31
314.624	80.31
314.853	92.31
315.083	81.31
315.312	91.31
315.542	94.31
315.771	90.31
316.001	70.31
316.23	91.31
316.46	88.31
316.689	84.31
316.919	78.31
317.148	75.31
317.377	91.31
317.607	77.31
317.836	72.31
318.065	88.31
318.295	86.31
318.524	92.31
318.753	91.31
318.983	90.31
319.212	95.31
319.441	85.31
319.67	80.31
319.9	86.31
320.129	78.31
320.358	86.31
320.587	71.31
320.816	90.31
321.046	73.31
321.275	85.31
321.504	87.31
321.733	75.31
321.962	80.31
322.191	86.31
322.42	98.31
322.649	92.31
322.878	82.31
323.108	89.31
323.337	73.31
323.566	95.31
323.795	92.31
324.024	79.31
324.253	86.31
324.482	81.31
324.71	84.31
324.939	80.31
325.168	72.31
325.397	85.31
325.626	92.31
325.855	84.31
326.084	98.31
326.313	98.31
326.542	84.31
326.77	81.31
326.999	80.31
327.228	81.31
327.457	75.31
327.686	95.31
327.914	91.31
328.143	87.31
328.372	80.31
328.6	83.31
328.829	94.31
329.058	77.31
329.287	73.31
329.515	81.31
329.744	70.31
329.972	82.31
330.201	88.31
330.43	84.31
330.658	94.31
330.887	79.31
331.115	82.31
331.344	79.31
331.572	76.31
331.801	79.31
332.03	97.31
332.258	73.31
332.486	73.31
332.715	85.31
332.943	71.31
333.172	79.31
333.4	81.31
333.629	88.31
333.857	94.31
334.085	92.31
334.314	84.31
334.542	79.31
334.771	75.31
334.999	90.31
335.227	87.31
335.455	82.31
335.684	77.31
335.912	100.31
336.14	84.31
336.369	87.31
336.597	67.31
336.825	99.31
337.053	59.31
337.281	64.31
337.51	78.31
337.738	74.31
337.966	82.31
338.194	92.31
338.422	68.31
338.65	85.31
338.878	75.31
339.106	79.31
339.334	91.31
339.562	93.31
339.79	89.31
340.018	93.31
340.246	76.31
340.474	86.31
340.702	81.31
340.93	86.31
341.158	83.31
341.386	79.31
341.614	79.31
341.842	70.31
342.07	81.31
342.298	84.31
342.526	78.31
342.754	77.31
342.981	95.31
343.209	94.31
343.437	79.31
343.665	88.31
343.893	89.31
344.12	87.31
344.348	79.31
344.576	87.31
344.804	75.31
345.031	75.31
345.259	78.31
345.487	74.31
345.714	84.31
345.942	84.31
346.17	91.31
346.397	90.31
346.625	78.31
346.853	73.31
347.08	74.31
347.308	94.31
347.535	80.31
347.763	72.31
347.99	88.31
348.218	74.31
348.445	78.31
348.673	88.31
348.9	86.31
349.128	86.31
349.355	83.31
349.583	86.31
349.81	83.31
350.037	89.31
350.265	96.31
350.492	71.31
350.72	86.31
350.947	92.31
351.174	83.31
351.402	84.31
351.629	89.31
351.856	85.31
352.083	84.31
352.311	97.31
352.538	86.31
352.765	89.31
352.992	76.31
353.22	84.31
353.447	73.31
353.674	74.31
353.901	83.31
354.128	85.31
354.355	86.31
354.583	67.31
354.81	91.31
355.037	76.31
355.264	97.31
355.491	93.31
355.718	86.31
355.945	85.31
356.172	74.31
356.399	74.31
356.626	89.31
356.853	76.31
357.08	71.31
357.307	97.31
357.534	82.31
357.761	76.31
357.988	73.31
358.215	81.31
358.441	88.31
358.668	68.31
358.895	84.31
359.122	89.31
359.349	90.31
359.576	83.31
359.802	78.31
360.029	83.31
360.256	84.31
360.483	77.31
360.709	87.31
360.936	93.31
361.163	92.31
361.39	86.31
361.616	90.31
361.843	86.31
362.07	99.31
362.296	96.31
362.523	82.31
362.749	71.31
362.976	84.31
363.203	87.31
363.429	74.31
363.656	82.31
363.882	88.31
364.109	81.31
364.335	85.31
364.562	84.31
364.788	83.31
365.015	83.31
365.241	81.31
365.468	70.31
365.694	79.31
365.92	82.31
366.147	63.31
366.373	91.31
366.599	75.31
366.826	90.31
367.052	78.31
367.278	90.31
367.505	83.31
367.731	75.31
367.957	85.31
368.184	87.31
368.41	91.31
368.636	90.31
368.862	92.31
369.089	81.31
369.315	76.31
369.541	80.31
369.767	87.31
369.993	83.31
370.219	84.31
370.445	89.31
370.672	87.31
370.898	76.31
371.124	80.31
371.35	82.31
371.576	68.31
371.802	86.31
372.028	96.31
372.254	95.31
372.48	99.31
372.706	72.31
372.932	89.31
373.158	86.31
373.384	75.31
373.61	70.31
373.835	94.31
374.061	89.31
374.287	84.31
374.513	94.31
374.739	88.31
374.965	81.31
375.191	88.31
375.416	88.31
375.642	78.31
375.868	92.31
376.094	89.31
376.319	92.31
376.545	95.31
376.771	80.31
376.997	76.31
377.222	96.31
377.448	81.31
377.674	75.31
377.899	103.31
378.125	83.31
378.35	83.31
378.576	88.31
378.802	76.31
379.027	73.31
379.253	88.31
379.478	89.31
379.704	91.31
379.929	94.31
380.155	88.31
380.38	92.31
380.606	89.31
380.831	85.31
381.057	87.31
381.282	89.31
381.507	93.31
381.733	98.31
381.958	89.31
382.184	86.31
382.409	87.31
382.634	90.31
382.86	90.31
383.085	78.31
383.31	104.31
383.535	86.31
383.761	84.31
383.986	94.31
384.211	97.31
384.436	87.31
384.662	93.31
384.887	105.31
385.112	90.31
385.337	100.31
385.562	85.31
385.787	75.31
386.013	89.31
386.238	99.31
386.463	91.31
386.688	110.31
386.913	91.31
387.138	87.31
387.363	96.31
387.588	96.31
387.813	100.31
388.038	97.31
388.263	100.31
388.488	86.31
388.713	75.31
388.938	100.31
389.163	94.31
389.387	107.31
389.612	95.31
389.837	80.31
390.062	100.31
390.287	85.31
390.512	87.31
390.736	100.31
390.961	84.31
391.186	86.31
391.411	93.31
391.636	110.31
391.86	74.31
392.085	103.31
392.31	101.31
392.534	94.31
392.759	100.31
392.984	90.31
393.208	88.31
393.433	86.31
393.658	95.31
393.882	96.31
394.107	98.31
394.331	96.31
394.556	81.31
394.78	98.31
395.005	91.31
395.229	80.31
395.454	101.31
395.678	105.31
395.903	92.31
396.127	104.31
396.352	103.31
396.576	96.31
396.801	95.31
397.025	102.31
397.249	100.31
397.474	95.31
397.698	91.31
397.922	92.31
398.147	87.31
398.371	101.31
398.595	104.31
398.82	101.31
399.044	104.31
399.268	115.31
399.492	110.31
399.717	110.31
399.941	98.31
400.165	97.31
400.389	118.31
400.613	82.31
400.837	121.31
401.062	108.31
401.286	104.31
401.51	93.31
401.734	103.31
401.958	110.31
402.182	94.31
402.406	110.31
402.63	84.31
402.854	106.31
403.078	98.31
403.302	97.31
403.526	96.31
403.75	119.31
403.974	93.31
404.198	96.31
404.422	116.31
404.645	110.31
404.869	106.31
405.093	121.31
405.317	104.31
405.541	95.31
405.765	114.31
405.988	110.31
406.212	107.31
406.436	106.31
406.66	100.31
406.883	98.31
407.107	110.31
407.331	114.31
407.555	102.31
407.778	102.31
408.002	112.31
408.226	101.31
408.449	110.31
408.673	109.31
408.896	127.31
409.12	104.31
409.344	97.31
409.567	110.31
409.791	118.31
410.014	107.31
410.238	108.31
410.461	96.31
410.685	112.31
410.908	114.31
411.132	114.31
411.355	110.31
411.578	111.31
411.802	96.31
412.025	110.31
412.249	104.31
412.472	104.31
412.695	111.31
412.919	96.31
413.142	118.31
413.365	111.31
413.589	98.31
413.812	114.31
414.035	114.31
414.258	99.31
414.482	112.31
414.705	104.31
414.928	105.31
415.151	112.31
415.374	104.31
415.597	105.31
415.821	113.31
416.044	103.31
416.267	110.31
416.49	114.31
416.713	118.31
416.936	105.31
417.159	97.31
417.382	118.31
417.605	108.31
417.828	112.31
418.051	115.31
418.274	113.31
418.497	122.31
418.72	122.31
418.943	110.31
419.166	107.31
419.389	105.31
419.611	124.31
419.834	102.31
420.057	113.31
420.28	116.31
420.503	116.31
420.726	103.31
420.948	115.31
421.171	119.31
421.394	117.31
421.617	112.31
421.839	104.31
422.062	100.31
422.285	115.31
422.507	96.31
422.73	109.31
422.953	107.31
423.175	102.31
423.398	89.31
423.621	100.31
423.843	113.31
424.066	124.31
424.288	114.31
424.511	125.31
424.733	125.31
424.956	110.31
425.178	114.31
425.401	107.31
425.623	106.31
425.846	104.31
426.068	113.31
426.291	120.31
426.513	119.31
426.735	106.31
426.958	100.31
427.18	100.31
427.402	114.31
427.625	103.31
427.847	99.31
428.069	118.31
428.292	104.31
428.514	102.31
428.736	115.31
428.958	111.31
429.181	103.31
429.403	116.31
429.625	98.31
429.847	104.31
430.069	100.31
430.292	123.31
430.514	108.31
430.736	114.31
430.958	105.31
431.18	120.31
431.402	113.31
431.624	102.31
431.846	102.31
432.068	107.31
432.29	105.31
432.512	125.31
432.734	117.31
432.956	112.31
433.178	123.31
433.4	115.31
433.622	115.31
433.844	108.31
434.066	121.31
434.287	115.31
434.509	96.31
434.731	96.31
434.953	102.31
435.175	117.31
435.397	104.31
435.618	107.31
435.84	101.31
436.062	101.31
436.284	106.31
436.505	121.31
436.727	110.31
436.949	107.31
437.17	92.31
437.392	115.31
437.614	101.31
437.835	102.31
438.057	95.31
438.278	108.31
438.5	108.31
438.721	99.31
438.943	97.31
439.165	103.31
439.386	110.31
439.608	96.31
439.829	119.31
440.05	120.31
440.272	123.31
440.493	100.31
440.715	110.31
440.936	118.31
441.158	99.31
441.379	106.31
441.6	106.31
441.822	105.31
442.043	116.31
442.264	100.31
442.486	127.31
442.707	119.31
442.928	118.31
443.149	119.31
443.371	108.31
443.592	110.31
443.813	104.31
444.034	118.31
444.255	116.31
444.476	99.31
444.698	113.31
444.919	120.31
445.14	227.31
445.361	171.31
445.582	114.31
445.803	112.31
446.024	115.31
446.245	120.31
446.466	120.31
446.687	114.31
446.908	110.31
447.129	108.31
447.35	101.31
447.571	114.31
447.792	113.31
448.013	119.31
448.234	105.31
448.455	121.31
448.675	107.31
448.896	99.31
449.117	89.31
449.338	103.31
449.559	110.31
449.779	114.31
450	119.31
450.221	100.31
450.442	93.31
450.662	110.31
450.883	120.31
451.104	114.31
451.324	106.31
451.545	96.31
451.766	113.31
451.986	115.31
452.207	120.31
452.428	123.31
452.648	92.31
452.869	92.31
453.089	106.31
453.31	87.31
453.53	106.31
453.751	104.31
453.971	103.31
454.192	94.31
454.412	93.31
454.633	97.31
454.853	98.31
455.073	98.31
455.294	101.31
455.514	113.31
455.734	101.31
455.955	110.31
456.175	96.31
456.395	96.31
456.616	97.31
456.836	102.31
457.056	106.31
457.276	79.31
457.497	102.31
457.717	104.31
457.937	102.31
458.157	105.31
458.377	101.31
458.598	103.31
458.818	102.31
459.038	112.31
459.258	111.31
459.478	84.31
459.698	97.31
459.918	95.31
460.138	114.31
460.358	107.31
460.578	102.31
460.798	114.31
461.018	107.31
461.238	113.31
461.458	118.31
461.678	110.31
461.898	114.31
462.118	122.31
462.338	108.31
462.558	118.31
462.777	118.31
462.997	128.31
463.217	127.31
463.437	136.31
463.657	119.31
463.876	108.31
464.096	110.31
464.316	107.31
464.536	118.31
464.755	114.31
464.975	118.31
465.195	103.31
465.414	122.31
465.634	109.31
465.854	111.31
466.073	115.31
466.293	111.31
466.512	115.31
466.732	111.31
466.951	116.31
467.171	125.31
467.391	116.31
467.61	124.31
467.829	123.31
468.049	102.31
468.268	107.31
468.488	109.31
468.707	115.31
468.927	101.31
469.146	100.31
469.365	123.31
469.585	113.31
469.804	127.31
470.023	119.31
470.243	123.31
470.462	100.31
470.681	126.31
470.901	134.31
471.12	124.31
471.339	109.31
471.558	132.31
471.777	105.31
471.997	116.31
472.216	125.31
472.435	99.31
472.654	112.31
472.873	112.31
473.092	98.31
473.311	111.31
473.53	116.31
473.749	117.31
473.968	117.31
474.187	114.31
474.406	98.31
474.625	113.31
474.844	116.31
475.063	126.31
475.282	122.31
475.501	115.31
475.72	111.31
475.939	119.31
476.158	111.31
476.377	122.31
476.596	117.31
476.814	114.31
477.033	101.31
477.252	114.31
477.471	110.31
477.69	130.31
477.908	134.31
478.127	126.31
478.346	122.31
478.564	113.31
478.783	136.31
479.002	125.31
479.22	127.31
479.439	124.31
479.658	114.31
479.876	117.31
480.095	129.31
480.313	126.31
480.532	135.31
480.751	122.31
480.969	107.31
481.188	110.31
481.406	112.31
481.624	110.31
481.843	118.31
482.061	109.31
482.28	122.31
482.498	110.31
482.717	122.31
482.935	108.31
483.153	128.31
483.372	124.31
483.59	124.31
483.808	122.31
484.027	130.31
484.245	118.31
484.463	128.31
484.681	130.31
484.9	145.31
485.118	120.31
485.336	117.31
485.554	116.31
485.772	118.31
485.99	122.31
486.209	97.31
486.427	98.31
486.645	127.31
486.863	140.31
487.081	131.31
487.299	116.31
487.517	132.31
487.735	127.31
487.953	131.31
488.171	137.31
488.389	140.31
488.607	136.31
488.825	113.31
489.043	114.31
489.261	120.31
489.479	120.31
489.696	118.31
489.914	128.31
490.132	131.31
490.35	127.31
490.568	130.31
490.786	126.31
491.003	139.31
491.221	136.31
491.439	133.31
491.657	135.31
491.874	146.31
492.092	154.31
492.31	149.31
492.527	159.31
492.745	159.31
492.963	150.31
493.18	134.31
493.398	142.31
493.615	141.31
493.833	141.31
494.05	132.31
494.268	140.31
494.485	148.31
494.703	154.31
494.92	150.31
495.138	146.31
495.355	141.31
495.573	146.31
495.79	150.31
496.008	135.31
496.225	159.31
496.442	147.31
496.66	137.31
496.877	149.31
497.094	146.31
497.312	140.31
497.529	144.31
497.746	142.31
497.963	130.31
498.181	136.31
498.398	131.31
498.615	138.31
498.832	148.31
499.049	150.31
499.267	145.31
499.484	156.31
499.701	154.31
499.918	168.31
500.135	178.31
500.352	191.31
500.569	212.31
500.786	211.31
501.003	194.31
501.22	178.31
501.437	182.31
501.654	169.31
501.871	144.31
502.088	152.31
502.305	154.31
502.522	142.31
502.739	141.31
502.956	144.31
503.172	129.31
503.389	128.31
503.606	126.31
503.823	121.31
504.04	127.31
504.256	136.31
504.473	129.31
504.69	139.31
504.907	118.31
505.123	133.31
505.34	128.31
505.557	138.31
505.773	130.31
505.99	123.31
506.207	118.31
506.423	118.31
506.64	113.31
506.856	130.31
507.073	114.31
507.289	124.31
507.506	114.31
507.722	114.31
507.939	119.31
508.155	121.31
508.372	120.31
508.588	119.31
508.805	108.31
509.021	105.31
509.238	115.31
509.454	104.31
509.67	122.31
509.887	121.31
510.103	106.31
510.319	119.31
510.536	114.31
510.752	103.31
510.968	110.31
511.184	120.31
511.401	111.31
511.617	108.31
511.833	114.31
512.049	116.31
512.265	105.31
