Data from StandardFe(NO3)3.TAE.3%Agarose.FlatLispGreen.Lamp.Energy10.07252019_HRD10591_11-54-29-440.txt Node
Date: Thu Jul 25 11:54:29 EDT 2019
User: cochatt
Spectrometer: HR+D1059
Trigger mode: 1
Integration Time (sec): 1.000000E-1
Scans to average: 1
Electric dark correction enabled: true
Nonlinearity correction enabled: false
Boxcar width: 0
XAxis mode: Wavelengths
Number of Pixels in Spectrum: 2048
>>>>>Begin Spectral Data<<<<<
223.165	-9.5
223.4	-9.5
223.635	-9.5
223.869	-34.5
224.104	-16.5
224.338	-9.5
224.573	-20.5
224.808	-8.5
225.042	-7.5
225.277	-7.5
225.511	-20.5
225.746	11.5
225.98	5.5
226.215	19.5
226.449	17.5
226.683	31.5
226.918	26.5
227.152	22.5
227.387	13.5
227.621	37.5
227.856	34.5
228.09	53.5
228.324	49.5
228.559	54.5
228.793	58.5
229.027	54.5
229.262	72.5
229.496	75.5
229.73	55.5
229.964	74.5
230.199	65.5
230.433	80.5
230.667	87.5
230.901	83.5
231.136	73.5
231.37	74.5
231.604	77.5
231.838	93.5
232.072	77.5
232.306	91.5
232.541	90.5
232.775	79.5
233.009	79.5
233.243	91.5
233.477	85.5
233.711	84.5
233.945	73.5
234.179	68.5
234.413	82.5
234.647	93.5
234.881	67.5
235.115	72.5
235.349	81.5
235.583	84.5
235.817	73.5
236.051	81.5
236.285	78.5
236.519	83.5
236.753	76.5
236.987	70.5
237.221	76.5
237.455	75.5
237.689	69.5
237.922	69.5
238.156	76.5
238.39	75.5
238.624	81.5
238.858	80.5
239.091	84.5
239.325	69.5
239.559	77.5
239.793	73.5
240.027	81.5
240.26	77.5
240.494	89.5
240.728	91.5
240.961	69.5
241.195	77.5
241.429	78.5
241.662	82.5
241.896	72.5
242.13	72.5
242.363	78.5
242.597	79.5
242.83	70.5
243.064	85.5
243.298	69.5
243.531	88.5
243.765	72.5
243.998	86.5
244.232	90.5
244.465	70.5
244.699	75.5
244.932	73.5
245.166	89.5
245.399	97.5
245.633	78.5
245.866	85.5
246.099	79.5
246.333	78.5
246.566	82.5
246.8	87.5
247.033	78.5
247.266	88.5
247.5	78.5
247.733	87.5
247.966	76.5
248.2	85.5
248.433	88.5
248.666	76.5
248.899	65.5
249.133	90.5
249.366	89.5
249.599	84.5
249.832	75.5
250.066	88.5
250.299	83.5
250.532	78.5
250.765	93.5
250.998	81.5
251.231	91.5
251.465	78.5
251.698	76.5
251.931	71.5
252.164	84.5
252.397	75.5
252.63	86.5
252.863	87.5
253.096	77.5
253.329	72.5
253.562	83.5
253.795	79.5
254.028	71.5
254.261	82.5
254.494	68.5
254.727	84.5
254.96	81.5
255.193	86.5
255.426	74.5
255.659	90.5
255.892	88.5
256.124	93.5
256.357	60.5
256.59	75.5
256.823	66.5
257.056	94.5
257.289	79.5
257.521	73.5
257.754	76.5
257.987	81.5
258.22	82.5
258.452	83.5
258.685	84.5
258.918	81.5
259.151	85.5
259.383	94.5
259.616	89.5
259.849	80.5
260.081	72.5
260.314	79.5
260.547	77.5
260.779	83.5
261.012	98.5
261.244	91.5
261.477	76.5
261.71	78.5
261.942	85.5
262.175	94.5
262.407	94.5
262.64	86.5
262.872	72.5
263.105	91.5
263.337	89.5
263.57	95.5
263.802	84.5
264.035	83.5
264.267	75.5
264.499	87.5
264.732	76.5
264.964	84.5
265.197	86.5
265.429	73.5
265.661	87.5
265.894	89.5
266.126	93.5
266.358	105.5
266.591	78.5
266.823	71.5
267.055	71.5
267.287	90.5
267.52	91.5
267.752	88.5
267.984	96.5
268.216	77.5
268.448	80.5
268.681	101.5
268.913	84.5
269.145	78.5
269.377	91.5
269.609	69.5
269.841	68.5
270.073	92.5
270.306	85.5
270.538	80.5
270.77	86.5
271.002	90.5
271.234	88.5
271.466	79.5
271.698	93.5
271.93	92.5
272.162	76.5
272.394	90.5
272.626	73.5
272.858	79.5
273.09	82.5
273.322	89.5
273.553	93.5
273.785	77.5
274.017	89.5
274.249	73.5
274.481	89.5
274.713	90.5
274.945	83.5
275.176	93.5
275.408	88.5
275.64	90.5
275.872	96.5
276.104	68.5
276.335	82.5
276.567	87.5
276.799	89.5
277.031	66.5
277.262	81.5
277.494	91.5
277.726	107.5
277.957	85.5
278.189	98.5
278.421	86.5
278.652	95.5
278.884	77.5
279.115	72.5
279.347	87.5
279.579	102.5
279.81	79.5
280.042	92.5
280.273	93.5
280.505	83.5
280.736	100.5
280.968	82.5
281.199	80.5
281.431	90.5
281.662	78.5
281.894	78.5
282.125	88.5
282.356	88.5
282.588	84.5
282.819	93.5
283.051	86.5
283.282	85.5
283.513	87.5
283.745	85.5
283.976	83.5
284.207	83.5
284.439	82.5
284.67	94.5
284.901	88.5
285.132	77.5
285.364	73.5
285.595	75.5
285.826	83.5
286.057	84.5
286.288	91.5
286.52	90.5
286.751	97.5
286.982	87.5
287.213	80.5
287.444	96.5
287.675	89.5
287.906	100.5
288.138	87.5
288.369	79.5
288.6	108.5
288.831	91.5
289.062	90.5
289.293	91.5
289.524	79.5
289.755	73.5
289.986	82.5
290.217	86.5
290.448	97.5
290.679	75.5
290.91	97.5
291.141	85.5
291.371	79.5
291.602	79.5
291.833	85.5
292.064	65.5
292.295	94.5
292.526	85.5
292.757	74.5
292.987	91.5
293.218	79.5
293.449	91.5
293.68	90.5
293.91	87.5
294.141	83.5
294.372	89.5
294.603	84.5
294.833	92.5
295.064	97.5
295.295	76.5
295.525	85.5
295.756	82.5
295.987	71.5
296.217	89.5
296.448	89.5
296.679	83.5
296.909	98.5
297.14	85.5
297.37	94.5
297.601	91.5
297.831	89.5
298.062	76.5
298.292	83.5
298.523	86.5
298.753	91.5
298.984	96.5
299.214	99.5
299.445	85.5
299.675	85.5
299.905	97.5
300.136	97.5
300.366	81.5
300.597	72.5
300.827	95.5
301.057	82.5
301.288	75.5
301.518	83.5
301.748	92.5
301.979	81.5
302.209	85.5
302.439	85.5
302.669	80.5
302.9	79.5
303.13	85.5
303.36	76.5
303.59	82.5
303.82	80.5
304.051	92.5
304.281	93.5
304.511	94.5
304.741	86.5
304.971	89.5
305.201	76.5
305.431	90.5
305.661	92.5
305.891	95.5
306.121	92.5
306.352	93.5
306.582	81.5
306.812	98.5
307.042	82.5
307.272	90.5
307.502	89.5
307.731	86.5
307.961	94.5
308.191	78.5
308.421	96.5
308.651	89.5
308.881	92.5
309.111	83.5
309.341	88.5
309.571	82.5
309.8	89.5
310.03	89.5
310.26	77.5
310.49	92.5
310.72	91.5
310.949	89.5
311.179	87.5
311.409	90.5
311.639	85.5
311.868	81.5
312.098	89.5
312.328	90.5
312.557	89.5
312.787	87.5
313.017	90.5
313.246	93.5
313.476	87.5
313.706	89.5
313.935	94.5
314.165	77.5
314.394	98.5
314.624	94.5
314.853	101.5
315.083	87.5
315.312	86.5
315.542	80.5
315.771	83.5
316.001	90.5
316.23	78.5
316.46	88.5
316.689	84.5
316.919	87.5
317.148	90.5
317.377	90.5
317.607	78.5
317.836	103.5
318.065	94.5
318.295	93.5
318.524	90.5
318.753	97.5
318.983	96.5
319.212	96.5
319.441	82.5
319.67	95.5
319.9	82.5
320.129	93.5
320.358	78.5
320.587	92.5
320.816	90.5
321.046	79.5
321.275	87.5
321.504	87.5
321.733	88.5
321.962	77.5
322.191	82.5
322.42	81.5
322.649	81.5
322.878	82.5
323.108	90.5
323.337	95.5
323.566	82.5
323.795	72.5
324.024	80.5
324.253	86.5
324.482	95.5
324.71	77.5
324.939	79.5
325.168	79.5
325.397	87.5
325.626	82.5
325.855	87.5
326.084	105.5
326.313	92.5
326.542	92.5
326.77	91.5
326.999	85.5
327.228	92.5
327.457	81.5
327.686	77.5
327.914	75.5
328.143	78.5
328.372	79.5
328.6	66.5
328.829	85.5
329.058	95.5
329.287	87.5
329.515	85.5
329.744	92.5
329.972	86.5
330.201	87.5
330.43	97.5
330.658	84.5
330.887	82.5
331.115	96.5
331.344	91.5
331.572	89.5
331.801	86.5
332.03	81.5
332.258	87.5
332.486	91.5
332.715	89.5
332.943	83.5
333.172	90.5
333.4	86.5
333.629	96.5
333.857	78.5
334.085	79.5
334.314	85.5
334.542	87.5
334.771	83.5
334.999	80.5
335.227	82.5
335.455	78.5
335.684	77.5
335.912	95.5
336.14	91.5
336.369	76.5
336.597	90.5
336.825	91.5
337.053	80.5
337.281	86.5
337.51	68.5
337.738	91.5
337.966	92.5
338.194	75.5
338.422	94.5
338.65	104.5
338.878	91.5
339.106	85.5
339.334	84.5
339.562	87.5
339.79	81.5
340.018	72.5
340.246	82.5
340.474	78.5
340.702	94.5
340.93	91.5
341.158	77.5
341.386	91.5
341.614	83.5
341.842	79.5
342.07	75.5
342.298	89.5
342.526	93.5
342.754	99.5
342.981	79.5
343.209	92.5
343.437	99.5
343.665	88.5
343.893	97.5
344.12	111.5
344.348	103.5
344.576	103.5
344.804	74.5
345.031	82.5
345.259	72.5
345.487	86.5
345.714	96.5
345.942	90.5
346.17	91.5
346.397	105.5
346.625	74.5
346.853	71.5
347.08	85.5
347.308	92.5
347.535	83.5
347.763	80.5
347.99	88.5
348.218	86.5
348.445	95.5
348.673	80.5
348.9	91.5
349.128	98.5
349.355	79.5
349.583	86.5
349.81	81.5
350.037	100.5
350.265	77.5
350.492	90.5
350.72	91.5
350.947	88.5
351.174	90.5
351.402	83.5
351.629	81.5
351.856	86.5
352.083	83.5
352.311	90.5
352.538	76.5
352.765	91.5
352.992	74.5
353.22	83.5
353.447	89.5
353.674	87.5
353.901	84.5
354.128	78.5
354.355	88.5
354.583	91.5
354.81	90.5
355.037	80.5
355.264	89.5
355.491	91.5
355.718	79.5
355.945	83.5
356.172	83.5
356.399	84.5
356.626	85.5
356.853	76.5
357.08	94.5
357.307	77.5
357.534	91.5
357.761	83.5
357.988	79.5
358.215	87.5
358.441	87.5
358.668	83.5
358.895	77.5
359.122	75.5
359.349	91.5
359.576	84.5
359.802	73.5
360.029	81.5
360.256	80.5
360.483	98.5
360.709	71.5
360.936	97.5
361.163	98.5
361.39	81.5
361.616	77.5
361.843	87.5
362.07	85.5
362.296	93.5
362.523	90.5
362.749	91.5
362.976	88.5
363.203	90.5
363.429	83.5
363.656	91.5
363.882	89.5
364.109	86.5
364.335	94.5
364.562	90.5
364.788	78.5
365.015	95.5
365.241	82.5
365.468	85.5
365.694	85.5
365.92	78.5
366.147	84.5
366.373	80.5
366.599	87.5
366.826	82.5
367.052	81.5
367.278	74.5
367.505	84.5
367.731	91.5
367.957	84.5
368.184	96.5
368.41	84.5
368.636	99.5
368.862	92.5
369.089	97.5
369.315	93.5
369.541	99.5
369.767	95.5
369.993	90.5
370.219	96.5
370.445	89.5
370.672	71.5
370.898	89.5
371.124	105.5
371.35	86.5
371.576	96.5
371.802	91.5
372.028	87.5
372.254	80.5
372.48	91.5
372.706	86.5
372.932	75.5
373.158	85.5
373.384	102.5
373.61	80.5
373.835	83.5
374.061	86.5
374.287	82.5
374.513	90.5
374.739	89.5
374.965	89.5
375.191	103.5
375.416	85.5
375.642	105.5
375.868	113.5
376.094	92.5
376.319	95.5
376.545	91.5
376.771	109.5
376.997	94.5
377.222	108.5
377.448	89.5
377.674	98.5
377.899	94.5
378.125	76.5
378.35	79.5
378.576	94.5
378.802	88.5
379.027	113.5
379.253	89.5
379.478	83.5
379.704	98.5
379.929	89.5
380.155	91.5
380.38	100.5
380.606	90.5
380.831	95.5
381.057	95.5
381.282	103.5
381.507	81.5
381.733	98.5
381.958	81.5
382.184	87.5
382.409	91.5
382.634	102.5
382.86	71.5
383.085	90.5
383.31	98.5
383.535	101.5
383.761	102.5
383.986	99.5
384.211	101.5
384.436	96.5
384.662	90.5
384.887	89.5
385.112	86.5
385.337	101.5
385.562	116.5
385.787	94.5
386.013	106.5
386.238	89.5
386.463	78.5
386.688	102.5
386.913	94.5
387.138	82.5
387.363	108.5
387.588	99.5
387.813	92.5
388.038	100.5
388.263	78.5
388.488	110.5
388.713	94.5
388.938	89.5
389.163	104.5
389.387	82.5
389.612	88.5
389.837	94.5
390.062	91.5
390.287	80.5
390.512	101.5
390.736	102.5
390.961	98.5
391.186	89.5
391.411	83.5
391.636	94.5
391.86	84.5
392.085	91.5
392.31	99.5
392.534	107.5
392.759	90.5
392.984	86.5
393.208	91.5
393.433	86.5
393.658	95.5
393.882	100.5
394.107	93.5
394.331	100.5
394.556	92.5
394.78	89.5
395.005	110.5
395.229	108.5
395.454	88.5
395.678	102.5
395.903	105.5
396.127	97.5
396.352	104.5
396.576	93.5
396.801	100.5
397.025	108.5
397.249	113.5
397.474	90.5
397.698	109.5
397.922	105.5
398.147	104.5
398.371	113.5
398.595	116.5
398.82	115.5
399.044	105.5
399.268	109.5
399.492	120.5
399.717	125.5
399.941	114.5
400.165	118.5
400.389	123.5
400.613	91.5
400.837	102.5
401.062	111.5
401.286	104.5
401.51	111.5
401.734	94.5
401.958	104.5
402.182	115.5
402.406	99.5
402.63	122.5
402.854	107.5
403.078	113.5
403.302	91.5
403.526	106.5
403.75	103.5
403.974	115.5
404.198	121.5
404.422	113.5
404.645	113.5
404.869	107.5
405.093	119.5
405.317	117.5
405.541	115.5
405.765	103.5
405.988	121.5
406.212	109.5
406.436	113.5
406.66	119.5
406.883	106.5
407.107	113.5
407.331	108.5
407.555	109.5
407.778	128.5
408.002	121.5
408.226	117.5
408.449	113.5
408.673	101.5
408.896	110.5
409.12	105.5
409.344	114.5
409.567	100.5
409.791	118.5
410.014	120.5
410.238	119.5
410.461	115.5
410.685	114.5
410.908	109.5
411.132	111.5
411.355	107.5
411.578	117.5
411.802	113.5
412.025	108.5
412.249	106.5
412.472	97.5
412.695	111.5
412.919	120.5
413.142	117.5
413.365	101.5
413.589	117.5
413.812	101.5
414.035	129.5
414.258	110.5
414.482	116.5
414.705	118.5
414.928	119.5
415.151	113.5
415.374	103.5
415.597	107.5
415.821	109.5
416.044	115.5
416.267	113.5
416.49	103.5
416.713	109.5
416.936	119.5
417.159	121.5
417.382	118.5
417.605	122.5
417.828	108.5
418.051	124.5
418.274	117.5
418.497	107.5
418.72	103.5
418.943	123.5
419.166	122.5
419.389	100.5
419.611	123.5
419.834	119.5
420.057	115.5
420.28	115.5
420.503	120.5
420.726	93.5
420.948	116.5
421.171	123.5
421.394	116.5
421.617	109.5
421.839	131.5
422.062	122.5
422.285	121.5
422.507	113.5
422.73	101.5
422.953	120.5
423.175	113.5
423.398	125.5
423.621	123.5
423.843	114.5
424.066	123.5
424.288	117.5
424.511	121.5
424.733	117.5
424.956	119.5
425.178	123.5
425.401	118.5
425.623	123.5
425.846	112.5
426.068	118.5
426.291	113.5
426.513	123.5
426.735	113.5
426.958	111.5
427.18	108.5
427.402	106.5
427.625	104.5
427.847	116.5
428.069	128.5
428.292	114.5
428.514	120.5
428.736	94.5
428.958	114.5
429.181	111.5
429.403	115.5
429.625	118.5
429.847	116.5
430.069	124.5
430.292	117.5
430.514	111.5
430.736	113.5
430.958	118.5
431.18	115.5
431.402	124.5
431.624	100.5
431.846	103.5
432.068	108.5
432.29	110.5
432.512	106.5
432.734	122.5
432.956	113.5
433.178	115.5
433.4	122.5
433.622	123.5
433.844	123.5
434.066	113.5
434.287	114.5
434.509	111.5
434.731	115.5
434.953	125.5
435.175	111.5
435.397	100.5
435.618	114.5
435.84	108.5
436.062	107.5
436.284	113.5
436.505	133.5
436.727	115.5
436.949	122.5
437.17	110.5
437.392	119.5
437.614	112.5
437.835	113.5
438.057	110.5
438.278	112.5
438.5	103.5
438.721	137.5
438.943	119.5
439.165	123.5
439.386	117.5
439.608	108.5
439.829	129.5
440.05	122.5
440.272	117.5
440.493	116.5
440.715	114.5
440.936	118.5
441.158	126.5
441.379	109.5
441.6	133.5
441.822	112.5
442.043	122.5
442.264	128.5
442.486	116.5
442.707	115.5
442.928	114.5
443.149	107.5
443.371	121.5
443.592	122.5
443.813	123.5
444.034	123.5
444.255	124.5
444.476	135.5
444.698	150.5
444.919	117.5
445.14	236.5
445.361	171.5
445.582	133.5
445.803	130.5
446.024	119.5
446.245	123.5
446.466	126.5
446.687	109.5
446.908	124.5
447.129	127.5
447.35	130.5
447.571	129.5
447.792	116.5
448.013	111.5
448.234	122.5
448.455	105.5
448.675	120.5
448.896	123.5
449.117	109.5
449.338	114.5
449.559	115.5
449.779	110.5
450	123.5
450.221	121.5
450.442	100.5
450.662	114.5
450.883	107.5
451.104	119.5
451.324	109.5
451.545	115.5
451.766	116.5
451.986	113.5
452.207	108.5
452.428	123.5
452.648	119.5
452.869	89.5
453.089	123.5
453.31	112.5
453.53	97.5
453.751	103.5
453.971	101.5
454.192	114.5
454.412	117.5
454.633	101.5
454.853	106.5
455.073	115.5
455.294	95.5
455.514	110.5
455.734	105.5
455.955	106.5
456.175	106.5
456.395	104.5
456.616	119.5
456.836	123.5
457.056	111.5
457.276	119.5
457.497	101.5
457.717	103.5
457.937	102.5
458.157	108.5
458.377	113.5
458.598	106.5
458.818	97.5
459.038	102.5
459.258	101.5
459.478	94.5
459.698	94.5
459.918	110.5
460.138	114.5
460.358	110.5
460.578	117.5
460.798	123.5
461.018	133.5
461.238	127.5
461.458	112.5
461.678	116.5
461.898	121.5
462.118	123.5
462.338	110.5
462.558	107.5
462.777	126.5
462.997	117.5
463.217	121.5
463.437	125.5
463.657	142.5
463.876	121.5
464.096	118.5
464.316	123.5
464.536	120.5
464.755	142.5
464.975	124.5
465.195	133.5
465.414	126.5
465.634	122.5
465.854	125.5
466.073	125.5
466.293	116.5
466.512	121.5
466.732	120.5
466.951	121.5
467.171	118.5
467.391	124.5
467.61	129.5
467.829	124.5
468.049	123.5
468.268	115.5
468.488	108.5
468.707	112.5
468.927	116.5
469.146	130.5
469.365	125.5
469.585	113.5
469.804	121.5
470.023	110.5
470.243	129.5
470.462	126.5
470.681	125.5
470.901	135.5
471.12	131.5
471.339	115.5
471.558	117.5
471.777	112.5
471.997	126.5
472.216	118.5
472.435	109.5
472.654	112.5
472.873	103.5
473.092	113.5
473.311	124.5
473.53	118.5
473.749	123.5
473.968	122.5
474.187	110.5
474.406	117.5
474.625	126.5
474.844	118.5
475.063	103.5
475.282	114.5
475.501	128.5
475.72	104.5
475.939	111.5
476.158	118.5
476.377	126.5
476.596	115.5
476.814	109.5
477.033	113.5
477.252	123.5
477.471	126.5
477.69	123.5
477.908	139.5
478.127	122.5
478.346	123.5
478.564	126.5
478.783	122.5
479.002	133.5
479.22	133.5
479.439	121.5
479.658	124.5
479.876	136.5
480.095	117.5
480.313	143.5
480.532	135.5
480.751	135.5
480.969	120.5
481.188	125.5
481.406	126.5
481.624	113.5
481.843	110.5
482.061	124.5
482.28	119.5
482.498	125.5
482.717	121.5
482.935	109.5
483.153	129.5
483.372	129.5
483.59	134.5
483.808	131.5
484.027	134.5
484.245	120.5
484.463	137.5
484.681	149.5
484.9	136.5
485.118	118.5
485.336	138.5
485.554	137.5
485.772	123.5
485.99	121.5
486.209	126.5
486.427	122.5
486.645	136.5
486.863	124.5
487.081	129.5
487.299	131.5
487.517	118.5
487.735	145.5
487.953	136.5
488.171	149.5
488.389	147.5
488.607	126.5
488.825	127.5
489.043	129.5
489.261	125.5
489.479	135.5
489.696	137.5
489.914	134.5
490.132	140.5
490.35	132.5
490.568	142.5
490.786	151.5
491.003	125.5
491.221	149.5
491.439	151.5
491.657	157.5
491.874	158.5
492.092	172.5
492.31	174.5
492.527	168.5
492.745	164.5
492.963	149.5
493.18	142.5
493.398	137.5
493.615	152.5
493.833	154.5
494.05	146.5
494.268	156.5
494.485	149.5
494.703	166.5
494.92	148.5
495.138	142.5
495.355	149.5
495.573	179.5
495.79	144.5
496.008	158.5
496.225	153.5
496.442	151.5
496.66	152.5
496.877	143.5
497.094	151.5
497.312	146.5
497.529	126.5
497.746	156.5
497.963	157.5
498.181	143.5
498.398	130.5
498.615	146.5
498.832	130.5
499.049	157.5
499.267	160.5
499.484	143.5
499.701	190.5
499.918	196.5
500.135	210.5
500.352	215.5
500.569	229.5
500.786	219.5
501.003	202.5
501.22	192.5
501.437	189.5
501.654	169.5
501.871	169.5
502.088	164.5
502.305	161.5
502.522	158.5
502.739	138.5
502.956	148.5
503.172	141.5
503.389	140.5
503.606	149.5
503.823	135.5
504.04	142.5
504.256	135.5
504.473	141.5
504.69	139.5
504.907	148.5
505.123	141.5
505.34	139.5
505.557	133.5
505.773	137.5
505.99	135.5
506.207	115.5
506.423	129.5
506.64	127.5
506.856	125.5
507.073	125.5
507.289	130.5
507.506	120.5
507.722	127.5
507.939	121.5
508.155	145.5
508.372	131.5
508.588	122.5
508.805	121.5
509.021	124.5
509.238	136.5
509.454	122.5
509.67	113.5
509.887	120.5
510.103	116.5
510.319	114.5
510.536	123.5
510.752	116.5
510.968	119.5
511.184	116.5
511.401	109.5
511.617	113.5
511.833	138.5
512.049	125.5
512.265	115.5
512.481	123.5
512.698	119.5
512.914	115.5
513.13	134.5
513.346	127.5
513.562	111.5
513.778	97.5
513.994	108.5
514.21	130.5
514.426	100.5
514.642	120.5
514.858	125.5
515.074	127.5
515.29	133.5
515.506	133.5
515.721	107.5
515.937	131.5
516.153	115.5
516.369	103.5
516.585	126.5
516.801	114.5
517.016	134.5
517.232	113.5
517.448	133.5
517.664	117.5
517.879	115.5
518.095	136.5
518.311	128.5
518.527	133.5
518.742	119.5
518.958	116.5
519.173	119.5
519.389	121.5
519.605	135.5
519.82	122.5
520.036	122.5
520.251	150.5
520.467	113.5
520.682	129.5
520.898	116.5
521.113	124.5
521.329	113.5
521.544	108.5
521.76	122.5
521.975	122.5
522.19	125.5
522.406	122.5
522.621	108.5
522.836	112.5
523.052	143.5
523.267	121.5
523.482	131.5
523.698	119.5
523.913	115.5
524.128	112.5
524.343	121.5
524.559	125.5
524.774	120.5
524.989	123.5
525.204	129.5
525.419	110.5
525.634	118.5
525.849	117.5
526.064	117.5
526.28	116.5
526.495	111.5
526.71	95.5
526.925	116.5
527.14	111.5
527.355	104.5
527.57	122.5
527.785	106.5
527.999	123.5
528.214	119.5
528.429	126.5
528.644	126.5
528.859	134.5
529.074	122.5
529.289	133.5
529.503	130.5
529.718	118.5
