Data from StandardFe(NO3)3.TAE.3%Agarose.FlatLispGreen.Lamp.Energy10.07252019_HRD10591_11-56-26-442.txt Node
Date: Thu Jul 25 11:56:26 EDT 2019
User: cochatt
Spectrometer: HR+D1059
Trigger mode: 1
Integration Time (sec): 1.000000E-1
Scans to average: 1
Electric dark correction enabled: true
Nonlinearity correction enabled: false
Boxcar width: 0
XAxis mode: Wavelengths
Number of Pixels in Spectrum: 2048
>>>>>Begin Spectral Data<<<<<
223.165	-15.94
223.4	-15.94
223.635	-15.94
223.869	-20.94
224.104	-13.94
224.338	-12.94
224.573	-8.94
224.808	-15.94
225.042	-12.94
225.277	-15.94
225.511	-13.94
225.746	17.06
225.98	8.06
226.215	22.06
226.449	9.06
226.683	18.06
226.918	30.06
227.152	27.06
227.387	38.06
227.621	43.06
227.856	43.06
228.09	38.06
228.324	48.06
228.559	56.06
228.793	53.06
229.027	64.06
229.262	62.06
229.496	65.06
229.73	86.06
229.964	76.06
230.199	75.06
230.433	70.06
230.667	76.06
230.901	83.06
231.136	78.06
231.37	79.06
231.604	74.06
231.838	75.06
232.072	94.06
232.306	81.06
232.541	80.06
232.775	78.06
233.009	84.06
233.243	84.06
233.477	78.06
233.711	73.06
233.945	82.06
234.179	86.06
234.413	73.06
234.647	71.06
234.881	74.06
235.115	81.06
235.349	76.06
235.583	70.06
235.817	97.06
236.051	83.06
236.285	87.06
236.519	68.06
236.753	74.06
236.987	76.06
237.221	66.06
237.455	82.06
237.689	74.06
237.922	74.06
238.156	81.06
238.39	71.06
238.624	73.06
238.858	78.06
239.091	75.06
239.325	74.06
239.559	69.06
239.793	74.06
240.027	69.06
240.26	69.06
240.494	71.06
240.728	82.06
240.961	77.06
241.195	72.06
241.429	71.06
241.662	71.06
241.896	59.06
242.13	66.06
242.363	75.06
242.597	83.06
242.83	86.06
243.064	76.06
243.298	86.06
243.531	80.06
243.765	84.06
243.998	90.06
244.232	84.06
244.465	72.06
244.699	68.06
244.932	89.06
245.166	86.06
245.399	88.06
245.633	72.06
245.866	83.06
246.099	81.06
246.333	70.06
246.566	75.06
246.8	79.06
247.033	81.06
247.266	83.06
247.5	73.06
247.733	75.06
247.966	74.06
248.2	80.06
248.433	87.06
248.666	72.06
248.899	80.06
249.133	81.06
249.366	83.06
249.599	74.06
249.832	80.06
250.066	81.06
250.299	75.06
250.532	73.06
250.765	86.06
250.998	91.06
251.231	80.06
251.465	91.06
251.698	75.06
251.931	59.06
252.164	81.06
252.397	70.06
252.63	85.06
252.863	75.06
253.096	72.06
253.329	75.06
253.562	86.06
253.795	93.06
254.028	79.06
254.261	77.06
254.494	73.06
254.727	73.06
254.96	83.06
255.193	81.06
255.426	58.06
255.659	88.06
255.892	71.06
256.124	73.06
256.357	69.06
256.59	83.06
256.823	78.06
257.056	86.06
257.289	83.06
257.521	81.06
257.754	83.06
257.987	85.06
258.22	88.06
258.452	76.06
258.685	86.06
258.918	75.06
259.151	79.06
259.383	80.06
259.616	87.06
259.849	69.06
260.081	78.06
260.314	68.06
260.547	85.06
260.779	79.06
261.012	77.06
261.244	81.06
261.477	85.06
261.71	66.06
261.942	86.06
262.175	85.06
262.407	80.06
262.64	84.06
262.872	80.06
263.105	85.06
263.337	82.06
263.57	99.06
263.802	78.06
264.035	82.06
264.267	75.06
264.499	82.06
264.732	69.06
264.964	78.06
265.197	82.06
265.429	77.06
265.661	89.06
265.894	83.06
266.126	81.06
266.358	87.06
266.591	82.06
266.823	85.06
267.055	92.06
267.287	81.06
267.52	86.06
267.752	84.06
267.984	85.06
268.216	80.06
268.448	83.06
268.681	78.06
268.913	75.06
269.145	80.06
269.377	77.06
269.609	66.06
269.841	79.06
270.073	89.06
270.306	79.06
270.538	79.06
270.77	79.06
271.002	91.06
271.234	81.06
271.466	84.06
271.698	77.06
271.93	70.06
272.162	79.06
272.394	85.06
272.626	91.06
272.858	82.06
273.09	101.06
273.322	77.06
273.553	74.06
273.785	90.06
274.017	90.06
274.249	91.06
274.481	80.06
274.713	76.06
274.945	80.06
275.176	78.06
275.408	81.06
275.64	85.06
275.872	88.06
276.104	97.06
276.335	86.06
276.567	69.06
276.799	66.06
277.031	67.06
277.262	75.06
277.494	96.06
277.726	97.06
277.957	81.06
278.189	86.06
278.421	85.06
278.652	90.06
278.884	85.06
279.115	70.06
279.347	77.06
279.579	87.06
279.81	88.06
280.042	87.06
280.273	97.06
280.505	74.06
280.736	80.06
280.968	74.06
281.199	88.06
281.431	84.06
281.662	82.06
281.894	88.06
282.125	76.06
282.356	84.06
282.588	80.06
282.819	93.06
283.051	87.06
283.282	79.06
283.513	75.06
283.745	91.06
283.976	86.06
284.207	87.06
284.439	100.06
284.67	83.06
284.901	95.06
285.132	92.06
285.364	75.06
285.595	80.06
285.826	80.06
286.057	73.06
286.288	78.06
286.52	94.06
286.751	83.06
286.982	74.06
287.213	79.06
287.444	89.06
287.675	88.06
287.906	87.06
288.138	83.06
288.369	81.06
288.6	88.06
288.831	78.06
289.062	86.06
289.293	92.06
289.524	90.06
289.755	84.06
289.986	87.06
290.217	94.06
290.448	92.06
290.679	81.06
290.91	93.06
291.141	80.06
291.371	90.06
291.602	91.06
291.833	70.06
292.064	88.06
292.295	77.06
292.526	95.06
292.757	70.06
292.987	98.06
293.218	84.06
293.449	86.06
293.68	94.06
293.91	90.06
294.141	80.06
294.372	85.06
294.603	88.06
294.833	76.06
295.064	89.06
295.295	87.06
295.525	91.06
295.756	71.06
295.987	76.06
296.217	74.06
296.448	77.06
296.679	83.06
296.909	85.06
297.14	83.06
297.37	90.06
297.601	87.06
297.831	86.06
298.062	92.06
298.292	73.06
298.523	97.06
298.753	81.06
298.984	97.06
299.214	80.06
299.445	79.06
299.675	87.06
299.905	89.06
300.136	83.06
300.366	92.06
300.597	74.06
300.827	95.06
301.057	94.06
301.288	67.06
301.518	81.06
301.748	93.06
301.979	90.06
302.209	78.06
302.439	89.06
302.669	82.06
302.9	82.06
303.13	83.06
303.36	76.06
303.59	82.06
303.82	84.06
304.051	86.06
304.281	89.06
304.511	92.06
304.741	81.06
304.971	87.06
305.201	83.06
305.431	90.06
305.661	76.06
305.891	84.06
306.121	100.06
306.352	91.06
306.582	79.06
306.812	80.06
307.042	84.06
307.272	81.06
307.502	85.06
307.731	81.06
307.961	92.06
308.191	89.06
308.421	76.06
308.651	101.06
308.881	90.06
309.111	92.06
309.341	76.06
309.571	90.06
309.8	72.06
310.03	77.06
310.26	89.06
310.49	95.06
310.72	87.06
310.949	94.06
311.179	73.06
311.409	82.06
311.639	99.06
311.868	81.06
312.098	80.06
312.328	93.06
312.557	84.06
312.787	87.06
313.017	78.06
313.246	93.06
313.476	82.06
313.706	83.06
313.935	92.06
314.165	92.06
314.394	93.06
314.624	79.06
314.853	93.06
315.083	81.06
315.312	84.06
315.542	79.06
315.771	92.06
316.001	91.06
316.23	71.06
316.46	88.06
316.689	87.06
316.919	86.06
317.148	79.06
317.377	75.06
317.607	92.06
317.836	90.06
318.065	80.06
318.295	84.06
318.524	83.06
318.753	87.06
318.983	78.06
319.212	88.06
319.441	72.06
319.67	75.06
319.9	88.06
320.129	83.06
320.358	79.06
320.587	95.06
320.816	89.06
321.046	69.06
321.275	90.06
321.504	75.06
321.733	70.06
321.962	79.06
322.191	68.06
322.42	79.06
322.649	90.06
322.878	82.06
323.108	87.06
323.337	90.06
323.566	92.06
323.795	82.06
324.024	75.06
324.253	98.06
324.482	86.06
324.71	99.06
324.939	85.06
325.168	90.06
325.397	74.06
325.626	74.06
325.855	68.06
326.084	86.06
326.313	81.06
326.542	93.06
326.77	88.06
326.999	81.06
327.228	74.06
327.457	87.06
327.686	90.06
327.914	97.06
328.143	95.06
328.372	88.06
328.6	72.06
328.829	82.06
329.058	78.06
329.287	70.06
329.515	81.06
329.744	90.06
329.972	78.06
330.201	85.06
330.43	95.06
330.658	85.06
330.887	90.06
331.115	95.06
331.344	80.06
331.572	83.06
331.801	85.06
332.03	84.06
332.258	94.06
332.486	67.06
332.715	92.06
332.943	72.06
333.172	81.06
333.4	86.06
333.629	95.06
333.857	95.06
334.085	75.06
334.314	94.06
334.542	82.06
334.771	75.06
334.999	87.06
335.227	106.06
335.455	91.06
335.684	92.06
335.912	86.06
336.14	80.06
336.369	86.06
336.597	90.06
336.825	88.06
337.053	89.06
337.281	84.06
337.51	72.06
337.738	80.06
337.966	63.06
338.194	73.06
338.422	82.06
338.65	82.06
338.878	87.06
339.106	77.06
339.334	97.06
339.562	82.06
339.79	75.06
340.018	72.06
340.246	84.06
340.474	90.06
340.702	95.06
340.93	88.06
341.158	84.06
341.386	81.06
341.614	95.06
341.842	70.06
342.07	85.06
342.298	85.06
342.526	84.06
342.754	83.06
342.981	99.06
343.209	89.06
343.437	80.06
343.665	82.06
343.893	82.06
344.12	79.06
344.348	73.06
344.576	83.06
344.804	83.06
345.031	88.06
345.259	88.06
345.487	83.06
345.714	75.06
345.942	85.06
346.17	91.06
346.397	82.06
346.625	80.06
346.853	73.06
347.08	101.06
347.308	92.06
347.535	91.06
347.763	77.06
347.99	89.06
348.218	92.06
348.445	78.06
348.673	92.06
348.9	76.06
349.128	86.06
349.355	94.06
349.583	78.06
349.81	72.06
350.037	77.06
350.265	81.06
350.492	78.06
350.72	83.06
350.947	102.06
351.174	82.06
351.402	73.06
351.629	86.06
351.856	76.06
352.083	83.06
352.311	91.06
352.538	88.06
352.765	94.06
352.992	77.06
353.22	87.06
353.447	83.06
353.674	80.06
353.901	92.06
354.128	86.06
354.355	80.06
354.583	83.06
354.81	78.06
355.037	73.06
355.264	78.06
355.491	82.06
355.718	74.06
355.945	69.06
356.172	77.06
356.399	74.06
356.626	83.06
356.853	95.06
357.08	75.06
357.307	94.06
357.534	73.06
357.761	82.06
357.988	88.06
358.215	80.06
358.441	72.06
358.668	90.06
358.895	84.06
359.122	101.06
359.349	90.06
359.576	99.06
359.802	81.06
360.029	84.06
360.256	80.06
360.483	88.06
360.709	91.06
360.936	98.06
361.163	88.06
361.39	82.06
361.616	76.06
361.843	77.06
362.07	87.06
362.296	91.06
362.523	82.06
362.749	85.06
362.976	83.06
363.203	95.06
363.429	94.06
363.656	94.06
363.882	94.06
364.109	90.06
364.335	82.06
364.562	90.06
364.788	87.06
365.015	95.06
365.241	89.06
365.468	86.06
365.694	77.06
365.92	91.06
366.147	80.06
366.373	84.06
366.599	90.06
366.826	87.06
367.052	76.06
367.278	85.06
367.505	84.06
367.731	79.06
367.957	82.06
368.184	90.06
368.41	88.06
368.636	86.06
368.862	77.06
369.089	89.06
369.315	110.06
369.541	86.06
369.767	85.06
369.993	91.06
370.219	82.06
370.445	71.06
370.672	74.06
370.898	85.06
371.124	101.06
371.35	88.06
371.576	93.06
371.802	82.06
372.028	94.06
372.254	85.06
372.48	83.06
372.706	89.06
372.932	92.06
373.158	86.06
373.384	88.06
373.61	97.06
373.835	75.06
374.061	65.06
374.287	75.06
374.513	80.06
374.739	78.06
374.965	73.06
375.191	89.06
375.416	90.06
375.642	99.06
375.868	86.06
376.094	83.06
376.319	78.06
376.545	76.06
376.771	75.06
376.997	85.06
377.222	100.06
377.448	91.06
377.674	90.06
377.899	84.06
378.125	83.06
378.35	84.06
378.576	99.06
378.802	92.06
379.027	84.06
379.253	85.06
379.478	87.06
379.704	85.06
379.929	79.06
380.155	85.06
380.38	96.06
380.606	91.06
380.831	91.06
381.057	83.06
381.282	81.06
381.507	70.06
381.733	90.06
381.958	83.06
382.184	99.06
382.409	95.06
382.634	82.06
382.86	83.06
383.085	97.06
383.31	101.06
383.535	83.06
383.761	90.06
383.986	89.06
384.211	91.06
384.436	79.06
384.662	94.06
384.887	108.06
385.112	96.06
385.337	83.06
385.562	87.06
385.787	91.06
386.013	97.06
386.238	86.06
386.463	88.06
386.688	90.06
386.913	84.06
387.138	96.06
387.363	88.06
387.588	86.06
387.813	88.06
388.038	108.06
388.263	93.06
388.488	93.06
388.713	94.06
388.938	102.06
389.163	94.06
389.387	81.06
389.612	82.06
389.837	89.06
390.062	84.06
390.287	89.06
390.512	80.06
390.736	105.06
390.961	90.06
391.186	91.06
391.411	107.06
391.636	90.06
391.86	104.06
392.085	96.06
392.31	110.06
392.534	100.06
392.759	88.06
392.984	87.06
393.208	79.06
393.433	105.06
393.658	105.06
393.882	107.06
394.107	92.06
394.331	98.06
394.556	104.06
394.78	97.06
395.005	96.06
395.229	95.06
395.454	100.06
395.678	113.06
395.903	102.06
396.127	94.06
396.352	104.06
396.576	91.06
396.801	101.06
397.025	91.06
397.249	92.06
397.474	106.06
397.698	99.06
397.922	94.06
398.147	91.06
398.371	86.06
398.595	92.06
398.82	97.06
399.044	114.06
399.268	105.06
399.492	106.06
399.717	99.06
399.941	111.06
400.165	107.06
400.389	98.06
400.613	108.06
400.837	99.06
401.062	87.06
401.286	91.06
401.51	106.06
401.734	106.06
401.958	103.06
402.182	100.06
402.406	104.06
402.63	104.06
402.854	105.06
403.078	114.06
403.302	108.06
403.526	111.06
403.75	103.06
403.974	105.06
404.198	110.06
404.422	100.06
404.645	108.06
404.869	113.06
405.093	124.06
405.317	104.06
405.541	105.06
405.765	104.06
405.988	117.06
406.212	100.06
406.436	110.06
406.66	121.06
406.883	104.06
407.107	98.06
407.331	115.06
407.555	110.06
407.778	106.06
408.002	120.06
408.226	120.06
408.449	104.06
408.673	97.06
408.896	114.06
409.12	112.06
409.344	120.06
409.567	107.06
409.791	110.06
410.014	114.06
410.238	115.06
410.461	104.06
410.685	100.06
410.908	113.06
411.132	122.06
411.355	106.06
411.578	112.06
411.802	101.06
412.025	100.06
412.249	109.06
412.472	103.06
412.695	88.06
412.919	108.06
413.142	104.06
413.365	99.06
413.589	110.06
413.812	103.06
414.035	112.06
414.258	114.06
414.482	106.06
414.705	98.06
414.928	110.06
415.151	100.06
415.374	102.06
415.597	118.06
415.821	101.06
416.044	88.06
416.267	105.06
416.49	113.06
416.713	104.06
416.936	114.06
417.159	116.06
417.382	101.06
417.605	112.06
417.828	121.06
418.051	114.06
418.274	108.06
418.497	112.06
418.72	117.06
418.943	124.06
419.166	126.06
419.389	107.06
419.611	118.06
419.834	124.06
420.057	107.06
420.28	102.06
420.503	97.06
420.726	108.06
420.948	119.06
421.171	108.06
421.394	122.06
421.617	130.06
421.839	125.06
422.062	124.06
422.285	114.06
422.507	110.06
422.73	103.06
422.953	130.06
423.175	118.06
423.398	96.06
423.621	119.06
423.843	100.06
424.066	116.06
424.288	97.06
424.511	127.06
424.733	116.06
424.956	122.06
425.178	104.06
425.401	111.06
425.623	115.06
425.846	104.06
426.068	94.06
426.291	103.06
426.513	107.06
426.735	106.06
426.958	104.06
427.18	118.06
427.402	118.06
427.625	118.06
427.847	118.06
428.069	96.06
428.292	109.06
428.514	84.06
428.736	112.06
428.958	114.06
429.181	115.06
429.403	119.06
429.625	101.06
429.847	110.06
430.069	98.06
430.292	104.06
430.514	117.06
430.736	118.06
430.958	105.06
431.18	110.06
431.402	116.06
431.624	105.06
431.846	104.06
432.068	95.06
432.29	89.06
432.512	106.06
432.734	92.06
432.956	117.06
433.178	112.06
433.4	107.06
433.622	114.06
433.844	105.06
434.066	93.06
434.287	115.06
434.509	104.06
434.731	108.06
434.953	104.06
435.175	111.06
435.397	114.06
435.618	120.06
435.84	107.06
436.062	106.06
436.284	108.06
436.505	104.06
436.727	115.06
436.949	114.06
437.17	119.06
437.392	114.06
437.614	105.06
437.835	102.06
438.057	93.06
438.278	107.06
438.5	106.06
438.721	100.06
438.943	117.06
439.165	113.06
439.386	124.06
439.608	118.06
439.829	125.06
440.05	122.06
440.272	120.06
440.493	114.06
440.715	106.06
440.936	94.06
441.158	117.06
441.379	120.06
441.6	126.06
441.822	114.06
442.043	106.06
442.264	104.06
442.486	106.06
442.707	102.06
442.928	123.06
443.149	122.06
443.371	111.06
443.592	119.06
443.813	102.06
444.034	115.06
444.255	124.06
444.476	107.06
444.698	126.06
444.919	127.06
445.14	249.06
445.361	166.06
445.582	107.06
445.803	114.06
446.024	120.06
446.245	122.06
446.466	116.06
446.687	120.06
446.908	117.06
447.129	114.06
447.35	123.06
447.571	117.06
447.792	118.06
448.013	125.06
448.234	104.06
448.455	138.06
448.675	118.06
448.896	110.06
449.117	111.06
449.338	114.06
449.559	106.06
449.779	123.06
450	106.06
450.221	103.06
450.442	115.06
450.662	105.06
450.883	106.06
451.104	127.06
451.324	102.06
451.545	100.06
451.766	120.06
451.986	120.06
452.207	108.06
452.428	107.06
452.648	110.06
452.869	118.06
453.089	104.06
453.31	104.06
453.53	106.06
453.751	92.06
453.971	98.06
454.192	100.06
454.412	97.06
454.633	106.06
454.853	92.06
455.073	108.06
455.294	115.06
455.514	103.06
455.734	102.06
455.955	107.06
456.175	96.06
456.395	119.06
456.616	99.06
456.836	114.06
457.056	101.06
457.276	105.06
457.497	83.06
457.717	92.06
457.937	114.06
458.157	101.06
458.377	107.06
458.598	103.06
458.818	89.06
459.038	99.06
459.258	114.06
459.478	102.06
459.698	100.06
459.918	103.06
460.138	85.06
460.358	96.06
460.578	109.06
460.798	111.06
461.018	120.06
461.238	117.06
461.458	94.06
461.678	121.06
461.898	110.06
462.118	117.06
462.338	110.06
462.558	120.06
462.777	116.06
462.997	111.06
463.217	121.06
463.437	114.06
463.657	125.06
463.876	110.06
464.096	110.06
464.316	122.06
464.536	124.06
464.755	123.06
464.975	133.06
465.195	113.06
465.414	115.06
465.634	125.06
465.854	116.06
466.073	101.06
466.293	99.06
466.512	119.06
466.732	103.06
466.951	112.06
467.171	117.06
467.391	112.06
467.61	114.06
467.829	114.06
468.049	115.06
468.268	119.06
468.488	123.06
468.707	116.06
468.927	112.06
469.146	104.06
469.365	112.06
469.585	110.06
469.804	122.06
470.023	119.06
470.243	97.06
470.462	122.06
470.681	118.06
470.901	104.06
471.12	116.06
471.339	123.06
471.558	114.06
471.777	116.06
471.997	116.06
472.216	114.06
472.435	103.06
472.654	99.06
472.873	114.06
473.092	100.06
473.311	105.06
473.53	105.06
473.749	96.06
473.968	107.06
474.187	119.06
474.406	114.06
474.625	121.06
474.844	113.06
475.063	122.06
475.282	104.06
475.501	108.06
475.72	119.06
475.939	122.06
476.158	104.06
476.377	130.06
476.596	118.06
476.814	116.06
477.033	106.06
477.252	118.06
477.471	116.06
477.69	117.06
477.908	118.06
478.127	120.06
478.346	129.06
478.564	110.06
478.783	136.06
479.002	126.06
479.22	116.06
479.439	134.06
479.658	122.06
479.876	118.06
480.095	108.06
480.313	132.06
480.532	125.06
480.751	124.06
480.969	117.06
481.188	98.06
481.406	120.06
481.624	126.06
481.843	119.06
482.061	107.06
482.28	119.06
482.498	128.06
482.717	116.06
482.935	122.06
483.153	123.06
483.372	127.06
483.59	116.06
483.808	125.06
484.027	120.06
484.245	114.06
484.463	129.06
484.681	148.06
484.9	128.06
485.118	112.06
485.336	126.06
485.554	118.06
485.772	122.06
485.99	117.06
486.209	111.06
486.427	112.06
486.645	122.06
486.863	131.06
487.081	122.06
487.299	122.06
487.517	131.06
487.735	139.06
487.953	133.06
488.171	142.06
488.389	134.06
488.607	118.06
488.825	120.06
489.043	123.06
489.261	135.06
489.479	118.06
489.696	129.06
489.914	122.06
490.132	140.06
490.35	131.06
490.568	123.06
490.786	127.06
491.003	137.06
491.221	156.06
491.439	136.06
491.657	146.06
491.874	150.06
492.092	143.06
492.31	166.06
492.527	143.06
492.745	146.06
492.963	146.06
493.18	146.06
493.398	150.06
493.615	140.06
493.833	138.06
494.05	136.06
494.268	132.06
494.485	135.06
494.703	143.06
494.92	152.06
495.138	148.06
495.355	151.06
495.573	146.06
495.79	141.06
496.008	153.06
496.225	146.06
496.442	143.06
496.66	146.06
496.877	150.06
497.094	144.06
497.312	135.06
497.529	151.06
497.746	144.06
497.963	152.06
498.181	150.06
498.398	130.06
498.615	136.06
498.832	158.06
499.049	145.06
499.267	163.06
499.484	165.06
499.701	174.06
499.918	180.06
500.135	192.06
500.352	204.06
500.569	200.06
500.786	224.06
501.003	213.06
501.22	181.06
501.437	185.06
501.654	158.06
501.871	146.06
502.088	151.06
502.305	153.06
502.522	158.06
502.739	142.06
502.956	126.06
503.172	144.06
503.389	138.06
503.606	135.06
503.823	122.06
504.04	124.06
504.256	136.06
504.473	133.06
504.69	136.06
504.907	122.06
505.123	124.06
505.34	133.06
505.557	134.06
505.773	131.06
505.99	118.06
506.207	126.06
506.423	123.06
506.64	123.06
506.856	126.06
507.073	120.06
507.289	136.06
507.506	131.06
507.722	124.06
507.939	117.06
508.155	116.06
508.372	117.06
508.588	111.06
508.805	124.06
509.021	113.06
509.238	116.06
509.454	100.06
509.67	110.06
509.887	118.06
510.103	112.06
510.319	122.06
510.536	109.06
510.752	97.06
510.968	113.06
511.184	123.06
511.401	101.06
511.617	113.06
511.833	110.06
512.049	114.06
