Data from StandardFe(NO3)3.TAE.3%Agarose.FlatLispGreen.Lamp.Energy10.07252019_HRD10591_11-53-33-439.txt Node
Date: Thu Jul 25 11:53:33 EDT 2019
User: cochatt
Spectrometer: HR+D1059
Trigger mode: 1
Integration Time (sec): 1.000000E-1
Scans to average: 1
Electric dark correction enabled: true
Nonlinearity correction enabled: false
Boxcar width: 0
XAxis mode: Wavelengths
Number of Pixels in Spectrum: 2048
>>>>>Begin Spectral Data<<<<<
223.165	-19.44
223.4	-19.44
223.635	-19.44
223.869	-14.44
224.104	-11.44
224.338	-17.44
224.573	-6.44
224.808	-19.44
225.042	-6.44
225.277	0.56
225.511	-11.44
225.746	-3.44
225.98	-6.44
226.215	16.56
226.449	18.56
226.683	9.56
226.918	30.56
227.152	40.56
227.387	48.56
227.621	32.56
227.856	55.56
228.09	54.56
228.324	48.56
228.559	36.56
228.793	57.56
229.027	55.56
229.262	54.56
229.496	81.56
229.73	78.56
229.964	82.56
230.199	74.56
230.433	80.56
230.667	75.56
230.901	76.56
231.136	86.56
231.37	82.56
231.604	81.56
231.838	85.56
232.072	69.56
232.306	77.56
232.541	92.56
232.775	87.56
233.009	90.56
233.243	80.56
233.477	81.56
233.711	89.56
233.945	70.56
234.179	76.56
234.413	77.56
234.647	72.56
234.881	78.56
235.115	83.56
235.349	79.56
235.583	66.56
235.817	79.56
236.051	70.56
236.285	76.56
236.519	83.56
236.753	77.56
236.987	89.56
237.221	85.56
237.455	67.56
237.689	83.56
237.922	80.56
238.156	74.56
238.39	76.56
238.624	77.56
238.858	77.56
239.091	73.56
239.325	80.56
239.559	78.56
239.793	89.56
240.027	88.56
240.26	89.56
240.494	74.56
240.728	92.56
240.961	79.56
241.195	82.56
241.429	69.56
241.662	68.56
241.896	59.56
242.13	62.56
242.363	94.56
242.597	69.56
242.83	92.56
243.064	77.56
243.298	76.56
243.531	102.56
243.765	86.56
243.998	78.56
244.232	72.56
244.465	78.56
244.699	76.56
244.932	70.56
245.166	83.56
245.399	80.56
245.633	83.56
245.866	84.56
246.099	77.56
246.333	78.56
246.566	88.56
246.8	78.56
247.033	93.56
247.266	90.56
247.5	79.56
247.733	66.56
247.966	70.56
248.2	70.56
248.433	85.56
248.666	92.56
248.899	84.56
249.133	77.56
249.366	89.56
249.599	75.56
249.832	80.56
250.066	82.56
250.299	79.56
250.532	76.56
250.765	75.56
250.998	71.56
251.231	81.56
251.465	82.56
251.698	79.56
251.931	78.56
252.164	87.56
252.397	77.56
252.63	83.56
252.863	73.56
253.096	65.56
253.329	96.56
253.562	70.56
253.795	92.56
254.028	78.56
254.261	75.56
254.494	89.56
254.727	81.56
254.96	80.56
255.193	72.56
255.426	69.56
255.659	84.56
255.892	85.56
256.124	86.56
256.357	92.56
256.59	90.56
256.823	81.56
257.056	87.56
257.289	68.56
257.521	74.56
257.754	66.56
257.987	73.56
258.22	82.56
258.452	83.56
258.685	75.56
258.918	77.56
259.151	79.56
259.383	81.56
259.616	85.56
259.849	87.56
260.081	75.56
260.314	81.56
260.547	74.56
260.779	99.56
261.012	84.56
261.244	88.56
261.477	93.56
261.71	78.56
261.942	89.56
262.175	78.56
262.407	74.56
262.64	76.56
262.872	81.56
263.105	88.56
263.337	99.56
263.57	73.56
263.802	88.56
264.035	81.56
264.267	76.56
264.499	85.56
264.732	82.56
264.964	95.56
265.197	84.56
265.429	83.56
265.661	93.56
265.894	84.56
266.126	79.56
266.358	70.56
266.591	96.56
266.823	60.56
267.055	90.56
267.287	82.56
267.52	75.56
267.752	86.56
267.984	93.56
268.216	86.56
268.448	83.56
268.681	85.56
268.913	91.56
269.145	75.56
269.377	89.56
269.609	78.56
269.841	70.56
270.073	89.56
270.306	92.56
270.538	88.56
270.77	84.56
271.002	76.56
271.234	93.56
271.466	88.56
271.698	89.56
271.93	77.56
272.162	81.56
272.394	103.56
272.626	70.56
272.858	72.56
273.09	73.56
273.322	88.56
273.553	78.56
273.785	97.56
274.017	87.56
274.249	71.56
274.481	76.56
274.713	84.56
274.945	85.56
275.176	88.56
275.408	88.56
275.64	87.56
275.872	76.56
276.104	70.56
276.335	71.56
276.567	89.56
276.799	101.56
277.031	88.56
277.262	85.56
277.494	69.56
277.726	85.56
277.957	70.56
278.189	90.56
278.421	87.56
278.652	87.56
278.884	84.56
279.115	91.56
279.347	87.56
279.579	87.56
279.81	69.56
280.042	87.56
280.273	86.56
280.505	80.56
280.736	81.56
280.968	88.56
281.199	88.56
281.431	74.56
281.662	89.56
281.894	82.56
282.125	83.56
282.356	84.56
282.588	78.56
282.819	96.56
283.051	84.56
283.282	89.56
283.513	83.56
283.745	84.56
283.976	82.56
284.207	80.56
284.439	85.56
284.67	87.56
284.901	79.56
285.132	88.56
285.364	74.56
285.595	75.56
285.826	82.56
286.057	93.56
286.288	94.56
286.52	89.56
286.751	81.56
286.982	73.56
287.213	85.56
287.444	81.56
287.675	100.56
287.906	93.56
288.138	76.56
288.369	88.56
288.6	97.56
288.831	84.56
289.062	98.56
289.293	103.56
289.524	84.56
289.755	80.56
289.986	88.56
290.217	77.56
290.448	80.56
290.679	88.56
290.91	87.56
291.141	92.56
291.371	95.56
291.602	81.56
291.833	73.56
292.064	86.56
292.295	78.56
292.526	65.56
292.757	78.56
292.987	85.56
293.218	86.56
293.449	86.56
293.68	90.56
293.91	80.56
294.141	76.56
294.372	81.56
294.603	84.56
294.833	78.56
295.064	78.56
295.295	83.56
295.525	97.56
295.756	97.56
295.987	94.56
296.217	88.56
296.448	77.56
296.679	75.56
296.909	101.56
297.14	83.56
297.37	86.56
297.601	88.56
297.831	90.56
298.062	85.56
298.292	98.56
298.523	94.56
298.753	86.56
298.984	76.56
299.214	88.56
299.445	91.56
299.675	101.56
299.905	93.56
300.136	92.56
300.366	105.56
300.597	92.56
300.827	84.56
301.057	79.56
301.288	77.56
301.518	90.56
301.748	97.56
301.979	85.56
302.209	81.56
302.439	84.56
302.669	90.56
302.9	89.56
303.13	84.56
303.36	90.56
303.59	87.56
303.82	88.56
304.051	89.56
304.281	85.56
304.511	70.56
304.741	95.56
304.971	71.56
305.201	84.56
305.431	93.56
305.661	93.56
305.891	78.56
306.121	75.56
306.352	85.56
306.582	88.56
306.812	82.56
307.042	88.56
307.272	76.56
307.502	82.56
307.731	86.56
307.961	91.56
308.191	93.56
308.421	91.56
308.651	70.56
308.881	88.56
309.111	89.56
309.341	88.56
309.571	87.56
309.8	79.56
310.03	88.56
310.26	104.56
310.49	85.56
310.72	90.56
310.949	73.56
311.179	87.56
311.409	77.56
311.639	66.56
311.868	97.56
312.098	98.56
312.328	94.56
312.557	87.56
312.787	86.56
313.017	88.56
313.246	65.56
313.476	77.56
313.706	88.56
313.935	98.56
314.165	85.56
314.394	94.56
314.624	83.56
314.853	89.56
315.083	86.56
315.312	90.56
315.542	94.56
315.771	76.56
316.001	70.56
316.23	83.56
316.46	79.56
316.689	71.56
316.919	96.56
317.148	89.56
317.377	86.56
317.607	87.56
317.836	80.56
318.065	100.56
318.295	93.56
318.524	93.56
318.753	74.56
318.983	88.56
319.212	88.56
319.441	82.56
319.67	86.56
319.9	105.56
320.129	82.56
320.358	84.56
320.587	85.56
320.816	82.56
321.046	82.56
321.275	98.56
321.504	73.56
321.733	81.56
321.962	87.56
322.191	87.56
322.42	83.56
322.649	100.56
322.878	84.56
323.108	70.56
323.337	95.56
323.566	77.56
323.795	87.56
324.024	92.56
324.253	94.56
324.482	86.56
324.71	82.56
324.939	80.56
325.168	81.56
325.397	88.56
325.626	81.56
325.855	96.56
326.084	105.56
326.313	78.56
326.542	90.56
326.77	110.56
326.999	102.56
327.228	78.56
327.457	84.56
327.686	86.56
327.914	84.56
328.143	96.56
328.372	102.56
328.6	90.56
328.829	97.56
329.058	90.56
329.287	88.56
329.515	101.56
329.744	93.56
329.972	78.56
330.201	77.56
330.43	81.56
330.658	83.56
330.887	84.56
331.115	88.56
331.344	73.56
331.572	93.56
331.801	76.56
332.03	64.56
332.258	90.56
332.486	84.56
332.715	82.56
332.943	77.56
333.172	97.56
333.4	93.56
333.629	78.56
333.857	93.56
334.085	84.56
334.314	93.56
334.542	106.56
334.771	78.56
334.999	86.56
335.227	89.56
335.455	85.56
335.684	83.56
335.912	79.56
336.14	82.56
336.369	81.56
336.597	91.56
336.825	91.56
337.053	84.56
337.281	98.56
337.51	74.56
337.738	83.56
337.966	85.56
338.194	100.56
338.422	83.56
338.65	95.56
338.878	91.56
339.106	90.56
339.334	95.56
339.562	84.56
339.79	72.56
340.018	81.56
340.246	80.56
340.474	72.56
340.702	84.56
340.93	92.56
341.158	75.56
341.386	100.56
341.614	107.56
341.842	88.56
342.07	82.56
342.298	79.56
342.526	99.56
342.754	77.56
342.981	79.56
343.209	85.56
343.437	85.56
343.665	83.56
343.893	85.56
344.12	74.56
344.348	85.56
344.576	100.56
344.804	86.56
345.031	88.56
345.259	76.56
345.487	78.56
345.714	82.56
345.942	88.56
346.17	83.56
346.397	68.56
346.625	81.56
346.853	90.56
347.08	78.56
347.308	82.56
347.535	93.56
347.763	75.56
347.99	86.56
348.218	93.56
348.445	92.56
348.673	98.56
348.9	107.56
349.128	93.56
349.355	100.56
349.583	74.56
349.81	79.56
350.037	81.56
350.265	86.56
350.492	83.56
350.72	90.56
350.947	83.56
351.174	90.56
351.402	78.56
351.629	87.56
351.856	77.56
352.083	82.56
352.311	86.56
352.538	84.56
352.765	82.56
352.992	84.56
353.22	101.56
353.447	83.56
353.674	90.56
353.901	88.56
354.128	92.56
354.355	95.56
354.583	81.56
354.81	86.56
355.037	82.56
355.264	92.56
355.491	92.56
355.718	76.56
355.945	74.56
356.172	91.56
356.399	94.56
356.626	78.56
356.853	97.56
357.08	84.56
357.307	76.56
357.534	78.56
357.761	84.56
357.988	77.56
358.215	78.56
358.441	67.56
358.668	93.56
358.895	94.56
359.122	96.56
359.349	91.56
359.576	82.56
359.802	76.56
360.029	82.56
360.256	77.56
360.483	85.56
360.709	93.56
360.936	81.56
361.163	92.56
361.39	99.56
361.616	88.56
361.843	78.56
362.07	77.56
362.296	101.56
362.523	88.56
362.749	90.56
362.976	83.56
363.203	107.56
363.429	89.56
363.656	90.56
363.882	88.56
364.109	94.56
364.335	83.56
364.562	83.56
364.788	105.56
365.015	96.56
365.241	101.56
365.468	81.56
365.694	78.56
365.92	98.56
366.147	98.56
366.373	91.56
366.599	82.56
366.826	83.56
367.052	93.56
367.278	102.56
367.505	89.56
367.731	88.56
367.957	79.56
368.184	84.56
368.41	90.56
368.636	95.56
368.862	88.56
369.089	90.56
369.315	72.56
369.541	98.56
369.767	83.56
369.993	92.56
370.219	73.56
370.445	84.56
370.672	84.56
370.898	97.56
371.124	88.56
371.35	96.56
371.576	85.56
371.802	77.56
372.028	92.56
372.254	79.56
372.48	93.56
372.706	71.56
372.932	96.56
373.158	92.56
373.384	87.56
373.61	82.56
373.835	82.56
374.061	83.56
374.287	92.56
374.513	83.56
374.739	97.56
374.965	95.56
375.191	97.56
375.416	71.56
375.642	84.56
375.868	93.56
376.094	73.56
376.319	82.56
376.545	92.56
376.771	94.56
376.997	106.56
377.222	86.56
377.448	102.56
377.674	97.56
377.899	83.56
378.125	84.56
378.35	94.56
378.576	95.56
378.802	93.56
379.027	96.56
379.253	107.56
379.478	106.56
379.704	84.56
379.929	80.56
380.155	96.56
380.38	94.56
380.606	84.56
380.831	89.56
381.057	88.56
381.282	85.56
381.507	85.56
381.733	94.56
381.958	84.56
382.184	88.56
382.409	90.56
382.634	101.56
382.86	80.56
383.085	99.56
383.31	97.56
383.535	88.56
383.761	75.56
383.986	87.56
384.211	96.56
384.436	86.56
384.662	105.56
384.887	79.56
385.112	94.56
385.337	91.56
385.562	85.56
385.787	97.56
386.013	115.56
386.238	76.56
386.463	100.56
386.688	90.56
386.913	106.56
387.138	97.56
387.363	97.56
387.588	80.56
387.813	86.56
388.038	97.56
388.263	98.56
388.488	99.56
388.713	104.56
388.938	93.56
389.163	105.56
389.387	101.56
389.612	100.56
389.837	101.56
390.062	91.56
390.287	93.56
390.512	90.56
390.736	114.56
390.961	112.56
391.186	102.56
391.411	92.56
391.636	91.56
391.86	105.56
392.085	92.56
392.31	89.56
392.534	101.56
392.759	113.56
392.984	100.56
393.208	104.56
393.433	98.56
393.658	103.56
393.882	120.56
394.107	97.56
394.331	114.56
394.556	100.56
394.78	104.56
395.005	104.56
395.229	108.56
395.454	117.56
395.678	80.56
395.903	116.56
396.127	105.56
396.352	119.56
396.576	104.56
396.801	93.56
397.025	99.56
397.249	106.56
397.474	102.56
397.698	103.56
397.922	88.56
398.147	98.56
398.371	102.56
398.595	117.56
398.82	101.56
399.044	106.56
399.268	105.56
399.492	130.56
399.717	107.56
399.941	108.56
400.165	101.56
400.389	109.56
400.613	117.56
400.837	106.56
401.062	122.56
401.286	108.56
401.51	99.56
401.734	97.56
401.958	110.56
402.182	104.56
402.406	114.56
402.63	99.56
402.854	109.56
403.078	102.56
403.302	100.56
403.526	115.56
403.75	122.56
403.974	105.56
404.198	90.56
404.422	106.56
404.645	106.56
404.869	99.56
405.093	108.56
405.317	105.56
405.541	102.56
405.765	117.56
405.988	109.56
406.212	119.56
406.436	108.56
406.66	118.56
406.883	117.56
407.107	115.56
407.331	121.56
407.555	103.56
407.778	116.56
408.002	113.56
408.226	114.56
408.449	126.56
408.673	114.56
408.896	122.56
409.12	111.56
409.344	112.56
409.567	108.56
409.791	100.56
410.014	108.56
410.238	119.56
410.461	116.56
410.685	116.56
410.908	107.56
411.132	100.56
411.355	108.56
411.578	115.56
411.802	101.56
412.025	108.56
412.249	112.56
412.472	112.56
412.695	118.56
412.919	102.56
413.142	106.56
413.365	118.56
413.589	112.56
413.812	106.56
414.035	108.56
414.258	98.56
414.482	113.56
414.705	96.56
414.928	112.56
415.151	101.56
415.374	118.56
415.597	114.56
415.821	118.56
416.044	115.56
416.267	105.56
416.49	108.56
416.713	114.56
416.936	122.56
417.159	115.56
417.382	96.56
417.605	108.56
417.828	108.56
418.051	123.56
418.274	126.56
418.497	115.56
418.72	116.56
418.943	120.56
419.166	123.56
419.389	114.56
419.611	119.56
419.834	97.56
420.057	109.56
420.28	112.56
420.503	115.56
420.726	113.56
420.948	124.56
421.171	116.56
421.394	109.56
421.617	117.56
421.839	115.56
422.062	125.56
422.285	114.56
422.507	133.56
422.73	105.56
422.953	106.56
423.175	115.56
423.398	108.56
423.621	119.56
423.843	128.56
424.066	120.56
424.288	127.56
424.511	110.56
424.733	124.56
424.956	130.56
425.178	100.56
425.401	127.56
425.623	115.56
425.846	124.56
426.068	122.56
426.291	119.56
426.513	106.56
426.735	112.56
426.958	118.56
427.18	120.56
427.402	123.56
427.625	121.56
427.847	115.56
428.069	110.56
428.292	109.56
428.514	114.56
428.736	121.56
428.958	118.56
429.181	115.56
429.403	120.56
429.625	110.56
429.847	109.56
430.069	115.56
430.292	120.56
430.514	116.56
430.736	119.56
430.958	118.56
431.18	109.56
431.402	108.56
431.624	104.56
431.846	106.56
432.068	97.56
432.29	92.56
432.512	109.56
432.734	103.56
432.956	121.56
433.178	121.56
433.4	116.56
433.622	98.56
433.844	120.56
434.066	119.56
434.287	123.56
434.509	112.56
434.731	97.56
434.953	112.56
435.175	106.56
435.397	122.56
435.618	126.56
435.84	105.56
436.062	100.56
436.284	102.56
436.505	137.56
436.727	112.56
436.949	112.56
437.17	105.56
437.392	122.56
437.614	112.56
437.835	96.56
438.057	110.56
438.278	104.56
438.5	116.56
438.721	110.56
438.943	123.56
439.165	112.56
439.386	105.56
439.608	114.56
439.829	128.56
440.05	122.56
440.272	109.56
440.493	131.56
440.715	124.56
440.936	123.56
441.158	113.56
441.379	124.56
441.6	115.56
441.822	116.56
442.043	113.56
442.264	114.56
442.486	129.56
442.707	122.56
442.928	110.56
443.149	125.56
443.371	120.56
443.592	118.56
443.813	114.56
444.034	128.56
444.255	114.56
444.476	118.56
444.698	127.56
444.919	126.56
445.14	248.56
445.361	193.56
445.582	131.56
445.803	132.56
446.024	122.56
446.245	120.56
446.466	117.56
446.687	112.56
446.908	119.56
447.129	118.56
447.35	111.56
447.571	104.56
447.792	111.56
448.013	122.56
448.234	117.56
448.455	132.56
448.675	117.56
448.896	112.56
449.117	122.56
449.338	120.56
449.559	126.56
449.779	107.56
450	118.56
450.221	102.56
450.442	98.56
450.662	120.56
450.883	104.56
451.104	123.56
451.324	107.56
451.545	113.56
451.766	119.56
451.986	116.56
452.207	106.56
452.428	122.56
452.648	111.56
452.869	98.56
453.089	115.56
453.31	109.56
453.53	100.56
453.751	115.56
453.971	101.56
454.192	95.56
454.412	105.56
454.633	113.56
454.853	114.56
455.073	102.56
455.294	98.56
455.514	118.56
455.734	114.56
455.955	116.56
456.175	95.56
456.395	98.56
456.616	104.56
456.836	113.56
457.056	102.56
457.276	98.56
457.497	105.56
457.717	118.56
457.937	108.56
458.157	108.56
458.377	107.56
458.598	109.56
458.818	85.56
459.038	114.56
459.258	104.56
459.478	104.56
459.698	108.56
459.918	114.56
460.138	97.56
460.358	115.56
460.578	114.56
460.798	117.56
461.018	110.56
461.238	112.56
461.458	109.56
461.678	108.56
461.898	107.56
462.118	113.56
462.338	117.56
462.558	122.56
462.777	113.56
462.997	126.56
463.217	136.56
463.437	119.56
463.657	135.56
463.876	129.56
464.096	119.56
464.316	113.56
464.536	114.56
464.755	112.56
464.975	125.56
465.195	120.56
465.414	113.56
465.634	114.56
465.854	108.56
466.073	120.56
466.293	112.56
466.512	118.56
466.732	114.56
466.951	115.56
467.171	99.56
467.391	121.56
467.61	124.56
467.829	127.56
468.049	109.56
468.268	117.56
468.488	115.56
468.707	111.56
468.927	122.56
469.146	120.56
469.365	116.56
469.585	130.56
469.804	129.56
470.023	110.56
470.243	109.56
470.462	129.56
470.681	110.56
470.901	127.56
471.12	128.56
471.339	116.56
471.558	125.56
471.777	134.56
471.997	119.56
472.216	124.56
472.435	117.56
472.654	104.56
472.873	97.56
473.092	101.56
473.311	123.56
473.53	112.56
473.749	118.56
473.968	94.56
474.187	113.56
474.406	106.56
474.625	119.56
474.844	123.56
475.063	118.56
475.282	105.56
475.501	130.56
475.72	128.56
475.939	124.56
476.158	123.56
476.377	119.56
476.596	116.56
476.814	116.56
477.033	106.56
477.252	122.56
477.471	108.56
477.69	115.56
477.908	124.56
478.127	113.56
478.346	128.56
478.564	117.56
478.783	132.56
479.002	131.56
479.22	126.56
479.439	116.56
479.658	119.56
479.876	109.56
480.095	109.56
480.313	134.56
480.532	132.56
480.751	123.56
480.969	98.56
481.188	118.56
481.406	103.56
481.624	124.56
481.843	124.56
482.061	124.56
482.28	117.56
482.498	118.56
482.717	118.56
482.935	118.56
483.153	126.56
483.372	122.56
483.59	138.56
483.808	129.56
484.027	112.56
484.245	120.56
484.463	121.56
484.681	133.56
484.9	113.56
485.118	124.56
485.336	106.56
485.554	121.56
485.772	116.56
485.99	126.56
486.209	117.56
486.427	119.56
486.645	129.56
486.863	133.56
487.081	127.56
487.299	140.56
487.517	113.56
487.735	132.56
487.953	141.56
488.171	159.56
488.389	132.56
488.607	133.56
488.825	133.56
489.043	145.56
489.261	139.56
489.479	132.56
489.696	129.56
489.914	121.56
490.132	157.56
490.35	135.56
490.568	119.56
490.786	138.56
491.003	145.56
491.221	162.56
491.439	134.56
491.657	138.56
491.874	153.56
492.092	174.56
492.31	170.56
492.527	156.56
492.745	158.56
492.963	156.56
493.18	147.56
493.398	164.56
493.615	171.56
493.833	131.56
494.05	149.56
494.268	150.56
494.485	145.56
494.703	139.56
494.92	149.56
495.138	144.56
495.355	148.56
495.573	143.56
495.79	146.56
496.008	145.56
496.225	149.56
496.442	169.56
496.66	160.56
496.877	145.56
497.094	145.56
497.312	148.56
497.529	150.56
497.746	134.56
497.963	129.56
498.181	144.56
498.398	149.56
498.615	153.56
498.832	140.56
499.049	152.56
499.267	150.56
499.484	161.56
499.701	157.56
499.918	176.56
500.135	188.56
500.352	222.56
500.569	227.56
500.786	219.56
501.003	212.56
501.22	184.56
501.437	186.56
501.654	173.56
501.871	157.56
502.088	155.56
502.305	161.56
502.522	138.56
502.739	136.56
502.956	133.56
503.172	125.56
503.389	140.56
503.606	126.56
503.823	130.56
504.04	128.56
504.256	133.56
504.473	130.56
504.69	148.56
504.907	138.56
505.123	139.56
505.34	131.56
505.557	137.56
505.773	133.56
505.99	132.56
506.207	125.56
506.423	133.56
506.64	123.56
506.856	117.56
507.073	116.56
507.289	125.56
507.506	126.56
507.722	119.56
507.939	131.56
508.155	126.56
508.372	126.56
508.588	144.56
508.805	132.56
509.021	108.56
509.238	118.56
509.454	112.56
509.67	113.56
509.887	117.56
510.103	113.56
510.319	112.56
510.536	106.56
510.752	110.56
510.968	116.56
511.184	102.56
