Data from StandardFe(NO3)3.TAE.3%Agarose.FlatLispGreen.Lamp.Energy10.07252019_HRD10591_11-55-16-440.txt Node
Date: Thu Jul 25 11:55:16 EDT 2019
User: cochatt
Spectrometer: HR+D1059
Trigger mode: 1
Integration Time (sec): 1.000000E-1
Scans to average: 1
Electric dark correction enabled: true
Nonlinearity correction enabled: false
Boxcar width: 0
XAxis mode: Wavelengths
Number of Pixels in Spectrum: 2048
>>>>>Begin Spectral Data<<<<<
223.165	-18.75
223.4	-18.75
223.635	-18.75
223.869	-23.75
224.104	-27.75
224.338	7.25
224.573	3.25
224.808	-8.75
225.042	-12.75
225.277	-9.75
225.511	-4.75
225.746	-0.75
225.98	2.25
226.215	13.25
226.449	6.25
226.683	18.25
226.918	19.25
227.152	37.25
227.387	23.25
227.621	44.25
227.856	43.25
228.09	33.25
228.324	54.25
228.559	73.25
228.793	49.25
229.027	57.25
229.262	72.25
229.496	53.25
229.73	64.25
229.964	71.25
230.199	74.25
230.433	74.25
230.667	78.25
230.901	86.25
231.136	80.25
231.37	89.25
231.604	79.25
231.838	83.25
232.072	90.25
232.306	80.25
232.541	82.25
232.775	90.25
233.009	80.25
233.243	72.25
233.477	87.25
233.711	80.25
233.945	64.25
234.179	83.25
234.413	103.25
234.647	87.25
234.881	74.25
235.115	91.25
235.349	80.25
235.583	84.25
235.817	82.25
236.051	86.25
236.285	74.25
236.519	71.25
236.753	82.25
236.987	81.25
237.221	73.25
237.455	72.25
237.689	68.25
237.922	73.25
238.156	75.25
238.39	75.25
238.624	72.25
238.858	72.25
239.091	74.25
239.325	75.25
239.559	76.25
239.793	73.25
240.027	85.25
240.26	74.25
240.494	98.25
240.728	89.25
240.961	79.25
241.195	86.25
241.429	87.25
241.662	72.25
241.896	90.25
242.13	82.25
242.363	82.25
242.597	62.25
242.83	70.25
243.064	78.25
243.298	81.25
243.531	91.25
243.765	75.25
243.998	86.25
244.232	76.25
244.465	89.25
244.699	74.25
244.932	75.25
245.166	79.25
245.399	94.25
245.633	78.25
245.866	88.25
246.099	69.25
246.333	85.25
246.566	81.25
246.8	77.25
247.033	86.25
247.266	88.25
247.5	74.25
247.733	70.25
247.966	59.25
248.2	72.25
248.433	86.25
248.666	78.25
248.899	88.25
249.133	70.25
249.366	78.25
249.599	84.25
249.832	80.25
250.066	91.25
250.299	84.25
250.532	71.25
250.765	82.25
250.998	92.25
251.231	87.25
251.465	94.25
251.698	84.25
251.931	82.25
252.164	82.25
252.397	69.25
252.63	87.25
252.863	67.25
253.096	79.25
253.329	74.25
253.562	73.25
253.795	83.25
254.028	94.25
254.261	82.25
254.494	90.25
254.727	87.25
254.96	94.25
255.193	93.25
255.426	75.25
255.659	70.25
255.892	87.25
256.124	81.25
256.357	79.25
256.59	78.25
256.823	94.25
257.056	82.25
257.289	94.25
257.521	97.25
257.754	83.25
257.987	81.25
258.22	86.25
258.452	90.25
258.685	85.25
258.918	77.25
259.151	85.25
259.383	71.25
259.616	88.25
259.849	77.25
260.081	85.25
260.314	84.25
260.547	85.25
260.779	80.25
261.012	80.25
261.244	94.25
261.477	89.25
261.71	83.25
261.942	90.25
262.175	83.25
262.407	77.25
262.64	76.25
262.872	88.25
263.105	95.25
263.337	90.25
263.57	82.25
263.802	74.25
264.035	80.25
264.267	77.25
264.499	86.25
264.732	80.25
264.964	86.25
265.197	78.25
265.429	73.25
265.661	82.25
265.894	73.25
266.126	82.25
266.358	75.25
266.591	77.25
266.823	83.25
267.055	70.25
267.287	74.25
267.52	93.25
267.752	84.25
267.984	86.25
268.216	70.25
268.448	109.25
268.681	76.25
268.913	82.25
269.145	86.25
269.377	74.25
269.609	85.25
269.841	81.25
270.073	82.25
270.306	85.25
270.538	88.25
270.77	77.25
271.002	76.25
271.234	71.25
271.466	83.25
271.698	74.25
271.93	79.25
272.162	82.25
272.394	74.25
272.626	84.25
272.858	83.25
273.09	90.25
273.322	81.25
273.553	90.25
273.785	80.25
274.017	85.25
274.249	71.25
274.481	77.25
274.713	90.25
274.945	77.25
275.176	100.25
275.408	89.25
275.64	78.25
275.872	90.25
276.104	85.25
276.335	83.25
276.567	88.25
276.799	83.25
277.031	99.25
277.262	88.25
277.494	86.25
277.726	90.25
277.957	85.25
278.189	80.25
278.421	90.25
278.652	95.25
278.884	78.25
279.115	67.25
279.347	90.25
279.579	89.25
279.81	91.25
280.042	83.25
280.273	78.25
280.505	75.25
280.736	83.25
280.968	70.25
281.199	70.25
281.431	91.25
281.662	92.25
281.894	81.25
282.125	87.25
282.356	80.25
282.588	94.25
282.819	83.25
283.051	77.25
283.282	92.25
283.513	92.25
283.745	93.25
283.976	102.25
284.207	85.25
284.439	73.25
284.67	82.25
284.901	86.25
285.132	91.25
285.364	93.25
285.595	87.25
285.826	73.25
286.057	83.25
286.288	82.25
286.52	80.25
286.751	74.25
286.982	86.25
287.213	80.25
287.444	65.25
287.675	87.25
287.906	83.25
288.138	81.25
288.369	107.25
288.6	73.25
288.831	91.25
289.062	81.25
289.293	84.25
289.524	70.25
289.755	89.25
289.986	84.25
290.217	85.25
290.448	93.25
290.679	86.25
290.91	76.25
291.141	94.25
291.371	85.25
291.602	83.25
291.833	76.25
292.064	89.25
292.295	91.25
292.526	101.25
292.757	75.25
292.987	79.25
293.218	89.25
293.449	87.25
293.68	89.25
293.91	86.25
294.141	81.25
294.372	101.25
294.603	98.25
294.833	96.25
295.064	92.25
295.295	87.25
295.525	91.25
295.756	83.25
295.987	79.25
296.217	88.25
296.448	86.25
296.679	90.25
296.909	90.25
297.14	89.25
297.37	77.25
297.601	89.25
297.831	94.25
298.062	87.25
298.292	97.25
298.523	85.25
298.753	92.25
298.984	89.25
299.214	86.25
299.445	88.25
299.675	85.25
299.905	82.25
300.136	83.25
300.366	90.25
300.597	81.25
300.827	87.25
301.057	85.25
301.288	93.25
301.518	82.25
301.748	84.25
301.979	81.25
302.209	87.25
302.439	91.25
302.669	91.25
302.9	89.25
303.13	86.25
303.36	88.25
303.59	84.25
303.82	92.25
304.051	92.25
304.281	82.25
304.511	95.25
304.741	95.25
304.971	95.25
305.201	91.25
305.431	80.25
305.661	85.25
305.891	85.25
306.121	95.25
306.352	80.25
306.582	79.25
306.812	91.25
307.042	82.25
307.272	84.25
307.502	71.25
307.731	82.25
307.961	84.25
308.191	77.25
308.421	87.25
308.651	74.25
308.881	91.25
309.111	89.25
309.341	87.25
309.571	90.25
309.8	91.25
310.03	88.25
310.26	96.25
310.49	78.25
310.72	88.25
310.949	90.25
311.179	97.25
311.409	78.25
311.639	66.25
311.868	68.25
312.098	81.25
312.328	92.25
312.557	85.25
312.787	98.25
313.017	77.25
313.246	91.25
313.476	88.25
313.706	77.25
313.935	78.25
314.165	86.25
314.394	90.25
314.624	92.25
314.853	76.25
315.083	92.25
315.312	91.25
315.542	84.25
315.771	94.25
316.001	97.25
316.23	95.25
316.46	95.25
316.689	100.25
316.919	91.25
317.148	108.25
317.377	83.25
317.607	81.25
317.836	82.25
318.065	78.25
318.295	75.25
318.524	77.25
318.753	86.25
318.983	87.25
319.212	77.25
319.441	74.25
319.67	73.25
319.9	83.25
320.129	79.25
320.358	85.25
320.587	95.25
320.816	93.25
321.046	77.25
321.275	94.25
321.504	85.25
321.733	91.25
321.962	77.25
322.191	95.25
322.42	79.25
322.649	87.25
322.878	87.25
323.108	85.25
323.337	90.25
323.566	89.25
323.795	75.25
324.024	95.25
324.253	89.25
324.482	98.25
324.71	70.25
324.939	95.25
325.168	89.25
325.397	96.25
325.626	82.25
325.855	91.25
326.084	79.25
326.313	83.25
326.542	89.25
326.77	84.25
326.999	78.25
327.228	104.25
327.457	91.25
327.686	84.25
327.914	84.25
328.143	93.25
328.372	71.25
328.6	71.25
328.829	101.25
329.058	74.25
329.287	83.25
329.515	78.25
329.744	81.25
329.972	74.25
330.201	87.25
330.43	85.25
330.658	73.25
330.887	82.25
331.115	90.25
331.344	92.25
331.572	88.25
331.801	92.25
332.03	89.25
332.258	91.25
332.486	79.25
332.715	85.25
332.943	73.25
333.172	84.25
333.4	78.25
333.629	86.25
333.857	78.25
334.085	84.25
334.314	99.25
334.542	90.25
334.771	86.25
334.999	90.25
335.227	82.25
335.455	91.25
335.684	96.25
335.912	89.25
336.14	92.25
336.369	80.25
336.597	94.25
336.825	91.25
337.053	95.25
337.281	85.25
337.51	75.25
337.738	87.25
337.966	78.25
338.194	78.25
338.422	91.25
338.65	86.25
338.878	92.25
339.106	96.25
339.334	89.25
339.562	93.25
339.79	85.25
340.018	78.25
340.246	94.25
340.474	81.25
340.702	78.25
340.93	79.25
341.158	90.25
341.386	79.25
341.614	75.25
341.842	87.25
342.07	90.25
342.298	72.25
342.526	88.25
342.754	84.25
342.981	74.25
343.209	87.25
343.437	104.25
343.665	77.25
343.893	80.25
344.12	85.25
344.348	70.25
344.576	83.25
344.804	84.25
345.031	90.25
345.259	91.25
345.487	101.25
345.714	79.25
345.942	84.25
346.17	86.25
346.397	81.25
346.625	89.25
346.853	74.25
347.08	79.25
347.308	85.25
347.535	83.25
347.763	101.25
347.99	86.25
348.218	88.25
348.445	81.25
348.673	87.25
348.9	73.25
349.128	91.25
349.355	78.25
349.583	85.25
349.81	90.25
350.037	77.25
350.265	98.25
350.492	80.25
350.72	91.25
350.947	93.25
351.174	96.25
351.402	82.25
351.629	79.25
351.856	94.25
352.083	76.25
352.311	76.25
352.538	86.25
352.765	86.25
352.992	75.25
353.22	89.25
353.447	81.25
353.674	90.25
353.901	90.25
354.128	85.25
354.355	96.25
354.583	85.25
354.81	96.25
355.037	90.25
355.264	78.25
355.491	78.25
355.718	85.25
355.945	75.25
356.172	92.25
356.399	101.25
356.626	78.25
356.853	85.25
357.08	80.25
357.307	100.25
357.534	86.25
357.761	81.25
357.988	93.25
358.215	98.25
358.441	81.25
358.668	91.25
358.895	70.25
359.122	65.25
359.349	91.25
359.576	82.25
359.802	85.25
360.029	83.25
360.256	93.25
360.483	91.25
360.709	80.25
360.936	94.25
361.163	83.25
361.39	79.25
361.616	99.25
361.843	90.25
362.07	93.25
362.296	77.25
362.523	92.25
362.749	84.25
362.976	82.25
363.203	86.25
363.429	77.25
363.656	97.25
363.882	91.25
364.109	93.25
364.335	98.25
364.562	80.25
364.788	85.25
365.015	85.25
365.241	82.25
365.468	93.25
365.694	80.25
365.92	82.25
366.147	75.25
366.373	78.25
366.599	86.25
366.826	88.25
367.052	91.25
367.278	88.25
367.505	105.25
367.731	82.25
367.957	87.25
368.184	89.25
368.41	90.25
368.636	86.25
368.862	86.25
369.089	85.25
369.315	103.25
369.541	95.25
369.767	84.25
369.993	91.25
370.219	79.25
370.445	84.25
370.672	89.25
370.898	82.25
371.124	86.25
371.35	99.25
371.576	85.25
371.802	76.25
372.028	90.25
372.254	100.25
372.48	87.25
372.706	81.25
372.932	86.25
373.158	83.25
373.384	90.25
373.61	78.25
373.835	81.25
374.061	87.25
374.287	104.25
374.513	88.25
374.739	90.25
374.965	91.25
375.191	87.25
375.416	110.25
375.642	93.25
375.868	85.25
376.094	86.25
376.319	88.25
376.545	93.25
376.771	88.25
376.997	105.25
377.222	87.25
377.448	89.25
377.674	96.25
377.899	95.25
378.125	87.25
378.35	76.25
378.576	89.25
378.802	80.25
379.027	80.25
379.253	99.25
379.478	85.25
379.704	95.25
379.929	87.25
380.155	87.25
380.38	97.25
380.606	102.25
380.831	93.25
381.057	99.25
381.282	89.25
381.507	82.25
381.733	96.25
381.958	92.25
382.184	92.25
382.409	102.25
382.634	102.25
382.86	84.25
383.085	113.25
383.31	83.25
383.535	97.25
383.761	87.25
383.986	82.25
384.211	93.25
384.436	98.25
384.662	90.25
384.887	90.25
385.112	87.25
385.337	102.25
385.562	94.25
385.787	99.25
386.013	109.25
386.238	101.25
386.463	91.25
386.688	81.25
386.913	81.25
387.138	86.25
387.363	85.25
387.588	100.25
387.813	100.25
388.038	106.25
388.263	109.25
388.488	83.25
388.713	90.25
388.938	103.25
389.163	98.25
389.387	97.25
389.612	91.25
389.837	90.25
390.062	85.25
390.287	97.25
390.512	100.25
390.736	90.25
390.961	90.25
391.186	101.25
391.411	92.25
391.636	107.25
391.86	102.25
392.085	105.25
392.31	102.25
392.534	106.25
392.759	99.25
392.984	117.25
393.208	90.25
393.433	101.25
393.658	95.25
393.882	95.25
394.107	94.25
394.331	104.25
394.556	87.25
394.78	105.25
395.005	97.25
395.229	115.25
395.454	108.25
395.678	102.25
395.903	125.25
396.127	96.25
396.352	86.25
396.576	98.25
396.801	105.25
397.025	108.25
397.249	100.25
397.474	107.25
397.698	99.25
397.922	113.25
398.147	107.25
398.371	104.25
398.595	101.25
398.82	110.25
399.044	99.25
399.268	98.25
399.492	116.25
399.717	105.25
399.941	125.25
400.165	123.25
400.389	106.25
400.613	109.25
400.837	106.25
401.062	108.25
401.286	108.25
401.51	109.25
401.734	89.25
401.958	123.25
402.182	109.25
402.406	99.25
402.63	105.25
402.854	103.25
403.078	97.25
403.302	110.25
403.526	125.25
403.75	118.25
403.974	108.25
404.198	121.25
404.422	115.25
404.645	105.25
404.869	111.25
405.093	119.25
405.317	101.25
405.541	100.25
405.765	97.25
405.988	100.25
406.212	104.25
406.436	102.25
406.66	111.25
406.883	126.25
407.107	115.25
407.331	106.25
407.555	121.25
407.778	105.25
408.002	105.25
408.226	124.25
408.449	111.25
408.673	107.25
408.896	110.25
409.12	105.25
409.344	115.25
409.567	113.25
409.791	105.25
410.014	120.25
410.238	106.25
410.461	105.25
410.685	110.25
410.908	114.25
411.132	108.25
411.355	109.25
411.578	117.25
411.802	120.25
412.025	115.25
412.249	113.25
412.472	99.25
412.695	118.25
412.919	101.25
413.142	114.25
413.365	102.25
413.589	124.25
413.812	107.25
414.035	107.25
414.258	114.25
414.482	114.25
414.705	124.25
414.928	123.25
415.151	113.25
415.374	116.25
415.597	116.25
415.821	118.25
416.044	111.25
416.267	111.25
416.49	117.25
416.713	117.25
416.936	122.25
417.159	103.25
417.382	110.25
417.605	118.25
417.828	113.25
418.051	119.25
418.274	117.25
418.497	113.25
418.72	126.25
418.943	116.25
419.166	122.25
419.389	126.25
419.611	124.25
419.834	119.25
420.057	123.25
420.28	100.25
420.503	120.25
420.726	111.25
420.948	109.25
421.171	117.25
421.394	117.25
421.617	129.25
421.839	120.25
422.062	106.25
422.285	123.25
422.507	113.25
422.73	126.25
422.953	122.25
423.175	123.25
423.398	112.25
423.621	118.25
423.843	102.25
424.066	121.25
424.288	113.25
424.511	113.25
424.733	113.25
424.956	122.25
425.178	110.25
425.401	115.25
425.623	113.25
425.846	106.25
426.068	108.25
426.291	112.25
426.513	104.25
426.735	103.25
426.958	115.25
427.18	123.25
427.402	104.25
427.625	117.25
427.847	120.25
428.069	113.25
428.292	113.25
428.514	116.25
428.736	120.25
428.958	110.25
429.181	117.25
429.403	125.25
429.625	113.25
429.847	114.25
430.069	108.25
430.292	113.25
430.514	108.25
430.736	124.25
430.958	118.25
431.18	110.25
431.402	116.25
431.624	106.25
431.846	110.25
432.068	105.25
432.29	105.25
432.512	107.25
432.734	97.25
432.956	114.25
433.178	115.25
433.4	120.25
433.622	110.25
433.844	99.25
434.066	93.25
434.287	102.25
434.509	95.25
434.731	105.25
434.953	136.25
435.175	120.25
435.397	115.25
435.618	105.25
435.84	98.25
436.062	109.25
436.284	124.25
436.505	112.25
436.727	104.25
436.949	117.25
437.17	118.25
437.392	107.25
437.614	135.25
437.835	106.25
438.057	108.25
438.278	110.25
438.5	120.25
438.721	101.25
438.943	113.25
439.165	117.25
439.386	115.25
439.608	122.25
439.829	131.25
440.05	115.25
440.272	124.25
440.493	126.25
440.715	129.25
440.936	109.25
441.158	122.25
441.379	122.25
441.6	133.25
441.822	125.25
442.043	120.25
442.264	123.25
442.486	114.25
442.707	129.25
442.928	117.25
443.149	113.25
443.371	106.25
443.592	110.25
443.813	113.25
444.034	111.25
444.255	126.25
444.476	113.25
444.698	121.25
444.919	119.25
445.14	244.25
445.361	169.25
445.582	140.25
445.803	131.25
446.024	125.25
446.245	121.25
446.466	129.25
446.687	111.25
446.908	115.25
447.129	116.25
447.35	129.25
447.571	107.25
447.792	106.25
448.013	119.25
448.234	113.25
448.455	118.25
448.675	117.25
448.896	106.25
449.117	117.25
449.338	131.25
449.559	106.25
449.779	107.25
450	125.25
450.221	114.25
450.442	118.25
450.662	123.25
450.883	103.25
451.104	110.25
451.324	95.25
451.545	110.25
451.766	127.25
451.986	112.25
452.207	113.25
452.428	123.25
452.648	114.25
452.869	106.25
453.089	109.25
453.31	117.25
453.53	97.25
453.751	99.25
453.971	97.25
454.192	99.25
454.412	104.25
454.633	103.25
454.853	99.25
455.073	120.25
455.294	121.25
455.514	114.25
455.734	111.25
455.955	100.25
456.175	105.25
456.395	94.25
456.616	110.25
456.836	118.25
457.056	112.25
457.276	108.25
457.497	96.25
457.717	119.25
457.937	107.25
458.157	111.25
458.377	106.25
458.598	99.25
458.818	105.25
459.038	103.25
459.258	106.25
459.478	100.25
459.698	104.25
459.918	121.25
460.138	121.25
460.358	120.25
460.578	124.25
460.798	126.25
461.018	110.25
461.238	107.25
461.458	119.25
461.678	117.25
461.898	115.25
462.118	109.25
462.338	118.25
462.558	123.25
462.777	121.25
462.997	123.25
463.217	122.25
463.437	109.25
463.657	115.25
463.876	121.25
464.096	117.25
464.316	122.25
464.536	129.25
464.755	115.25
464.975	126.25
465.195	128.25
465.414	127.25
465.634	117.25
465.854	114.25
466.073	125.25
466.293	113.25
466.512	108.25
466.732	112.25
466.951	111.25
467.171	121.25
467.391	113.25
467.61	110.25
467.829	126.25
468.049	128.25
468.268	113.25
468.488	121.25
468.707	115.25
468.927	110.25
469.146	118.25
469.365	135.25
469.585	103.25
469.804	125.25
470.023	127.25
470.243	108.25
470.462	125.25
470.681	118.25
470.901	124.25
471.12	124.25
471.339	130.25
471.558	125.25
471.777	120.25
471.997	114.25
472.216	106.25
472.435	115.25
472.654	117.25
472.873	114.25
473.092	103.25
473.311	129.25
473.53	122.25
473.749	112.25
473.968	111.25
474.187	102.25
474.406	111.25
474.625	123.25
474.844	113.25
475.063	118.25
475.282	120.25
475.501	113.25
475.72	121.25
475.939	120.25
476.158	102.25
476.377	123.25
476.596	127.25
476.814	117.25
477.033	117.25
477.252	125.25
477.471	117.25
477.69	133.25
477.908	126.25
478.127	125.25
478.346	135.25
478.564	119.25
478.783	115.25
479.002	127.25
479.22	124.25
479.439	126.25
479.658	121.25
479.876	132.25
480.095	128.25
480.313	104.25
480.532	143.25
480.751	118.25
480.969	127.25
481.188	122.25
481.406	117.25
481.624	120.25
481.843	119.25
482.061	103.25
482.28	114.25
482.498	125.25
482.717	123.25
482.935	115.25
483.153	126.25
483.372	120.25
483.59	131.25
483.808	129.25
484.027	123.25
484.245	137.25
484.463	129.25
484.681	141.25
484.9	107.25
485.118	131.25
485.336	128.25
485.554	132.25
485.772	108.25
485.99	113.25
486.209	125.25
486.427	126.25
486.645	114.25
486.863	128.25
487.081	133.25
487.299	111.25
487.517	127.25
487.735	127.25
487.953	150.25
488.171	126.25
488.389	130.25
488.607	125.25
488.825	121.25
489.043	141.25
489.261	126.25
489.479	137.25
489.696	137.25
489.914	134.25
490.132	118.25
490.35	133.25
490.568	133.25
490.786	133.25
491.003	161.25
491.221	168.25
491.439	148.25
491.657	150.25
491.874	160.25
492.092	177.25
492.31	163.25
492.527	158.25
492.745	163.25
492.963	153.25
493.18	155.25
493.398	149.25
493.615	137.25
493.833	153.25
494.05	141.25
494.268	157.25
494.485	160.25
494.703	158.25
494.92	149.25
495.138	152.25
495.355	158.25
495.573	150.25
495.79	151.25
496.008	148.25
496.225	140.25
496.442	139.25
496.66	153.25
496.877	154.25
497.094	151.25
497.312	144.25
497.529	165.25
497.746	143.25
497.963	132.25
498.181	139.25
498.398	157.25
498.615	135.25
498.832	143.25
499.049	154.25
499.267	154.25
499.484	162.25
499.701	168.25
499.918	202.25
500.135	197.25
500.352	222.25
500.569	221.25
500.786	198.25
501.003	208.25
501.22	199.25
501.437	188.25
501.654	183.25
501.871	153.25
502.088	152.25
502.305	162.25
502.522	163.25
502.739	150.25
502.956	143.25
503.172	139.25
503.389	135.25
503.606	141.25
503.823	135.25
504.04	147.25
504.256	146.25
504.473	151.25
504.69	135.25
504.907	142.25
505.123	139.25
505.34	141.25
505.557	133.25
505.773	133.25
505.99	127.25
506.207	136.25
506.423	131.25
506.64	130.25
506.856	116.25
507.073	129.25
507.289	106.25
507.506	117.25
507.722	112.25
507.939	129.25
508.155	125.25
508.372	134.25
508.588	118.25
508.805	118.25
509.021	117.25
509.238	107.25
509.454	113.25
509.67	111.25
509.887	125.25
510.103	127.25
510.319	128.25
510.536	124.25
510.752	93.25
510.968	114.25
511.184	101.25
511.401	122.25
