Data from StandardFe(NO3)3.TAE.3%Agarose.FlatLispGreen.Lamp.Energy10.07252019_HRD10591_11-56-25-442.txt Node
Date: Thu Jul 25 11:56:25 EDT 2019
User: cochatt
Spectrometer: HR+D1059
Trigger mode: 1
Integration Time (sec): 1.000000E-1
Scans to average: 1
Electric dark correction enabled: true
Nonlinearity correction enabled: false
Boxcar width: 0
XAxis mode: Wavelengths
Number of Pixels in Spectrum: 2048
>>>>>Begin Spectral Data<<<<<
223.165	-11.25
223.4	-11.25
223.635	-11.25
223.869	-26.25
224.104	-14.25
224.338	0.75
224.573	-4.25
224.808	-15.25
225.042	-5.25
225.277	-7.25
225.511	1.75
225.746	-0.25
225.98	7.75
226.215	-5.25
226.449	16.75
226.683	5.75
226.918	23.75
227.152	32.75
227.387	42.75
227.621	21.75
227.856	27.75
228.09	37.75
228.324	39.75
228.559	58.75
228.793	57.75
229.027	60.75
229.262	72.75
229.496	70.75
229.73	62.75
229.964	59.75
230.199	67.75
230.433	71.75
230.667	64.75
230.901	61.75
231.136	61.75
231.37	75.75
231.604	76.75
231.838	73.75
232.072	72.75
232.306	78.75
232.541	66.75
232.775	76.75
233.009	87.75
233.243	83.75
233.477	72.75
233.711	82.75
233.945	74.75
234.179	75.75
234.413	69.75
234.647	81.75
234.881	78.75
235.115	67.75
235.349	75.75
235.583	63.75
235.817	70.75
236.051	79.75
236.285	72.75
236.519	79.75
236.753	72.75
236.987	82.75
237.221	74.75
237.455	66.75
237.689	70.75
237.922	67.75
238.156	68.75
238.39	72.75
238.624	60.75
238.858	71.75
239.091	59.75
239.325	75.75
239.559	67.75
239.793	74.75
240.027	84.75
240.26	76.75
240.494	79.75
240.728	77.75
240.961	77.75
241.195	66.75
241.429	82.75
241.662	78.75
241.896	77.75
242.13	78.75
242.363	81.75
242.597	60.75
242.83	69.75
243.064	55.75
243.298	75.75
243.531	84.75
243.765	68.75
243.998	62.75
244.232	61.75
244.465	60.75
244.699	63.75
244.932	77.75
245.166	72.75
245.399	79.75
245.633	78.75
245.866	77.75
246.099	62.75
246.333	78.75
246.566	79.75
246.8	67.75
247.033	68.75
247.266	76.75
247.5	83.75
247.733	77.75
247.966	66.75
248.2	68.75
248.433	69.75
248.666	77.75
248.899	74.75
249.133	77.75
249.366	68.75
249.599	78.75
249.832	77.75
250.066	88.75
250.299	76.75
250.532	75.75
250.765	69.75
250.998	61.75
251.231	67.75
251.465	69.75
251.698	73.75
251.931	64.75
252.164	78.75
252.397	74.75
252.63	81.75
252.863	82.75
253.096	83.75
253.329	79.75
253.562	79.75
253.795	72.75
254.028	80.75
254.261	61.75
254.494	78.75
254.727	75.75
254.96	86.75
255.193	69.75
255.426	66.75
255.659	63.75
255.892	87.75
256.124	65.75
256.357	64.75
256.59	59.75
256.823	79.75
257.056	71.75
257.289	52.75
257.521	66.75
257.754	65.75
257.987	91.75
258.22	71.75
258.452	77.75
258.685	76.75
258.918	75.75
259.151	96.75
259.383	85.75
259.616	83.75
259.849	70.75
260.081	91.75
260.314	62.75
260.547	70.75
260.779	78.75
261.012	74.75
261.244	74.75
261.477	81.75
261.71	75.75
261.942	79.75
262.175	83.75
262.407	69.75
262.64	72.75
262.872	69.75
263.105	81.75
263.337	75.75
263.57	71.75
263.802	87.75
264.035	79.75
264.267	84.75
264.499	71.75
264.732	81.75
264.964	81.75
265.197	75.75
265.429	100.75
265.661	78.75
265.894	71.75
266.126	88.75
266.358	80.75
266.591	81.75
266.823	67.75
267.055	81.75
267.287	95.75
267.52	70.75
267.752	77.75
267.984	66.75
268.216	93.75
268.448	97.75
268.681	69.75
268.913	87.75
269.145	84.75
269.377	67.75
269.609	76.75
269.841	90.75
270.073	72.75
270.306	77.75
270.538	93.75
270.77	78.75
271.002	83.75
271.234	69.75
271.466	79.75
271.698	93.75
271.93	75.75
272.162	62.75
272.394	90.75
272.626	88.75
272.858	69.75
273.09	75.75
273.322	72.75
273.553	66.75
273.785	74.75
274.017	65.75
274.249	84.75
274.481	80.75
274.713	75.75
274.945	81.75
275.176	86.75
275.408	73.75
275.64	72.75
275.872	77.75
276.104	84.75
276.335	79.75
276.567	76.75
276.799	83.75
277.031	86.75
277.262	93.75
277.494	71.75
277.726	66.75
277.957	86.75
278.189	86.75
278.421	83.75
278.652	98.75
278.884	68.75
279.115	76.75
279.347	77.75
279.579	82.75
279.81	77.75
280.042	88.75
280.273	78.75
280.505	69.75
280.736	77.75
280.968	85.75
281.199	75.75
281.431	66.75
281.662	80.75
281.894	68.75
282.125	69.75
282.356	75.75
282.588	61.75
282.819	81.75
283.051	87.75
283.282	68.75
283.513	77.75
283.745	81.75
283.976	67.75
284.207	75.75
284.439	84.75
284.67	82.75
284.901	64.75
285.132	80.75
285.364	85.75
285.595	68.75
285.826	64.75
286.057	77.75
286.288	77.75
286.52	91.75
286.751	83.75
286.982	75.75
287.213	75.75
287.444	75.75
287.675	82.75
287.906	84.75
288.138	93.75
288.369	85.75
288.6	75.75
288.831	85.75
289.062	73.75
289.293	77.75
289.524	94.75
289.755	71.75
289.986	72.75
290.217	85.75
290.448	91.75
290.679	90.75
290.91	88.75
291.141	89.75
291.371	82.75
291.602	74.75
291.833	83.75
292.064	88.75
292.295	76.75
292.526	75.75
292.757	82.75
292.987	81.75
293.218	72.75
293.449	70.75
293.68	75.75
293.91	91.75
294.141	79.75
294.372	94.75
294.603	78.75
294.833	83.75
295.064	75.75
295.295	77.75
295.525	77.75
295.756	63.75
295.987	69.75
296.217	80.75
296.448	91.75
296.679	74.75
296.909	79.75
297.14	87.75
297.37	88.75
297.601	77.75
297.831	92.75
298.062	61.75
298.292	81.75
298.523	93.75
298.753	80.75
298.984	87.75
299.214	78.75
299.445	82.75
299.675	84.75
299.905	92.75
300.136	69.75
300.366	82.75
300.597	90.75
300.827	76.75
301.057	89.75
301.288	79.75
301.518	83.75
301.748	92.75
301.979	82.75
302.209	75.75
302.439	80.75
302.669	94.75
302.9	75.75
303.13	68.75
303.36	84.75
303.59	67.75
303.82	77.75
304.051	72.75
304.281	71.75
304.511	83.75
304.741	78.75
304.971	84.75
305.201	77.75
305.431	94.75
305.661	88.75
305.891	77.75
306.121	84.75
306.352	76.75
306.582	90.75
306.812	77.75
307.042	83.75
307.272	89.75
307.502	68.75
307.731	72.75
307.961	70.75
308.191	75.75
308.421	64.75
308.651	76.75
308.881	69.75
309.111	90.75
309.341	78.75
309.571	78.75
309.8	88.75
310.03	81.75
310.26	83.75
310.49	61.75
310.72	81.75
310.949	74.75
311.179	69.75
311.409	80.75
311.639	83.75
311.868	78.75
312.098	80.75
312.328	75.75
312.557	84.75
312.787	86.75
313.017	86.75
313.246	80.75
313.476	81.75
313.706	87.75
313.935	92.75
314.165	84.75
314.394	64.75
314.624	63.75
314.853	98.75
315.083	84.75
315.312	87.75
315.542	63.75
315.771	96.75
316.001	79.75
316.23	71.75
316.46	75.75
316.689	84.75
316.919	88.75
317.148	94.75
317.377	86.75
317.607	98.75
317.836	92.75
318.065	86.75
318.295	78.75
318.524	64.75
318.753	71.75
318.983	78.75
319.212	71.75
319.441	80.75
319.67	76.75
319.9	81.75
320.129	80.75
320.358	71.75
320.587	72.75
320.816	72.75
321.046	83.75
321.275	67.75
321.504	84.75
321.733	85.75
321.962	64.75
322.191	81.75
322.42	75.75
322.649	90.75
322.878	64.75
323.108	91.75
323.337	87.75
323.566	86.75
323.795	87.75
324.024	83.75
324.253	77.75
324.482	74.75
324.71	85.75
324.939	78.75
325.168	72.75
325.397	80.75
325.626	79.75
325.855	89.75
326.084	72.75
326.313	77.75
326.542	76.75
326.77	79.75
326.999	77.75
327.228	86.75
327.457	77.75
327.686	81.75
327.914	72.75
328.143	87.75
328.372	80.75
328.6	71.75
328.829	82.75
329.058	87.75
329.287	89.75
329.515	97.75
329.744	75.75
329.972	88.75
330.201	80.75
330.43	78.75
330.658	88.75
330.887	81.75
331.115	79.75
331.344	85.75
331.572	92.75
331.801	85.75
332.03	83.75
332.258	75.75
332.486	54.75
332.715	74.75
332.943	90.75
333.172	83.75
333.4	72.75
333.629	78.75
333.857	74.75
334.085	81.75
334.314	95.75
334.542	90.75
334.771	68.75
334.999	76.75
335.227	59.75
335.455	87.75
335.684	85.75
335.912	81.75
336.14	90.75
336.369	88.75
336.597	92.75
336.825	92.75
337.053	81.75
337.281	81.75
337.51	86.75
337.738	69.75
337.966	84.75
338.194	71.75
338.422	83.75
338.65	63.75
338.878	73.75
339.106	84.75
339.334	83.75
339.562	74.75
339.79	86.75
340.018	74.75
340.246	86.75
340.474	79.75
340.702	71.75
340.93	72.75
341.158	78.75
341.386	79.75
341.614	84.75
341.842	83.75
342.07	99.75
342.298	89.75
342.526	82.75
342.754	66.75
342.981	87.75
343.209	70.75
343.437	78.75
343.665	67.75
343.893	78.75
344.12	78.75
344.348	78.75
344.576	75.75
344.804	86.75
345.031	71.75
345.259	89.75
345.487	85.75
345.714	84.75
345.942	87.75
346.17	88.75
346.397	83.75
346.625	74.75
346.853	68.75
347.08	79.75
347.308	95.75
347.535	84.75
347.763	78.75
347.99	83.75
348.218	96.75
348.445	71.75
348.673	77.75
348.9	88.75
349.128	65.75
349.355	80.75
349.583	84.75
349.81	70.75
350.037	86.75
350.265	78.75
350.492	73.75
350.72	91.75
350.947	87.75
351.174	82.75
351.402	85.75
351.629	76.75
351.856	88.75
352.083	70.75
352.311	87.75
352.538	66.75
352.765	74.75
352.992	65.75
353.22	76.75
353.447	99.75
353.674	78.75
353.901	82.75
354.128	69.75
354.355	74.75
354.583	63.75
354.81	83.75
355.037	79.75
355.264	82.75
355.491	68.75
355.718	83.75
355.945	87.75
356.172	86.75
356.399	75.75
356.626	74.75
356.853	82.75
357.08	72.75
357.307	78.75
357.534	78.75
357.761	75.75
357.988	85.75
358.215	81.75
358.441	75.75
358.668	74.75
358.895	83.75
359.122	86.75
359.349	77.75
359.576	78.75
359.802	66.75
360.029	91.75
360.256	87.75
360.483	88.75
360.709	77.75
360.936	88.75
361.163	93.75
361.39	88.75
361.616	87.75
361.843	95.75
362.07	102.75
362.296	70.75
362.523	85.75
362.749	85.75
362.976	81.75
363.203	84.75
363.429	76.75
363.656	82.75
363.882	82.75
364.109	82.75
364.335	85.75
364.562	69.75
364.788	78.75
365.015	87.75
365.241	83.75
365.468	86.75
365.694	94.75
365.92	84.75
366.147	75.75
366.373	76.75
366.599	77.75
366.826	67.75
367.052	73.75
367.278	78.75
367.505	88.75
367.731	75.75
367.957	81.75
368.184	75.75
368.41	93.75
368.636	92.75
368.862	79.75
369.089	81.75
369.315	75.75
369.541	95.75
369.767	72.75
369.993	78.75
370.219	85.75
370.445	72.75
370.672	63.75
370.898	91.75
371.124	77.75
371.35	78.75
371.576	80.75
371.802	88.75
372.028	72.75
372.254	93.75
372.48	80.75
372.706	87.75
372.932	82.75
373.158	79.75
373.384	89.75
373.61	74.75
373.835	90.75
374.061	88.75
374.287	98.75
374.513	90.75
374.739	69.75
374.965	75.75
375.191	89.75
375.416	78.75
375.642	86.75
375.868	83.75
376.094	84.75
376.319	84.75
376.545	84.75
376.771	89.75
376.997	72.75
377.222	74.75
377.448	90.75
377.674	83.75
377.899	84.75
378.125	93.75
378.35	91.75
378.576	82.75
378.802	87.75
379.027	78.75
379.253	87.75
379.478	69.75
379.704	77.75
379.929	100.75
380.155	85.75
380.38	76.75
380.606	94.75
380.831	89.75
381.057	83.75
381.282	82.75
381.507	87.75
381.733	85.75
381.958	79.75
382.184	84.75
382.409	100.75
382.634	91.75
382.86	102.75
383.085	77.75
383.31	87.75
383.535	91.75
383.761	85.75
383.986	95.75
384.211	94.75
384.436	92.75
384.662	83.75
384.887	83.75
385.112	75.75
385.337	85.75
385.562	86.75
385.787	77.75
386.013	89.75
386.238	81.75
386.463	80.75
386.688	79.75
386.913	85.75
387.138	93.75
387.363	75.75
387.588	93.75
387.813	98.75
388.038	101.75
388.263	79.75
388.488	78.75
388.713	94.75
388.938	82.75
389.163	101.75
389.387	90.75
389.612	91.75
389.837	83.75
390.062	92.75
390.287	100.75
390.512	85.75
390.736	109.75
390.961	91.75
391.186	83.75
391.411	94.75
391.636	95.75
391.86	86.75
392.085	83.75
392.31	83.75
392.534	91.75
392.759	95.75
392.984	93.75
393.208	99.75
393.433	99.75
393.658	87.75
393.882	94.75
394.107	93.75
394.331	97.75
394.556	106.75
394.78	93.75
395.005	101.75
395.229	97.75
395.454	102.75
395.678	86.75
395.903	88.75
396.127	86.75
396.352	92.75
396.576	80.75
396.801	93.75
397.025	87.75
397.249	111.75
397.474	98.75
397.698	86.75
397.922	102.75
398.147	103.75
398.371	95.75
398.595	107.75
398.82	96.75
399.044	90.75
399.268	96.75
399.492	104.75
399.717	112.75
399.941	100.75
400.165	98.75
400.389	94.75
400.613	110.75
400.837	98.75
401.062	104.75
401.286	120.75
401.51	106.75
401.734	91.75
401.958	86.75
402.182	97.75
402.406	99.75
402.63	106.75
402.854	111.75
403.078	99.75
403.302	95.75
403.526	99.75
403.75	104.75
403.974	107.75
404.198	112.75
404.422	99.75
404.645	89.75
404.869	103.75
405.093	97.75
405.317	103.75
405.541	99.75
405.765	98.75
405.988	107.75
406.212	111.75
406.436	107.75
406.66	102.75
406.883	111.75
407.107	102.75
407.331	95.75
407.555	111.75
407.778	109.75
408.002	106.75
408.226	119.75
408.449	114.75
408.673	113.75
408.896	112.75
409.12	95.75
409.344	94.75
409.567	104.75
409.791	109.75
410.014	110.75
410.238	98.75
410.461	114.75
410.685	112.75
410.908	99.75
411.132	91.75
411.355	117.75
411.578	106.75
411.802	97.75
412.025	94.75
412.249	97.75
412.472	104.75
412.695	94.75
412.919	108.75
413.142	108.75
413.365	99.75
413.589	108.75
413.812	99.75
414.035	106.75
414.258	114.75
414.482	103.75
414.705	109.75
414.928	108.75
415.151	107.75
415.374	100.75
415.597	121.75
415.821	102.75
416.044	104.75
416.267	106.75
416.49	106.75
416.713	100.75
416.936	95.75
417.159	105.75
417.382	104.75
417.605	118.75
417.828	92.75
418.051	94.75
418.274	132.75
418.497	112.75
418.72	96.75
418.943	120.75
419.166	118.75
419.389	115.75
419.611	104.75
419.834	103.75
420.057	103.75
420.28	115.75
420.503	100.75
420.726	102.75
420.948	103.75
421.171	98.75
421.394	95.75
421.617	98.75
421.839	109.75
422.062	107.75
422.285	99.75
422.507	114.75
422.73	101.75
422.953	113.75
423.175	102.75
423.398	92.75
423.621	103.75
423.843	113.75
424.066	118.75
424.288	118.75
424.511	110.75
424.733	114.75
424.956	111.75
425.178	106.75
425.401	106.75
425.623	98.75
425.846	130.75
426.068	108.75
426.291	113.75
426.513	109.75
426.735	96.75
426.958	98.75
427.18	101.75
427.402	93.75
427.625	108.75
427.847	111.75
428.069	102.75
428.292	107.75
428.514	98.75
428.736	111.75
428.958	113.75
429.181	109.75
429.403	115.75
429.625	111.75
429.847	100.75
430.069	102.75
430.292	103.75
430.514	107.75
430.736	108.75
430.958	104.75
431.18	118.75
431.402	93.75
431.624	106.75
431.846	110.75
432.068	105.75
432.29	114.75
432.512	102.75
432.734	96.75
432.956	95.75
433.178	106.75
433.4	122.75
433.622	122.75
433.844	105.75
434.066	109.75
434.287	96.75
434.509	111.75
434.731	108.75
434.953	103.75
435.175	110.75
435.397	118.75
435.618	106.75
435.84	116.75
436.062	121.75
436.284	109.75
436.505	125.75
436.727	97.75
436.949	111.75
437.17	112.75
437.392	102.75
437.614	112.75
437.835	81.75
438.057	76.75
438.278	88.75
438.5	96.75
438.721	102.75
438.943	107.75
439.165	110.75
439.386	97.75
439.608	118.75
439.829	127.75
440.05	122.75
440.272	95.75
440.493	97.75
440.715	116.75
440.936	110.75
441.158	111.75
441.379	95.75
441.6	112.75
441.822	110.75
442.043	117.75
442.264	117.75
442.486	116.75
442.707	117.75
442.928	112.75
443.149	111.75
443.371	114.75
443.592	109.75
443.813	119.75
444.034	117.75
444.255	111.75
444.476	110.75
444.698	103.75
444.919	112.75
445.14	237.75
445.361	177.75
445.582	129.75
445.803	101.75
446.024	112.75
446.245	108.75
446.466	102.75
446.687	119.75
446.908	130.75
447.129	126.75
447.35	109.75
447.571	112.75
447.792	101.75
448.013	118.75
448.234	109.75
448.455	112.75
448.675	115.75
448.896	102.75
449.117	106.75
449.338	115.75
449.559	98.75
449.779	101.75
450	106.75
450.221	103.75
450.442	103.75
450.662	108.75
450.883	102.75
451.104	98.75
451.324	91.75
451.545	106.75
451.766	102.75
451.986	81.75
452.207	116.75
452.428	126.75
452.648	101.75
452.869	103.75
453.089	103.75
453.31	99.75
453.53	91.75
453.751	108.75
453.971	110.75
454.192	96.75
454.412	100.75
454.633	103.75
454.853	96.75
455.073	106.75
455.294	103.75
455.514	93.75
455.734	110.75
455.955	97.75
456.175	101.75
456.395	109.75
456.616	92.75
456.836	108.75
457.056	104.75
457.276	95.75
457.497	99.75
457.717	100.75
457.937	95.75
458.157	94.75
458.377	96.75
458.598	117.75
458.818	112.75
459.038	96.75
459.258	98.75
459.478	104.75
459.698	107.75
459.918	108.75
460.138	106.75
460.358	125.75
460.578	105.75
460.798	115.75
461.018	114.75
461.238	110.75
461.458	113.75
461.678	113.75
461.898	111.75
462.118	85.75
462.338	110.75
462.558	106.75
462.777	107.75
462.997	115.75
463.217	123.75
463.437	121.75
463.657	117.75
463.876	117.75
464.096	105.75
464.316	118.75
464.536	139.75
464.755	119.75
464.975	111.75
465.195	109.75
465.414	122.75
465.634	98.75
465.854	113.75
466.073	110.75
466.293	125.75
466.512	108.75
466.732	108.75
466.951	119.75
467.171	116.75
467.391	110.75
467.61	118.75
467.829	119.75
468.049	102.75
468.268	108.75
468.488	114.75
468.707	115.75
468.927	123.75
469.146	115.75
469.365	126.75
469.585	114.75
469.804	116.75
470.023	121.75
470.243	107.75
470.462	116.75
470.681	117.75
470.901	121.75
471.12	125.75
471.339	117.75
471.558	102.75
471.777	128.75
471.997	126.75
472.216	109.75
472.435	99.75
472.654	110.75
472.873	89.75
473.092	96.75
473.311	107.75
473.53	107.75
473.749	112.75
473.968	122.75
474.187	111.75
474.406	120.75
474.625	110.75
474.844	119.75
475.063	122.75
475.282	118.75
475.501	109.75
475.72	115.75
475.939	118.75
476.158	108.75
476.377	111.75
476.596	104.75
476.814	106.75
477.033	110.75
477.252	129.75
477.471	112.75
477.69	114.75
477.908	99.75
478.127	126.75
478.346	108.75
478.564	121.75
478.783	127.75
479.002	122.75
479.22	123.75
479.439	110.75
479.658	120.75
479.876	124.75
480.095	118.75
480.313	124.75
480.532	134.75
480.751	116.75
480.969	116.75
481.188	117.75
481.406	117.75
481.624	103.75
481.843	110.75
482.061	108.75
482.28	105.75
482.498	111.75
482.717	117.75
482.935	111.75
483.153	109.75
483.372	123.75
483.59	118.75
483.808	112.75
484.027	129.75
484.245	116.75
484.463	120.75
484.681	135.75
484.9	142.75
485.118	128.75
485.336	124.75
485.554	108.75
485.772	99.75
485.99	116.75
486.209	115.75
486.427	102.75
486.645	116.75
486.863	131.75
487.081	130.75
487.299	111.75
487.517	116.75
487.735	122.75
487.953	141.75
488.171	143.75
488.389	136.75
488.607	135.75
488.825	134.75
489.043	109.75
489.261	118.75
489.479	125.75
489.696	131.75
489.914	127.75
490.132	126.75
490.35	137.75
490.568	133.75
490.786	133.75
491.003	148.75
491.221	124.75
491.439	142.75
491.657	145.75
491.874	158.75
492.092	162.75
492.31	159.75
492.527	164.75
492.745	150.75
492.963	141.75
493.18	127.75
493.398	134.75
493.615	150.75
493.833	144.75
494.05	131.75
494.268	137.75
494.485	142.75
494.703	150.75
494.92	143.75
495.138	135.75
495.355	138.75
495.573	144.75
495.79	150.75
496.008	151.75
496.225	136.75
496.442	131.75
496.66	153.75
496.877	136.75
497.094	131.75
497.312	148.75
497.529	145.75
497.746	140.75
497.963	140.75
498.181	131.75
498.398	131.75
498.615	135.75
498.832	128.75
499.049	158.75
499.267	163.75
499.484	155.75
499.701	177.75
499.918	168.75
500.135	196.75
500.352	200.75
500.569	204.75
500.786	203.75
501.003	199.75
501.22	190.75
501.437	186.75
501.654	159.75
501.871	151.75
502.088	154.75
502.305	151.75
502.522	160.75
502.739	143.75
502.956	126.75
503.172	150.75
503.389	136.75
503.606	122.75
503.823	125.75
504.04	139.75
504.256	135.75
504.473	133.75
504.69	133.75
504.907	126.75
505.123	120.75
505.34	141.75
505.557	136.75
505.773	126.75
505.99	122.75
506.207	118.75
506.423	123.75
506.64	110.75
506.856	118.75
507.073	119.75
507.289	124.75
507.506	120.75
507.722	114.75
507.939	116.75
508.155	115.75
508.372	123.75
508.588	122.75
508.805	132.75
509.021	131.75
509.238	113.75
509.454	116.75
509.67	102.75
509.887	101.75
510.103	118.75
510.319	95.75
510.536	108.75
510.752	106.75
510.968	104.75
511.184	122.75
511.401	110.75
511.617	102.75
511.833	104.75
512.049	99.75
512.265	106.75
512.481	120.75
512.698	103.75
512.914	106.75
