Data from StandardFe(NO3)3.TAE.3%Agarose.FlatLispGreen.Lamp.Energy10.07252019_HRD10591_11-55-05-441.txt Node
Date: Thu Jul 25 11:55:05 EDT 2019
User: cochatt
Spectrometer: HR+D1059
Trigger mode: 1
Integration Time (sec): 1.000000E-1
Scans to average: 1
Electric dark correction enabled: true
Nonlinearity correction enabled: false
Boxcar width: 0
XAxis mode: Wavelengths
Number of Pixels in Spectrum: 2048
>>>>>Begin Spectral Data<<<<<
223.165	-9.5
223.4	-9.5
223.635	-9.5
223.869	-26.5
224.104	-19.5
224.338	-21.5
224.573	-15.5
224.808	-24.5
225.042	-10.5
225.277	-2.5
225.511	-10.5
225.746	7.5
225.98	14.5
226.215	10.5
226.449	19.5
226.683	32.5
226.918	30.5
227.152	25.5
227.387	28.5
227.621	21.5
227.856	50.5
228.09	54.5
228.324	49.5
228.559	50.5
228.793	60.5
229.027	62.5
229.262	66.5
229.496	62.5
229.73	82.5
229.964	69.5
230.199	77.5
230.433	73.5
230.667	67.5
230.901	84.5
231.136	83.5
231.37	91.5
231.604	77.5
231.838	86.5
232.072	71.5
232.306	78.5
232.541	81.5
232.775	78.5
233.009	81.5
233.243	70.5
233.477	77.5
233.711	69.5
233.945	67.5
234.179	89.5
234.413	75.5
234.647	92.5
234.881	83.5
235.115	91.5
235.349	82.5
235.583	75.5
235.817	76.5
236.051	71.5
236.285	78.5
236.519	75.5
236.753	77.5
236.987	85.5
237.221	75.5
237.455	66.5
237.689	77.5
237.922	76.5
238.156	75.5
238.39	83.5
238.624	76.5
238.858	85.5
239.091	64.5
239.325	67.5
239.559	70.5
239.793	82.5
240.027	88.5
240.26	63.5
240.494	76.5
240.728	71.5
240.961	81.5
241.195	73.5
241.429	77.5
241.662	92.5
241.896	77.5
242.13	91.5
242.363	60.5
242.597	83.5
242.83	77.5
243.064	86.5
243.298	85.5
243.531	82.5
243.765	82.5
243.998	75.5
244.232	77.5
244.465	74.5
244.699	80.5
244.932	85.5
245.166	83.5
245.399	73.5
245.633	70.5
245.866	75.5
246.099	68.5
246.333	97.5
246.566	88.5
246.8	77.5
247.033	85.5
247.266	81.5
247.5	81.5
247.733	90.5
247.966	84.5
248.2	82.5
248.433	88.5
248.666	71.5
248.899	77.5
249.133	85.5
249.366	82.5
249.599	85.5
249.832	77.5
250.066	89.5
250.299	77.5
250.532	83.5
250.765	75.5
250.998	89.5
251.231	78.5
251.465	84.5
251.698	68.5
251.931	83.5
252.164	70.5
252.397	82.5
252.63	94.5
252.863	83.5
253.096	77.5
253.329	63.5
253.562	86.5
253.795	80.5
254.028	83.5
254.261	84.5
254.494	79.5
254.727	87.5
254.96	77.5
255.193	97.5
255.426	88.5
255.659	86.5
255.892	84.5
256.124	78.5
256.357	78.5
256.59	77.5
256.823	87.5
257.056	85.5
257.289	75.5
257.521	86.5
257.754	80.5
257.987	77.5
258.22	89.5
258.452	81.5
258.685	82.5
258.918	80.5
259.151	93.5
259.383	77.5
259.616	78.5
259.849	89.5
260.081	82.5
260.314	84.5
260.547	85.5
260.779	79.5
261.012	83.5
261.244	73.5
261.477	87.5
261.71	73.5
261.942	87.5
262.175	79.5
262.407	95.5
262.64	83.5
262.872	71.5
263.105	91.5
263.337	93.5
263.57	86.5
263.802	83.5
264.035	80.5
264.267	92.5
264.499	78.5
264.732	89.5
264.964	79.5
265.197	93.5
265.429	87.5
265.661	80.5
265.894	85.5
266.126	94.5
266.358	70.5
266.591	77.5
266.823	74.5
267.055	94.5
267.287	78.5
267.52	90.5
267.752	76.5
267.984	86.5
268.216	72.5
268.448	74.5
268.681	88.5
268.913	92.5
269.145	83.5
269.377	82.5
269.609	83.5
269.841	80.5
270.073	69.5
270.306	71.5
270.538	85.5
270.77	81.5
271.002	79.5
271.234	76.5
271.466	81.5
271.698	96.5
271.93	89.5
272.162	97.5
272.394	88.5
272.626	78.5
272.858	81.5
273.09	92.5
273.322	82.5
273.553	85.5
273.785	78.5
274.017	96.5
274.249	88.5
274.481	84.5
274.713	74.5
274.945	104.5
275.176	82.5
275.408	100.5
275.64	82.5
275.872	86.5
276.104	85.5
276.335	107.5
276.567	90.5
276.799	69.5
277.031	82.5
277.262	88.5
277.494	80.5
277.726	84.5
277.957	90.5
278.189	86.5
278.421	80.5
278.652	80.5
278.884	85.5
279.115	91.5
279.347	83.5
279.579	85.5
279.81	86.5
280.042	91.5
280.273	71.5
280.505	89.5
280.736	91.5
280.968	93.5
281.199	87.5
281.431	94.5
281.662	65.5
281.894	80.5
282.125	84.5
282.356	93.5
282.588	77.5
282.819	78.5
283.051	84.5
283.282	84.5
283.513	100.5
283.745	89.5
283.976	79.5
284.207	96.5
284.439	87.5
284.67	69.5
284.901	94.5
285.132	84.5
285.364	86.5
285.595	88.5
285.826	81.5
286.057	88.5
286.288	114.5
286.52	92.5
286.751	92.5
286.982	77.5
287.213	87.5
287.444	86.5
287.675	78.5
287.906	96.5
288.138	83.5
288.369	93.5
288.6	85.5
288.831	86.5
289.062	89.5
289.293	81.5
289.524	76.5
289.755	88.5
289.986	83.5
290.217	78.5
290.448	83.5
290.679	98.5
290.91	82.5
291.141	80.5
291.371	81.5
291.602	77.5
291.833	94.5
292.064	72.5
292.295	89.5
292.526	100.5
292.757	73.5
292.987	70.5
293.218	93.5
293.449	90.5
293.68	98.5
293.91	97.5
294.141	81.5
294.372	83.5
294.603	80.5
294.833	77.5
295.064	68.5
295.295	61.5
295.525	90.5
295.756	78.5
295.987	79.5
296.217	93.5
296.448	82.5
296.679	78.5
296.909	85.5
297.14	89.5
297.37	74.5
297.601	75.5
297.831	80.5
298.062	76.5
298.292	93.5
298.523	80.5
298.753	86.5
298.984	70.5
299.214	73.5
299.445	96.5
299.675	86.5
299.905	99.5
300.136	76.5
300.366	103.5
300.597	75.5
300.827	89.5
301.057	94.5
301.288	85.5
301.518	94.5
301.748	84.5
301.979	87.5
302.209	90.5
302.439	87.5
302.669	78.5
302.9	76.5
303.13	84.5
303.36	98.5
303.59	71.5
303.82	83.5
304.051	88.5
304.281	90.5
304.511	78.5
304.741	95.5
304.971	85.5
305.201	88.5
305.431	89.5
305.661	85.5
305.891	84.5
306.121	88.5
306.352	91.5
306.582	99.5
306.812	89.5
307.042	85.5
307.272	77.5
307.502	87.5
307.731	94.5
307.961	89.5
308.191	70.5
308.421	88.5
308.651	85.5
308.881	82.5
309.111	96.5
309.341	89.5
309.571	95.5
309.8	86.5
310.03	101.5
310.26	81.5
310.49	87.5
310.72	88.5
310.949	77.5
311.179	92.5
311.409	84.5
311.639	92.5
311.868	94.5
312.098	87.5
312.328	88.5
312.557	90.5
312.787	89.5
313.017	97.5
313.246	76.5
313.476	83.5
313.706	68.5
313.935	87.5
314.165	89.5
314.394	92.5
314.624	95.5
314.853	89.5
315.083	78.5
315.312	97.5
315.542	82.5
315.771	74.5
316.001	81.5
316.23	91.5
316.46	94.5
316.689	93.5
316.919	84.5
317.148	78.5
317.377	80.5
317.607	88.5
317.836	88.5
318.065	93.5
318.295	75.5
318.524	92.5
318.753	81.5
318.983	65.5
319.212	77.5
319.441	63.5
319.67	92.5
319.9	86.5
320.129	84.5
320.358	90.5
320.587	82.5
320.816	84.5
321.046	98.5
321.275	77.5
321.504	76.5
321.733	70.5
321.962	92.5
322.191	92.5
322.42	82.5
322.649	85.5
322.878	88.5
323.108	83.5
323.337	93.5
323.566	88.5
323.795	87.5
324.024	83.5
324.253	92.5
324.482	84.5
324.71	88.5
324.939	59.5
325.168	101.5
325.397	95.5
325.626	89.5
325.855	93.5
326.084	95.5
326.313	87.5
326.542	79.5
326.77	89.5
326.999	88.5
327.228	94.5
327.457	75.5
327.686	75.5
327.914	92.5
328.143	85.5
328.372	99.5
328.6	87.5
328.829	89.5
329.058	74.5
329.287	87.5
329.515	92.5
329.744	89.5
329.972	91.5
330.201	106.5
330.43	88.5
330.658	80.5
330.887	98.5
331.115	80.5
331.344	87.5
331.572	76.5
331.801	69.5
332.03	89.5
332.258	99.5
332.486	84.5
332.715	91.5
332.943	80.5
333.172	98.5
333.4	73.5
333.629	90.5
333.857	85.5
334.085	92.5
334.314	73.5
334.542	96.5
334.771	75.5
334.999	81.5
335.227	81.5
335.455	94.5
335.684	89.5
335.912	68.5
336.14	92.5
336.369	89.5
336.597	82.5
336.825	85.5
337.053	90.5
337.281	83.5
337.51	81.5
337.738	89.5
337.966	91.5
338.194	77.5
338.422	80.5
338.65	85.5
338.878	87.5
339.106	66.5
339.334	77.5
339.562	79.5
339.79	97.5
340.018	73.5
340.246	96.5
340.474	99.5
340.702	79.5
340.93	76.5
341.158	84.5
341.386	81.5
341.614	78.5
341.842	83.5
342.07	82.5
342.298	83.5
342.526	104.5
342.754	90.5
342.981	80.5
343.209	74.5
343.437	74.5
343.665	91.5
343.893	84.5
344.12	88.5
344.348	91.5
344.576	81.5
344.804	88.5
345.031	84.5
345.259	88.5
345.487	68.5
345.714	93.5
345.942	69.5
346.17	88.5
346.397	88.5
346.625	76.5
346.853	90.5
347.08	86.5
347.308	81.5
347.535	90.5
347.763	78.5
347.99	90.5
348.218	89.5
348.445	79.5
348.673	74.5
348.9	91.5
349.128	89.5
349.355	100.5
349.583	85.5
349.81	81.5
350.037	92.5
350.265	87.5
350.492	82.5
350.72	89.5
350.947	92.5
351.174	83.5
351.402	98.5
351.629	72.5
351.856	78.5
352.083	87.5
352.311	90.5
352.538	92.5
352.765	104.5
352.992	96.5
353.22	87.5
353.447	78.5
353.674	88.5
353.901	94.5
354.128	89.5
354.355	81.5
354.583	77.5
354.81	87.5
355.037	88.5
355.264	87.5
355.491	79.5
355.718	75.5
355.945	96.5
356.172	88.5
356.399	91.5
356.626	94.5
356.853	80.5
357.08	104.5
357.307	98.5
357.534	102.5
357.761	87.5
357.988	94.5
358.215	91.5
358.441	103.5
358.668	84.5
358.895	97.5
359.122	86.5
359.349	86.5
359.576	61.5
359.802	80.5
360.029	79.5
360.256	64.5
360.483	96.5
360.709	75.5
360.936	95.5
361.163	85.5
361.39	81.5
361.616	86.5
361.843	91.5
362.07	76.5
362.296	93.5
362.523	83.5
362.749	71.5
362.976	104.5
363.203	88.5
363.429	76.5
363.656	80.5
363.882	98.5
364.109	101.5
364.335	86.5
364.562	80.5
364.788	88.5
365.015	85.5
365.241	86.5
365.468	90.5
365.694	90.5
365.92	81.5
366.147	97.5
366.373	87.5
366.599	73.5
366.826	89.5
367.052	80.5
367.278	92.5
367.505	97.5
367.731	72.5
367.957	81.5
368.184	82.5
368.41	73.5
368.636	87.5
368.862	88.5
369.089	81.5
369.315	80.5
369.541	108.5
369.767	90.5
369.993	95.5
370.219	75.5
370.445	78.5
370.672	94.5
370.898	83.5
371.124	112.5
371.35	85.5
371.576	90.5
371.802	83.5
372.028	84.5
372.254	97.5
372.48	73.5
372.706	93.5
372.932	97.5
373.158	81.5
373.384	88.5
373.61	87.5
373.835	92.5
374.061	83.5
374.287	78.5
374.513	88.5
374.739	93.5
374.965	97.5
375.191	81.5
375.416	92.5
375.642	104.5
375.868	86.5
376.094	87.5
376.319	102.5
376.545	89.5
376.771	91.5
376.997	94.5
377.222	99.5
377.448	80.5
377.674	102.5
377.899	84.5
378.125	101.5
378.35	97.5
378.576	101.5
378.802	96.5
379.027	94.5
379.253	97.5
379.478	80.5
379.704	103.5
379.929	90.5
380.155	83.5
380.38	87.5
380.606	100.5
380.831	94.5
381.057	102.5
381.282	83.5
381.507	82.5
381.733	92.5
381.958	86.5
382.184	92.5
382.409	85.5
382.634	77.5
382.86	82.5
383.085	86.5
383.31	85.5
383.535	89.5
383.761	85.5
383.986	85.5
384.211	87.5
384.436	91.5
384.662	90.5
384.887	88.5
385.112	100.5
385.337	94.5
385.562	84.5
385.787	88.5
386.013	99.5
386.238	95.5
386.463	86.5
386.688	91.5
386.913	83.5
387.138	84.5
387.363	87.5
387.588	100.5
387.813	92.5
388.038	99.5
388.263	90.5
388.488	89.5
388.713	97.5
388.938	88.5
389.163	90.5
389.387	99.5
389.612	84.5
389.837	91.5
390.062	96.5
390.287	109.5
390.512	91.5
390.736	90.5
390.961	94.5
391.186	91.5
391.411	87.5
391.636	113.5
391.86	97.5
392.085	94.5
392.31	102.5
392.534	93.5
392.759	100.5
392.984	89.5
393.208	97.5
393.433	98.5
393.658	108.5
393.882	86.5
394.107	102.5
394.331	95.5
394.556	97.5
394.78	103.5
395.005	100.5
395.229	90.5
395.454	91.5
395.678	94.5
395.903	107.5
396.127	96.5
396.352	87.5
396.576	102.5
396.801	104.5
397.025	102.5
397.249	92.5
397.474	108.5
397.698	96.5
397.922	94.5
398.147	95.5
398.371	100.5
398.595	97.5
398.82	97.5
399.044	104.5
399.268	104.5
399.492	120.5
399.717	114.5
399.941	110.5
400.165	105.5
400.389	97.5
400.613	92.5
400.837	122.5
401.062	112.5
401.286	113.5
401.51	95.5
401.734	93.5
401.958	102.5
402.182	112.5
402.406	100.5
402.63	114.5
402.854	105.5
403.078	101.5
403.302	101.5
403.526	114.5
403.75	115.5
403.974	112.5
404.198	96.5
404.422	100.5
404.645	117.5
404.869	110.5
405.093	112.5
405.317	110.5
405.541	114.5
405.765	103.5
405.988	94.5
406.212	112.5
406.436	118.5
406.66	116.5
406.883	121.5
407.107	113.5
407.331	105.5
407.555	110.5
407.778	106.5
408.002	120.5
408.226	109.5
408.449	98.5
408.673	108.5
408.896	124.5
409.12	106.5
409.344	112.5
409.567	101.5
409.791	114.5
410.014	121.5
410.238	103.5
410.461	113.5
410.685	100.5
410.908	99.5
411.132	96.5
411.355	99.5
411.578	108.5
411.802	107.5
412.025	96.5
412.249	102.5
412.472	99.5
412.695	117.5
412.919	114.5
413.142	104.5
413.365	105.5
413.589	108.5
413.812	116.5
414.035	104.5
414.258	101.5
414.482	105.5
414.705	118.5
414.928	109.5
415.151	95.5
415.374	105.5
415.597	106.5
415.821	99.5
416.044	119.5
416.267	105.5
416.49	127.5
416.713	123.5
416.936	121.5
417.159	108.5
417.382	111.5
417.605	109.5
417.828	121.5
418.051	116.5
418.274	112.5
418.497	122.5
418.72	113.5
418.943	117.5
419.166	116.5
419.389	91.5
419.611	103.5
419.834	117.5
420.057	112.5
420.28	123.5
420.503	118.5
420.726	123.5
420.948	117.5
421.171	118.5
421.394	114.5
421.617	120.5
421.839	120.5
422.062	116.5
422.285	113.5
422.507	105.5
422.73	107.5
422.953	102.5
423.175	114.5
423.398	118.5
423.621	123.5
423.843	125.5
424.066	120.5
424.288	108.5
424.511	112.5
424.733	128.5
424.956	106.5
425.178	132.5
425.401	116.5
425.623	120.5
425.846	113.5
426.068	109.5
426.291	108.5
426.513	114.5
426.735	104.5
426.958	117.5
427.18	108.5
427.402	109.5
427.625	108.5
427.847	116.5
428.069	112.5
428.292	122.5
428.514	108.5
428.736	114.5
428.958	90.5
429.181	105.5
429.403	115.5
429.625	98.5
429.847	98.5
430.069	101.5
430.292	104.5
430.514	118.5
430.736	97.5
430.958	97.5
431.18	98.5
431.402	101.5
431.624	118.5
431.846	113.5
432.068	111.5
432.29	95.5
432.512	114.5
432.734	115.5
432.956	104.5
433.178	117.5
433.4	120.5
433.622	116.5
433.844	126.5
434.066	105.5
434.287	103.5
434.509	99.5
434.731	100.5
434.953	97.5
435.175	104.5
435.397	109.5
435.618	94.5
435.84	91.5
436.062	106.5
436.284	115.5
436.505	92.5
436.727	119.5
436.949	116.5
437.17	115.5
437.392	109.5
437.614	108.5
437.835	103.5
438.057	112.5
438.278	102.5
438.5	109.5
438.721	126.5
438.943	114.5
439.165	99.5
439.386	105.5
439.608	126.5
439.829	128.5
440.05	106.5
440.272	108.5
440.493	100.5
440.715	112.5
440.936	122.5
441.158	124.5
441.379	124.5
441.6	125.5
441.822	128.5
442.043	112.5
442.264	113.5
442.486	123.5
442.707	117.5
442.928	128.5
443.149	118.5
443.371	114.5
443.592	109.5
443.813	120.5
444.034	114.5
444.255	118.5
444.476	111.5
444.698	116.5
444.919	125.5
445.14	224.5
445.361	174.5
445.582	124.5
445.803	117.5
446.024	105.5
446.245	119.5
446.466	122.5
446.687	120.5
446.908	131.5
447.129	125.5
447.35	118.5
447.571	112.5
447.792	96.5
448.013	112.5
448.234	123.5
448.455	117.5
448.675	110.5
448.896	128.5
449.117	120.5
449.338	123.5
449.559	124.5
449.779	106.5
450	113.5
450.221	112.5
450.442	119.5
450.662	109.5
450.883	116.5
451.104	109.5
451.324	121.5
451.545	106.5
451.766	112.5
451.986	118.5
452.207	100.5
452.428	106.5
452.648	96.5
452.869	105.5
453.089	91.5
453.31	126.5
453.53	106.5
453.751	112.5
453.971	92.5
454.192	96.5
454.412	96.5
454.633	94.5
454.853	99.5
455.073	105.5
455.294	112.5
455.514	106.5
455.734	108.5
455.955	125.5
456.175	102.5
456.395	106.5
456.616	118.5
456.836	104.5
457.056	108.5
457.276	116.5
457.497	92.5
457.717	113.5
457.937	96.5
458.157	106.5
458.377	94.5
458.598	112.5
458.818	96.5
459.038	110.5
459.258	106.5
459.478	116.5
459.698	94.5
459.918	118.5
460.138	104.5
460.358	101.5
460.578	124.5
460.798	116.5
461.018	96.5
461.238	117.5
461.458	115.5
461.678	113.5
461.898	117.5
462.118	126.5
462.338	112.5
462.558	112.5
462.777	118.5
462.997	120.5
463.217	110.5
463.437	112.5
463.657	124.5
463.876	111.5
464.096	117.5
464.316	114.5
464.536	119.5
464.755	122.5
464.975	115.5
465.195	108.5
465.414	118.5
465.634	120.5
465.854	115.5
466.073	117.5
466.293	120.5
466.512	100.5
466.732	100.5
466.951	118.5
467.171	126.5
467.391	120.5
467.61	114.5
467.829	114.5
468.049	137.5
468.268	114.5
468.488	105.5
468.707	127.5
468.927	105.5
469.146	119.5
469.365	125.5
469.585	116.5
469.804	104.5
470.023	126.5
470.243	116.5
470.462	134.5
470.681	128.5
470.901	135.5
471.12	106.5
471.339	134.5
471.558	122.5
471.777	120.5
471.997	112.5
472.216	116.5
472.435	115.5
472.654	115.5
472.873	108.5
473.092	112.5
473.311	118.5
473.53	112.5
473.749	110.5
473.968	122.5
474.187	125.5
474.406	115.5
474.625	121.5
474.844	126.5
475.063	99.5
475.282	118.5
475.501	114.5
475.72	109.5
475.939	118.5
476.158	104.5
476.377	128.5
476.596	118.5
476.814	120.5
477.033	107.5
477.252	98.5
477.471	115.5
477.69	123.5
477.908	128.5
478.127	146.5
478.346	98.5
478.564	124.5
478.783	117.5
479.002	126.5
479.22	134.5
479.439	122.5
479.658	118.5
479.876	117.5
480.095	108.5
480.313	136.5
480.532	121.5
480.751	125.5
480.969	120.5
481.188	109.5
481.406	126.5
481.624	122.5
481.843	101.5
482.061	118.5
482.28	123.5
482.498	112.5
482.717	122.5
482.935	117.5
483.153	136.5
483.372	129.5
483.59	128.5
483.808	119.5
484.027	120.5
484.245	128.5
484.463	100.5
484.681	140.5
484.9	141.5
485.118	124.5
485.336	119.5
485.554	123.5
485.772	132.5
485.99	112.5
486.209	114.5
486.427	115.5
486.645	120.5
486.863	121.5
487.081	121.5
487.299	119.5
487.517	123.5
487.735	123.5
487.953	139.5
488.171	142.5
488.389	138.5
488.607	135.5
488.825	128.5
489.043	114.5
489.261	137.5
489.479	123.5
489.696	137.5
489.914	135.5
490.132	125.5
490.35	142.5
490.568	131.5
490.786	141.5
491.003	149.5
491.221	135.5
491.439	160.5
491.657	145.5
491.874	160.5
492.092	160.5
492.31	155.5
492.527	162.5
492.745	156.5
492.963	148.5
493.18	150.5
493.398	136.5
493.615	131.5
493.833	145.5
494.05	145.5
494.268	154.5
494.485	137.5
494.703	148.5
494.92	149.5
495.138	155.5
495.355	148.5
495.573	149.5
495.79	156.5
496.008	161.5
496.225	144.5
496.442	143.5
496.66	131.5
496.877	129.5
497.094	132.5
497.312	147.5
497.529	140.5
497.746	156.5
497.963	138.5
498.181	125.5
498.398	147.5
498.615	142.5
498.832	156.5
499.049	152.5
499.267	165.5
499.484	153.5
499.701	156.5
499.918	185.5
500.135	195.5
500.352	229.5
500.569	227.5
500.786	211.5
501.003	195.5
501.22	192.5
501.437	164.5
501.654	178.5
501.871	162.5
502.088	155.5
502.305	149.5
502.522	142.5
502.739	136.5
502.956	148.5
503.172	142.5
503.389	118.5
503.606	133.5
503.823	142.5
504.04	125.5
504.256	147.5
504.473	132.5
504.69	142.5
504.907	132.5
505.123	130.5
505.34	146.5
505.557	117.5
505.773	147.5
505.99	114.5
506.207	130.5
506.423	134.5
506.64	126.5
506.856	146.5
507.073	122.5
507.289	126.5
507.506	124.5
507.722	125.5
507.939	125.5
508.155	139.5
508.372	130.5
508.588	116.5
508.805	121.5
509.021	114.5
509.238	119.5
509.454	116.5
509.67	132.5
509.887	130.5
510.103	108.5
510.319	121.5
510.536	113.5
510.752	105.5
510.968	108.5
511.184	116.5
511.401	95.5
511.617	101.5
511.833	111.5
512.049	111.5
512.265	107.5
512.481	116.5
512.698	122.5
512.914	121.5
513.13	115.5
513.346	112.5
513.562	129.5
513.778	128.5
513.994	123.5
514.21	116.5
514.426	125.5
514.642	117.5
514.858	124.5
515.074	103.5
515.29	113.5
515.506	110.5
515.721	116.5
515.937	104.5
516.153	114.5
516.369	117.5
516.585	113.5
516.801	135.5
517.016	128.5
517.232	129.5
517.448	115.5
517.664	130.5
517.879	113.5
518.095	131.5
518.311	128.5
518.527	109.5
518.742	117.5
518.958	130.5
519.173	114.5
519.389	116.5
519.605	118.5
519.82	118.5
520.036	113.5
520.251	110.5
520.467	116.5
520.682	119.5
520.898	105.5
521.113	119.5
521.329	112.5
521.544	106.5
521.76	108.5
521.975	112.5
522.19	118.5
522.406	106.5
522.621	114.5
522.836	104.5
523.052	103.5
523.267	99.5
523.482	122.5
523.698	120.5
523.913	113.5
524.128	140.5
524.343	119.5
524.559	118.5
524.774	128.5
524.989	129.5
525.204	129.5
525.419	125.5
525.634	112.5
525.849	102.5
526.064	115.5
526.28	115.5
526.495	109.5
526.71	109.5
526.925	99.5
527.14	115.5
527.355	100.5
527.57	112.5
527.785	112.5
527.999	120.5
528.214	123.5
528.429	117.5
528.644	102.5
528.859	116.5
529.074	144.5
529.289	136.5
529.503	122.5
529.718	118.5
529.933	114.5
530.148	116.5
530.363	124.5
