Data from StandardFe(NO3)3.TAE.3%Agarose.FlatLispGreen.Lamp.Energy10.07252019_HRD10591_11-55-53-441.txt Node
Date: Thu Jul 25 11:55:53 EDT 2019
User: cochatt
Spectrometer: HR+D1059
Trigger mode: 1
Integration Time (sec): 1.000000E-1
Scans to average: 1
Electric dark correction enabled: true
Nonlinearity correction enabled: false
Boxcar width: 0
XAxis mode: Wavelengths
Number of Pixels in Spectrum: 2048
>>>>>Begin Spectral Data<<<<<
223.165	-4.56
223.4	-4.56
223.635	-4.56
223.869	-20.56
224.104	-28.56
224.338	-21.56
224.573	-7.56
224.808	-14.56
225.042	-0.56
225.277	-10.56
225.511	5.44
225.746	1.44
225.98	-5.56
226.215	16.44
226.449	25.44
226.683	6.44
226.918	25.44
227.152	33.44
227.387	33.44
227.621	43.44
227.856	41.44
228.09	54.44
228.324	44.44
228.559	61.44
228.793	45.44
229.027	78.44
229.262	70.44
229.496	70.44
229.73	57.44
229.964	49.44
230.199	93.44
230.433	77.44
230.667	80.44
230.901	70.44
231.136	86.44
231.37	79.44
231.604	88.44
231.838	91.44
232.072	82.44
232.306	70.44
232.541	84.44
232.775	88.44
233.009	77.44
233.243	90.44
233.477	88.44
233.711	79.44
233.945	73.44
234.179	76.44
234.413	83.44
234.647	83.44
234.881	89.44
235.115	78.44
235.349	93.44
235.583	77.44
235.817	86.44
236.051	80.44
236.285	59.44
236.519	84.44
236.753	91.44
236.987	76.44
237.221	101.44
237.455	82.44
237.689	97.44
237.922	72.44
238.156	76.44
238.39	71.44
238.624	73.44
238.858	72.44
239.091	79.44
239.325	83.44
239.559	77.44
239.793	87.44
240.027	90.44
240.26	73.44
240.494	77.44
240.728	79.44
240.961	72.44
241.195	79.44
241.429	90.44
241.662	77.44
241.896	73.44
242.13	80.44
242.363	77.44
242.597	91.44
242.83	74.44
243.064	59.44
243.298	90.44
243.531	73.44
243.765	68.44
243.998	81.44
244.232	64.44
244.465	81.44
244.699	82.44
244.932	77.44
245.166	77.44
245.399	84.44
245.633	85.44
245.866	92.44
246.099	67.44
246.333	78.44
246.566	72.44
246.8	77.44
247.033	59.44
247.266	78.44
247.5	77.44
247.733	89.44
247.966	86.44
248.2	80.44
248.433	84.44
248.666	78.44
248.899	85.44
249.133	83.44
249.366	73.44
249.599	80.44
249.832	72.44
250.066	79.44
250.299	83.44
250.532	75.44
250.765	83.44
250.998	64.44
251.231	76.44
251.465	82.44
251.698	73.44
251.931	71.44
252.164	80.44
252.397	77.44
252.63	94.44
252.863	79.44
253.096	81.44
253.329	71.44
253.562	67.44
253.795	72.44
254.028	81.44
254.261	76.44
254.494	78.44
254.727	77.44
254.96	90.44
255.193	86.44
255.426	82.44
255.659	89.44
255.892	99.44
256.124	80.44
256.357	92.44
256.59	88.44
256.823	78.44
257.056	90.44
257.289	79.44
257.521	92.44
257.754	81.44
257.987	93.44
258.22	76.44
258.452	70.44
258.685	76.44
258.918	72.44
259.151	74.44
259.383	96.44
259.616	94.44
259.849	78.44
260.081	74.44
260.314	89.44
260.547	77.44
260.779	77.44
261.012	68.44
261.244	94.44
261.477	88.44
261.71	82.44
261.942	92.44
262.175	77.44
262.407	80.44
262.64	84.44
262.872	78.44
263.105	90.44
263.337	77.44
263.57	85.44
263.802	86.44
264.035	103.44
264.267	98.44
264.499	84.44
264.732	84.44
264.964	85.44
265.197	83.44
265.429	95.44
265.661	81.44
265.894	77.44
266.126	82.44
266.358	84.44
266.591	84.44
266.823	93.44
267.055	83.44
267.287	82.44
267.52	98.44
267.752	76.44
267.984	87.44
268.216	70.44
268.448	95.44
268.681	74.44
268.913	90.44
269.145	97.44
269.377	72.44
269.609	75.44
269.841	79.44
270.073	98.44
270.306	90.44
270.538	83.44
270.77	96.44
271.002	83.44
271.234	86.44
271.466	79.44
271.698	88.44
271.93	82.44
272.162	78.44
272.394	94.44
272.626	85.44
272.858	84.44
273.09	89.44
273.322	82.44
273.553	86.44
273.785	82.44
274.017	76.44
274.249	83.44
274.481	92.44
274.713	84.44
274.945	92.44
275.176	81.44
275.408	78.44
275.64	89.44
275.872	88.44
276.104	93.44
276.335	76.44
276.567	70.44
276.799	98.44
277.031	83.44
277.262	76.44
277.494	87.44
277.726	77.44
277.957	87.44
278.189	82.44
278.421	84.44
278.652	89.44
278.884	90.44
279.115	94.44
279.347	88.44
279.579	69.44
279.81	85.44
280.042	80.44
280.273	84.44
280.505	84.44
280.736	83.44
280.968	86.44
281.199	78.44
281.431	95.44
281.662	76.44
281.894	92.44
282.125	82.44
282.356	96.44
282.588	85.44
282.819	81.44
283.051	93.44
283.282	85.44
283.513	89.44
283.745	78.44
283.976	88.44
284.207	75.44
284.439	102.44
284.67	97.44
284.901	85.44
285.132	92.44
285.364	82.44
285.595	90.44
285.826	82.44
286.057	74.44
286.288	83.44
286.52	76.44
286.751	83.44
286.982	84.44
287.213	80.44
287.444	85.44
287.675	78.44
287.906	102.44
288.138	81.44
288.369	81.44
288.6	67.44
288.831	78.44
289.062	87.44
289.293	80.44
289.524	103.44
289.755	86.44
289.986	70.44
290.217	85.44
290.448	88.44
290.679	71.44
290.91	85.44
291.141	85.44
291.371	87.44
291.602	90.44
291.833	81.44
292.064	76.44
292.295	81.44
292.526	87.44
292.757	77.44
292.987	89.44
293.218	80.44
293.449	93.44
293.68	87.44
293.91	104.44
294.141	82.44
294.372	83.44
294.603	89.44
294.833	74.44
295.064	87.44
295.295	83.44
295.525	82.44
295.756	80.44
295.987	83.44
296.217	92.44
296.448	90.44
296.679	97.44
296.909	83.44
297.14	93.44
297.37	100.44
297.601	90.44
297.831	96.44
298.062	91.44
298.292	89.44
298.523	85.44
298.753	70.44
298.984	90.44
299.214	70.44
299.445	97.44
299.675	94.44
299.905	93.44
300.136	79.44
300.366	78.44
300.597	81.44
300.827	89.44
301.057	87.44
301.288	100.44
301.518	91.44
301.748	86.44
301.979	88.44
302.209	80.44
302.439	68.44
302.669	84.44
302.9	100.44
303.13	83.44
303.36	94.44
303.59	73.44
303.82	78.44
304.051	76.44
304.281	82.44
304.511	81.44
304.741	92.44
304.971	83.44
305.201	92.44
305.431	87.44
305.661	77.44
305.891	80.44
306.121	103.44
306.352	85.44
306.582	92.44
306.812	93.44
307.042	91.44
307.272	81.44
307.502	86.44
307.731	77.44
307.961	101.44
308.191	87.44
308.421	90.44
308.651	76.44
308.881	80.44
309.111	85.44
309.341	78.44
309.571	75.44
309.8	92.44
310.03	93.44
310.26	90.44
310.49	83.44
310.72	76.44
310.949	78.44
311.179	78.44
311.409	85.44
311.639	92.44
311.868	85.44
312.098	89.44
312.328	79.44
312.557	78.44
312.787	83.44
313.017	91.44
313.246	106.44
313.476	89.44
313.706	73.44
313.935	85.44
314.165	97.44
314.394	89.44
314.624	92.44
314.853	96.44
315.083	89.44
315.312	74.44
315.542	83.44
315.771	92.44
316.001	97.44
316.23	95.44
316.46	98.44
316.689	91.44
316.919	81.44
317.148	75.44
317.377	77.44
317.607	100.44
317.836	92.44
318.065	87.44
318.295	99.44
318.524	79.44
318.753	74.44
318.983	88.44
319.212	93.44
319.441	91.44
319.67	93.44
319.9	86.44
320.129	83.44
320.358	90.44
320.587	78.44
320.816	95.44
321.046	97.44
321.275	90.44
321.504	87.44
321.733	99.44
321.962	90.44
322.191	93.44
322.42	78.44
322.649	83.44
322.878	84.44
323.108	78.44
323.337	90.44
323.566	102.44
323.795	93.44
324.024	91.44
324.253	93.44
324.482	90.44
324.71	72.44
324.939	77.44
325.168	87.44
325.397	100.44
325.626	101.44
325.855	95.44
326.084	89.44
326.313	83.44
326.542	95.44
326.77	75.44
326.999	78.44
327.228	81.44
327.457	85.44
327.686	96.44
327.914	94.44
328.143	94.44
328.372	79.44
328.6	90.44
328.829	97.44
329.058	84.44
329.287	80.44
329.515	86.44
329.744	77.44
329.972	77.44
330.201	88.44
330.43	80.44
330.658	78.44
330.887	91.44
331.115	77.44
331.344	94.44
331.572	79.44
331.801	91.44
332.03	94.44
332.258	99.44
332.486	97.44
332.715	91.44
332.943	87.44
333.172	77.44
333.4	97.44
333.629	93.44
333.857	88.44
334.085	92.44
334.314	85.44
334.542	88.44
334.771	90.44
334.999	80.44
335.227	85.44
335.455	91.44
335.684	88.44
335.912	88.44
336.14	80.44
336.369	80.44
336.597	87.44
336.825	93.44
337.053	84.44
337.281	82.44
337.51	86.44
337.738	84.44
337.966	84.44
338.194	78.44
338.422	83.44
338.65	89.44
338.878	72.44
339.106	81.44
339.334	101.44
339.562	79.44
339.79	90.44
340.018	97.44
340.246	92.44
340.474	69.44
340.702	82.44
340.93	79.44
341.158	88.44
341.386	82.44
341.614	89.44
341.842	72.44
342.07	83.44
342.298	76.44
342.526	83.44
342.754	89.44
342.981	90.44
343.209	73.44
343.437	83.44
343.665	87.44
343.893	90.44
344.12	81.44
344.348	80.44
344.576	80.44
344.804	93.44
345.031	79.44
345.259	88.44
345.487	91.44
345.714	83.44
345.942	92.44
346.17	86.44
346.397	77.44
346.625	80.44
346.853	86.44
347.08	86.44
347.308	88.44
347.535	72.44
347.763	93.44
347.99	82.44
348.218	96.44
348.445	84.44
348.673	94.44
348.9	99.44
349.128	89.44
349.355	83.44
349.583	77.44
349.81	79.44
350.037	81.44
350.265	93.44
350.492	92.44
350.72	91.44
350.947	91.44
351.174	84.44
351.402	85.44
351.629	65.44
351.856	71.44
352.083	92.44
352.311	70.44
352.538	75.44
352.765	86.44
352.992	82.44
353.22	86.44
353.447	91.44
353.674	97.44
353.901	87.44
354.128	87.44
354.355	94.44
354.583	79.44
354.81	87.44
355.037	83.44
355.264	82.44
355.491	94.44
355.718	95.44
355.945	87.44
356.172	82.44
356.399	80.44
356.626	84.44
356.853	89.44
357.08	79.44
357.307	75.44
357.534	85.44
357.761	81.44
357.988	75.44
358.215	84.44
358.441	76.44
358.668	81.44
358.895	90.44
359.122	80.44
359.349	81.44
359.576	83.44
359.802	90.44
360.029	89.44
360.256	82.44
360.483	86.44
360.709	86.44
360.936	93.44
361.163	84.44
361.39	76.44
361.616	89.44
361.843	90.44
362.07	87.44
362.296	75.44
362.523	90.44
362.749	85.44
362.976	94.44
363.203	96.44
363.429	87.44
363.656	97.44
363.882	101.44
364.109	108.44
364.335	82.44
364.562	96.44
364.788	73.44
365.015	91.44
365.241	89.44
365.468	70.44
365.694	82.44
365.92	89.44
366.147	96.44
366.373	82.44
366.599	84.44
366.826	92.44
367.052	87.44
367.278	98.44
367.505	94.44
367.731	99.44
367.957	78.44
368.184	85.44
368.41	92.44
368.636	82.44
368.862	97.44
369.089	73.44
369.315	85.44
369.541	93.44
369.767	84.44
369.993	80.44
370.219	92.44
370.445	85.44
370.672	80.44
370.898	79.44
371.124	91.44
371.35	86.44
371.576	93.44
371.802	83.44
372.028	79.44
372.254	92.44
372.48	99.44
372.706	87.44
372.932	91.44
373.158	90.44
373.384	93.44
373.61	96.44
373.835	84.44
374.061	87.44
374.287	86.44
374.513	79.44
374.739	83.44
374.965	89.44
375.191	81.44
375.416	90.44
375.642	86.44
375.868	92.44
376.094	99.44
376.319	86.44
376.545	76.44
376.771	86.44
376.997	77.44
377.222	83.44
377.448	87.44
377.674	102.44
377.899	91.44
378.125	87.44
378.35	89.44
378.576	70.44
378.802	96.44
379.027	84.44
379.253	102.44
379.478	97.44
379.704	92.44
379.929	87.44
380.155	86.44
380.38	86.44
380.606	110.44
380.831	101.44
381.057	107.44
381.282	84.44
381.507	82.44
381.733	95.44
381.958	85.44
382.184	97.44
382.409	101.44
382.634	86.44
382.86	83.44
383.085	87.44
383.31	89.44
383.535	102.44
383.761	89.44
383.986	93.44
384.211	87.44
384.436	87.44
384.662	98.44
384.887	86.44
385.112	98.44
385.337	103.44
385.562	103.44
385.787	93.44
386.013	102.44
386.238	96.44
386.463	94.44
386.688	83.44
386.913	108.44
387.138	107.44
387.363	110.44
387.588	97.44
387.813	101.44
388.038	88.44
388.263	87.44
388.488	106.44
388.713	93.44
388.938	79.44
389.163	98.44
389.387	96.44
389.612	98.44
389.837	98.44
390.062	91.44
390.287	90.44
390.512	98.44
390.736	95.44
390.961	91.44
391.186	103.44
391.411	96.44
391.636	102.44
391.86	99.44
392.085	99.44
392.31	99.44
392.534	110.44
392.759	91.44
392.984	85.44
393.208	94.44
393.433	91.44
393.658	110.44
393.882	91.44
394.107	98.44
394.331	96.44
394.556	113.44
394.78	87.44
395.005	109.44
395.229	95.44
395.454	103.44
395.678	103.44
395.903	99.44
396.127	96.44
396.352	86.44
396.576	91.44
396.801	82.44
397.025	82.44
397.249	89.44
397.474	110.44
397.698	99.44
397.922	102.44
398.147	83.44
398.371	101.44
398.595	102.44
398.82	109.44
399.044	122.44
399.268	105.44
399.492	101.44
399.717	105.44
399.941	106.44
400.165	98.44
400.389	119.44
400.613	95.44
400.837	98.44
401.062	103.44
401.286	99.44
401.51	100.44
401.734	107.44
401.958	117.44
402.182	110.44
402.406	109.44
402.63	93.44
402.854	102.44
403.078	89.44
403.302	97.44
403.526	92.44
403.75	94.44
403.974	98.44
404.198	108.44
404.422	95.44
404.645	108.44
404.869	119.44
405.093	98.44
405.317	96.44
405.541	104.44
405.765	104.44
405.988	115.44
406.212	101.44
406.436	116.44
406.66	103.44
406.883	109.44
407.107	100.44
407.331	117.44
407.555	113.44
407.778	98.44
408.002	116.44
408.226	107.44
408.449	97.44
408.673	117.44
408.896	123.44
409.12	121.44
409.344	107.44
409.567	109.44
409.791	117.44
410.014	97.44
410.238	117.44
410.461	121.44
410.685	109.44
410.908	114.44
411.132	119.44
411.355	114.44
411.578	109.44
411.802	107.44
412.025	119.44
412.249	122.44
412.472	105.44
412.695	97.44
412.919	109.44
413.142	107.44
413.365	107.44
413.589	126.44
413.812	107.44
414.035	121.44
414.258	111.44
414.482	114.44
414.705	97.44
414.928	115.44
415.151	85.44
415.374	113.44
415.597	107.44
415.821	86.44
416.044	107.44
416.267	109.44
416.49	105.44
416.713	108.44
416.936	115.44
417.159	111.44
417.382	102.44
417.605	105.44
417.828	123.44
418.051	102.44
418.274	117.44
418.497	121.44
418.72	120.44
418.943	110.44
419.166	113.44
419.389	124.44
419.611	124.44
419.834	113.44
420.057	124.44
420.28	107.44
420.503	110.44
420.726	96.44
420.948	107.44
421.171	108.44
421.394	102.44
421.617	105.44
421.839	105.44
422.062	117.44
422.285	115.44
422.507	113.44
422.73	113.44
422.953	116.44
423.175	122.44
423.398	109.44
423.621	108.44
423.843	117.44
424.066	126.44
424.288	116.44
424.511	117.44
424.733	108.44
424.956	122.44
425.178	123.44
425.401	119.44
425.623	120.44
425.846	113.44
426.068	100.44
426.291	119.44
426.513	101.44
426.735	125.44
426.958	116.44
427.18	122.44
427.402	106.44
427.625	141.44
427.847	106.44
428.069	123.44
428.292	108.44
428.514	112.44
428.736	108.44
428.958	104.44
429.181	121.44
429.403	122.44
429.625	111.44
429.847	121.44
430.069	120.44
430.292	99.44
430.514	113.44
430.736	123.44
430.958	104.44
431.18	116.44
431.402	113.44
431.624	123.44
431.846	92.44
432.068	118.44
432.29	99.44
432.512	113.44
432.734	88.44
432.956	118.44
433.178	111.44
433.4	113.44
433.622	122.44
433.844	94.44
434.066	116.44
434.287	101.44
434.509	109.44
434.731	104.44
434.953	100.44
435.175	106.44
435.397	122.44
435.618	113.44
435.84	121.44
436.062	120.44
436.284	107.44
436.505	120.44
436.727	97.44
436.949	117.44
437.17	107.44
437.392	111.44
437.614	107.44
437.835	118.44
438.057	95.44
438.278	110.44
438.5	125.44
438.721	101.44
438.943	119.44
439.165	105.44
439.386	106.44
439.608	107.44
439.829	125.44
440.05	105.44
440.272	121.44
440.493	127.44
440.715	114.44
440.936	118.44
441.158	116.44
441.379	110.44
441.6	117.44
441.822	125.44
442.043	115.44
442.264	121.44
442.486	121.44
442.707	121.44
442.928	114.44
443.149	113.44
443.371	109.44
443.592	120.44
443.813	107.44
444.034	118.44
444.255	108.44
444.476	120.44
444.698	125.44
444.919	120.44
445.14	253.44
445.361	179.44
445.582	137.44
445.803	119.44
446.024	113.44
446.245	119.44
446.466	118.44
446.687	123.44
446.908	122.44
447.129	125.44
447.35	110.44
447.571	117.44
447.792	117.44
448.013	111.44
448.234	105.44
448.455	106.44
448.675	118.44
448.896	106.44
449.117	114.44
449.338	129.44
449.559	125.44
449.779	119.44
450	122.44
450.221	99.44
450.442	117.44
450.662	121.44
450.883	120.44
451.104	126.44
451.324	114.44
451.545	101.44
451.766	115.44
451.986	110.44
452.207	113.44
452.428	114.44
452.648	96.44
452.869	101.44
453.089	110.44
453.31	99.44
453.53	91.44
453.751	98.44
453.971	96.44
454.192	108.44
454.412	109.44
454.633	107.44
454.853	121.44
455.073	113.44
455.294	107.44
455.514	103.44
455.734	111.44
455.955	98.44
456.175	109.44
456.395	105.44
456.616	110.44
456.836	105.44
457.056	100.44
457.276	97.44
457.497	107.44
457.717	116.44
457.937	97.44
458.157	95.44
458.377	100.44
458.598	97.44
458.818	93.44
459.038	99.44
459.258	103.44
459.478	113.44
459.698	117.44
459.918	123.44
460.138	113.44
460.358	106.44
460.578	110.44
460.798	109.44
461.018	113.44
461.238	121.44
461.458	124.44
461.678	122.44
461.898	114.44
462.118	117.44
462.338	121.44
462.558	129.44
462.777	121.44
462.997	118.44
463.217	125.44
463.437	107.44
463.657	123.44
463.876	115.44
464.096	136.44
464.316	110.44
464.536	125.44
464.755	108.44
464.975	127.44
465.195	115.44
465.414	110.44
465.634	115.44
465.854	110.44
466.073	103.44
466.293	121.44
466.512	92.44
466.732	108.44
466.951	122.44
467.171	132.44
467.391	121.44
467.61	117.44
467.829	148.44
468.049	115.44
468.268	124.44
468.488	109.44
468.707	125.44
468.927	118.44
469.146	117.44
469.365	130.44
469.585	109.44
469.804	120.44
470.023	117.44
470.243	114.44
470.462	113.44
470.681	119.44
470.901	110.44
471.12	137.44
471.339	127.44
471.558	131.44
471.777	130.44
471.997	126.44
472.216	115.44
472.435	109.44
472.654	106.44
472.873	96.44
473.092	108.44
473.311	114.44
473.53	111.44
473.749	123.44
473.968	112.44
474.187	111.44
474.406	127.44
474.625	114.44
474.844	117.44
475.063	109.44
475.282	106.44
475.501	113.44
475.72	116.44
475.939	100.44
476.158	120.44
476.377	131.44
476.596	114.44
476.814	104.44
477.033	105.44
477.252	114.44
477.471	122.44
477.69	130.44
477.908	128.44
478.127	134.44
478.346	118.44
478.564	134.44
478.783	127.44
479.002	123.44
479.22	126.44
479.439	120.44
479.658	127.44
479.876	107.44
480.095	125.44
480.313	132.44
480.532	126.44
480.751	121.44
480.969	115.44
481.188	105.44
481.406	125.44
481.624	106.44
481.843	115.44
482.061	102.44
482.28	129.44
482.498	115.44
482.717	111.44
482.935	130.44
483.153	117.44
483.372	129.44
483.59	129.44
483.808	115.44
484.027	127.44
484.245	142.44
484.463	131.44
484.681	135.44
484.9	123.44
485.118	148.44
485.336	119.44
485.554	125.44
485.772	115.44
485.99	121.44
486.209	109.44
486.427	125.44
486.645	130.44
486.863	146.44
487.081	133.44
487.299	122.44
487.517	133.44
487.735	134.44
487.953	141.44
488.171	161.44
488.389	154.44
488.607	113.44
488.825	122.44
489.043	127.44
489.261	135.44
489.479	123.44
489.696	135.44
489.914	129.44
490.132	128.44
490.35	137.44
490.568	149.44
490.786	144.44
491.003	136.44
491.221	145.44
491.439	141.44
491.657	149.44
491.874	153.44
492.092	166.44
492.31	169.44
492.527	155.44
492.745	154.44
492.963	152.44
493.18	129.44
493.398	139.44
493.615	137.44
493.833	147.44
494.05	156.44
494.268	150.44
494.485	156.44
494.703	139.44
494.92	157.44
495.138	139.44
495.355	149.44
495.573	157.44
495.79	150.44
496.008	144.44
496.225	139.44
496.442	133.44
496.66	139.44
496.877	129.44
497.094	142.44
497.312	149.44
497.529	158.44
497.746	143.44
497.963	151.44
498.181	141.44
498.398	141.44
498.615	137.44
498.832	158.44
499.049	140.44
499.267	151.44
499.484	147.44
499.701	174.44
499.918	172.44
500.135	198.44
500.352	199.44
500.569	220.44
500.786	225.44
501.003	208.44
501.22	199.44
501.437	175.44
501.654	157.44
501.871	165.44
502.088	159.44
502.305	137.44
502.522	156.44
502.739	156.44
502.956	138.44
503.172	131.44
503.389	135.44
503.606	133.44
503.823	142.44
504.04	145.44
504.256	151.44
504.473	124.44
504.69	127.44
504.907	130.44
505.123	122.44
505.34	120.44
505.557	122.44
505.773	134.44
505.99	123.44
506.207	126.44
506.423	129.44
506.64	125.44
506.856	123.44
507.073	137.44
507.289	129.44
507.506	121.44
507.722	117.44
507.939	136.44
508.155	128.44
508.372	116.44
508.588	112.44
508.805	134.44
509.021	120.44
509.238	121.44
509.454	104.44
509.67	113.44
509.887	135.44
510.103	119.44
510.319	110.44
510.536	133.44
510.752	105.44
510.968	115.44
511.184	94.44
511.401	104.44
511.617	100.44
511.833	126.44
