Data from StandardFe(NO3)3.TAE.3%Agarose.FlatLispGreen.Lamp.Energy10.07252019_HRD10591_11-55-04-440.txt Node
Date: Thu Jul 25 11:55:04 EDT 2019
User: cochatt
Spectrometer: HR+D1059
Trigger mode: 1
Integration Time (sec): 1.000000E-1
Scans to average: 1
Electric dark correction enabled: true
Nonlinearity correction enabled: false
Boxcar width: 0
XAxis mode: Wavelengths
Number of Pixels in Spectrum: 2048
>>>>>Begin Spectral Data<<<<<
223.165	-17.12
223.4	-17.12
223.635	-17.12
223.869	-16.12
224.104	-29.12
224.338	-13.12
224.573	-16.12
224.808	-5.12
225.042	-19.12
225.277	-17.12
225.511	3.88
225.746	12.88
225.98	2.88
226.215	13.88
226.449	9.88
226.683	23.88
226.918	29.88
227.152	35.88
227.387	21.88
227.621	34.88
227.856	38.88
228.09	38.88
228.324	64.88
228.559	61.88
228.793	50.88
229.027	53.88
229.262	57.88
229.496	62.88
229.73	74.88
229.964	61.88
230.199	75.88
230.433	72.88
230.667	87.88
230.901	84.88
231.136	80.88
231.37	84.88
231.604	78.88
231.838	80.88
232.072	66.88
232.306	80.88
232.541	83.88
232.775	87.88
233.009	72.88
233.243	77.88
233.477	82.88
233.711	89.88
233.945	67.88
234.179	71.88
234.413	76.88
234.647	81.88
234.881	80.88
235.115	65.88
235.349	83.88
235.583	85.88
235.817	83.88
236.051	85.88
236.285	74.88
236.519	63.88
236.753	86.88
236.987	70.88
237.221	78.88
237.455	74.88
237.689	65.88
237.922	83.88
238.156	65.88
238.39	86.88
238.624	59.88
238.858	67.88
239.091	73.88
239.325	76.88
239.559	75.88
239.793	81.88
240.027	70.88
240.26	81.88
240.494	78.88
240.728	71.88
240.961	78.88
241.195	76.88
241.429	75.88
241.662	82.88
241.896	83.88
242.13	81.88
242.363	69.88
242.597	88.88
242.83	72.88
243.064	70.88
243.298	74.88
243.531	74.88
243.765	88.88
243.998	69.88
244.232	76.88
244.465	75.88
244.699	87.88
244.932	84.88
245.166	87.88
245.399	88.88
245.633	83.88
245.866	75.88
246.099	54.88
246.333	75.88
246.566	68.88
246.8	78.88
247.033	72.88
247.266	74.88
247.5	64.88
247.733	69.88
247.966	82.88
248.2	71.88
248.433	82.88
248.666	69.88
248.899	76.88
249.133	69.88
249.366	85.88
249.599	75.88
249.832	81.88
250.066	62.88
250.299	79.88
250.532	81.88
250.765	85.88
250.998	69.88
251.231	76.88
251.465	81.88
251.698	68.88
251.931	69.88
252.164	80.88
252.397	72.88
252.63	80.88
252.863	64.88
253.096	70.88
253.329	68.88
253.562	66.88
253.795	69.88
254.028	83.88
254.261	81.88
254.494	74.88
254.727	83.88
254.96	79.88
255.193	72.88
255.426	70.88
255.659	90.88
255.892	80.88
256.124	75.88
256.357	75.88
256.59	77.88
256.823	78.88
257.056	74.88
257.289	79.88
257.521	79.88
257.754	79.88
257.987	78.88
258.22	67.88
258.452	86.88
258.685	90.88
258.918	76.88
259.151	73.88
259.383	90.88
259.616	70.88
259.849	95.88
260.081	89.88
260.314	80.88
260.547	81.88
260.779	88.88
261.012	81.88
261.244	78.88
261.477	80.88
261.71	88.88
261.942	73.88
262.175	87.88
262.407	92.88
262.64	74.88
262.872	82.88
263.105	80.88
263.337	78.88
263.57	70.88
263.802	81.88
264.035	93.88
264.267	87.88
264.499	80.88
264.732	71.88
264.964	73.88
265.197	74.88
265.429	79.88
265.661	89.88
265.894	79.88
266.126	82.88
266.358	73.88
266.591	88.88
266.823	87.88
267.055	73.88
267.287	82.88
267.52	79.88
267.752	80.88
267.984	76.88
268.216	67.88
268.448	68.88
268.681	79.88
268.913	75.88
269.145	84.88
269.377	81.88
269.609	77.88
269.841	79.88
270.073	55.88
270.306	66.88
270.538	81.88
270.77	72.88
271.002	70.88
271.234	75.88
271.466	74.88
271.698	81.88
271.93	72.88
272.162	82.88
272.394	93.88
272.626	85.88
272.858	85.88
273.09	76.88
273.322	79.88
273.553	85.88
273.785	77.88
274.017	77.88
274.249	74.88
274.481	66.88
274.713	81.88
274.945	81.88
275.176	86.88
275.408	78.88
275.64	81.88
275.872	85.88
276.104	88.88
276.335	91.88
276.567	68.88
276.799	86.88
277.031	98.88
277.262	84.88
277.494	87.88
277.726	74.88
277.957	69.88
278.189	81.88
278.421	78.88
278.652	73.88
278.884	75.88
279.115	86.88
279.347	83.88
279.579	94.88
279.81	87.88
280.042	74.88
280.273	76.88
280.505	83.88
280.736	74.88
280.968	69.88
281.199	75.88
281.431	82.88
281.662	64.88
281.894	73.88
282.125	86.88
282.356	74.88
282.588	81.88
282.819	77.88
283.051	79.88
283.282	79.88
283.513	82.88
283.745	79.88
283.976	88.88
284.207	88.88
284.439	79.88
284.67	79.88
284.901	82.88
285.132	93.88
285.364	80.88
285.595	79.88
285.826	85.88
286.057	89.88
286.288	82.88
286.52	79.88
286.751	88.88
286.982	71.88
287.213	83.88
287.444	86.88
287.675	59.88
287.906	85.88
288.138	85.88
288.369	90.88
288.6	86.88
288.831	72.88
289.062	88.88
289.293	88.88
289.524	78.88
289.755	95.88
289.986	85.88
290.217	98.88
290.448	93.88
290.679	87.88
290.91	81.88
291.141	83.88
291.371	82.88
291.602	98.88
291.833	83.88
292.064	85.88
292.295	90.88
292.526	81.88
292.757	78.88
292.987	68.88
293.218	78.88
293.449	84.88
293.68	91.88
293.91	78.88
294.141	83.88
294.372	72.88
294.603	87.88
294.833	70.88
295.064	85.88
295.295	86.88
295.525	88.88
295.756	83.88
295.987	89.88
296.217	86.88
296.448	84.88
296.679	89.88
296.909	74.88
297.14	85.88
297.37	54.88
297.601	77.88
297.831	82.88
298.062	96.88
298.292	69.88
298.523	85.88
298.753	80.88
298.984	77.88
299.214	78.88
299.445	84.88
299.675	83.88
299.905	81.88
300.136	74.88
300.366	88.88
300.597	75.88
300.827	90.88
301.057	81.88
301.288	85.88
301.518	74.88
301.748	77.88
301.979	74.88
302.209	95.88
302.439	84.88
302.669	91.88
302.9	79.88
303.13	86.88
303.36	73.88
303.59	83.88
303.82	79.88
304.051	70.88
304.281	95.88
304.511	80.88
304.741	92.88
304.971	84.88
305.201	91.88
305.431	80.88
305.661	87.88
305.891	97.88
306.121	69.88
306.352	93.88
306.582	80.88
306.812	75.88
307.042	81.88
307.272	85.88
307.502	75.88
307.731	82.88
307.961	84.88
308.191	79.88
308.421	104.88
308.651	77.88
308.881	96.88
309.111	80.88
309.341	83.88
309.571	85.88
309.8	96.88
310.03	85.88
310.26	104.88
310.49	86.88
310.72	94.88
310.949	79.88
311.179	83.88
311.409	84.88
311.639	79.88
311.868	90.88
312.098	87.88
312.328	76.88
312.557	94.88
312.787	86.88
313.017	81.88
313.246	73.88
313.476	69.88
313.706	75.88
313.935	78.88
314.165	85.88
314.394	78.88
314.624	83.88
314.853	89.88
315.083	65.88
315.312	81.88
315.542	78.88
315.771	97.88
316.001	80.88
316.23	103.88
316.46	72.88
316.689	75.88
316.919	72.88
317.148	94.88
317.377	98.88
317.607	98.88
317.836	78.88
318.065	86.88
318.295	83.88
318.524	77.88
318.753	83.88
318.983	79.88
319.212	65.88
319.441	79.88
319.67	78.88
319.9	84.88
320.129	83.88
320.358	92.88
320.587	81.88
320.816	76.88
321.046	79.88
321.275	89.88
321.504	85.88
321.733	74.88
321.962	85.88
322.191	86.88
322.42	79.88
322.649	78.88
322.878	86.88
323.108	75.88
323.337	72.88
323.566	81.88
323.795	83.88
324.024	84.88
324.253	95.88
324.482	74.88
324.71	86.88
324.939	70.88
325.168	63.88
325.397	81.88
325.626	83.88
325.855	74.88
326.084	74.88
326.313	89.88
326.542	107.88
326.77	84.88
326.999	75.88
327.228	85.88
327.457	70.88
327.686	89.88
327.914	94.88
328.143	89.88
328.372	93.88
328.6	78.88
328.829	65.88
329.058	87.88
329.287	77.88
329.515	89.88
329.744	90.88
329.972	75.88
330.201	89.88
330.43	94.88
330.658	83.88
330.887	81.88
331.115	78.88
331.344	74.88
331.572	96.88
331.801	82.88
332.03	75.88
332.258	86.88
332.486	85.88
332.715	88.88
332.943	94.88
333.172	66.88
333.4	75.88
333.629	97.88
333.857	76.88
334.085	75.88
334.314	82.88
334.542	99.88
334.771	79.88
334.999	88.88
335.227	83.88
335.455	66.88
335.684	82.88
335.912	81.88
336.14	72.88
336.369	89.88
336.597	84.88
336.825	88.88
337.053	84.88
337.281	98.88
337.51	84.88
337.738	87.88
337.966	79.88
338.194	89.88
338.422	74.88
338.65	81.88
338.878	74.88
339.106	88.88
339.334	89.88
339.562	84.88
339.79	89.88
340.018	76.88
340.246	79.88
340.474	80.88
340.702	89.88
340.93	85.88
341.158	87.88
341.386	69.88
341.614	88.88
341.842	81.88
342.07	93.88
342.298	88.88
342.526	85.88
342.754	89.88
342.981	87.88
343.209	74.88
343.437	83.88
343.665	88.88
343.893	78.88
344.12	70.88
344.348	79.88
344.576	72.88
344.804	83.88
345.031	74.88
345.259	73.88
345.487	90.88
345.714	74.88
345.942	74.88
346.17	85.88
346.397	84.88
346.625	83.88
346.853	85.88
347.08	89.88
347.308	80.88
347.535	83.88
347.763	88.88
347.99	93.88
348.218	95.88
348.445	88.88
348.673	76.88
348.9	89.88
349.128	73.88
349.355	93.88
349.583	86.88
349.81	72.88
350.037	66.88
350.265	67.88
350.492	84.88
350.72	86.88
350.947	80.88
351.174	78.88
351.402	82.88
351.629	74.88
351.856	85.88
352.083	77.88
352.311	97.88
352.538	85.88
352.765	83.88
352.992	85.88
353.22	87.88
353.447	77.88
353.674	94.88
353.901	93.88
354.128	89.88
354.355	90.88
354.583	78.88
354.81	94.88
355.037	104.88
355.264	85.88
355.491	74.88
355.718	63.88
355.945	79.88
356.172	85.88
356.399	87.88
356.626	87.88
356.853	85.88
357.08	76.88
357.307	87.88
357.534	91.88
357.761	90.88
357.988	100.88
358.215	81.88
358.441	85.88
358.668	79.88
358.895	86.88
359.122	81.88
359.349	88.88
359.576	81.88
359.802	79.88
360.029	93.88
360.256	75.88
360.483	78.88
360.709	82.88
360.936	94.88
361.163	75.88
361.39	83.88
361.616	73.88
361.843	88.88
362.07	85.88
362.296	82.88
362.523	95.88
362.749	84.88
362.976	72.88
363.203	70.88
363.429	75.88
363.656	88.88
363.882	89.88
364.109	79.88
364.335	85.88
364.562	91.88
364.788	83.88
365.015	82.88
365.241	83.88
365.468	81.88
365.694	82.88
365.92	76.88
366.147	79.88
366.373	79.88
366.599	88.88
366.826	91.88
367.052	86.88
367.278	84.88
367.505	79.88
367.731	73.88
367.957	73.88
368.184	98.88
368.41	83.88
368.636	92.88
368.862	91.88
369.089	91.88
369.315	86.88
369.541	85.88
369.767	77.88
369.993	82.88
370.219	75.88
370.445	78.88
370.672	94.88
370.898	105.88
371.124	82.88
371.35	94.88
371.576	84.88
371.802	94.88
372.028	83.88
372.254	73.88
372.48	81.88
372.706	87.88
372.932	94.88
373.158	84.88
373.384	95.88
373.61	102.88
373.835	89.88
374.061	93.88
374.287	100.88
374.513	84.88
374.739	105.88
374.965	93.88
375.191	76.88
375.416	93.88
375.642	99.88
375.868	97.88
376.094	81.88
376.319	82.88
376.545	91.88
376.771	97.88
376.997	83.88
377.222	92.88
377.448	91.88
377.674	76.88
377.899	91.88
378.125	95.88
378.35	93.88
378.576	89.88
378.802	88.88
379.027	98.88
379.253	107.88
379.478	94.88
379.704	96.88
379.929	94.88
380.155	82.88
380.38	94.88
380.606	86.88
380.831	93.88
381.057	101.88
381.282	86.88
381.507	83.88
381.733	92.88
381.958	82.88
382.184	88.88
382.409	83.88
382.634	95.88
382.86	83.88
383.085	91.88
383.31	103.88
383.535	89.88
383.761	96.88
383.986	94.88
384.211	109.88
384.436	89.88
384.662	101.88
384.887	87.88
385.112	97.88
385.337	93.88
385.562	72.88
385.787	90.88
386.013	106.88
386.238	88.88
386.463	97.88
386.688	89.88
386.913	83.88
387.138	101.88
387.363	86.88
387.588	99.88
387.813	99.88
388.038	89.88
388.263	101.88
388.488	92.88
388.713	93.88
388.938	79.88
389.163	103.88
389.387	88.88
389.612	92.88
389.837	94.88
390.062	100.88
390.287	92.88
390.512	90.88
390.736	104.88
390.961	98.88
391.186	93.88
391.411	120.88
391.636	95.88
391.86	85.88
392.085	87.88
392.31	79.88
392.534	100.88
392.759	91.88
392.984	106.88
393.208	95.88
393.433	98.88
393.658	86.88
393.882	99.88
394.107	100.88
394.331	87.88
394.556	92.88
394.78	83.88
395.005	93.88
395.229	101.88
395.454	74.88
395.678	112.88
395.903	93.88
396.127	96.88
396.352	93.88
396.576	91.88
396.801	105.88
397.025	100.88
397.249	94.88
397.474	104.88
397.698	104.88
397.922	96.88
398.147	90.88
398.371	107.88
398.595	119.88
398.82	107.88
399.044	113.88
399.268	115.88
399.492	116.88
399.717	98.88
399.941	113.88
400.165	106.88
400.389	113.88
400.613	110.88
400.837	114.88
401.062	102.88
401.286	100.88
401.51	91.88
401.734	91.88
401.958	97.88
402.182	94.88
402.406	114.88
402.63	105.88
402.854	111.88
403.078	111.88
403.302	124.88
403.526	101.88
403.75	99.88
403.974	116.88
404.198	101.88
404.422	116.88
404.645	105.88
404.869	112.88
405.093	103.88
405.317	94.88
405.541	106.88
405.765	102.88
405.988	101.88
406.212	98.88
406.436	102.88
406.66	120.88
406.883	112.88
407.107	95.88
407.331	111.88
407.555	110.88
407.778	104.88
408.002	113.88
408.226	122.88
408.449	114.88
408.673	111.88
408.896	121.88
409.12	99.88
409.344	109.88
409.567	113.88
409.791	113.88
410.014	105.88
410.238	105.88
410.461	105.88
410.685	113.88
410.908	105.88
411.132	98.88
411.355	118.88
411.578	100.88
411.802	109.88
412.025	103.88
412.249	109.88
412.472	103.88
412.695	103.88
412.919	117.88
413.142	110.88
413.365	98.88
413.589	120.88
413.812	93.88
414.035	96.88
414.258	113.88
414.482	119.88
414.705	106.88
414.928	107.88
415.151	94.88
415.374	106.88
415.597	103.88
415.821	113.88
416.044	114.88
416.267	120.88
416.49	109.88
416.713	109.88
416.936	105.88
417.159	95.88
417.382	100.88
417.605	99.88
417.828	107.88
418.051	109.88
418.274	113.88
418.497	106.88
418.72	105.88
418.943	91.88
419.166	112.88
419.389	119.88
419.611	112.88
419.834	116.88
420.057	112.88
420.28	105.88
420.503	121.88
420.726	113.88
420.948	118.88
421.171	107.88
421.394	113.88
421.617	119.88
421.839	113.88
422.062	110.88
422.285	100.88
422.507	112.88
422.73	103.88
422.953	113.88
423.175	115.88
423.398	97.88
423.621	117.88
423.843	137.88
424.066	91.88
424.288	129.88
424.511	109.88
424.733	105.88
424.956	111.88
425.178	114.88
425.401	122.88
425.623	101.88
425.846	121.88
426.068	112.88
426.291	118.88
426.513	115.88
426.735	113.88
426.958	107.88
427.18	105.88
427.402	94.88
427.625	117.88
427.847	103.88
428.069	107.88
428.292	117.88
428.514	97.88
428.736	101.88
428.958	103.88
429.181	102.88
429.403	120.88
429.625	120.88
429.847	107.88
430.069	101.88
430.292	106.88
430.514	121.88
430.736	90.88
430.958	95.88
431.18	100.88
431.402	102.88
431.624	106.88
431.846	116.88
432.068	101.88
432.29	102.88
432.512	102.88
432.734	94.88
432.956	119.88
433.178	106.88
433.4	97.88
433.622	114.88
433.844	118.88
434.066	117.88
434.287	115.88
434.509	118.88
434.731	102.88
434.953	101.88
435.175	115.88
435.397	114.88
435.618	101.88
435.84	113.88
436.062	110.88
436.284	110.88
436.505	113.88
436.727	113.88
436.949	111.88
437.17	122.88
437.392	107.88
437.614	101.88
437.835	93.88
438.057	96.88
438.278	127.88
438.5	117.88
438.721	114.88
438.943	106.88
439.165	116.88
439.386	115.88
439.608	122.88
439.829	130.88
440.05	106.88
440.272	107.88
440.493	115.88
440.715	115.88
440.936	127.88
441.158	123.88
441.379	125.88
441.6	124.88
441.822	114.88
442.043	115.88
442.264	113.88
442.486	113.88
442.707	104.88
442.928	113.88
443.149	104.88
443.371	124.88
443.592	120.88
443.813	123.88
444.034	116.88
444.255	114.88
444.476	115.88
444.698	126.88
444.919	106.88
445.14	226.88
445.361	164.88
445.582	124.88
445.803	112.88
446.024	127.88
446.245	123.88
446.466	124.88
446.687	113.88
446.908	121.88
447.129	122.88
447.35	113.88
447.571	115.88
447.792	120.88
448.013	120.88
448.234	118.88
448.455	109.88
448.675	119.88
448.896	107.88
449.117	111.88
449.338	118.88
449.559	113.88
449.779	116.88
450	111.88
450.221	111.88
450.442	105.88
450.662	113.88
450.883	105.88
451.104	118.88
451.324	103.88
451.545	107.88
451.766	110.88
451.986	105.88
452.207	110.88
452.428	110.88
452.648	108.88
452.869	102.88
453.089	103.88
453.31	95.88
453.53	102.88
453.751	92.88
453.971	102.88
454.192	112.88
454.412	95.88
454.633	87.88
454.853	119.88
455.073	96.88
455.294	102.88
455.514	106.88
455.734	102.88
455.955	101.88
456.175	112.88
456.395	105.88
456.616	90.88
456.836	108.88
457.056	98.88
457.276	99.88
457.497	94.88
457.717	97.88
457.937	105.88
458.157	101.88
458.377	97.88
458.598	111.88
458.818	101.88
459.038	107.88
459.258	109.88
459.478	98.88
459.698	102.88
459.918	107.88
460.138	98.88
460.358	96.88
460.578	109.88
460.798	114.88
461.018	121.88
461.238	116.88
461.458	114.88
461.678	122.88
461.898	119.88
462.118	118.88
462.338	123.88
462.558	103.88
462.777	116.88
462.997	116.88
463.217	121.88
463.437	121.88
463.657	110.88
463.876	117.88
464.096	113.88
464.316	122.88
464.536	115.88
464.755	119.88
464.975	113.88
465.195	113.88
465.414	105.88
465.634	117.88
465.854	123.88
466.073	115.88
466.293	134.88
466.512	118.88
466.732	104.88
466.951	115.88
467.171	88.88
467.391	111.88
467.61	117.88
467.829	120.88
468.049	114.88
468.268	104.88
468.488	107.88
468.707	111.88
468.927	126.88
469.146	111.88
469.365	115.88
469.585	118.88
469.804	109.88
470.023	117.88
470.243	117.88
470.462	105.88
470.681	127.88
470.901	124.88
471.12	122.88
471.339	103.88
471.558	105.88
471.777	118.88
471.997	113.88
472.216	113.88
472.435	109.88
472.654	98.88
472.873	98.88
473.092	97.88
473.311	109.88
473.53	104.88
473.749	113.88
473.968	113.88
474.187	115.88
474.406	109.88
474.625	112.88
474.844	144.88
475.063	118.88
475.282	100.88
475.501	120.88
475.72	104.88
475.939	100.88
476.158	118.88
476.377	119.88
476.596	105.88
476.814	117.88
477.033	103.88
477.252	113.88
477.471	112.88
477.69	132.88
477.908	117.88
478.127	125.88
478.346	127.88
478.564	111.88
478.783	123.88
479.002	127.88
479.22	125.88
479.439	127.88
479.658	117.88
479.876	115.88
480.095	103.88
480.313	125.88
480.532	121.88
480.751	125.88
480.969	106.88
481.188	117.88
481.406	104.88
481.624	114.88
481.843	117.88
482.061	121.88
482.28	119.88
482.498	126.88
482.717	125.88
482.935	97.88
483.153	123.88
483.372	135.88
483.59	121.88
483.808	131.88
484.027	124.88
484.245	118.88
484.463	131.88
484.681	129.88
484.9	128.88
485.118	119.88
485.336	113.88
485.554	125.88
485.772	114.88
485.99	100.88
486.209	125.88
486.427	118.88
486.645	121.88
486.863	119.88
487.081	124.88
487.299	117.88
487.517	121.88
487.735	132.88
487.953	151.88
488.171	157.88
488.389	138.88
488.607	132.88
488.825	120.88
489.043	123.88
489.261	122.88
489.479	103.88
489.696	132.88
489.914	137.88
490.132	125.88
490.35	131.88
490.568	142.88
490.786	151.88
491.003	161.88
491.221	143.88
491.439	135.88
491.657	137.88
491.874	156.88
492.092	164.88
492.31	178.88
492.527	151.88
492.745	167.88
492.963	133.88
493.18	143.88
493.398	133.88
493.615	153.88
493.833	145.88
494.05	136.88
494.268	158.88
494.485	127.88
494.703	143.88
494.92	145.88
495.138	140.88
495.355	157.88
495.573	165.88
495.79	150.88
496.008	135.88
496.225	143.88
496.442	146.88
496.66	149.88
496.877	167.88
497.094	143.88
497.312	144.88
497.529	134.88
497.746	134.88
497.963	138.88
498.181	151.88
498.398	139.88
498.615	129.88
498.832	151.88
499.049	162.88
499.267	156.88
499.484	146.88
499.701	162.88
499.918	190.88
500.135	199.88
500.352	223.88
500.569	200.88
500.786	187.88
501.003	208.88
501.22	177.88
501.437	176.88
501.654	169.88
501.871	150.88
502.088	153.88
502.305	150.88
502.522	153.88
502.739	146.88
502.956	154.88
503.172	141.88
503.389	135.88
503.606	138.88
503.823	132.88
504.04	134.88
504.256	122.88
504.473	131.88
504.69	133.88
504.907	128.88
505.123	130.88
505.34	132.88
505.557	128.88
505.773	127.88
505.99	125.88
506.207	126.88
506.423	110.88
506.64	134.88
506.856	133.88
507.073	119.88
507.289	114.88
507.506	133.88
507.722	124.88
507.939	115.88
508.155	128.88
508.372	121.88
508.588	111.88
508.805	112.88
509.021	120.88
509.238	111.88
509.454	107.88
509.67	115.88
509.887	122.88
510.103	130.88
510.319	116.88
510.536	104.88
510.752	100.88
510.968	115.88
511.184	110.88
511.401	114.88
511.617	106.88
511.833	87.88
512.049	124.88
