Data from StandardFe(NO3)3.TAE.3%Agarose.FlatLispGreen.Lamp.Energy10.07252019_HRD10591_11-53-25-439.txt Node
Date: Thu Jul 25 11:53:25 EDT 2019
User: cochatt
Spectrometer: HR+D1059
Trigger mode: 1
Integration Time (sec): 1.000000E-1
Scans to average: 1
Electric dark correction enabled: true
Nonlinearity correction enabled: false
Boxcar width: 0
XAxis mode: Wavelengths
Number of Pixels in Spectrum: 2048
>>>>>Begin Spectral Data<<<<<
223.165	-7
223.4	-7
223.635	-7
223.869	-15
224.104	-18
224.338	-28
224.573	-29
224.808	-14
225.042	11
225.277	2
225.511	-9
225.746	3
225.98	1
226.215	15
226.449	21
226.683	14
226.918	30
227.152	23
227.387	35
227.621	36
227.856	45
228.09	40
228.324	45
228.559	59
228.793	43
229.027	48
229.262	65
229.496	64
229.73	73
229.964	61
230.199	77
230.433	83
230.667	96
230.901	85
231.136	87
231.37	77
231.604	83
231.838	66
232.072	79
232.306	77
232.541	81
232.775	70
233.009	81
233.243	87
233.477	75
233.711	74
233.945	75
234.179	79
234.413	90
234.647	68
234.881	67
235.115	90
235.349	63
235.583	82
235.817	84
236.051	63
236.285	73
236.519	79
236.753	81
236.987	75
237.221	72
237.455	82
237.689	88
237.922	81
238.156	83
238.39	84
238.624	69
238.858	71
239.091	83
239.325	67
239.559	73
239.793	71
240.027	73
240.26	80
240.494	67
240.728	63
240.961	67
241.195	72
241.429	72
241.662	83
241.896	80
242.13	78
242.363	82
242.597	73
242.83	87
243.064	82
243.298	74
243.531	82
243.765	75
243.998	71
244.232	87
244.465	86
244.699	77
244.932	69
245.166	75
245.399	72
245.633	66
245.866	81
246.099	79
246.333	81
246.566	70
246.8	63
247.033	73
247.266	76
247.5	84
247.733	84
247.966	87
248.2	85
248.433	77
248.666	74
248.899	78
249.133	70
249.366	72
249.599	76
249.832	83
250.066	62
250.299	64
250.532	82
250.765	74
250.998	77
251.231	62
251.465	75
251.698	94
251.931	70
252.164	85
252.397	73
252.63	70
252.863	75
253.096	72
253.329	67
253.562	64
253.795	66
254.028	66
254.261	79
254.494	86
254.727	83
254.96	65
255.193	81
255.426	74
255.659	75
255.892	93
256.124	75
256.357	91
256.59	93
256.823	74
257.056	64
257.289	68
257.521	68
257.754	74
257.987	81
258.22	65
258.452	69
258.685	76
258.918	80
259.151	67
259.383	83
259.616	66
259.849	82
260.081	84
260.314	82
260.547	83
260.779	73
261.012	77
261.244	72
261.477	77
261.71	81
261.942	68
262.175	73
262.407	73
262.64	86
262.872	85
263.105	80
263.337	73
263.57	78
263.802	81
264.035	72
264.267	82
264.499	99
264.732	78
264.964	82
265.197	83
265.429	77
265.661	87
265.894	90
266.126	71
266.358	80
266.591	85
266.823	83
267.055	74
267.287	72
267.52	85
267.752	84
267.984	96
268.216	79
268.448	82
268.681	78
268.913	79
269.145	87
269.377	81
269.609	67
269.841	84
270.073	87
270.306	79
270.538	76
270.77	93
271.002	78
271.234	80
271.466	86
271.698	82
271.93	66
272.162	83
272.394	68
272.626	78
272.858	88
273.09	78
273.322	75
273.553	80
273.785	90
274.017	71
274.249	85
274.481	88
274.713	77
274.945	91
275.176	73
275.408	81
275.64	86
275.872	91
276.104	85
276.335	88
276.567	75
276.799	75
277.031	74
277.262	75
277.494	74
277.726	93
277.957	76
278.189	89
278.421	87
278.652	78
278.884	67
279.115	82
279.347	98
279.579	82
279.81	77
280.042	81
280.273	83
280.505	87
280.736	75
280.968	91
281.199	97
281.431	83
281.662	78
281.894	81
282.125	90
282.356	87
282.588	88
282.819	78
283.051	83
283.282	82
283.513	89
283.745	76
283.976	77
284.207	92
284.439	96
284.67	89
284.901	92
285.132	86
285.364	74
285.595	79
285.826	72
286.057	86
286.288	90
286.52	78
286.751	70
286.982	69
287.213	82
287.444	81
287.675	82
287.906	84
288.138	85
288.369	86
288.6	78
288.831	77
289.062	73
289.293	79
289.524	92
289.755	87
289.986	68
290.217	86
290.448	89
290.679	76
290.91	74
291.141	86
291.371	95
291.602	90
291.833	80
292.064	79
292.295	71
292.526	96
292.757	73
292.987	79
293.218	85
293.449	76
293.68	105
293.91	100
294.141	80
294.372	84
294.603	82
294.833	89
295.064	87
295.295	85
295.525	85
295.756	105
295.987	75
296.217	78
296.448	83
296.679	80
296.909	72
297.14	84
297.37	93
297.601	70
297.831	87
298.062	88
298.292	81
298.523	85
298.753	78
298.984	89
299.214	101
299.445	77
299.675	83
299.905	86
300.136	77
300.366	85
300.597	82
300.827	83
301.057	82
301.288	81
301.518	88
301.748	84
301.979	89
302.209	92
302.439	72
302.669	85
302.9	75
303.13	87
303.36	90
303.59	80
303.82	83
304.051	81
304.281	96
304.511	82
304.741	76
304.971	77
305.201	80
305.431	72
305.661	97
305.891	79
306.121	88
306.352	94
306.582	82
306.812	81
307.042	78
307.272	76
307.502	81
307.731	80
307.961	71
308.191	77
308.421	76
308.651	83
308.881	79
309.111	84
309.341	79
309.571	86
309.8	74
310.03	76
310.26	78
310.49	85
310.72	87
310.949	90
311.179	73
311.409	75
311.639	78
311.868	88
312.098	72
312.328	84
312.557	97
312.787	96
313.017	88
313.246	93
313.476	101
313.706	91
313.935	86
314.165	82
314.394	81
314.624	90
314.853	89
315.083	89
315.312	88
315.542	70
315.771	82
316.001	76
316.23	91
316.46	70
316.689	86
316.919	93
317.148	79
317.377	87
317.607	85
317.836	81
318.065	81
318.295	94
318.524	83
318.753	78
318.983	73
319.212	79
319.441	73
319.67	83
319.9	79
320.129	92
320.358	82
320.587	94
320.816	86
321.046	86
321.275	87
321.504	81
321.733	80
321.962	88
322.191	88
322.42	93
322.649	97
322.878	82
323.108	76
323.337	85
323.566	81
323.795	81
324.024	84
324.253	80
324.482	78
324.71	77
324.939	75
325.168	87
325.397	93
325.626	99
325.855	71
326.084	69
326.313	80
326.542	82
326.77	89
326.999	84
327.228	86
327.457	93
327.686	97
327.914	85
328.143	81
328.372	79
328.6	84
328.829	74
329.058	71
329.287	85
329.515	83
329.744	94
329.972	73
330.201	91
330.43	93
330.658	88
330.887	80
331.115	90
331.344	74
331.572	64
331.801	89
332.03	92
332.258	85
332.486	70
332.715	96
332.943	85
333.172	86
333.4	83
333.629	82
333.857	79
334.085	75
334.314	84
334.542	81
334.771	87
334.999	88
335.227	81
335.455	87
335.684	69
335.912	83
336.14	74
336.369	88
336.597	93
336.825	69
337.053	74
337.281	89
337.51	98
337.738	86
337.966	89
338.194	89
338.422	87
338.65	80
338.878	95
339.106	80
339.334	77
339.562	72
339.79	85
340.018	82
340.246	79
340.474	79
340.702	85
340.93	80
341.158	67
341.386	74
341.614	93
341.842	68
342.07	83
342.298	73
342.526	84
342.754	85
342.981	89
343.209	91
343.437	78
343.665	90
343.893	82
344.12	91
344.348	86
344.576	83
344.804	89
345.031	81
345.259	83
345.487	86
345.714	84
345.942	81
346.17	93
346.397	87
346.625	83
346.853	78
347.08	82
347.308	88
347.535	88
347.763	79
347.99	80
348.218	85
348.445	82
348.673	75
348.9	68
349.128	95
349.355	92
349.583	92
349.81	65
350.037	90
350.265	94
350.492	76
350.72	88
350.947	97
351.174	101
351.402	88
351.629	72
351.856	79
352.083	74
352.311	81
352.538	82
352.765	89
352.992	92
353.22	79
353.447	75
353.674	77
353.901	87
354.128	73
354.355	79
354.583	85
354.81	72
355.037	90
355.264	95
355.491	75
355.718	83
355.945	97
356.172	86
356.399	82
356.626	84
356.853	81
357.08	75
357.307	93
357.534	87
357.761	95
357.988	83
358.215	93
358.441	92
358.668	78
358.895	72
359.122	65
359.349	91
359.576	85
359.802	68
360.029	74
360.256	86
360.483	75
360.709	93
360.936	90
361.163	86
361.39	88
361.616	87
361.843	84
362.07	89
362.296	91
362.523	80
362.749	79
362.976	80
363.203	91
363.429	85
363.656	85
363.882	91
364.109	90
364.335	90
364.562	88
364.788	72
365.015	87
365.241	77
365.468	78
365.694	89
365.92	75
366.147	71
366.373	91
366.599	83
366.826	89
367.052	80
367.278	88
367.505	81
367.731	83
367.957	94
368.184	88
368.41	85
368.636	83
368.862	80
369.089	96
369.315	86
369.541	98
369.767	86
369.993	73
370.219	90
370.445	109
370.672	78
370.898	87
371.124	89
371.35	76
371.576	102
371.802	91
372.028	76
372.254	78
372.48	85
372.706	81
372.932	94
373.158	93
373.384	93
373.61	93
373.835	87
374.061	87
374.287	82
374.513	94
374.739	91
374.965	103
375.191	96
375.416	95
375.642	106
375.868	95
376.094	74
376.319	79
376.545	87
376.771	87
376.997	87
377.222	85
377.448	90
377.674	90
377.899	89
378.125	88
378.35	74
378.576	70
378.802	89
379.027	91
379.253	97
379.478	92
379.704	90
379.929	94
380.155	80
380.38	89
380.606	84
380.831	84
381.057	91
381.282	86
381.507	88
381.733	88
381.958	88
382.184	82
382.409	84
382.634	93
382.86	98
383.085	93
383.31	96
383.535	96
383.761	75
383.986	88
384.211	82
384.436	90
384.662	104
384.887	97
385.112	98
385.337	87
385.562	88
385.787	85
386.013	94
386.238	102
386.463	98
386.688	106
386.913	90
387.138	93
387.363	86
387.588	97
387.813	85
388.038	99
388.263	96
388.488	98
388.713	91
388.938	84
389.163	94
389.387	86
389.612	94
389.837	88
390.062	98
390.287	97
390.512	91
390.736	93
390.961	89
391.186	99
391.411	101
391.636	78
391.86	101
392.085	99
392.31	102
392.534	112
392.759	96
392.984	95
393.208	84
393.433	97
393.658	98
393.882	95
394.107	95
394.331	103
394.556	95
394.78	109
395.005	105
395.229	93
395.454	102
395.678	97
395.903	91
396.127	97
396.352	94
396.576	100
396.801	105
397.025	106
397.249	101
397.474	92
397.698	91
397.922	105
398.147	96
398.371	109
398.595	95
398.82	108
399.044	113
399.268	103
399.492	108
399.717	118
399.941	101
400.165	101
400.389	98
400.613	105
400.837	99
401.062	105
401.286	95
401.51	98
401.734	111
401.958	94
402.182	102
402.406	98
402.63	103
402.854	104
403.078	123
403.302	103
403.526	104
403.75	115
403.974	98
404.198	111
404.422	109
404.645	112
404.869	119
405.093	100
405.317	101
405.541	114
405.765	119
405.988	95
406.212	107
406.436	115
406.66	117
406.883	111
407.107	112
407.331	113
407.555	106
407.778	107
408.002	118
408.226	106
408.449	99
408.673	104
408.896	114
409.12	111
409.344	107
409.567	90
409.791	110
410.014	110
410.238	110
410.461	102
410.685	97
410.908	102
411.132	121
411.355	115
411.578	99
411.802	110
412.025	103
412.249	125
412.472	114
412.695	103
412.919	111
413.142	110
413.365	110
413.589	109
413.812	115
414.035	99
414.258	101
414.482	112
414.705	111
414.928	120
415.151	119
415.374	107
415.597	105
415.821	98
416.044	108
416.267	117
416.49	110
416.713	99
416.936	102
417.159	117
417.382	119
417.605	103
417.828	102
418.051	106
418.274	112
418.497	100
418.72	110
418.943	118
419.166	110
419.389	115
419.611	121
419.834	97
420.057	125
420.28	126
420.503	100
420.726	101
420.948	107
421.171	118
421.394	111
421.617	112
421.839	111
422.062	117
422.285	109
422.507	105
422.73	109
422.953	103
423.175	111
423.398	100
423.621	106
423.843	106
424.066	112
424.288	113
424.511	114
424.733	113
424.956	127
425.178	120
425.401	121
425.623	117
425.846	96
426.068	106
426.291	106
426.513	113
426.735	121
426.958	104
427.18	113
427.402	121
427.625	105
427.847	118
428.069	95
428.292	106
428.514	116
428.736	101
428.958	107
429.181	117
429.403	121
429.625	98
429.847	113
430.069	114
430.292	117
430.514	103
430.736	97
430.958	110
431.18	117
431.402	117
431.624	126
431.846	109
432.068	103
432.29	102
432.512	121
432.734	109
432.956	106
433.178	121
433.4	122
433.622	98
433.844	116
434.066	120
434.287	102
434.509	90
434.731	97
434.953	105
435.175	122
435.397	113
435.618	111
435.84	113
436.062	107
436.284	83
436.505	106
436.727	93
436.949	112
437.17	102
437.392	99
437.614	100
437.835	100
438.057	97
438.278	114
438.5	125
438.721	112
438.943	99
439.165	115
439.386	113
439.608	130
439.829	100
440.05	118
440.272	115
440.493	112
440.715	127
440.936	125
441.158	133
441.379	112
441.6	107
441.822	119
442.043	110
442.264	115
442.486	116
442.707	124
442.928	125
443.149	121
443.371	138
443.592	106
443.813	110
444.034	126
444.255	113
444.476	117
444.698	125
444.919	131
445.14	231
445.361	184
445.582	127
445.803	111
446.024	127
446.245	137
446.466	118
446.687	112
446.908	130
447.129	135
447.35	113
447.571	109
447.792	116
448.013	101
448.234	115
448.455	121
448.675	112
448.896	115
449.117	101
449.338	111
449.559	93
449.779	111
450	99
450.221	122
450.442	112
450.662	126
450.883	122
451.104	111
451.324	110
451.545	103
451.766	109
451.986	118
452.207	90
452.428	113
452.648	113
452.869	103
453.089	98
453.31	106
453.53	125
453.751	87
453.971	103
454.192	103
454.412	110
454.633	111
454.853	99
455.073	109
455.294	115
455.514	106
455.734	105
455.955	106
456.175	103
456.395	103
456.616	109
456.836	98
457.056	90
457.276	83
457.497	104
457.717	86
457.937	99
458.157	105
458.377	114
458.598	93
458.818	107
459.038	103
459.258	113
459.478	104
459.698	105
459.918	110
460.138	109
460.358	105
460.578	110
460.798	116
461.018	121
461.238	118
461.458	106
461.678	118
461.898	117
462.118	125
462.338	127
462.558	131
462.777	112
462.997	114
463.217	122
463.437	128
463.657	131
463.876	113
464.096	127
464.316	123
464.536	114
464.755	127
464.975	105
465.195	120
465.414	112
465.634	116
465.854	112
466.073	106
466.293	123
466.512	111
466.732	111
466.951	117
467.171	104
467.391	113
467.61	115
467.829	99
468.049	114
468.268	97
468.488	99
468.707	117
468.927	119
469.146	126
469.365	125
469.585	129
469.804	118
470.023	121
470.243	130
470.462	137
470.681	116
470.901	114
471.12	133
471.339	117
471.558	123
471.777	129
471.997	115
472.216	111
472.435	111
472.654	110
472.873	114
473.092	120
473.311	129
473.53	103
473.749	113
473.968	97
474.187	117
474.406	118
474.625	124
474.844	113
475.063	121
475.282	110
475.501	113
475.72	124
475.939	105
476.158	111
476.377	106
476.596	118
476.814	122
477.033	95
477.252	101
477.471	109
477.69	121
477.908	117
478.127	121
478.346	126
478.564	115
478.783	135
479.002	106
479.22	123
479.439	113
479.658	122
479.876	111
480.095	128
480.313	133
480.532	119
480.751	114
480.969	131
481.188	111
481.406	122
481.624	103
481.843	113
482.061	129
482.28	107
482.498	120
482.717	111
482.935	121
483.153	127
483.372	129
483.59	137
483.808	117
484.027	112
484.245	118
484.463	120
484.681	113
484.9	136
485.118	121
485.336	115
485.554	110
485.772	125
485.99	121
486.209	123
486.427	128
486.645	117
486.863	119
487.081	134
487.299	120
487.517	128
487.735	151
487.953	162
488.171	148
488.389	133
488.607	140
488.825	130
489.043	121
489.261	122
489.479	114
489.696	128
489.914	137
490.132	129
490.35	131
490.568	130
490.786	134
491.003	138
491.221	149
491.439	144
491.657	163
491.874	158
492.092	164
492.31	142
492.527	166
492.745	157
492.963	149
493.18	163
493.398	166
493.615	139
493.833	149
494.05	158
494.268	145
494.485	151
494.703	156
494.92	154
495.138	139
495.355	148
495.573	133
495.79	147
496.008	145
496.225	142
496.442	130
496.66	142
496.877	146
497.094	157
497.312	141
497.529	140
497.746	136
497.963	147
498.181	135
498.398	145
498.615	125
498.832	139
499.049	143
499.267	145
499.484	146
499.701	157
499.918	194
500.135	192
500.352	200
500.569	221
500.786	218
501.003	206
501.22	186
501.437	175
501.654	165
501.871	165
502.088	138
502.305	146
502.522	145
502.739	155
502.956	145
503.172	122
503.389	133
503.606	125
503.823	125
504.04	130
504.256	129
504.473	132
504.69	138
504.907	124
505.123	139
505.34	137
505.557	133
505.773	113
505.99	120
506.207	127
506.423	121
506.64	122
506.856	117
507.073	125
507.289	118
507.506	125
507.722	133
507.939	124
508.155	120
508.372	121
508.588	125
508.805	116
509.021	110
509.238	117
509.454	102
509.67	115
509.887	96
510.103	103
510.319	107
510.536	116
510.752	109
510.968	119
511.184	110
511.401	109
511.617	99
511.833	85
512.049	111
512.265	120
512.481	122
512.698	112
512.914	105
513.13	94
513.346	116
513.562	102
513.778	115
513.994	109
514.21	114
514.426	107
514.642	117
514.858	109
515.074	95
515.29	127
515.506	115
515.721	106
515.937	118
516.153	104
516.369	103
516.585	122
516.801	116
517.016	120
517.232	104
517.448	124
517.664	134
517.879	137
518.095	133
518.311	123
518.527	119
518.742	111
518.958	120
519.173	125
519.389	132
519.605	116
519.82	113
520.036	110
520.251	111
520.467	117
520.682	120
520.898	106
521.113	115
521.329	106
521.544	99
521.76	115
521.975	113
522.19	113
522.406	115
522.621	126
522.836	113
523.052	121
523.267	116
523.482	113
523.698	115
523.913	120
524.128	113
524.343	123
524.559	116
524.774	115
524.989	106
525.204	128
525.419	126
525.634	103
525.849	109
526.064	113
526.28	123
526.495	119
526.71	111
526.925	110
527.14	109
527.355	105
527.57	115
527.785	100
527.999	113
528.214	117
528.429	109
528.644	117
528.859	119
529.074	126
529.289	116
529.503	130
529.718	129
529.933	113
530.148	112
530.363	118
530.577	102
530.792	93
531.007	96
531.221	110
531.436	96
531.651	104
531.865	110
532.08	117
532.295	106
532.509	117
532.724	111
532.938	97
533.153	117
533.367	115
533.582	120
533.796	113
534.011	108
534.225	99
534.44	103
534.654	104
534.868	114
535.083	107
535.297	104
535.511	112
535.726	111
535.94	98
536.154	105
536.369	99
536.583	107
536.797	102
537.011	98
537.225	100
537.44	116
537.654	95
537.868	93
538.082	109
538.296	111
538.51	110
538.724	106
538.938	123
539.153	125
539.367	118
539.581	113
539.795	114
540.009	110
540.222	104
540.436	109
540.65	115
540.864	103
541.078	122
541.292	125
541.506	121
541.72	130
541.934	139
542.147	157
542.361	137
542.575	143
542.789	118
543.002	113
543.216	116
543.43	113
543.644	116
543.857	122
544.071	122
544.285	135
544.498	115
544.712	127
544.925	131
545.139	145
545.352	119
545.566	130
545.779	121
545.993	130
546.206	132
546.42	127
546.633	138
546.847	142
547.06	150
547.274	122
547.487	147
547.7	127
547.914	139
548.127	135
548.34	125
548.554	127
548.767	146
548.98	138
549.193	115
549.407	122
549.62	127
549.833	129
550.046	131
550.259	138
550.473	129
550.686	125
550.899	132
551.112	121
551.325	110
551.538	123
551.751	123
551.964	116
552.177	123
552.39	122
552.603	129
552.816	131
553.029	115
553.242	130
553.455	123
553.667	140
553.88	125
554.093	119
554.306	123
554.519	119
554.732	140
554.944	123
555.157	121
555.37	116
555.583	117
555.795	110
556.008	107
556.221	117
556.433	118
556.646	116
556.859	108
557.071	120
557.284	101
557.496	121
557.709	117
557.921	126
558.134	120
558.346	110
558.559	113
558.771	109
558.984	117
559.196	117
559.409	105
559.621	120
559.833	108
560.046	117
560.258	106
560.47	120
560.683	114
560.895	113
561.107	125
561.32	108
561.532	114
561.744	119
561.956	114
562.168	120
562.381	106
562.593	93
562.805	99
563.017	120
563.229	104
563.441	106
563.653	101
563.865	110
564.077	121
564.289	117
564.501	120
564.713	115
564.925	94
565.137	106
565.349	110
565.561	127
565.773	117
565.985	103
566.197	112
566.408	110
566.62	129
566.832	114
567.044	132
567.255	130
567.467	145
567.679	130
567.891	128
568.102	117
568.314	121
568.526	103
568.737	109
568.949	97
569.161	93
569.372	107
569.584	98
569.795	106
570.007	97
570.218	98
570.43	98
570.641	91
570.853	109
571.064	96
571.276	87
571.487	87
571.698	83
571.91	93
572.121	83
572.333	97
572.544	93
572.755	98
572.966	86
573.178	109
573.389	94
573.6	101
573.811	96
574.023	92
574.234	89
574.445	104
574.656	83
574.867	87
575.078	87
575.289	86
575.501	86
575.712	91
575.923	91
576.134	100
576.345	91
576.556	88
576.767	82
