Data from StandardFe(NO3)3.TAE.3%Agarose.FlatLispGreen.Lamp.Energy10.07252019_HRD10591_11-55-38-441.txt Node
Date: Thu Jul 25 11:55:38 EDT 2019
User: cochatt
Spectrometer: HR+D1059
Trigger mode: 1
Integration Time (sec): 1.000000E-1
Scans to average: 1
Electric dark correction enabled: true
Nonlinearity correction enabled: false
Boxcar width: 0
XAxis mode: Wavelengths
Number of Pixels in Spectrum: 2048
>>>>>Begin Spectral Data<<<<<
223.165	-10.12
223.4	-10.12
223.635	-10.12
223.869	-14.12
224.104	-21.12
224.338	-15.12
224.573	-6.12
224.808	-16.12
225.042	-11.12
225.277	3.88
225.511	-0.12
225.746	5.88
225.98	1.88
226.215	-0.12
226.449	21.88
226.683	12.88
226.918	23.88
227.152	23.88
227.387	24.88
227.621	37.88
227.856	36.88
228.09	33.88
228.324	50.88
228.559	35.88
228.793	45.88
229.027	52.88
229.262	59.88
229.496	70.88
229.73	62.88
229.964	69.88
230.199	71.88
230.433	64.88
230.667	68.88
230.901	78.88
231.136	81.88
231.37	88.88
231.604	81.88
231.838	78.88
232.072	60.88
232.306	77.88
232.541	78.88
232.775	76.88
233.009	47.88
233.243	72.88
233.477	87.88
233.711	80.88
233.945	80.88
234.179	71.88
234.413	81.88
234.647	80.88
234.881	82.88
235.115	79.88
235.349	64.88
235.583	78.88
235.817	76.88
236.051	79.88
236.285	78.88
236.519	67.88
236.753	65.88
236.987	84.88
237.221	84.88
237.455	86.88
237.689	71.88
237.922	64.88
238.156	78.88
238.39	61.88
238.624	77.88
238.858	79.88
239.091	71.88
239.325	69.88
239.559	60.88
239.793	87.88
240.027	64.88
240.26	73.88
240.494	61.88
240.728	72.88
240.961	61.88
241.195	79.88
241.429	76.88
241.662	72.88
241.896	69.88
242.13	66.88
242.363	71.88
242.597	77.88
242.83	75.88
243.064	78.88
243.298	77.88
243.531	73.88
243.765	66.88
243.998	77.88
244.232	79.88
244.465	73.88
244.699	84.88
244.932	70.88
245.166	77.88
245.399	64.88
245.633	75.88
245.866	74.88
246.099	85.88
246.333	85.88
246.566	73.88
246.8	65.88
247.033	79.88
247.266	64.88
247.5	89.88
247.733	69.88
247.966	75.88
248.2	78.88
248.433	83.88
248.666	65.88
248.899	81.88
249.133	79.88
249.366	76.88
249.599	80.88
249.832	77.88
250.066	75.88
250.299	75.88
250.532	71.88
250.765	61.88
250.998	75.88
251.231	90.88
251.465	83.88
251.698	59.88
251.931	64.88
252.164	64.88
252.397	80.88
252.63	73.88
252.863	66.88
253.096	75.88
253.329	65.88
253.562	70.88
253.795	72.88
254.028	72.88
254.261	74.88
254.494	63.88
254.727	87.88
254.96	73.88
255.193	97.88
255.426	60.88
255.659	71.88
255.892	73.88
256.124	64.88
256.357	76.88
256.59	71.88
256.823	60.88
257.056	75.88
257.289	82.88
257.521	73.88
257.754	80.88
257.987	70.88
258.22	81.88
258.452	81.88
258.685	71.88
258.918	79.88
259.151	58.88
259.383	78.88
259.616	67.88
259.849	59.88
260.081	79.88
260.314	61.88
260.547	67.88
260.779	59.88
261.012	87.88
261.244	74.88
261.477	80.88
261.71	80.88
261.942	67.88
262.175	68.88
262.407	73.88
262.64	84.88
262.872	80.88
263.105	83.88
263.337	88.88
263.57	83.88
263.802	75.88
264.035	66.88
264.267	63.88
264.499	76.88
264.732	88.88
264.964	80.88
265.197	78.88
265.429	78.88
265.661	86.88
265.894	79.88
266.126	88.88
266.358	90.88
266.591	71.88
266.823	71.88
267.055	75.88
267.287	73.88
267.52	71.88
267.752	79.88
267.984	80.88
268.216	63.88
268.448	86.88
268.681	67.88
268.913	81.88
269.145	72.88
269.377	79.88
269.609	62.88
269.841	80.88
270.073	89.88
270.306	59.88
270.538	75.88
270.77	82.88
271.002	83.88
271.234	86.88
271.466	80.88
271.698	74.88
271.93	81.88
272.162	87.88
272.394	79.88
272.626	70.88
272.858	74.88
273.09	83.88
273.322	69.88
273.553	92.88
273.785	85.88
274.017	86.88
274.249	70.88
274.481	79.88
274.713	94.88
274.945	88.88
275.176	78.88
275.408	82.88
275.64	83.88
275.872	83.88
276.104	82.88
276.335	83.88
276.567	65.88
276.799	73.88
277.031	80.88
277.262	65.88
277.494	85.88
277.726	86.88
277.957	80.88
278.189	85.88
278.421	84.88
278.652	92.88
278.884	99.88
279.115	78.88
279.347	104.88
279.579	77.88
279.81	87.88
280.042	73.88
280.273	78.88
280.505	87.88
280.736	69.88
280.968	80.88
281.199	89.88
281.431	99.88
281.662	81.88
281.894	66.88
282.125	73.88
282.356	89.88
282.588	88.88
282.819	81.88
283.051	73.88
283.282	73.88
283.513	78.88
283.745	70.88
283.976	85.88
284.207	85.88
284.439	84.88
284.67	80.88
284.901	69.88
285.132	66.88
285.364	72.88
285.595	62.88
285.826	90.88
286.057	71.88
286.288	79.88
286.52	79.88
286.751	72.88
286.982	89.88
287.213	72.88
287.444	92.88
287.675	72.88
287.906	88.88
288.138	83.88
288.369	87.88
288.6	78.88
288.831	59.88
289.062	77.88
289.293	81.88
289.524	83.88
289.755	87.88
289.986	78.88
290.217	77.88
290.448	67.88
290.679	71.88
290.91	83.88
291.141	73.88
291.371	89.88
291.602	88.88
291.833	87.88
292.064	83.88
292.295	78.88
292.526	76.88
292.757	93.88
292.987	84.88
293.218	86.88
293.449	95.88
293.68	88.88
293.91	74.88
294.141	86.88
294.372	89.88
294.603	82.88
294.833	87.88
295.064	69.88
295.295	85.88
295.525	80.88
295.756	71.88
295.987	80.88
296.217	57.88
296.448	88.88
296.679	65.88
296.909	76.88
297.14	92.88
297.37	85.88
297.601	77.88
297.831	83.88
298.062	92.88
298.292	93.88
298.523	84.88
298.753	83.88
298.984	88.88
299.214	65.88
299.445	75.88
299.675	83.88
299.905	79.88
300.136	78.88
300.366	71.88
300.597	80.88
300.827	71.88
301.057	79.88
301.288	81.88
301.518	89.88
301.748	66.88
301.979	91.88
302.209	77.88
302.439	72.88
302.669	77.88
302.9	83.88
303.13	74.88
303.36	84.88
303.59	92.88
303.82	69.88
304.051	85.88
304.281	74.88
304.511	81.88
304.741	95.88
304.971	76.88
305.201	88.88
305.431	84.88
305.661	74.88
305.891	81.88
306.121	74.88
306.352	79.88
306.582	76.88
306.812	73.88
307.042	77.88
307.272	78.88
307.502	86.88
307.731	67.88
307.961	68.88
308.191	81.88
308.421	85.88
308.651	82.88
308.881	75.88
309.111	85.88
309.341	94.88
309.571	84.88
309.8	87.88
310.03	91.88
310.26	76.88
310.49	92.88
310.72	81.88
310.949	97.88
311.179	89.88
311.409	84.88
311.639	80.88
311.868	87.88
312.098	85.88
312.328	84.88
312.557	79.88
312.787	78.88
313.017	73.88
313.246	84.88
313.476	76.88
313.706	84.88
313.935	68.88
314.165	83.88
314.394	79.88
314.624	71.88
314.853	76.88
315.083	78.88
315.312	78.88
315.542	75.88
315.771	62.88
316.001	76.88
316.23	73.88
316.46	79.88
316.689	68.88
316.919	86.88
317.148	72.88
317.377	87.88
317.607	79.88
317.836	77.88
318.065	91.88
318.295	77.88
318.524	86.88
318.753	80.88
318.983	72.88
319.212	85.88
319.441	81.88
319.67	96.88
319.9	84.88
320.129	72.88
320.358	80.88
320.587	76.88
320.816	85.88
321.046	77.88
321.275	84.88
321.504	77.88
321.733	82.88
321.962	80.88
322.191	95.88
322.42	79.88
322.649	88.88
322.878	70.88
323.108	86.88
323.337	73.88
323.566	88.88
323.795	81.88
324.024	83.88
324.253	100.88
324.482	72.88
324.71	79.88
324.939	90.88
325.168	69.88
325.397	76.88
325.626	87.88
325.855	83.88
326.084	86.88
326.313	81.88
326.542	85.88
326.77	68.88
326.999	92.88
327.228	83.88
327.457	99.88
327.686	80.88
327.914	77.88
328.143	92.88
328.372	83.88
328.6	83.88
328.829	83.88
329.058	75.88
329.287	87.88
329.515	77.88
329.744	71.88
329.972	84.88
330.201	77.88
330.43	79.88
330.658	93.88
330.887	73.88
331.115	64.88
331.344	78.88
331.572	73.88
331.801	84.88
332.03	79.88
332.258	61.88
332.486	80.88
332.715	94.88
332.943	92.88
333.172	90.88
333.4	88.88
333.629	72.88
333.857	88.88
334.085	73.88
334.314	72.88
334.542	81.88
334.771	85.88
334.999	77.88
335.227	78.88
335.455	89.88
335.684	81.88
335.912	79.88
336.14	70.88
336.369	80.88
336.597	75.88
336.825	83.88
337.053	76.88
337.281	84.88
337.51	78.88
337.738	63.88
337.966	70.88
338.194	81.88
338.422	84.88
338.65	88.88
338.878	79.88
339.106	78.88
339.334	88.88
339.562	66.88
339.79	74.88
340.018	76.88
340.246	89.88
340.474	88.88
340.702	73.88
340.93	87.88
341.158	82.88
341.386	91.88
341.614	78.88
341.842	82.88
342.07	65.88
342.298	79.88
342.526	83.88
342.754	74.88
342.981	83.88
343.209	81.88
343.437	89.88
343.665	70.88
343.893	78.88
344.12	89.88
344.348	76.88
344.576	82.88
344.804	66.88
345.031	88.88
345.259	80.88
345.487	76.88
345.714	88.88
345.942	76.88
346.17	73.88
346.397	72.88
346.625	80.88
346.853	67.88
347.08	79.88
347.308	81.88
347.535	84.88
347.763	101.88
347.99	98.88
348.218	86.88
348.445	72.88
348.673	77.88
348.9	81.88
349.128	84.88
349.355	76.88
349.583	91.88
349.81	78.88
350.037	72.88
350.265	72.88
350.492	81.88
350.72	84.88
350.947	81.88
351.174	79.88
351.402	83.88
351.629	79.88
351.856	79.88
352.083	84.88
352.311	72.88
352.538	85.88
352.765	80.88
352.992	85.88
353.22	76.88
353.447	77.88
353.674	73.88
353.901	79.88
354.128	86.88
354.355	69.88
354.583	80.88
354.81	84.88
355.037	93.88
355.264	91.88
355.491	87.88
355.718	87.88
355.945	80.88
356.172	77.88
356.399	70.88
356.626	81.88
356.853	79.88
357.08	89.88
357.307	98.88
357.534	82.88
357.761	76.88
357.988	90.88
358.215	80.88
358.441	80.88
358.668	87.88
358.895	89.88
359.122	83.88
359.349	94.88
359.576	80.88
359.802	84.88
360.029	88.88
360.256	85.88
360.483	82.88
360.709	70.88
360.936	85.88
361.163	80.88
361.39	75.88
361.616	87.88
361.843	84.88
362.07	83.88
362.296	88.88
362.523	83.88
362.749	90.88
362.976	79.88
363.203	77.88
363.429	91.88
363.656	79.88
363.882	76.88
364.109	91.88
364.335	85.88
364.562	80.88
364.788	87.88
365.015	74.88
365.241	82.88
365.468	87.88
365.694	84.88
365.92	86.88
366.147	83.88
366.373	82.88
366.599	80.88
366.826	87.88
367.052	84.88
367.278	98.88
367.505	90.88
367.731	78.88
367.957	63.88
368.184	77.88
368.41	92.88
368.636	79.88
368.862	82.88
369.089	93.88
369.315	90.88
369.541	84.88
369.767	78.88
369.993	91.88
370.219	88.88
370.445	83.88
370.672	78.88
370.898	95.88
371.124	95.88
371.35	80.88
371.576	81.88
371.802	83.88
372.028	73.88
372.254	73.88
372.48	83.88
372.706	78.88
372.932	85.88
373.158	89.88
373.384	79.88
373.61	83.88
373.835	81.88
374.061	81.88
374.287	74.88
374.513	85.88
374.739	75.88
374.965	77.88
375.191	89.88
375.416	100.88
375.642	78.88
375.868	93.88
376.094	79.88
376.319	77.88
376.545	96.88
376.771	72.88
376.997	93.88
377.222	88.88
377.448	89.88
377.674	86.88
377.899	73.88
378.125	83.88
378.35	74.88
378.576	89.88
378.802	80.88
379.027	78.88
379.253	82.88
379.478	66.88
379.704	76.88
379.929	76.88
380.155	87.88
380.38	86.88
380.606	95.88
380.831	103.88
381.057	93.88
381.282	99.88
381.507	103.88
381.733	91.88
381.958	93.88
382.184	93.88
382.409	101.88
382.634	74.88
382.86	89.88
383.085	87.88
383.31	91.88
383.535	91.88
383.761	89.88
383.986	74.88
384.211	85.88
384.436	101.88
384.662	97.88
384.887	89.88
385.112	87.88
385.337	92.88
385.562	83.88
385.787	86.88
386.013	88.88
386.238	93.88
386.463	92.88
386.688	90.88
386.913	88.88
387.138	91.88
387.363	89.88
387.588	104.88
387.813	97.88
388.038	99.88
388.263	88.88
388.488	86.88
388.713	88.88
388.938	92.88
389.163	81.88
389.387	96.88
389.612	96.88
389.837	80.88
390.062	97.88
390.287	86.88
390.512	91.88
390.736	83.88
390.961	90.88
391.186	100.88
391.411	87.88
391.636	88.88
391.86	83.88
392.085	96.88
392.31	97.88
392.534	92.88
392.759	98.88
392.984	90.88
393.208	96.88
393.433	101.88
393.658	104.88
393.882	81.88
394.107	97.88
394.331	107.88
394.556	87.88
394.78	98.88
395.005	94.88
395.229	78.88
395.454	97.88
395.678	94.88
395.903	110.88
396.127	100.88
396.352	97.88
396.576	84.88
396.801	100.88
397.025	95.88
397.249	101.88
397.474	104.88
397.698	95.88
397.922	95.88
398.147	103.88
398.371	113.88
398.595	102.88
398.82	97.88
399.044	110.88
399.268	101.88
399.492	113.88
399.717	114.88
399.941	116.88
400.165	86.88
400.389	100.88
400.613	98.88
400.837	95.88
401.062	104.88
401.286	106.88
401.51	101.88
401.734	98.88
401.958	99.88
402.182	100.88
402.406	106.88
402.63	99.88
402.854	92.88
403.078	94.88
403.302	88.88
403.526	91.88
403.75	97.88
403.974	93.88
404.198	87.88
404.422	105.88
404.645	100.88
404.869	104.88
405.093	105.88
405.317	99.88
405.541	87.88
405.765	112.88
405.988	100.88
406.212	107.88
406.436	115.88
406.66	103.88
406.883	99.88
407.107	104.88
407.331	113.88
407.555	100.88
407.778	121.88
408.002	113.88
408.226	101.88
408.449	99.88
408.673	126.88
408.896	115.88
409.12	105.88
409.344	102.88
409.567	104.88
409.791	107.88
410.014	104.88
410.238	96.88
410.461	112.88
410.685	103.88
410.908	101.88
411.132	102.88
411.355	87.88
411.578	95.88
411.802	109.88
412.025	85.88
412.249	93.88
412.472	113.88
412.695	95.88
412.919	101.88
413.142	114.88
413.365	97.88
413.589	87.88
413.812	103.88
414.035	100.88
414.258	109.88
414.482	107.88
414.705	104.88
414.928	108.88
415.151	119.88
415.374	110.88
415.597	109.88
415.821	109.88
416.044	125.88
416.267	118.88
416.49	107.88
416.713	96.88
416.936	105.88
417.159	109.88
417.382	103.88
417.605	101.88
417.828	108.88
418.051	102.88
418.274	100.88
418.497	94.88
418.72	98.88
418.943	116.88
419.166	108.88
419.389	111.88
419.611	111.88
419.834	113.88
420.057	115.88
420.28	111.88
420.503	98.88
420.726	113.88
420.948	118.88
421.171	119.88
421.394	125.88
421.617	93.88
421.839	112.88
422.062	118.88
422.285	115.88
422.507	100.88
422.73	116.88
422.953	115.88
423.175	103.88
423.398	103.88
423.621	115.88
423.843	114.88
424.066	99.88
424.288	123.88
424.511	117.88
424.733	119.88
424.956	118.88
425.178	119.88
425.401	110.88
425.623	98.88
425.846	125.88
426.068	111.88
426.291	107.88
426.513	99.88
426.735	107.88
426.958	114.88
427.18	115.88
427.402	96.88
427.625	91.88
427.847	103.88
428.069	100.88
428.292	106.88
428.514	94.88
428.736	99.88
428.958	121.88
429.181	94.88
429.403	103.88
429.625	111.88
429.847	112.88
430.069	96.88
430.292	113.88
430.514	104.88
430.736	104.88
430.958	93.88
431.18	116.88
431.402	107.88
431.624	102.88
431.846	97.88
432.068	100.88
432.29	88.88
432.512	101.88
432.734	108.88
432.956	117.88
433.178	121.88
433.4	117.88
433.622	119.88
433.844	98.88
434.066	108.88
434.287	80.88
434.509	108.88
434.731	87.88
434.953	109.88
435.175	98.88
435.397	103.88
435.618	94.88
435.84	111.88
436.062	102.88
436.284	107.88
436.505	109.88
436.727	103.88
436.949	96.88
437.17	114.88
437.392	85.88
437.614	107.88
437.835	95.88
438.057	84.88
438.278	105.88
438.5	101.88
438.721	110.88
438.943	114.88
439.165	100.88
439.386	96.88
439.608	108.88
439.829	107.88
440.05	112.88
440.272	110.88
440.493	116.88
440.715	124.88
440.936	109.88
441.158	118.88
441.379	104.88
441.6	119.88
441.822	112.88
442.043	125.88
442.264	116.88
442.486	109.88
442.707	119.88
442.928	107.88
443.149	115.88
443.371	116.88
443.592	108.88
443.813	126.88
444.034	107.88
444.255	115.88
444.476	124.88
444.698	117.88
444.919	117.88
445.14	242.88
445.361	175.88
445.582	119.88
445.803	104.88
446.024	117.88
446.245	122.88
446.466	121.88
446.687	117.88
446.908	131.88
447.129	122.88
447.35	120.88
447.571	108.88
447.792	121.88
448.013	95.88
448.234	115.88
448.455	95.88
448.675	107.88
448.896	115.88
449.117	114.88
449.338	105.88
449.559	103.88
449.779	100.88
450	108.88
450.221	119.88
450.442	112.88
450.662	107.88
450.883	110.88
451.104	106.88
451.324	110.88
451.545	117.88
451.766	119.88
451.986	112.88
452.207	127.88
452.428	114.88
452.648	121.88
452.869	97.88
453.089	109.88
453.31	96.88
453.53	94.88
453.751	97.88
453.971	100.88
454.192	104.88
454.412	100.88
454.633	104.88
454.853	102.88
455.073	100.88
455.294	86.88
455.514	93.88
455.734	109.88
455.955	109.88
456.175	102.88
456.395	105.88
456.616	102.88
456.836	98.88
457.056	95.88
457.276	110.88
457.497	102.88
457.717	95.88
457.937	102.88
458.157	108.88
458.377	104.88
458.598	96.88
458.818	104.88
459.038	94.88
459.258	100.88
459.478	95.88
459.698	116.88
459.918	108.88
460.138	115.88
460.358	104.88
460.578	113.88
460.798	115.88
461.018	126.88
461.238	111.88
461.458	95.88
461.678	129.88
461.898	114.88
462.118	108.88
462.338	101.88
462.558	122.88
462.777	128.88
462.997	122.88
463.217	121.88
463.437	123.88
463.657	115.88
463.876	124.88
464.096	119.88
464.316	122.88
464.536	113.88
464.755	104.88
464.975	113.88
465.195	111.88
465.414	116.88
465.634	118.88
465.854	103.88
466.073	107.88
466.293	99.88
466.512	115.88
466.732	99.88
466.951	116.88
467.171	111.88
467.391	115.88
467.61	121.88
467.829	107.88
468.049	98.88
468.268	121.88
468.488	113.88
468.707	121.88
468.927	104.88
469.146	121.88
469.365	116.88
469.585	123.88
469.804	112.88
470.023	117.88
470.243	108.88
470.462	117.88
470.681	116.88
470.901	114.88
471.12	117.88
471.339	113.88
471.558	115.88
471.777	120.88
471.997	120.88
472.216	128.88
472.435	115.88
472.654	123.88
472.873	109.88
473.092	113.88
473.311	97.88
473.53	119.88
473.749	117.88
473.968	111.88
474.187	96.88
474.406	100.88
474.625	113.88
474.844	109.88
475.063	111.88
475.282	123.88
475.501	108.88
475.72	111.88
475.939	107.88
476.158	102.88
476.377	102.88
476.596	97.88
476.814	114.88
477.033	113.88
477.252	108.88
477.471	107.88
477.69	127.88
477.908	107.88
478.127	110.88
478.346	113.88
478.564	123.88
478.783	107.88
479.002	127.88
479.22	118.88
479.439	128.88
479.658	114.88
479.876	111.88
480.095	115.88
480.313	123.88
480.532	135.88
480.751	109.88
480.969	100.88
481.188	88.88
481.406	90.88
481.624	102.88
481.843	105.88
482.061	102.88
482.28	96.88
482.498	118.88
482.717	117.88
482.935	120.88
483.153	102.88
483.372	116.88
483.59	123.88
483.808	123.88
484.027	121.88
484.245	118.88
484.463	119.88
484.681	129.88
484.9	129.88
485.118	105.88
485.336	123.88
485.554	135.88
485.772	123.88
485.99	120.88
486.209	121.88
486.427	109.88
486.645	123.88
486.863	124.88
487.081	125.88
487.299	119.88
487.517	121.88
487.735	131.88
487.953	136.88
488.171	134.88
488.389	147.88
488.607	114.88
488.825	113.88
489.043	135.88
489.261	118.88
489.479	131.88
489.696	117.88
489.914	116.88
490.132	113.88
490.35	127.88
490.568	114.88
490.786	135.88
491.003	133.88
491.221	141.88
491.439	153.88
491.657	150.88
491.874	140.88
492.092	156.88
492.31	149.88
492.527	152.88
492.745	160.88
492.963	161.88
493.18	158.88
493.398	156.88
493.615	140.88
493.833	153.88
494.05	152.88
494.268	148.88
494.485	135.88
494.703	150.88
494.92	143.88
495.138	135.88
495.355	148.88
495.573	155.88
495.79	125.88
496.008	140.88
496.225	144.88
496.442	148.88
496.66	133.88
496.877	149.88
497.094	151.88
497.312	140.88
497.529	161.88
497.746	134.88
497.963	110.88
498.181	131.88
498.398	137.88
498.615	127.88
498.832	145.88
499.049	145.88
499.267	142.88
499.484	152.88
499.701	164.88
499.918	179.88
500.135	189.88
500.352	204.88
500.569	219.88
500.786	209.88
501.003	210.88
501.22	191.88
501.437	178.88
501.654	179.88
501.871	152.88
502.088	152.88
502.305	138.88
502.522	154.88
502.739	137.88
502.956	128.88
503.172	134.88
503.389	132.88
503.606	138.88
503.823	136.88
504.04	129.88
504.256	137.88
504.473	137.88
504.69	125.88
504.907	149.88
505.123	129.88
505.34	124.88
505.557	131.88
505.773	133.88
505.99	121.88
506.207	122.88
506.423	116.88
506.64	135.88
506.856	134.88
507.073	117.88
507.289	125.88
507.506	122.88
507.722	110.88
507.939	117.88
508.155	132.88
508.372	119.88
508.588	113.88
508.805	117.88
509.021	121.88
509.238	125.88
509.454	107.88
509.67	109.88
509.887	112.88
510.103	104.88
510.319	115.88
510.536	109.88
510.752	113.88
510.968	97.88
511.184	95.88
511.401	106.88
511.617	110.88
511.833	111.88
512.049	117.88
512.265	112.88
512.481	129.88
512.698	113.88
