Data from StandardFe(NO3)3.TAE.3%Agarose.FlatLispGreen.Lamp.Energy10.07252019_HRD10591_11-55-57-441.txt Node
Date: Thu Jul 25 11:55:57 EDT 2019
User: cochatt
Spectrometer: HR+D1059
Trigger mode: 1
Integration Time (sec): 1.000000E-1
Scans to average: 1
Electric dark correction enabled: true
Nonlinearity correction enabled: false
Boxcar width: 0
XAxis mode: Wavelengths
Number of Pixels in Spectrum: 2048
>>>>>Begin Spectral Data<<<<<
223.165	-28.56
223.4	-28.56
223.635	-28.56
223.869	-8.56
224.104	-21.56
224.338	-15.56
224.573	-10.56
224.808	-9.56
225.042	3.44
225.277	-10.56
225.511	-0.56
225.746	13.44
225.98	11.44
226.215	-6.56
226.449	14.44
226.683	16.44
226.918	24.44
227.152	28.44
227.387	38.44
227.621	38.44
227.856	50.44
228.09	39.44
228.324	52.44
228.559	49.44
228.793	59.44
229.027	60.44
229.262	67.44
229.496	55.44
229.73	55.44
229.964	68.44
230.199	71.44
230.433	59.44
230.667	51.44
230.901	68.44
231.136	77.44
231.37	95.44
231.604	84.44
231.838	76.44
232.072	91.44
232.306	77.44
232.541	77.44
232.775	72.44
233.009	84.44
233.243	83.44
233.477	85.44
233.711	69.44
233.945	84.44
234.179	87.44
234.413	77.44
234.647	83.44
234.881	71.44
235.115	87.44
235.349	86.44
235.583	85.44
235.817	84.44
236.051	89.44
236.285	76.44
236.519	89.44
236.753	90.44
236.987	63.44
237.221	77.44
237.455	89.44
237.689	84.44
237.922	83.44
238.156	76.44
238.39	74.44
238.624	87.44
238.858	72.44
239.091	71.44
239.325	61.44
239.559	70.44
239.793	75.44
240.027	80.44
240.26	92.44
240.494	78.44
240.728	84.44
240.961	80.44
241.195	85.44
241.429	76.44
241.662	73.44
241.896	83.44
242.13	92.44
242.363	84.44
242.597	77.44
242.83	62.44
243.064	83.44
243.298	73.44
243.531	86.44
243.765	75.44
243.998	83.44
244.232	81.44
244.465	68.44
244.699	75.44
244.932	84.44
245.166	86.44
245.399	73.44
245.633	76.44
245.866	78.44
246.099	69.44
246.333	81.44
246.566	79.44
246.8	77.44
247.033	83.44
247.266	76.44
247.5	67.44
247.733	57.44
247.966	73.44
248.2	77.44
248.433	72.44
248.666	88.44
248.899	80.44
249.133	84.44
249.366	79.44
249.599	78.44
249.832	81.44
250.066	86.44
250.299	75.44
250.532	81.44
250.765	77.44
250.998	72.44
251.231	73.44
251.465	76.44
251.698	86.44
251.931	76.44
252.164	76.44
252.397	75.44
252.63	81.44
252.863	88.44
253.096	71.44
253.329	89.44
253.562	91.44
253.795	91.44
254.028	86.44
254.261	81.44
254.494	90.44
254.727	85.44
254.96	80.44
255.193	81.44
255.426	81.44
255.659	82.44
255.892	96.44
256.124	82.44
256.357	95.44
256.59	85.44
256.823	74.44
257.056	68.44
257.289	88.44
257.521	80.44
257.754	87.44
257.987	89.44
258.22	71.44
258.452	89.44
258.685	87.44
258.918	87.44
259.151	86.44
259.383	69.44
259.616	77.44
259.849	91.44
260.081	76.44
260.314	71.44
260.547	91.44
260.779	89.44
261.012	79.44
261.244	76.44
261.477	89.44
261.71	59.44
261.942	91.44
262.175	76.44
262.407	80.44
262.64	92.44
262.872	84.44
263.105	86.44
263.337	94.44
263.57	76.44
263.802	73.44
264.035	82.44
264.267	80.44
264.499	75.44
264.732	82.44
264.964	96.44
265.197	61.44
265.429	72.44
265.661	79.44
265.894	64.44
266.126	77.44
266.358	82.44
266.591	84.44
266.823	77.44
267.055	69.44
267.287	83.44
267.52	81.44
267.752	93.44
267.984	95.44
268.216	68.44
268.448	87.44
268.681	87.44
268.913	88.44
269.145	95.44
269.377	90.44
269.609	80.44
269.841	83.44
270.073	69.44
270.306	77.44
270.538	80.44
270.77	85.44
271.002	80.44
271.234	74.44
271.466	93.44
271.698	82.44
271.93	74.44
272.162	95.44
272.394	83.44
272.626	96.44
272.858	77.44
273.09	80.44
273.322	98.44
273.553	78.44
273.785	90.44
274.017	90.44
274.249	80.44
274.481	76.44
274.713	87.44
274.945	83.44
275.176	85.44
275.408	83.44
275.64	85.44
275.872	85.44
276.104	82.44
276.335	84.44
276.567	75.44
276.799	79.44
277.031	76.44
277.262	70.44
277.494	77.44
277.726	66.44
277.957	75.44
278.189	89.44
278.421	78.44
278.652	87.44
278.884	80.44
279.115	85.44
279.347	83.44
279.579	77.44
279.81	83.44
280.042	87.44
280.273	84.44
280.505	93.44
280.736	98.44
280.968	82.44
281.199	90.44
281.431	86.44
281.662	75.44
281.894	82.44
282.125	96.44
282.356	76.44
282.588	82.44
282.819	86.44
283.051	99.44
283.282	81.44
283.513	92.44
283.745	87.44
283.976	56.44
284.207	82.44
284.439	87.44
284.67	75.44
284.901	77.44
285.132	77.44
285.364	77.44
285.595	84.44
285.826	87.44
286.057	92.44
286.288	76.44
286.52	90.44
286.751	86.44
286.982	88.44
287.213	92.44
287.444	84.44
287.675	80.44
287.906	97.44
288.138	82.44
288.369	79.44
288.6	75.44
288.831	86.44
289.062	71.44
289.293	84.44
289.524	80.44
289.755	82.44
289.986	83.44
290.217	90.44
290.448	69.44
290.679	88.44
290.91	84.44
291.141	87.44
291.371	84.44
291.602	81.44
291.833	89.44
292.064	95.44
292.295	86.44
292.526	80.44
292.757	85.44
292.987	96.44
293.218	78.44
293.449	82.44
293.68	90.44
293.91	84.44
294.141	87.44
294.372	87.44
294.603	85.44
294.833	92.44
295.064	91.44
295.295	91.44
295.525	98.44
295.756	89.44
295.987	74.44
296.217	73.44
296.448	84.44
296.679	74.44
296.909	91.44
297.14	101.44
297.37	81.44
297.601	81.44
297.831	84.44
298.062	82.44
298.292	85.44
298.523	77.44
298.753	88.44
298.984	93.44
299.214	86.44
299.445	95.44
299.675	98.44
299.905	86.44
300.136	75.44
300.366	97.44
300.597	83.44
300.827	72.44
301.057	70.44
301.288	84.44
301.518	89.44
301.748	83.44
301.979	82.44
302.209	83.44
302.439	89.44
302.669	86.44
302.9	103.44
303.13	101.44
303.36	92.44
303.59	78.44
303.82	89.44
304.051	92.44
304.281	76.44
304.511	76.44
304.741	77.44
304.971	76.44
305.201	88.44
305.431	88.44
305.661	69.44
305.891	85.44
306.121	89.44
306.352	88.44
306.582	85.44
306.812	90.44
307.042	101.44
307.272	85.44
307.502	95.44
307.731	78.44
307.961	76.44
308.191	92.44
308.421	96.44
308.651	90.44
308.881	86.44
309.111	86.44
309.341	103.44
309.571	100.44
309.8	84.44
310.03	85.44
310.26	91.44
310.49	82.44
310.72	69.44
310.949	93.44
311.179	91.44
311.409	97.44
311.639	82.44
311.868	82.44
312.098	88.44
312.328	89.44
312.557	88.44
312.787	85.44
313.017	87.44
313.246	73.44
313.476	83.44
313.706	76.44
313.935	79.44
314.165	89.44
314.394	82.44
314.624	84.44
314.853	84.44
315.083	75.44
315.312	92.44
315.542	78.44
315.771	82.44
316.001	88.44
316.23	76.44
316.46	86.44
316.689	70.44
316.919	92.44
317.148	85.44
317.377	82.44
317.607	69.44
317.836	96.44
318.065	82.44
318.295	86.44
318.524	91.44
318.753	73.44
318.983	76.44
319.212	82.44
319.441	77.44
319.67	87.44
319.9	83.44
320.129	102.44
320.358	81.44
320.587	83.44
320.816	89.44
321.046	82.44
321.275	86.44
321.504	83.44
321.733	79.44
321.962	91.44
322.191	83.44
322.42	84.44
322.649	80.44
322.878	83.44
323.108	76.44
323.337	94.44
323.566	88.44
323.795	83.44
324.024	68.44
324.253	95.44
324.482	83.44
324.71	77.44
324.939	83.44
325.168	74.44
325.397	85.44
325.626	79.44
325.855	85.44
326.084	88.44
326.313	79.44
326.542	87.44
326.77	69.44
326.999	83.44
327.228	71.44
327.457	96.44
327.686	88.44
327.914	95.44
328.143	91.44
328.372	76.44
328.6	84.44
328.829	86.44
329.058	87.44
329.287	84.44
329.515	94.44
329.744	82.44
329.972	76.44
330.201	89.44
330.43	87.44
330.658	85.44
330.887	94.44
331.115	93.44
331.344	95.44
331.572	82.44
331.801	71.44
332.03	100.44
332.258	77.44
332.486	84.44
332.715	83.44
332.943	82.44
333.172	83.44
333.4	100.44
333.629	84.44
333.857	82.44
334.085	94.44
334.314	82.44
334.542	76.44
334.771	91.44
334.999	81.44
335.227	81.44
335.455	83.44
335.684	82.44
335.912	81.44
336.14	84.44
336.369	87.44
336.597	80.44
336.825	100.44
337.053	84.44
337.281	88.44
337.51	99.44
337.738	102.44
337.966	87.44
338.194	103.44
338.422	94.44
338.65	100.44
338.878	82.44
339.106	84.44
339.334	86.44
339.562	76.44
339.79	76.44
340.018	78.44
340.246	90.44
340.474	97.44
340.702	87.44
340.93	85.44
341.158	81.44
341.386	82.44
341.614	81.44
341.842	80.44
342.07	93.44
342.298	85.44
342.526	85.44
342.754	94.44
342.981	96.44
343.209	94.44
343.437	86.44
343.665	74.44
343.893	65.44
344.12	98.44
344.348	86.44
344.576	91.44
344.804	86.44
345.031	67.44
345.259	89.44
345.487	93.44
345.714	89.44
345.942	82.44
346.17	82.44
346.397	72.44
346.625	76.44
346.853	90.44
347.08	81.44
347.308	86.44
347.535	78.44
347.763	80.44
347.99	79.44
348.218	97.44
348.445	101.44
348.673	94.44
348.9	89.44
349.128	83.44
349.355	83.44
349.583	89.44
349.81	70.44
350.037	80.44
350.265	89.44
350.492	81.44
350.72	77.44
350.947	91.44
351.174	81.44
351.402	82.44
351.629	85.44
351.856	81.44
352.083	84.44
352.311	82.44
352.538	78.44
352.765	101.44
352.992	78.44
353.22	76.44
353.447	91.44
353.674	95.44
353.901	80.44
354.128	90.44
354.355	85.44
354.583	88.44
354.81	84.44
355.037	87.44
355.264	83.44
355.491	86.44
355.718	90.44
355.945	95.44
356.172	86.44
356.399	82.44
356.626	91.44
356.853	88.44
357.08	90.44
357.307	88.44
357.534	87.44
357.761	89.44
357.988	79.44
358.215	80.44
358.441	86.44
358.668	92.44
358.895	69.44
359.122	71.44
359.349	90.44
359.576	82.44
359.802	81.44
360.029	93.44
360.256	85.44
360.483	77.44
360.709	85.44
360.936	89.44
361.163	71.44
361.39	96.44
361.616	89.44
361.843	83.44
362.07	78.44
362.296	89.44
362.523	80.44
362.749	82.44
362.976	76.44
363.203	85.44
363.429	101.44
363.656	80.44
363.882	97.44
364.109	88.44
364.335	86.44
364.562	86.44
364.788	92.44
365.015	96.44
365.241	96.44
365.468	87.44
365.694	89.44
365.92	83.44
366.147	89.44
366.373	99.44
366.599	90.44
366.826	85.44
367.052	96.44
367.278	90.44
367.505	83.44
367.731	95.44
367.957	93.44
368.184	92.44
368.41	96.44
368.636	95.44
368.862	91.44
369.089	86.44
369.315	65.44
369.541	82.44
369.767	81.44
369.993	92.44
370.219	88.44
370.445	97.44
370.672	71.44
370.898	85.44
371.124	82.44
371.35	68.44
371.576	98.44
371.802	99.44
372.028	100.44
372.254	83.44
372.48	82.44
372.706	67.44
372.932	83.44
373.158	85.44
373.384	91.44
373.61	88.44
373.835	90.44
374.061	81.44
374.287	100.44
374.513	97.44
374.739	77.44
374.965	90.44
375.191	101.44
375.416	81.44
375.642	79.44
375.868	91.44
376.094	86.44
376.319	89.44
376.545	97.44
376.771	97.44
376.997	81.44
377.222	95.44
377.448	91.44
377.674	93.44
377.899	83.44
378.125	85.44
378.35	86.44
378.576	86.44
378.802	93.44
379.027	85.44
379.253	97.44
379.478	88.44
379.704	92.44
379.929	96.44
380.155	95.44
380.38	95.44
380.606	79.44
380.831	76.44
381.057	106.44
381.282	88.44
381.507	81.44
381.733	81.44
381.958	90.44
382.184	89.44
382.409	77.44
382.634	87.44
382.86	96.44
383.085	90.44
383.31	92.44
383.535	86.44
383.761	115.44
383.986	103.44
384.211	89.44
384.436	93.44
384.662	90.44
384.887	84.44
385.112	89.44
385.337	91.44
385.562	90.44
385.787	104.44
386.013	99.44
386.238	90.44
386.463	99.44
386.688	81.44
386.913	98.44
387.138	85.44
387.363	88.44
387.588	100.44
387.813	105.44
388.038	95.44
388.263	102.44
388.488	105.44
388.713	97.44
388.938	98.44
389.163	98.44
389.387	92.44
389.612	93.44
389.837	95.44
390.062	91.44
390.287	87.44
390.512	93.44
390.736	101.44
390.961	90.44
391.186	91.44
391.411	100.44
391.636	93.44
391.86	95.44
392.085	87.44
392.31	101.44
392.534	93.44
392.759	94.44
392.984	96.44
393.208	103.44
393.433	103.44
393.658	105.44
393.882	102.44
394.107	96.44
394.331	101.44
394.556	117.44
394.78	104.44
395.005	104.44
395.229	103.44
395.454	96.44
395.678	87.44
395.903	103.44
396.127	100.44
396.352	96.44
396.576	90.44
396.801	106.44
397.025	101.44
397.249	97.44
397.474	115.44
397.698	93.44
397.922	95.44
398.147	102.44
398.371	96.44
398.595	113.44
398.82	103.44
399.044	111.44
399.268	97.44
399.492	95.44
399.717	96.44
399.941	99.44
400.165	109.44
400.389	106.44
400.613	100.44
400.837	101.44
401.062	100.44
401.286	91.44
401.51	119.44
401.734	103.44
401.958	100.44
402.182	111.44
402.406	120.44
402.63	117.44
402.854	125.44
403.078	121.44
403.302	105.44
403.526	107.44
403.75	93.44
403.974	112.44
404.198	121.44
404.422	97.44
404.645	109.44
404.869	104.44
405.093	102.44
405.317	106.44
405.541	117.44
405.765	113.44
405.988	107.44
406.212	124.44
406.436	107.44
406.66	100.44
406.883	118.44
407.107	105.44
407.331	118.44
407.555	126.44
407.778	119.44
408.002	101.44
408.226	98.44
408.449	105.44
408.673	104.44
408.896	115.44
409.12	109.44
409.344	107.44
409.567	108.44
409.791	99.44
410.014	107.44
410.238	113.44
410.461	116.44
410.685	108.44
410.908	119.44
411.132	124.44
411.355	115.44
411.578	119.44
411.802	103.44
412.025	109.44
412.249	100.44
412.472	112.44
412.695	93.44
412.919	115.44
413.142	106.44
413.365	131.44
413.589	99.44
413.812	113.44
414.035	113.44
414.258	111.44
414.482	92.44
414.705	103.44
414.928	99.44
415.151	115.44
415.374	106.44
415.597	114.44
415.821	98.44
416.044	97.44
416.267	99.44
416.49	104.44
416.713	96.44
416.936	109.44
417.159	112.44
417.382	107.44
417.605	113.44
417.828	103.44
418.051	120.44
418.274	121.44
418.497	114.44
418.72	116.44
418.943	122.44
419.166	107.44
419.389	106.44
419.611	109.44
419.834	106.44
420.057	129.44
420.28	92.44
420.503	116.44
420.726	135.44
420.948	115.44
421.171	115.44
421.394	120.44
421.617	111.44
421.839	108.44
422.062	115.44
422.285	115.44
422.507	115.44
422.73	99.44
422.953	116.44
423.175	107.44
423.398	108.44
423.621	120.44
423.843	101.44
424.066	112.44
424.288	131.44
424.511	124.44
424.733	115.44
424.956	117.44
425.178	114.44
425.401	116.44
425.623	104.44
425.846	108.44
426.068	113.44
426.291	97.44
426.513	106.44
426.735	96.44
426.958	98.44
427.18	107.44
427.402	108.44
427.625	98.44
427.847	115.44
428.069	115.44
428.292	123.44
428.514	113.44
428.736	91.44
428.958	109.44
429.181	100.44
429.403	99.44
429.625	100.44
429.847	108.44
430.069	116.44
430.292	116.44
430.514	116.44
430.736	116.44
430.958	116.44
431.18	111.44
431.402	118.44
431.624	93.44
431.846	105.44
432.068	119.44
432.29	107.44
432.512	121.44
432.734	100.44
432.956	111.44
433.178	98.44
433.4	99.44
433.622	111.44
433.844	104.44
434.066	106.44
434.287	108.44
434.509	116.44
434.731	111.44
434.953	97.44
435.175	117.44
435.397	110.44
435.618	109.44
435.84	102.44
436.062	96.44
436.284	116.44
436.505	113.44
436.727	118.44
436.949	112.44
437.17	108.44
437.392	100.44
437.614	117.44
437.835	103.44
438.057	97.44
438.278	103.44
438.5	98.44
438.721	106.44
438.943	110.44
439.165	123.44
439.386	121.44
439.608	118.44
439.829	121.44
440.05	118.44
440.272	118.44
440.493	112.44
440.715	120.44
440.936	116.44
441.158	108.44
441.379	109.44
441.6	129.44
441.822	115.44
442.043	126.44
442.264	113.44
442.486	112.44
442.707	124.44
442.928	124.44
443.149	113.44
443.371	121.44
443.592	107.44
443.813	121.44
444.034	122.44
444.255	114.44
444.476	125.44
444.698	119.44
444.919	123.44
445.14	262.44
445.361	170.44
445.582	115.44
445.803	128.44
446.024	115.44
446.245	104.44
446.466	119.44
446.687	121.44
446.908	116.44
447.129	118.44
447.35	116.44
447.571	108.44
447.792	115.44
448.013	103.44
448.234	113.44
448.455	99.44
448.675	97.44
448.896	119.44
449.117	122.44
449.338	103.44
449.559	115.44
449.779	119.44
450	109.44
450.221	113.44
450.442	95.44
450.662	96.44
450.883	93.44
451.104	105.44
451.324	106.44
451.545	120.44
451.766	115.44
451.986	109.44
452.207	101.44
452.428	104.44
452.648	108.44
452.869	101.44
453.089	111.44
453.31	119.44
453.53	104.44
453.751	91.44
453.971	105.44
454.192	114.44
454.412	100.44
454.633	99.44
454.853	104.44
455.073	99.44
455.294	99.44
455.514	123.44
455.734	112.44
455.955	95.44
456.175	115.44
456.395	101.44
456.616	106.44
456.836	103.44
457.056	108.44
457.276	97.44
457.497	82.44
457.717	99.44
457.937	92.44
458.157	91.44
458.377	108.44
458.598	91.44
458.818	103.44
459.038	113.44
459.258	104.44
459.478	102.44
459.698	96.44
459.918	111.44
460.138	121.44
460.358	113.44
460.578	105.44
460.798	131.44
461.018	104.44
461.238	108.44
461.458	104.44
461.678	116.44
461.898	115.44
462.118	110.44
462.338	117.44
462.558	106.44
462.777	97.44
462.997	116.44
463.217	112.44
463.437	128.44
463.657	124.44
463.876	123.44
464.096	117.44
464.316	112.44
464.536	123.44
464.755	98.44
464.975	102.44
465.195	125.44
465.414	115.44
465.634	111.44
465.854	117.44
466.073	125.44
466.293	103.44
466.512	118.44
466.732	117.44
466.951	115.44
467.171	116.44
467.391	102.44
467.61	113.44
467.829	115.44
468.049	113.44
468.268	118.44
468.488	129.44
468.707	111.44
468.927	129.44
469.146	115.44
469.365	121.44
469.585	111.44
469.804	103.44
470.023	120.44
470.243	115.44
470.462	107.44
470.681	126.44
470.901	105.44
471.12	116.44
471.339	127.44
471.558	117.44
471.777	115.44
471.997	120.44
472.216	125.44
472.435	101.44
472.654	104.44
472.873	97.44
473.092	97.44
473.311	123.44
473.53	105.44
473.749	121.44
473.968	110.44
474.187	115.44
474.406	113.44
474.625	133.44
474.844	109.44
475.063	111.44
475.282	127.44
475.501	109.44
475.72	119.44
475.939	114.44
476.158	117.44
476.377	107.44
476.596	101.44
476.814	113.44
477.033	111.44
477.252	122.44
477.471	122.44
477.69	127.44
477.908	133.44
478.127	127.44
478.346	127.44
478.564	131.44
478.783	124.44
479.002	134.44
479.22	115.44
479.439	131.44
479.658	130.44
479.876	124.44
480.095	115.44
480.313	105.44
480.532	102.44
480.751	107.44
480.969	128.44
481.188	115.44
481.406	101.44
481.624	115.44
481.843	103.44
482.061	108.44
482.28	104.44
482.498	107.44
482.717	92.44
482.935	108.44
483.153	138.44
483.372	120.44
483.59	124.44
483.808	125.44
484.027	111.44
484.245	121.44
484.463	118.44
484.681	120.44
484.9	123.44
485.118	124.44
485.336	102.44
485.554	121.44
485.772	127.44
485.99	112.44
486.209	131.44
486.427	121.44
486.645	114.44
486.863	114.44
487.081	119.44
487.299	119.44
487.517	136.44
487.735	149.44
487.953	141.44
488.171	142.44
488.389	128.44
488.607	119.44
488.825	129.44
489.043	128.44
489.261	113.44
489.479	122.44
489.696	132.44
489.914	130.44
490.132	136.44
490.35	135.44
490.568	136.44
490.786	133.44
491.003	141.44
491.221	141.44
491.439	137.44
491.657	132.44
491.874	133.44
492.092	159.44
492.31	155.44
492.527	168.44
492.745	153.44
492.963	151.44
493.18	153.44
493.398	136.44
493.615	152.44
493.833	139.44
494.05	135.44
494.268	143.44
494.485	141.44
494.703	149.44
494.92	152.44
495.138	141.44
495.355	149.44
495.573	163.44
495.79	136.44
496.008	135.44
496.225	131.44
496.442	139.44
496.66	142.44
496.877	147.44
497.094	151.44
497.312	149.44
497.529	146.44
497.746	145.44
497.963	139.44
498.181	131.44
498.398	124.44
498.615	145.44
498.832	149.44
499.049	151.44
499.267	146.44
499.484	145.44
499.701	163.44
499.918	156.44
500.135	193.44
500.352	217.44
500.569	224.44
500.786	219.44
501.003	186.44
501.22	171.44
501.437	178.44
501.654	175.44
501.871	145.44
502.088	152.44
502.305	139.44
502.522	140.44
502.739	120.44
502.956	148.44
503.172	132.44
503.389	129.44
503.606	118.44
503.823	135.44
504.04	137.44
504.256	133.44
504.473	144.44
504.69	132.44
504.907	133.44
505.123	129.44
505.34	133.44
505.557	139.44
505.773	121.44
505.99	123.44
506.207	137.44
506.423	129.44
506.64	121.44
506.856	124.44
507.073	123.44
507.289	130.44
507.506	122.44
507.722	120.44
507.939	129.44
508.155	119.44
508.372	116.44
508.588	114.44
508.805	128.44
509.021	111.44
509.238	109.44
509.454	125.44
509.67	135.44
509.887	108.44
510.103	98.44
510.319	99.44
510.536	108.44
510.752	114.44
510.968	115.44
511.184	123.44
511.401	122.44
511.617	109.44
511.833	113.44
512.049	103.44
