Data from StandardFe(NO3)3.TAE.3%Agarose.FlatLispGreen.Lamp.Energy10.07252019_HRD10591_11-55-18-441.txt Node
Date: Thu Jul 25 11:55:18 EDT 2019
User: cochatt
Spectrometer: HR+D1059
Trigger mode: 1
Integration Time (sec): 1.000000E-1
Scans to average: 1
Electric dark correction enabled: true
Nonlinearity correction enabled: false
Boxcar width: 0
XAxis mode: Wavelengths
Number of Pixels in Spectrum: 2048
>>>>>Begin Spectral Data<<<<<
223.165	-10.69
223.4	-10.69
223.635	-10.69
223.869	-18.69
224.104	-24.69
224.338	-13.69
224.573	-3.69
224.808	-22.69
225.042	-5.69
225.277	-3.69
225.511	6.31
225.746	3.31
225.98	12.31
226.215	7.31
226.449	22.31
226.683	20.31
226.918	7.31
227.152	24.31
227.387	44.31
227.621	30.31
227.856	38.31
228.09	54.31
228.324	56.31
228.559	59.31
228.793	58.31
229.027	72.31
229.262	56.31
229.496	66.31
229.73	66.31
229.964	54.31
230.199	72.31
230.433	74.31
230.667	72.31
230.901	82.31
231.136	74.31
231.37	72.31
231.604	80.31
231.838	65.31
232.072	81.31
232.306	79.31
232.541	68.31
232.775	84.31
233.009	76.31
233.243	83.31
233.477	88.31
233.711	77.31
233.945	66.31
234.179	80.31
234.413	85.31
234.647	93.31
234.881	83.31
235.115	74.31
235.349	69.31
235.583	85.31
235.817	73.31
236.051	68.31
236.285	74.31
236.519	72.31
236.753	89.31
236.987	81.31
237.221	87.31
237.455	73.31
237.689	83.31
237.922	72.31
238.156	80.31
238.39	66.31
238.624	80.31
238.858	64.31
239.091	77.31
239.325	78.31
239.559	72.31
239.793	71.31
240.027	71.31
240.26	82.31
240.494	61.31
240.728	72.31
240.961	54.31
241.195	78.31
241.429	75.31
241.662	69.31
241.896	85.31
242.13	85.31
242.363	77.31
242.597	74.31
242.83	82.31
243.064	60.31
243.298	81.31
243.531	81.31
243.765	73.31
243.998	57.31
244.232	73.31
244.465	80.31
244.699	77.31
244.932	73.31
245.166	75.31
245.399	71.31
245.633	70.31
245.866	57.31
246.099	73.31
246.333	78.31
246.566	62.31
246.8	69.31
247.033	73.31
247.266	79.31
247.5	77.31
247.733	68.31
247.966	70.31
248.2	80.31
248.433	80.31
248.666	77.31
248.899	84.31
249.133	72.31
249.366	77.31
249.599	66.31
249.832	80.31
250.066	68.31
250.299	82.31
250.532	66.31
250.765	68.31
250.998	79.31
251.231	73.31
251.465	80.31
251.698	74.31
251.931	74.31
252.164	71.31
252.397	78.31
252.63	94.31
252.863	69.31
253.096	88.31
253.329	85.31
253.562	83.31
253.795	77.31
254.028	81.31
254.261	82.31
254.494	81.31
254.727	83.31
254.96	69.31
255.193	78.31
255.426	61.31
255.659	87.31
255.892	93.31
256.124	80.31
256.357	72.31
256.59	70.31
256.823	74.31
257.056	78.31
257.289	85.31
257.521	78.31
257.754	83.31
257.987	76.31
258.22	79.31
258.452	86.31
258.685	72.31
258.918	75.31
259.151	70.31
259.383	77.31
259.616	88.31
259.849	71.31
260.081	69.31
260.314	78.31
260.547	77.31
260.779	67.31
261.012	72.31
261.244	71.31
261.477	90.31
261.71	84.31
261.942	75.31
262.175	80.31
262.407	81.31
262.64	70.31
262.872	77.31
263.105	81.31
263.337	89.31
263.57	73.31
263.802	84.31
264.035	62.31
264.267	61.31
264.499	88.31
264.732	74.31
264.964	80.31
265.197	71.31
265.429	78.31
265.661	82.31
265.894	81.31
266.126	80.31
266.358	81.31
266.591	71.31
266.823	79.31
267.055	74.31
267.287	93.31
267.52	83.31
267.752	75.31
267.984	88.31
268.216	89.31
268.448	79.31
268.681	74.31
268.913	81.31
269.145	75.31
269.377	84.31
269.609	87.31
269.841	79.31
270.073	84.31
270.306	85.31
270.538	68.31
270.77	82.31
271.002	70.31
271.234	67.31
271.466	74.31
271.698	95.31
271.93	80.31
272.162	76.31
272.394	66.31
272.626	75.31
272.858	84.31
273.09	65.31
273.322	70.31
273.553	69.31
273.785	85.31
274.017	82.31
274.249	72.31
274.481	76.31
274.713	73.31
274.945	85.31
275.176	97.31
275.408	72.31
275.64	80.31
275.872	84.31
276.104	90.31
276.335	106.31
276.567	78.31
276.799	84.31
277.031	80.31
277.262	89.31
277.494	86.31
277.726	73.31
277.957	77.31
278.189	77.31
278.421	61.31
278.652	74.31
278.884	84.31
279.115	82.31
279.347	93.31
279.579	87.31
279.81	81.31
280.042	84.31
280.273	84.31
280.505	79.31
280.736	91.31
280.968	78.31
281.199	82.31
281.431	64.31
281.662	72.31
281.894	81.31
282.125	68.31
282.356	99.31
282.588	81.31
282.819	90.31
283.051	78.31
283.282	86.31
283.513	77.31
283.745	65.31
283.976	80.31
284.207	82.31
284.439	81.31
284.67	81.31
284.901	88.31
285.132	77.31
285.364	83.31
285.595	86.31
285.826	77.31
286.057	84.31
286.288	79.31
286.52	97.31
286.751	88.31
286.982	84.31
287.213	77.31
287.444	83.31
287.675	83.31
287.906	90.31
288.138	81.31
288.369	84.31
288.6	79.31
288.831	72.31
289.062	92.31
289.293	88.31
289.524	89.31
289.755	84.31
289.986	85.31
290.217	79.31
290.448	83.31
290.679	82.31
290.91	84.31
291.141	86.31
291.371	81.31
291.602	73.31
291.833	88.31
292.064	71.31
292.295	89.31
292.526	88.31
292.757	76.31
292.987	87.31
293.218	54.31
293.449	95.31
293.68	86.31
293.91	89.31
294.141	84.31
294.372	74.31
294.603	78.31
294.833	95.31
295.064	81.31
295.295	73.31
295.525	91.31
295.756	95.31
295.987	84.31
296.217	80.31
296.448	89.31
296.679	76.31
296.909	74.31
297.14	88.31
297.37	86.31
297.601	80.31
297.831	73.31
298.062	89.31
298.292	81.31
298.523	82.31
298.753	77.31
298.984	89.31
299.214	88.31
299.445	102.31
299.675	80.31
299.905	84.31
300.136	84.31
300.366	86.31
300.597	89.31
300.827	93.31
301.057	94.31
301.288	84.31
301.518	91.31
301.748	72.31
301.979	78.31
302.209	87.31
302.439	86.31
302.669	71.31
302.9	90.31
303.13	73.31
303.36	70.31
303.59	74.31
303.82	92.31
304.051	82.31
304.281	75.31
304.511	85.31
304.741	79.31
304.971	78.31
305.201	90.31
305.431	84.31
305.661	84.31
305.891	78.31
306.121	84.31
306.352	90.31
306.582	94.31
306.812	92.31
307.042	74.31
307.272	71.31
307.502	74.31
307.731	84.31
307.961	80.31
308.191	96.31
308.421	69.31
308.651	85.31
308.881	92.31
309.111	73.31
309.341	76.31
309.571	98.31
309.8	79.31
310.03	88.31
310.26	87.31
310.49	85.31
310.72	78.31
310.949	98.31
311.179	79.31
311.409	92.31
311.639	79.31
311.868	89.31
312.098	83.31
312.328	85.31
312.557	93.31
312.787	83.31
313.017	73.31
313.246	73.31
313.476	87.31
313.706	71.31
313.935	65.31
314.165	83.31
314.394	82.31
314.624	92.31
314.853	84.31
315.083	84.31
315.312	75.31
315.542	88.31
315.771	80.31
316.001	74.31
316.23	80.31
316.46	79.31
316.689	77.31
316.919	88.31
317.148	77.31
317.377	78.31
317.607	91.31
317.836	75.31
318.065	74.31
318.295	76.31
318.524	89.31
318.753	84.31
318.983	78.31
319.212	87.31
319.441	84.31
319.67	73.31
319.9	86.31
320.129	81.31
320.358	99.31
320.587	89.31
320.816	76.31
321.046	80.31
321.275	91.31
321.504	81.31
321.733	91.31
321.962	99.31
322.191	85.31
322.42	81.31
322.649	100.31
322.878	76.31
323.108	93.31
323.337	81.31
323.566	77.31
323.795	88.31
324.024	75.31
324.253	86.31
324.482	80.31
324.71	77.31
324.939	88.31
325.168	76.31
325.397	80.31
325.626	77.31
325.855	68.31
326.084	77.31
326.313	66.31
326.542	71.31
326.77	101.31
326.999	61.31
327.228	78.31
327.457	78.31
327.686	81.31
327.914	78.31
328.143	90.31
328.372	86.31
328.6	90.31
328.829	82.31
329.058	89.31
329.287	70.31
329.515	94.31
329.744	91.31
329.972	72.31
330.201	73.31
330.43	85.31
330.658	79.31
330.887	87.31
331.115	95.31
331.344	88.31
331.572	92.31
331.801	77.31
332.03	86.31
332.258	83.31
332.486	81.31
332.715	85.31
332.943	74.31
333.172	87.31
333.4	80.31
333.629	81.31
333.857	92.31
334.085	81.31
334.314	89.31
334.542	82.31
334.771	84.31
334.999	78.31
335.227	81.31
335.455	87.31
335.684	82.31
335.912	81.31
336.14	71.31
336.369	82.31
336.597	79.31
336.825	79.31
337.053	74.31
337.281	70.31
337.51	81.31
337.738	83.31
337.966	74.31
338.194	74.31
338.422	74.31
338.65	72.31
338.878	86.31
339.106	70.31
339.334	93.31
339.562	86.31
339.79	81.31
340.018	86.31
340.246	72.31
340.474	86.31
340.702	92.31
340.93	75.31
341.158	78.31
341.386	71.31
341.614	79.31
341.842	74.31
342.07	74.31
342.298	77.31
342.526	70.31
342.754	86.31
342.981	78.31
343.209	69.31
343.437	83.31
343.665	74.31
343.893	70.31
344.12	82.31
344.348	92.31
344.576	78.31
344.804	82.31
345.031	88.31
345.259	87.31
345.487	89.31
345.714	70.31
345.942	68.31
346.17	81.31
346.397	86.31
346.625	75.31
346.853	88.31
347.08	89.31
347.308	98.31
347.535	91.31
347.763	62.31
347.99	81.31
348.218	89.31
348.445	80.31
348.673	85.31
348.9	72.31
349.128	90.31
349.355	90.31
349.583	92.31
349.81	82.31
350.037	78.31
350.265	73.31
350.492	93.31
350.72	90.31
350.947	73.31
351.174	72.31
351.402	81.31
351.629	93.31
351.856	86.31
352.083	82.31
352.311	76.31
352.538	81.31
352.765	88.31
352.992	81.31
353.22	86.31
353.447	78.31
353.674	81.31
353.901	90.31
354.128	90.31
354.355	84.31
354.583	71.31
354.81	97.31
355.037	84.31
355.264	79.31
355.491	74.31
355.718	87.31
355.945	94.31
356.172	88.31
356.399	77.31
356.626	80.31
356.853	89.31
357.08	93.31
357.307	91.31
357.534	102.31
357.761	78.31
357.988	79.31
358.215	81.31
358.441	84.31
358.668	87.31
358.895	81.31
359.122	91.31
359.349	78.31
359.576	95.31
359.802	88.31
360.029	69.31
360.256	88.31
360.483	79.31
360.709	72.31
360.936	88.31
361.163	87.31
361.39	78.31
361.616	79.31
361.843	81.31
362.07	84.31
362.296	98.31
362.523	83.31
362.749	85.31
362.976	88.31
363.203	91.31
363.429	82.31
363.656	96.31
363.882	78.31
364.109	82.31
364.335	89.31
364.562	80.31
364.788	65.31
365.015	66.31
365.241	77.31
365.468	101.31
365.694	80.31
365.92	77.31
366.147	81.31
366.373	73.31
366.599	89.31
366.826	85.31
367.052	81.31
367.278	90.31
367.505	78.31
367.731	87.31
367.957	85.31
368.184	88.31
368.41	100.31
368.636	102.31
368.862	87.31
369.089	87.31
369.315	104.31
369.541	92.31
369.767	90.31
369.993	98.31
370.219	86.31
370.445	83.31
370.672	93.31
370.898	97.31
371.124	72.31
371.35	89.31
371.576	88.31
371.802	82.31
372.028	85.31
372.254	74.31
372.48	86.31
372.706	79.31
372.932	78.31
373.158	99.31
373.384	78.31
373.61	77.31
373.835	75.31
374.061	81.31
374.287	82.31
374.513	88.31
374.739	86.31
374.965	75.31
375.191	98.31
375.416	91.31
375.642	78.31
375.868	81.31
376.094	78.31
376.319	89.31
376.545	86.31
376.771	85.31
376.997	78.31
377.222	87.31
377.448	88.31
377.674	85.31
377.899	87.31
378.125	90.31
378.35	92.31
378.576	106.31
378.802	86.31
379.027	79.31
379.253	97.31
379.478	100.31
379.704	75.31
379.929	78.31
380.155	84.31
380.38	78.31
380.606	95.31
380.831	78.31
381.057	88.31
381.282	83.31
381.507	72.31
381.733	84.31
381.958	93.31
382.184	89.31
382.409	73.31
382.634	79.31
382.86	96.31
383.085	96.31
383.31	94.31
383.535	96.31
383.761	95.31
383.986	109.31
384.211	75.31
384.436	83.31
384.662	97.31
384.887	99.31
385.112	89.31
385.337	82.31
385.562	105.31
385.787	93.31
386.013	89.31
386.238	90.31
386.463	92.31
386.688	79.31
386.913	89.31
387.138	93.31
387.363	87.31
387.588	80.31
387.813	93.31
388.038	80.31
388.263	97.31
388.488	95.31
388.713	81.31
388.938	82.31
389.163	78.31
389.387	87.31
389.612	74.31
389.837	98.31
390.062	86.31
390.287	97.31
390.512	94.31
390.736	95.31
390.961	85.31
391.186	98.31
391.411	101.31
391.636	104.31
391.86	92.31
392.085	96.31
392.31	101.31
392.534	86.31
392.759	83.31
392.984	100.31
393.208	93.31
393.433	83.31
393.658	101.31
393.882	93.31
394.107	96.31
394.331	99.31
394.556	82.31
394.78	78.31
395.005	80.31
395.229	97.31
395.454	95.31
395.678	106.31
395.903	80.31
396.127	88.31
396.352	104.31
396.576	81.31
396.801	103.31
397.025	95.31
397.249	104.31
397.474	103.31
397.698	82.31
397.922	101.31
398.147	95.31
398.371	95.31
398.595	103.31
398.82	95.31
399.044	87.31
399.268	109.31
399.492	103.31
399.717	120.31
399.941	103.31
400.165	113.31
400.389	96.31
400.613	89.31
400.837	101.31
401.062	102.31
401.286	106.31
401.51	107.31
401.734	101.31
401.958	96.31
402.182	104.31
402.406	113.31
402.63	95.31
402.854	89.31
403.078	99.31
403.302	104.31
403.526	101.31
403.75	101.31
403.974	101.31
404.198	104.31
404.422	94.31
404.645	96.31
404.869	115.31
405.093	99.31
405.317	110.31
405.541	104.31
405.765	100.31
405.988	113.31
406.212	93.31
406.436	91.31
406.66	105.31
406.883	92.31
407.107	102.31
407.331	115.31
407.555	106.31
407.778	115.31
408.002	113.31
408.226	108.31
408.449	107.31
408.673	112.31
408.896	103.31
409.12	100.31
409.344	106.31
409.567	106.31
409.791	107.31
410.014	97.31
410.238	99.31
410.461	93.31
410.685	101.31
410.908	98.31
411.132	104.31
411.355	110.31
411.578	112.31
411.802	116.31
412.025	109.31
412.249	108.31
412.472	102.31
412.695	100.31
412.919	115.31
413.142	110.31
413.365	101.31
413.589	96.31
413.812	107.31
414.035	108.31
414.258	113.31
414.482	95.31
414.705	122.31
414.928	112.31
415.151	107.31
415.374	109.31
415.597	109.31
415.821	97.31
416.044	99.31
416.267	102.31
416.49	114.31
416.713	110.31
416.936	103.31
417.159	108.31
417.382	115.31
417.605	87.31
417.828	106.31
418.051	108.31
418.274	118.31
418.497	109.31
418.72	112.31
418.943	100.31
419.166	97.31
419.389	112.31
419.611	108.31
419.834	103.31
420.057	120.31
420.28	109.31
420.503	124.31
420.726	106.31
420.948	104.31
421.171	111.31
421.394	122.31
421.617	117.31
421.839	116.31
422.062	119.31
422.285	94.31
422.507	112.31
422.73	114.31
422.953	110.31
423.175	108.31
423.398	109.31
423.621	100.31
423.843	120.31
424.066	92.31
424.288	116.31
424.511	106.31
424.733	110.31
424.956	98.31
425.178	112.31
425.401	105.31
425.623	112.31
425.846	110.31
426.068	113.31
426.291	103.31
426.513	101.31
426.735	104.31
426.958	97.31
427.18	108.31
427.402	106.31
427.625	126.31
427.847	102.31
428.069	112.31
428.292	110.31
428.514	102.31
428.736	102.31
428.958	111.31
429.181	111.31
429.403	104.31
429.625	110.31
429.847	96.31
430.069	104.31
430.292	115.31
430.514	103.31
430.736	105.31
430.958	104.31
431.18	92.31
431.402	110.31
431.624	100.31
431.846	94.31
432.068	102.31
432.29	100.31
432.512	100.31
432.734	108.31
432.956	123.31
433.178	119.31
433.4	105.31
433.622	117.31
433.844	110.31
434.066	104.31
434.287	105.31
434.509	103.31
434.731	106.31
434.953	109.31
435.175	98.31
435.397	108.31
435.618	113.31
435.84	108.31
436.062	110.31
436.284	104.31
436.505	110.31
436.727	120.31
436.949	103.31
437.17	114.31
437.392	104.31
437.614	121.31
437.835	97.31
438.057	106.31
438.278	107.31
438.5	104.31
438.721	114.31
438.943	126.31
439.165	119.31
439.386	113.31
439.608	105.31
439.829	101.31
440.05	121.31
440.272	102.31
440.493	100.31
440.715	112.31
440.936	123.31
441.158	120.31
441.379	121.31
441.6	118.31
441.822	117.31
442.043	110.31
442.264	125.31
442.486	103.31
442.707	119.31
442.928	124.31
443.149	105.31
443.371	112.31
443.592	118.31
443.813	112.31
444.034	108.31
444.255	113.31
444.476	113.31
444.698	120.31
444.919	119.31
445.14	257.31
445.361	177.31
445.582	119.31
445.803	113.31
446.024	108.31
446.245	112.31
446.466	112.31
446.687	118.31
446.908	118.31
447.129	115.31
447.35	113.31
447.571	129.31
447.792	81.31
448.013	98.31
448.234	121.31
448.455	108.31
448.675	112.31
448.896	109.31
449.117	117.31
449.338	108.31
449.559	98.31
449.779	113.31
450	113.31
450.221	110.31
450.442	122.31
450.662	110.31
450.883	115.31
451.104	98.31
451.324	101.31
451.545	101.31
451.766	92.31
451.986	95.31
452.207	97.31
452.428	115.31
452.648	101.31
452.869	110.31
453.089	101.31
453.31	112.31
453.53	126.31
453.751	99.31
453.971	88.31
454.192	111.31
454.412	100.31
454.633	112.31
454.853	103.31
455.073	112.31
455.294	108.31
455.514	97.31
455.734	105.31
455.955	104.31
456.175	103.31
456.395	97.31
456.616	92.31
456.836	100.31
457.056	103.31
457.276	96.31
457.497	109.31
457.717	97.31
457.937	94.31
458.157	105.31
458.377	104.31
458.598	102.31
458.818	96.31
459.038	80.31
459.258	92.31
459.478	84.31
459.698	98.31
459.918	90.31
460.138	105.31
460.358	108.31
460.578	108.31
460.798	113.31
461.018	104.31
461.238	112.31
461.458	112.31
461.678	112.31
461.898	109.31
462.118	117.31
462.338	106.31
462.558	109.31
462.777	102.31
462.997	121.31
463.217	110.31
463.437	114.31
463.657	114.31
463.876	113.31
464.096	117.31
464.316	118.31
464.536	103.31
464.755	108.31
464.975	110.31
465.195	124.31
465.414	108.31
465.634	111.31
465.854	107.31
466.073	102.31
466.293	108.31
466.512	111.31
466.732	102.31
466.951	110.31
467.171	115.31
467.391	106.31
467.61	117.31
467.829	111.31
468.049	104.31
468.268	113.31
468.488	100.31
468.707	114.31
468.927	102.31
469.146	104.31
469.365	115.31
469.585	123.31
469.804	115.31
470.023	108.31
470.243	104.31
470.462	111.31
470.681	110.31
470.901	117.31
471.12	113.31
471.339	117.31
471.558	104.31
471.777	109.31
471.997	110.31
472.216	110.31
472.435	92.31
472.654	95.31
472.873	102.31
473.092	85.31
473.311	100.31
473.53	96.31
473.749	107.31
473.968	111.31
474.187	102.31
474.406	110.31
474.625	97.31
474.844	116.31
475.063	114.31
475.282	122.31
475.501	107.31
475.72	120.31
475.939	115.31
476.158	113.31
476.377	106.31
476.596	100.31
476.814	116.31
477.033	96.31
477.252	104.31
477.471	110.31
477.69	122.31
477.908	106.31
478.127	127.31
478.346	117.31
478.564	105.31
478.783	124.31
479.002	132.31
479.22	119.31
479.439	119.31
479.658	113.31
479.876	110.31
480.095	110.31
480.313	100.31
480.532	109.31
480.751	127.31
480.969	101.31
481.188	107.31
481.406	97.31
481.624	105.31
481.843	105.31
482.061	124.31
482.28	104.31
482.498	120.31
482.717	119.31
482.935	114.31
483.153	122.31
483.372	122.31
483.59	127.31
483.808	116.31
484.027	121.31
484.245	102.31
484.463	96.31
484.681	120.31
484.9	110.31
485.118	134.31
485.336	120.31
485.554	116.31
485.772	129.31
485.99	111.31
486.209	114.31
486.427	98.31
486.645	122.31
486.863	127.31
487.081	118.31
487.299	136.31
487.517	124.31
487.735	123.31
487.953	129.31
488.171	143.31
488.389	123.31
488.607	121.31
488.825	105.31
489.043	116.31
489.261	117.31
489.479	124.31
489.696	128.31
489.914	134.31
490.132	133.31
490.35	136.31
490.568	124.31
490.786	127.31
491.003	144.31
491.221	147.31
491.439	124.31
491.657	136.31
491.874	153.31
492.092	138.31
492.31	148.31
492.527	158.31
492.745	140.31
492.963	165.31
493.18	147.31
493.398	138.31
493.615	137.31
493.833	121.31
494.05	153.31
494.268	145.31
494.485	146.31
494.703	167.31
494.92	131.31
495.138	134.31
495.355	138.31
495.573	132.31
495.79	144.31
496.008	136.31
496.225	131.31
496.442	135.31
496.66	123.31
496.877	149.31
497.094	151.31
497.312	136.31
497.529	132.31
497.746	145.31
497.963	132.31
498.181	131.31
498.398	133.31
498.615	115.31
498.832	139.31
499.049	128.31
499.267	135.31
499.484	165.31
499.701	153.31
499.918	175.31
500.135	178.31
500.352	198.31
500.569	196.31
500.786	200.31
501.003	202.31
501.22	191.31
501.437	164.31
501.654	164.31
501.871	156.31
502.088	144.31
502.305	140.31
502.522	152.31
502.739	136.31
502.956	146.31
503.172	142.31
503.389	144.31
503.606	130.31
503.823	129.31
504.04	137.31
504.256	143.31
504.473	128.31
504.69	125.31
504.907	123.31
505.123	125.31
505.34	118.31
505.557	108.31
505.773	120.31
505.99	120.31
506.207	111.31
506.423	126.31
506.64	113.31
506.856	112.31
507.073	128.31
507.289	98.31
507.506	106.31
507.722	119.31
507.939	116.31
508.155	116.31
508.372	132.31
508.588	118.31
508.805	108.31
509.021	119.31
509.238	93.31
509.454	110.31
509.67	96.31
509.887	108.31
510.103	113.31
510.319	110.31
510.536	105.31
510.752	94.31
510.968	113.31
511.184	114.31
511.401	97.31
511.617	113.31
511.833	106.31
512.049	117.31
512.265	114.31
512.481	110.31
