Data from StandardFe(NO3)3.TAE.3%Agarose.FlatLispGreen.Lamp.Energy10.07252019_HRD10591_11-54-12-440.txt Node
Date: Thu Jul 25 11:54:12 EDT 2019
User: cochatt
Spectrometer: HR+D1059
Trigger mode: 1
Integration Time (sec): 1.000000E-1
Scans to average: 1
Electric dark correction enabled: true
Nonlinearity correction enabled: false
Boxcar width: 0
XAxis mode: Wavelengths
Number of Pixels in Spectrum: 2048
>>>>>Begin Spectral Data<<<<<
223.165	-19.06
223.4	-19.06
223.635	-19.06
223.869	-22.06
224.104	-20.06
224.338	-4.06
224.573	-9.06
224.808	-7.06
225.042	-13.06
225.277	-8.06
225.511	-15.06
225.746	1.94
225.98	10.94
226.215	13.94
226.449	15.94
226.683	17.94
226.918	31.94
227.152	24.94
227.387	31.94
227.621	33.94
227.856	49.94
228.09	38.94
228.324	65.94
228.559	50.94
228.793	53.94
229.027	73.94
229.262	70.94
229.496	54.94
229.73	63.94
229.964	72.94
230.199	73.94
230.433	85.94
230.667	75.94
230.901	78.94
231.136	87.94
231.37	69.94
231.604	67.94
231.838	80.94
232.072	77.94
232.306	69.94
232.541	93.94
232.775	82.94
233.009	93.94
233.243	77.94
233.477	86.94
233.711	70.94
233.945	93.94
234.179	76.94
234.413	84.94
234.647	90.94
234.881	85.94
235.115	82.94
235.349	91.94
235.583	77.94
235.817	81.94
236.051	77.94
236.285	88.94
236.519	97.94
236.753	89.94
236.987	97.94
237.221	74.94
237.455	72.94
237.689	82.94
237.922	86.94
238.156	70.94
238.39	83.94
238.624	73.94
238.858	93.94
239.091	68.94
239.325	81.94
239.559	88.94
239.793	81.94
240.027	77.94
240.26	86.94
240.494	78.94
240.728	72.94
240.961	86.94
241.195	68.94
241.429	88.94
241.662	92.94
241.896	80.94
242.13	81.94
242.363	77.94
242.597	81.94
242.83	91.94
243.064	82.94
243.298	73.94
243.531	84.94
243.765	87.94
243.998	75.94
244.232	81.94
244.465	84.94
244.699	79.94
244.932	74.94
245.166	70.94
245.399	74.94
245.633	84.94
245.866	75.94
246.099	85.94
246.333	76.94
246.566	79.94
246.8	82.94
247.033	90.94
247.266	77.94
247.5	74.94
247.733	82.94
247.966	73.94
248.2	86.94
248.433	88.94
248.666	75.94
248.899	85.94
249.133	87.94
249.366	84.94
249.599	75.94
249.832	77.94
250.066	87.94
250.299	70.94
250.532	85.94
250.765	78.94
250.998	93.94
251.231	66.94
251.465	75.94
251.698	76.94
251.931	77.94
252.164	84.94
252.397	81.94
252.63	80.94
252.863	79.94
253.096	89.94
253.329	75.94
253.562	65.94
253.795	83.94
254.028	78.94
254.261	96.94
254.494	84.94
254.727	84.94
254.96	74.94
255.193	80.94
255.426	64.94
255.659	77.94
255.892	84.94
256.124	92.94
256.357	82.94
256.59	93.94
256.823	74.94
257.056	86.94
257.289	68.94
257.521	86.94
257.754	90.94
257.987	76.94
258.22	86.94
258.452	100.94
258.685	82.94
258.918	83.94
259.151	83.94
259.383	94.94
259.616	75.94
259.849	88.94
260.081	89.94
260.314	75.94
260.547	96.94
260.779	97.94
261.012	83.94
261.244	69.94
261.477	73.94
261.71	85.94
261.942	70.94
262.175	77.94
262.407	83.94
262.64	80.94
262.872	84.94
263.105	77.94
263.337	94.94
263.57	80.94
263.802	87.94
264.035	85.94
264.267	88.94
264.499	78.94
264.732	90.94
264.964	86.94
265.197	83.94
265.429	60.94
265.661	82.94
265.894	80.94
266.126	89.94
266.358	90.94
266.591	89.94
266.823	80.94
267.055	84.94
267.287	81.94
267.52	82.94
267.752	101.94
267.984	74.94
268.216	80.94
268.448	89.94
268.681	91.94
268.913	92.94
269.145	83.94
269.377	92.94
269.609	79.94
269.841	81.94
270.073	85.94
270.306	82.94
270.538	83.94
270.77	86.94
271.002	92.94
271.234	74.94
271.466	95.94
271.698	68.94
271.93	82.94
272.162	75.94
272.394	87.94
272.626	85.94
272.858	99.94
273.09	87.94
273.322	90.94
273.553	82.94
273.785	89.94
274.017	95.94
274.249	84.94
274.481	88.94
274.713	101.94
274.945	73.94
275.176	73.94
275.408	85.94
275.64	82.94
275.872	78.94
276.104	73.94
276.335	90.94
276.567	75.94
276.799	87.94
277.031	79.94
277.262	92.94
277.494	86.94
277.726	67.94
277.957	97.94
278.189	84.94
278.421	77.94
278.652	88.94
278.884	90.94
279.115	89.94
279.347	85.94
279.579	85.94
279.81	74.94
280.042	86.94
280.273	82.94
280.505	93.94
280.736	85.94
280.968	93.94
281.199	81.94
281.431	78.94
281.662	81.94
281.894	72.94
282.125	88.94
282.356	101.94
282.588	88.94
282.819	80.94
283.051	85.94
283.282	82.94
283.513	85.94
283.745	75.94
283.976	71.94
284.207	79.94
284.439	99.94
284.67	84.94
284.901	81.94
285.132	76.94
285.364	76.94
285.595	79.94
285.826	97.94
286.057	92.94
286.288	90.94
286.52	96.94
286.751	66.94
286.982	89.94
287.213	89.94
287.444	75.94
287.675	97.94
287.906	78.94
288.138	82.94
288.369	87.94
288.6	97.94
288.831	91.94
289.062	80.94
289.293	87.94
289.524	78.94
289.755	85.94
289.986	86.94
290.217	86.94
290.448	86.94
290.679	99.94
290.91	97.94
291.141	92.94
291.371	84.94
291.602	82.94
291.833	86.94
292.064	96.94
292.295	85.94
292.526	78.94
292.757	99.94
292.987	86.94
293.218	79.94
293.449	93.94
293.68	89.94
293.91	83.94
294.141	76.94
294.372	93.94
294.603	86.94
294.833	93.94
295.064	80.94
295.295	72.94
295.525	95.94
295.756	78.94
295.987	91.94
296.217	89.94
296.448	94.94
296.679	83.94
296.909	92.94
297.14	77.94
297.37	88.94
297.601	81.94
297.831	81.94
298.062	74.94
298.292	105.94
298.523	92.94
298.753	86.94
298.984	89.94
299.214	85.94
299.445	80.94
299.675	79.94
299.905	91.94
300.136	77.94
300.366	90.94
300.597	88.94
300.827	84.94
301.057	83.94
301.288	84.94
301.518	81.94
301.748	89.94
301.979	81.94
302.209	89.94
302.439	83.94
302.669	94.94
302.9	89.94
303.13	90.94
303.36	76.94
303.59	81.94
303.82	86.94
304.051	91.94
304.281	90.94
304.511	79.94
304.741	87.94
304.971	83.94
305.201	84.94
305.431	96.94
305.661	84.94
305.891	87.94
306.121	90.94
306.352	96.94
306.582	70.94
306.812	78.94
307.042	77.94
307.272	81.94
307.502	91.94
307.731	79.94
307.961	83.94
308.191	87.94
308.421	80.94
308.651	78.94
308.881	69.94
309.111	85.94
309.341	82.94
309.571	84.94
309.8	90.94
310.03	102.94
310.26	82.94
310.49	88.94
310.72	86.94
310.949	80.94
311.179	92.94
311.409	92.94
311.639	80.94
311.868	89.94
312.098	85.94
312.328	88.94
312.557	87.94
312.787	98.94
313.017	77.94
313.246	88.94
313.476	82.94
313.706	90.94
313.935	84.94
314.165	77.94
314.394	99.94
314.624	84.94
314.853	80.94
315.083	88.94
315.312	96.94
315.542	98.94
315.771	82.94
316.001	91.94
316.23	77.94
316.46	83.94
316.689	85.94
316.919	89.94
317.148	83.94
317.377	86.94
317.607	88.94
317.836	94.94
318.065	87.94
318.295	86.94
318.524	90.94
318.753	80.94
318.983	83.94
319.212	89.94
319.441	82.94
319.67	85.94
319.9	86.94
320.129	92.94
320.358	81.94
320.587	80.94
320.816	78.94
321.046	81.94
321.275	82.94
321.504	81.94
321.733	79.94
321.962	72.94
322.191	91.94
322.42	82.94
322.649	98.94
322.878	102.94
323.108	75.94
323.337	90.94
323.566	70.94
323.795	98.94
324.024	87.94
324.253	94.94
324.482	72.94
324.71	84.94
324.939	80.94
325.168	84.94
325.397	90.94
325.626	75.94
325.855	101.94
326.084	77.94
326.313	84.94
326.542	75.94
326.77	82.94
326.999	84.94
327.228	89.94
327.457	90.94
327.686	77.94
327.914	84.94
328.143	110.94
328.372	86.94
328.6	84.94
328.829	82.94
329.058	91.94
329.287	92.94
329.515	78.94
329.744	88.94
329.972	89.94
330.201	93.94
330.43	73.94
330.658	92.94
330.887	81.94
331.115	86.94
331.344	83.94
331.572	101.94
331.801	76.94
332.03	91.94
332.258	101.94
332.486	82.94
332.715	88.94
332.943	96.94
333.172	79.94
333.4	89.94
333.629	96.94
333.857	84.94
334.085	76.94
334.314	84.94
334.542	80.94
334.771	84.94
334.999	77.94
335.227	90.94
335.455	79.94
335.684	85.94
335.912	92.94
336.14	82.94
336.369	91.94
336.597	94.94
336.825	81.94
337.053	84.94
337.281	77.94
337.51	88.94
337.738	93.94
337.966	91.94
338.194	97.94
338.422	82.94
338.65	78.94
338.878	88.94
339.106	86.94
339.334	89.94
339.562	82.94
339.79	74.94
340.018	84.94
340.246	88.94
340.474	85.94
340.702	82.94
340.93	76.94
341.158	77.94
341.386	90.94
341.614	76.94
341.842	79.94
342.07	77.94
342.298	94.94
342.526	90.94
342.754	95.94
342.981	79.94
343.209	77.94
343.437	88.94
343.665	90.94
343.893	83.94
344.12	78.94
344.348	91.94
344.576	88.94
344.804	78.94
345.031	86.94
345.259	94.94
345.487	91.94
345.714	74.94
345.942	96.94
346.17	90.94
346.397	95.94
346.625	101.94
346.853	91.94
347.08	85.94
347.308	77.94
347.535	93.94
347.763	78.94
347.99	94.94
348.218	81.94
348.445	77.94
348.673	86.94
348.9	82.94
349.128	83.94
349.355	82.94
349.583	74.94
349.81	70.94
350.037	91.94
350.265	88.94
350.492	83.94
350.72	73.94
350.947	82.94
351.174	88.94
351.402	90.94
351.629	79.94
351.856	95.94
352.083	91.94
352.311	90.94
352.538	88.94
352.765	77.94
352.992	93.94
353.22	76.94
353.447	84.94
353.674	80.94
353.901	89.94
354.128	96.94
354.355	97.94
354.583	103.94
354.81	86.94
355.037	87.94
355.264	106.94
355.491	84.94
355.718	86.94
355.945	93.94
356.172	82.94
356.399	90.94
356.626	88.94
356.853	81.94
357.08	84.94
357.307	95.94
357.534	84.94
357.761	82.94
357.988	77.94
358.215	100.94
358.441	77.94
358.668	96.94
358.895	90.94
359.122	93.94
359.349	95.94
359.576	79.94
359.802	86.94
360.029	80.94
360.256	82.94
360.483	90.94
360.709	89.94
360.936	74.94
361.163	64.94
361.39	86.94
361.616	89.94
361.843	94.94
362.07	85.94
362.296	89.94
362.523	82.94
362.749	84.94
362.976	86.94
363.203	90.94
363.429	99.94
363.656	93.94
363.882	84.94
364.109	80.94
364.335	92.94
364.562	79.94
364.788	71.94
365.015	80.94
365.241	84.94
365.468	85.94
365.694	76.94
365.92	91.94
366.147	75.94
366.373	86.94
366.599	88.94
366.826	95.94
367.052	99.94
367.278	92.94
367.505	93.94
367.731	86.94
367.957	75.94
368.184	81.94
368.41	73.94
368.636	83.94
368.862	84.94
369.089	88.94
369.315	90.94
369.541	84.94
369.767	88.94
369.993	72.94
370.219	92.94
370.445	98.94
370.672	85.94
370.898	101.94
371.124	74.94
371.35	100.94
371.576	88.94
371.802	102.94
372.028	74.94
372.254	94.94
372.48	89.94
372.706	88.94
372.932	85.94
373.158	88.94
373.384	97.94
373.61	97.94
373.835	91.94
374.061	75.94
374.287	102.94
374.513	87.94
374.739	80.94
374.965	83.94
375.191	82.94
375.416	97.94
375.642	81.94
375.868	87.94
376.094	83.94
376.319	83.94
376.545	90.94
376.771	86.94
376.997	83.94
377.222	95.94
377.448	96.94
377.674	94.94
377.899	84.94
378.125	88.94
378.35	87.94
378.576	104.94
378.802	93.94
379.027	97.94
379.253	89.94
379.478	77.94
379.704	86.94
379.929	79.94
380.155	91.94
380.38	90.94
380.606	84.94
380.831	75.94
381.057	107.94
381.282	91.94
381.507	96.94
381.733	90.94
381.958	95.94
382.184	96.94
382.409	85.94
382.634	93.94
382.86	80.94
383.085	91.94
383.31	87.94
383.535	87.94
383.761	96.94
383.986	80.94
384.211	104.94
384.436	86.94
384.662	99.94
384.887	99.94
385.112	96.94
385.337	104.94
385.562	96.94
385.787	97.94
386.013	97.94
386.238	101.94
386.463	108.94
386.688	119.94
386.913	93.94
387.138	91.94
387.363	94.94
387.588	87.94
387.813	100.94
388.038	95.94
388.263	103.94
388.488	92.94
388.713	93.94
388.938	100.94
389.163	94.94
389.387	96.94
389.612	94.94
389.837	88.94
390.062	90.94
390.287	98.94
390.512	102.94
390.736	91.94
390.961	109.94
391.186	81.94
391.411	97.94
391.636	79.94
391.86	101.94
392.085	100.94
392.31	107.94
392.534	96.94
392.759	104.94
392.984	100.94
393.208	98.94
393.433	98.94
393.658	85.94
393.882	96.94
394.107	94.94
394.331	91.94
394.556	94.94
394.78	105.94
395.005	110.94
395.229	98.94
395.454	102.94
395.678	78.94
395.903	108.94
396.127	92.94
396.352	92.94
396.576	112.94
396.801	94.94
397.025	89.94
397.249	77.94
397.474	103.94
397.698	119.94
397.922	106.94
398.147	106.94
398.371	100.94
398.595	95.94
398.82	120.94
399.044	108.94
399.268	120.94
399.492	120.94
399.717	118.94
399.941	113.94
400.165	104.94
400.389	107.94
400.613	113.94
400.837	102.94
401.062	104.94
401.286	92.94
401.51	94.94
401.734	102.94
401.958	99.94
402.182	110.94
402.406	102.94
402.63	108.94
402.854	114.94
403.078	108.94
403.302	104.94
403.526	111.94
403.75	104.94
403.974	102.94
404.198	93.94
404.422	105.94
404.645	125.94
404.869	103.94
405.093	109.94
405.317	120.94
405.541	118.94
405.765	121.94
405.988	103.94
406.212	105.94
406.436	100.94
406.66	106.94
406.883	99.94
407.107	116.94
407.331	116.94
407.555	104.94
407.778	123.94
408.002	112.94
408.226	105.94
408.449	122.94
408.673	116.94
408.896	102.94
409.12	112.94
409.344	107.94
409.567	112.94
409.791	116.94
410.014	116.94
410.238	111.94
410.461	103.94
410.685	106.94
410.908	116.94
411.132	116.94
411.355	118.94
411.578	111.94
411.802	111.94
412.025	115.94
412.249	116.94
412.472	107.94
412.695	98.94
412.919	105.94
413.142	109.94
413.365	116.94
413.589	108.94
413.812	108.94
414.035	102.94
414.258	105.94
414.482	124.94
414.705	114.94
414.928	121.94
415.151	103.94
415.374	118.94
415.597	111.94
415.821	123.94
416.044	114.94
416.267	122.94
416.49	109.94
416.713	128.94
416.936	104.94
417.159	112.94
417.382	110.94
417.605	116.94
417.828	108.94
418.051	127.94
418.274	121.94
418.497	112.94
418.72	120.94
418.943	127.94
419.166	104.94
419.389	116.94
419.611	106.94
419.834	117.94
420.057	102.94
420.28	107.94
420.503	110.94
420.726	117.94
420.948	112.94
421.171	129.94
421.394	113.94
421.617	130.94
421.839	122.94
422.062	133.94
422.285	126.94
422.507	123.94
422.73	122.94
422.953	122.94
423.175	121.94
423.398	113.94
423.621	116.94
423.843	120.94
424.066	112.94
424.288	129.94
424.511	117.94
424.733	125.94
424.956	116.94
425.178	116.94
425.401	124.94
425.623	119.94
425.846	126.94
426.068	97.94
426.291	123.94
426.513	116.94
426.735	117.94
426.958	135.94
427.18	123.94
427.402	119.94
427.625	112.94
427.847	119.94
428.069	119.94
428.292	105.94
428.514	99.94
428.736	107.94
428.958	113.94
429.181	118.94
429.403	114.94
429.625	117.94
429.847	108.94
430.069	110.94
430.292	118.94
430.514	120.94
430.736	123.94
430.958	97.94
431.18	103.94
431.402	103.94
431.624	108.94
431.846	96.94
432.068	118.94
432.29	108.94
432.512	107.94
432.734	118.94
432.956	108.94
433.178	124.94
433.4	128.94
433.622	128.94
433.844	109.94
434.066	115.94
434.287	110.94
434.509	96.94
434.731	108.94
434.953	132.94
435.175	118.94
435.397	120.94
435.618	96.94
435.84	113.94
436.062	108.94
436.284	109.94
436.505	124.94
436.727	125.94
436.949	111.94
437.17	116.94
437.392	102.94
437.614	96.94
437.835	96.94
438.057	124.94
438.278	106.94
438.5	112.94
438.721	112.94
438.943	116.94
439.165	120.94
439.386	112.94
439.608	123.94
439.829	118.94
440.05	121.94
440.272	122.94
440.493	121.94
440.715	114.94
440.936	122.94
441.158	109.94
441.379	135.94
441.6	124.94
441.822	126.94
442.043	116.94
442.264	118.94
442.486	127.94
442.707	128.94
442.928	134.94
443.149	116.94
443.371	119.94
443.592	109.94
443.813	122.94
444.034	109.94
444.255	116.94
444.476	110.94
444.698	124.94
444.919	130.94
445.14	237.94
445.361	183.94
445.582	119.94
445.803	110.94
446.024	128.94
446.245	121.94
446.466	124.94
446.687	124.94
446.908	110.94
447.129	115.94
447.35	120.94
447.571	116.94
447.792	102.94
448.013	110.94
448.234	127.94
448.455	122.94
448.675	124.94
448.896	105.94
449.117	116.94
449.338	120.94
449.559	103.94
449.779	116.94
450	122.94
450.221	116.94
450.442	108.94
450.662	113.94
450.883	112.94
451.104	116.94
451.324	102.94
451.545	109.94
451.766	112.94
451.986	109.94
452.207	116.94
452.428	124.94
452.648	114.94
452.869	102.94
453.089	99.94
453.31	117.94
453.53	95.94
453.751	110.94
453.971	98.94
454.192	103.94
454.412	98.94
454.633	91.94
454.853	106.94
455.073	112.94
455.294	109.94
455.514	109.94
455.734	110.94
455.955	100.94
456.175	103.94
456.395	121.94
456.616	103.94
456.836	103.94
457.056	109.94
457.276	92.94
457.497	107.94
457.717	100.94
457.937	107.94
458.157	118.94
458.377	105.94
458.598	98.94
458.818	102.94
459.038	112.94
459.258	117.94
459.478	118.94
459.698	99.94
459.918	112.94
460.138	114.94
460.358	120.94
460.578	121.94
460.798	119.94
461.018	114.94
461.238	103.94
461.458	110.94
461.678	110.94
461.898	116.94
462.118	119.94
462.338	111.94
462.558	105.94
462.777	127.94
462.997	139.94
463.217	130.94
463.437	119.94
463.657	123.94
463.876	119.94
464.096	123.94
464.316	123.94
464.536	112.94
464.755	109.94
464.975	124.94
465.195	112.94
465.414	106.94
465.634	121.94
465.854	114.94
466.073	121.94
466.293	136.94
466.512	115.94
466.732	117.94
466.951	130.94
467.171	127.94
467.391	125.94
467.61	137.94
467.829	120.94
468.049	126.94
468.268	118.94
468.488	118.94
468.707	127.94
468.927	130.94
469.146	124.94
469.365	125.94
469.585	109.94
469.804	122.94
470.023	120.94
470.243	123.94
470.462	131.94
470.681	130.94
470.901	130.94
471.12	134.94
471.339	118.94
471.558	116.94
471.777	120.94
471.997	116.94
472.216	109.94
472.435	109.94
472.654	107.94
472.873	130.94
473.092	122.94
473.311	116.94
473.53	121.94
473.749	110.94
473.968	118.94
474.187	122.94
474.406	124.94
474.625	123.94
474.844	132.94
475.063	118.94
475.282	117.94
475.501	120.94
475.72	130.94
475.939	122.94
476.158	112.94
476.377	111.94
476.596	112.94
476.814	122.94
477.033	111.94
477.252	109.94
477.471	120.94
477.69	112.94
477.908	132.94
478.127	135.94
478.346	127.94
478.564	137.94
478.783	124.94
479.002	128.94
479.22	128.94
479.439	130.94
479.658	138.94
479.876	114.94
480.095	124.94
480.313	112.94
480.532	128.94
480.751	128.94
480.969	121.94
481.188	120.94
481.406	98.94
481.624	120.94
481.843	114.94
482.061	105.94
482.28	108.94
482.498	116.94
482.717	124.94
482.935	127.94
483.153	126.94
483.372	129.94
483.59	120.94
483.808	123.94
484.027	129.94
484.245	132.94
484.463	141.94
484.681	135.94
484.9	135.94
485.118	123.94
485.336	122.94
485.554	123.94
485.772	125.94
485.99	125.94
486.209	114.94
486.427	106.94
486.645	116.94
486.863	136.94
487.081	132.94
487.299	132.94
487.517	141.94
487.735	156.94
487.953	160.94
488.171	141.94
488.389	153.94
488.607	136.94
488.825	128.94
489.043	129.94
489.261	133.94
489.479	131.94
489.696	134.94
489.914	144.94
490.132	135.94
490.35	134.94
490.568	154.94
490.786	151.94
491.003	164.94
491.221	162.94
491.439	147.94
491.657	166.94
491.874	178.94
492.092	168.94
492.31	160.94
492.527	172.94
492.745	148.94
492.963	159.94
493.18	156.94
493.398	144.94
493.615	141.94
493.833	141.94
494.05	153.94
494.268	144.94
494.485	132.94
494.703	147.94
494.92	154.94
495.138	152.94
495.355	147.94
495.573	153.94
495.79	154.94
496.008	158.94
496.225	158.94
496.442	152.94
496.66	158.94
496.877	145.94
497.094	146.94
497.312	152.94
497.529	161.94
497.746	144.94
497.963	141.94
498.181	158.94
498.398	135.94
498.615	150.94
498.832	163.94
499.049	161.94
499.267	153.94
499.484	167.94
499.701	172.94
499.918	181.94
500.135	203.94
500.352	218.94
500.569	213.94
500.786	236.94
501.003	216.94
501.22	201.94
501.437	176.94
501.654	181.94
501.871	169.94
502.088	162.94
502.305	155.94
502.522	152.94
502.739	143.94
502.956	129.94
503.172	144.94
503.389	126.94
503.606	138.94
503.823	145.94
504.04	133.94
504.256	139.94
504.473	143.94
504.69	154.94
504.907	153.94
505.123	130.94
505.34	143.94
505.557	137.94
505.773	122.94
505.99	123.94
506.207	118.94
506.423	136.94
506.64	145.94
506.856	124.94
507.073	124.94
507.289	112.94
507.506	103.94
507.722	122.94
507.939	130.94
508.155	122.94
508.372	121.94
508.588	125.94
508.805	129.94
509.021	119.94
509.238	119.94
509.454	121.94
509.67	125.94
509.887	118.94
510.103	114.94
510.319	125.94
510.536	115.94
510.752	126.94
510.968	117.94
511.184	120.94
511.401	114.94
511.617	116.94
