Data from UnknownNail75mm.07152019.Lampedge.EN10.5scans.P1_HRD10591_15-18-26-732.txt Node
Date: Mon Jul 15 15:18:26 EDT 2019
User: cochatt
Spectrometer: HR+D1059
Trigger mode: 1
Integration Time (sec): 1.000000E-1
Scans to average: 1
Electric dark correction enabled: true
Nonlinearity correction enabled: false
Boxcar width: 0
XAxis mode: Wavelengths
Number of Pixels in Spectrum: 2048
>>>>>Begin Spectral Data<<<<<
223.165	-26.31
223.4	-26.31
223.635	-26.31
223.869	-21.31
224.104	-2.31
224.338	-10.31
224.573	-12.31
224.808	-12.31
225.042	1.69
225.277	7.69
225.511	-10.31
225.746	-6.31
225.98	-7.31
226.215	5.69
226.449	8.69
226.683	22.69
226.918	25.69
227.152	36.69
227.387	33.69
227.621	47.69
227.856	38.69
228.09	52.69
228.324	54.69
228.559	64.69
228.793	90.69
229.027	195.69
229.262	205.69
229.496	216.69
229.73	236.69
229.964	247.69
230.199	240.69
230.433	259.69
230.667	253.69
230.901	283.69
231.136	262.69
231.37	292.69
231.604	302.69
231.838	310.69
232.072	304.69
232.306	317.69
232.541	324.69
232.775	362.69
233.009	410.69
233.243	488.69
233.477	500.69
233.711	569.69
233.945	538.69
234.179	539.69
234.413	584.69
234.647	643.69
234.881	784.69
235.115	723.69
235.349	675.69
235.583	614.69
235.817	615.69
236.051	650.69
236.285	709.69
236.519	784.69
236.753	755.69
236.987	744.69
237.221	717.69
237.455	706.69
237.689	716.69
237.922	790.69
238.156	806.69
238.39	938.69
238.624	1136.69
238.858	1023.69
239.091	897.69
239.325	892.69
239.559	843.69
239.793	894.69
240.027	1084.69
240.26	1062.69
240.494	1018.69
240.728	1029.69
240.961	1202.69
241.195	1165.69
241.429	1102.69
241.662	1082.69
241.896	902.69
242.13	822.69
242.363	808.69
242.597	843.69
242.83	938.69
243.064	922.69
243.298	1010.69
243.531	1122.69
243.765	1151.69
243.998	1095.69
244.232	1015.69
244.465	997.69
244.699	1031.69
244.932	1158.69
245.166	1132.69
245.399	941.69
245.633	899.69
245.866	940.69
246.099	1030.69
246.333	1208.69
246.566	1361.69
246.8	1350.69
247.033	1314.69
247.266	1214.69
247.5	1197.69
247.733	1205.69
247.966	1165.69
248.2	1213.69
248.433	1296.69
248.666	1461.69
248.899	1474.69
249.133	1490.69
249.366	1669.69
249.599	1823.69
249.832	1693.69
250.066	1447.69
250.299	1453.69
250.532	1440.69
250.765	1408.69
250.998	1259.69
251.231	1203.69
251.465	1287.69
251.698	1365.69
251.931	1313.69
252.164	1314.69
252.397	1521.69
252.63	1770.69
252.863	1963.69
253.096	2043.69
253.329	1958.69
253.562	1860.69
253.795	2044.69
254.028	2288.69
254.261	2319.69
254.494	2124.69
254.727	1903.69
254.96	1890.69
255.193	1952.69
255.426	1911.69
255.659	1478.69
255.892	1233.69
256.124	1296.69
256.357	1539.69
256.59	1900.69
256.823	1854.69
257.056	1552.69
257.289	1435.69
257.521	1411.69
257.754	1462.69
257.987	1559.69
258.22	1526.69
258.452	1493.69
258.685	1738.69
258.918	1964.69
259.151	1900.69
259.383	1763.69
259.616	1973.69
259.849	2116.69
260.081	2592.69
260.314	3052.69
260.547	2288.69
260.779	2031.69
261.012	2388.69
261.244	2395.69
261.477	2506.69
261.71	2480.69
261.942	2018.69
262.175	1900.69
262.407	1852.69
262.64	1964.69
262.872	2307.69
263.105	2662.69
263.337	2768.69
263.57	2494.69
263.802	1590.69
264.035	1230.69
264.267	1150.69
264.499	1043.69
264.732	1032.69
264.964	1060.69
265.197	1059.69
265.429	1082.69
265.661	1023.69
265.894	1034.69
266.126	1082.69
266.358	1150.69
266.591	1386.69
266.823	1732.69
267.055	1692.69
267.287	1326.69
267.52	1132.69
267.752	1118.69
267.984	1089.69
268.216	1143.69
268.448	1242.69
268.681	1382.69
268.913	1436.69
269.145	1334.69
269.377	1439.69
269.609	1552.69
269.841	1385.69
270.073	1340.69
270.306	1376.69
270.538	1535.69
270.77	1692.69
271.002	1676.69
271.234	1717.69
271.466	1848.69
271.698	2084.69
271.93	2108.69
272.162	1963.69
272.394	1877.69
272.626	1900.69
272.858	2026.69
273.09	2270.69
273.322	2109.69
273.553	2059.69
273.785	2358.69
274.017	3056.69
274.249	3871.69
274.481	3958.69
274.713	4178.69
274.945	4837.69
275.176	4980.69
275.408	4280.69
275.64	3912.69
275.872	3893.69
276.104	2982.69
276.335	2079.69
276.567	1984.69
276.799	2075.69
277.031	2452.69
277.262	2243.69
277.494	1774.69
277.726	1622.69
277.957	1694.69
278.189	1875.69
278.421	1882.69
278.652	1894.69
278.884	1749.69
279.115	1535.69
279.347	1446.69
279.579	1367.69
279.81	1369.69
280.042	1329.69
280.273	1309.69
280.505	1292.69
280.736	1282.69
280.968	1221.69
281.199	1247.69
281.431	1269.69
281.662	1271.69
281.894	1181.69
282.125	1157.69
282.356	1178.69
282.588	1220.69
282.819	1331.69
283.051	1435.69
283.282	1574.69
283.513	1722.69
283.745	1643.69
283.976	1646.69
284.207	1711.69
284.439	1789.69
284.67	1694.69
284.901	1662.69
285.132	1674.69
285.364	1636.69
285.595	1656.69
285.826	1746.69
286.057	1862.69
286.288	1653.69
286.52	1388.69
286.751	1378.69
286.982	1415.69
287.213	1524.69
287.444	1660.69
287.675	1684.69
287.906	1509.69
288.138	1399.69
288.369	1447.69
288.6	1442.69
288.831	1382.69
289.062	1322.69
289.293	1297.69
289.524	1300.69
289.755	1356.69
289.986	1356.69
290.217	1272.69
290.448	1213.69
290.679	1190.69
290.91	1188.69
291.141	1167.69
291.371	1197.69
291.602	1194.69
291.833	1185.69
292.064	1237.69
292.295	1288.69
292.526	1322.69
292.757	1329.69
292.987	1359.69
293.218	1276.69
293.449	1288.69
293.68	1264.69
293.91	1325.69
294.141	1340.69
294.372	1352.69
294.603	1511.69
294.833	1719.69
295.064	1774.69
295.295	1734.69
295.525	1528.69
295.756	1487.69
295.987	1366.69
296.217	1388.69
296.448	1446.69
296.679	1527.69
296.909	1690.69
297.14	1694.69
297.37	1659.69
297.601	1565.69
297.831	1432.69
298.062	1423.69
298.292	1640.69
298.523	1904.69
298.753	2167.69
298.984	1943.69
299.214	1565.69
299.445	1456.69
299.675	1494.69
299.905	1497.69
300.136	1562.69
300.366	1675.69
300.597	1704.69
300.827	1524.69
301.057	1526.69
301.288	1486.69
301.518	1387.69
301.748	1447.69
301.979	1651.69
302.209	1926.69
302.439	1988.69
302.669	1714.69
302.9	1516.69
303.13	1412.69
303.36	1359.69
303.59	1358.69
303.82	1372.69
304.051	1399.69
304.281	1379.69
304.511	1375.69
304.741	1346.69
304.971	1414.69
305.201	1346.69
305.431	1312.69
305.661	1382.69
305.891	1470.69
306.121	1610.69
306.352	1518.69
306.582	1410.69
306.812	1348.69
307.042	1402.69
307.272	1310.69
307.502	1334.69
307.731	1418.69
307.961	1442.69
308.191	1389.69
308.421	1312.69
308.651	1284.69
308.881	1270.69
309.111	1242.69
309.341	1227.69
309.571	1243.69
309.8	1296.69
310.03	1372.69
310.26	1444.69
310.49	1358.69
310.72	1280.69
310.949	1231.69
311.179	1206.69
311.409	1242.69
311.639	1266.69
311.868	1302.69
312.098	1280.69
312.328	1296.69
312.557	1278.69
312.787	1271.69
313.017	1296.69
313.246	1295.69
313.476	1309.69
313.706	1345.69
313.935	1332.69
314.165	1315.69
314.394	1333.69
314.624	1354.69
314.853	1352.69
315.083	1363.69
315.312	1409.69
315.542	1559.69
315.771	1539.69
316.001	1457.69
316.23	1399.69
316.46	1377.69
316.689	1440.69
316.919	1491.69
317.148	1493.69
317.377	1406.69
317.607	1414.69
317.836	1475.69
318.065	1561.69
318.295	1555.69
318.524	1472.69
318.753	1456.69
318.983	1479.69
319.212	1503.69
319.441	1576.69
319.67	1634.69
319.9	1577.69
320.129	1528.69
320.358	1486.69
320.587	1428.69
320.816	1473.69
321.046	1548.69
321.275	1746.69
321.504	1940.69
321.733	1859.69
321.962	1695.69
322.191	1667.69
322.42	1685.69
322.649	1779.69
322.878	1860.69
323.108	1860.69
323.337	1690.69
323.566	1612.69
323.795	1508.69
324.024	1505.69
324.253	1492.69
324.482	1505.69
324.71	1507.69
324.939	1528.69
325.168	1463.69
325.397	1447.69
325.626	1465.69
325.855	1508.69
326.084	1569.69
326.313	1536.69
326.542	1452.69
326.77	1440.69
326.999	1426.69
327.228	1415.69
327.457	1401.69
327.686	1389.69
327.914	1423.69
328.143	1462.69
328.372	1491.69
328.6	1458.69
328.829	1536.69
329.058	1515.69
329.287	1479.69
329.515	1443.69
329.744	1398.69
329.972	1418.69
330.201	1407.69
330.43	1446.69
330.658	1526.69
330.887	1577.69
331.115	1564.69
331.344	1469.69
331.572	1419.69
331.801	1448.69
332.03	1479.69
332.258	1483.69
332.486	1522.69
332.715	1562.69
332.943	1603.69
333.172	1635.69
333.4	1604.69
333.629	1668.69
333.857	1710.69
334.085	1689.69
334.314	1673.69
334.542	1654.69
334.771	1623.69
334.999	1584.69
335.227	1619.69
335.455	1601.69
335.684	1577.69
335.912	1570.69
336.14	1551.69
336.369	1547.69
336.597	1556.69
336.825	1563.69
337.053	1583.69
337.281	1617.69
337.51	1550.69
337.738	1500.69
337.966	1508.69
338.194	1544.69
338.422	1496.69
338.65	1474.69
338.878	1456.69
339.106	1483.69
339.334	1518.69
339.562	1563.69
339.79	1480.69
340.018	1475.69
340.246	1516.69
340.474	1528.69
340.702	1606.69
340.93	1676.69
341.158	1619.69
341.386	1594.69
341.614	1619.69
341.842	1568.69
342.07	1536.69
342.298	1569.69
342.526	1661.69
342.754	1705.69
342.981	1728.69
343.209	1634.69
343.437	1612.69
343.665	1713.69
343.893	1877.69
344.12	2173.69
344.348	2271.69
344.576	2020.69
344.804	1814.69
345.031	1639.69
345.259	1574.69
345.487	1559.69
345.714	1535.69
345.942	1496.69
346.17	1503.69
346.397	1515.69
346.625	1532.69
346.853	1616.69
347.08	1553.69
347.308	1568.69
347.535	1593.69
347.763	1735.69
347.99	1662.69
348.218	1467.69
348.445	1490.69
348.673	1460.69
348.9	1532.69
349.128	1611.69
349.355	1634.69
349.583	1539.69
349.81	1530.69
350.037	1535.69
350.265	1442.69
350.492	1404.69
350.72	1342.69
350.947	1388.69
351.174	1409.69
351.402	1428.69
351.629	1468.69
351.856	1473.69
352.083	1455.69
352.311	1518.69
352.538	1564.69
352.765	1638.69
352.992	1611.69
353.22	1516.69
353.447	1516.69
353.674	1515.69
353.901	1542.69
354.128	1607.69
354.355	1627.69
354.583	1570.69
354.81	1544.69
355.037	1502.69
355.264	1572.69
355.491	1688.69
355.718	1852.69
355.945	1804.69
356.172	1732.69
356.399	1726.69
356.626	1964.69
356.853	2300.69
357.08	2409.69
357.307	2508.69
357.534	1941.69
357.761	1809.69
357.988	1988.69
358.215	2532.69
358.441	2847.69
358.668	2400.69
358.895	2254.69
359.122	1797.69
359.349	1552.69
359.576	1526.69
359.802	1456.69
360.029	1426.69
360.256	1520.69
360.483	1650.69
360.709	1951.69
360.936	2254.69
361.163	2173.69
361.39	1782.69
361.616	1655.69
361.843	1907.69
362.07	2221.69
362.296	2079.69
362.523	1792.69
362.749	1590.69
362.976	1623.69
363.203	1893.69
363.429	2058.69
363.656	1749.69
363.882	1605.69
364.109	1547.69
364.335	1539.69
364.562	1556.69
364.788	1800.69
365.015	2045.69
365.241	1828.69
365.468	1594.69
365.694	1362.69
365.92	1340.69
366.147	1327.69
366.373	1309.69
366.599	1327.69
366.826	1361.69
367.052	1401.69
367.278	1404.69
367.505	1366.69
367.731	1427.69
367.957	1562.69
368.184	1620.69
368.41	1601.69
368.636	1618.69
368.862	1684.69
369.089	1656.69
369.315	1502.69
369.541	1469.69
369.767	1457.69
369.993	1438.69
370.219	1433.69
370.445	1554.69
370.672	1694.69
370.898	1811.69
371.124	1806.69
371.35	1608.69
371.576	1468.69
371.802	1625.69
372.028	1917.69
372.254	2213.69
372.48	1955.69
372.706	1808.69
372.932	1852.69
373.158	1938.69
373.384	2236.69
373.61	2947.69
373.835	3026.69
374.061	2305.69
374.287	1960.69
374.513	2122.69
374.739	2634.69
374.965	2797.69
375.191	2749.69
375.416	2033.69
375.642	1746.69
375.868	2013.69
376.094	2198.69
376.319	1992.69
376.545	2102.69
376.771	2274.69
376.997	1934.69
377.222	1546.69
377.448	1380.69
377.674	1335.69
377.899	1338.69
378.125	1344.69
378.35	1339.69
378.576	1397.69
378.802	1503.69
379.027	1582.69
379.253	1508.69
379.478	1518.69
379.704	1698.69
379.929	1754.69
380.155	1764.69
380.38	1577.69
380.606	1518.69
380.831	1640.69
381.057	1596.69
381.282	1584.69
381.507	1912.69
381.733	2264.69
381.958	2459.69
382.184	2559.69
382.409	2744.69
382.634	2559.69
382.86	2762.69
383.085	2338.69
383.31	1831.69
383.535	1998.69
383.761	2016.69
383.986	1932.69
384.211	2261.69
384.436	2222.69
384.662	1778.69
384.887	1718.69
385.112	1754.69
385.337	1730.69
385.562	1687.69
385.787	1837.69
386.013	2066.69
386.238	2143.69
386.463	1762.69
386.688	1726.69
386.913	1620.69
387.138	1598.69
387.363	1683.69
387.588	1718.69
387.813	1737.69
388.038	1900.69
388.263	1771.69
388.488	1666.69
388.713	1911.69
388.938	2081.69
389.163	1783.69
389.387	1635.69
389.612	1634.69
389.837	1706.69
390.062	1727.69
390.287	1775.69
390.512	1741.69
390.736	1646.69
390.961	1564.69
391.186	1511.69
391.411	1544.69
391.636	1562.69
391.86	1685.69
392.085	1772.69
392.31	1847.69
392.534	1793.69
392.759	1706.69
392.984	1825.69
393.208	1818.69
393.433	1736.69
393.658	1684.69
393.882	1558.69
394.107	1548.69
394.331	1532.69
394.556	1556.69
394.78	1557.69
395.005	1579.69
395.229	1583.69
395.454	1670.69
395.678	1718.69
395.903	1738.69
396.127	1633.69
396.352	1566.69
396.576	1574.69
396.801	1724.69
397.025	1942.69
397.249	1857.69
397.474	1653.69
397.698	1640.69
397.922	1640.69
398.147	1638.69
398.371	1659.69
398.595	1720.69
398.82	1730.69
399.044	1791.69
399.268	1918.69
399.492	2176.69
399.717	2380.69
399.941	2423.69
400.165	2230.69
400.389	2093.69
400.613	2102.69
400.837	1985.69
401.062	1820.69
401.286	1788.69
401.51	1747.69
401.734	1759.69
401.958	1751.69
402.182	1746.69
402.406	1799.69
402.63	1807.69
402.854	1782.69
403.078	1795.69
403.302	1919.69
403.526	2013.69
403.75	1930.69
403.974	1910.69
404.198	1976.69
404.422	2150.69
404.645	2541.69
404.869	2765.69
405.093	2156.69
405.317	1914.69
405.541	1880.69
405.765	1868.69
405.988	1916.69
406.212	2023.69
406.436	2345.69
406.66	2542.69
406.883	2202.69
407.107	2270.69
407.331	2622.69
407.555	2500.69
407.778	2190.69
408.002	2112.69
408.226	2038.69
408.449	1996.69
408.673	1923.69
408.896	1889.69
409.12	1858.69
409.344	1830.69
409.567	1783.69
409.791	1808.69
410.014	1811.69
410.238	1775.69
410.461	1782.69
410.685	1832.69
410.908	1758.69
411.132	1792.69
411.355	1735.69
411.578	1794.69
411.802	1794.69
412.025	1887.69
412.249	1930.69
412.472	1818.69
412.695	1756.69
412.919	1767.69
413.142	1787.69
413.365	1894.69
413.589	1919.69
413.812	1813.69
414.035	1758.69
414.258	1834.69
414.482	1958.69
414.705	1990.69
414.928	1746.69
415.151	1703.69
415.374	1759.69
415.597	1742.69
415.821	1731.69
416.044	1731.69
416.267	1695.69
416.49	1729.69
416.713	1632.69
416.936	1666.69
417.159	1653.69
417.382	1682.69
417.605	1676.69
417.828	1744.69
418.051	1758.69
418.274	1780.69
418.497	1803.69
418.72	1784.69
418.943	1847.69
419.166	1918.69
419.389	1964.69
419.611	1918.69
419.834	1964.69
420.057	2070.69
420.28	2062.69
420.503	1872.69
420.726	1720.69
420.948	1647.69
421.171	1668.69
421.394	1686.69
421.617	1661.69
421.839	1703.69
422.062	1784.69
422.285	1788.69
422.507	1782.69
422.73	1814.69
422.953	1852.69
423.175	1809.69
423.398	1808.69
423.621	1870.69
423.843	1915.69
424.066	1866.69
424.288	1798.69
424.511	1726.69
424.733	1743.69
424.956	1758.69
425.178	1903.69
425.401	1927.69
425.623	1755.69
425.846	1701.69
426.068	1779.69
426.291	1948.69
426.513	1736.69
426.735	1702.69
426.958	1704.69
427.18	1856.69
427.402	2240.69
427.625	1907.69
427.847	1569.69
428.069	1572.69
428.292	1574.69
428.514	1552.69
428.736	1486.69
428.958	1549.69
429.181	1495.69
429.403	1509.69
429.625	1596.69
429.847	1510.69
430.069	1583.69
430.292	1596.69
430.514	1583.69
430.736	1707.69
430.958	2084.69
431.18	1900.69
431.402	1568.69
431.624	1516.69
431.846	1564.69
432.068	1519.69
432.29	1604.69
432.512	1707.69
432.734	2128.69
432.956	1968.69
433.178	1598.69
433.4	1503.69
433.622	1523.69
433.844	1544.69
434.066	1523.69
434.287	1467.69
434.509	1535.69
434.731	1605.69
434.953	1632.69
435.175	1614.69
435.397	1657.69
435.618	1604.69
435.84	1543.69
436.062	1494.69
436.284	1490.69
436.505	1437.69
436.727	1473.69
436.949	1478.69
437.17	1484.69
437.392	1464.69
437.614	1455.69
437.835	1425.69
438.057	1506.69
438.278	1736.69
438.5	2270.69
438.721	2238.69
438.943	1599.69
439.165	1478.69
439.386	1475.69
439.608	1448.69
439.829	1457.69
440.05	1471.69
440.272	1554.69
440.493	1779.69
440.715	2142.69
440.936	1754.69
441.158	1602.69
441.379	1618.69
441.6	1785.69
441.822	1870.69
442.043	1731.69
442.264	1636.69
442.486	1618.69
442.707	1633.69
442.928	1633.69
443.149	1618.69
443.371	1580.69
443.592	1611.69
443.813	1637.69
444.034	1694.69
444.255	1769.69
444.476	1845.69
444.698	1912.69
444.919	1847.69
445.14	1944.69
445.361	1759.69
445.582	1677.69
445.803	1608.69
446.024	1608.69
446.245	1590.69
446.466	1573.69
446.687	1502.69
446.908	1594.69
447.129	1494.69
447.35	1462.69
447.571	1469.69
447.792	1453.69
448.013	1455.69
448.234	1394.69
448.455	1454.69
448.675	1422.69
448.896	1391.69
449.117	1344.69
449.338	1384.69
449.559	1442.69
449.779	1443.69
450	1389.69
450.221	1430.69
450.442	1423.69
450.662	1464.69
450.883	1468.69
451.104	1462.69
451.324	1440.69
451.545	1432.69
451.766	1451.69
451.986	1384.69
452.207	1415.69
452.428	1389.69
452.648	1370.69
452.869	1394.69
453.089	1420.69
453.31	1434.69
453.53	1311.69
453.751	1293.69
453.971	1316.69
454.192	1325.69
454.412	1273.69
454.633	1281.69
454.853	1274.69
455.073	1250.69
455.294	1281.69
455.514	1282.69
455.734	1296.69
455.955	1263.69
456.175	1283.69
456.395	1282.69
456.616	1260.69
456.836	1263.69
457.056	1286.69
457.276	1237.69
457.497	1274.69
457.717	1251.69
457.937	1297.69
458.157	1309.69
458.377	1322.69
458.598	1346.69
458.818	1352.69
459.038	1399.69
459.258	1437.69
459.478	1435.69
459.698	1508.69
459.918	1562.69
460.138	1623.69
460.358	1637.69
460.578	1640.69
460.798	1679.69
461.018	1720.69
461.238	1688.69
461.458	1675.69
461.678	1679.69
461.898	1715.69
462.118	1771.69
462.338	1773.69
462.558	1859.69
462.777	1890.69
462.997	2010.69
463.217	2107.69
463.437	2141.69
463.657	1982.69
463.876	1935.69
464.096	1878.69
464.316	1890.69
464.536	1964.69
464.755	1939.69
464.975	1840.69
465.195	1837.69
465.414	1822.69
465.634	1788.69
465.854	1802.69
466.073	1670.69
466.293	1690.69
466.512	1792.69
466.732	1820.69
466.951	1896.69
467.171	1662.69
467.391	1628.69
467.61	1663.69
467.829	1758.69
468.049	1797.69
468.268	1623.69
468.488	1670.69
468.707	1684.69
468.927	1948.69
469.146	2075.69
469.365	1878.69
469.585	1779.69
469.804	1855.69
470.023	2021.69
470.243	1794.69
470.462	1770.69
470.681	1800.69
470.901	1728.69
471.12	1819.69
471.339	1824.69
471.558	1728.69
471.777	1700.69
471.997	1806.69
472.216	2005.69
472.435	1916.69
472.654	1812.69
472.873	1744.69
473.092	1826.69
473.311	1871.69
473.53	1715.69
473.749	1705.69
473.968	1733.69
474.187	1742.69
474.406	1725.69
474.625	1718.69
474.844	1786.69
475.063	1898.69
475.282	1879.69
475.501	1804.69
475.72	1756.69
475.939	1804.69
476.158	1910.69
476.377	2069.69
476.596	2383.69
476.814	2458.69
477.033	2160.69
477.252	1986.69
477.471	1883.69
477.69	1906.69
477.908	2140.69
478.127	2142.69
478.346	1953.69
478.564	1954.69
478.783	1961.69
479.002	2029.69
479.22	2262.69
479.439	2596.69
479.658	2308.69
479.876	2187.69
480.095	2336.69
480.313	2320.69
480.532	2190.69
480.751	2141.69
480.969	2223.69
481.188	2479.69
481.406	2464.69
481.624	2300.69
481.843	2100.69
482.061	1972.69
482.28	2203.69
482.498	2384.69
482.717	2119.69
482.935	2124.69
483.153	1979.69
483.372	1862.69
483.59	1892.69
483.808	1945.69
484.027	1926.69
484.245	1850.69
484.463	1846.69
484.681	1944.69
484.9	2032.69
485.118	2151.69
485.336	2060.69
485.554	1968.69
485.772	2008.69
485.99	2181.69
486.209	2289.69
486.427	2238.69
486.645	2210.69
486.863	2224.69
487.081	2258.69
