Data from UnknownNail75mm.07152019.Lampedge.EN10.5scans.P1_HRD10591_15-18-27-732.txt Node
Date: Mon Jul 15 15:18:27 EDT 2019
User: cochatt
Spectrometer: HR+D1059
Trigger mode: 1
Integration Time (sec): 1.000000E-1
Scans to average: 1
Electric dark correction enabled: true
Nonlinearity correction enabled: false
Boxcar width: 0
XAxis mode: Wavelengths
Number of Pixels in Spectrum: 2048
>>>>>Begin Spectral Data<<<<<
223.165	-7.88
223.4	-7.88
223.635	-7.88
223.869	-10.88
224.104	-11.88
224.338	-11.88
224.573	-16.88
224.808	-22.88
225.042	-10.88
225.277	-8.88
225.511	-3.88
225.746	-4.88
225.98	5.12
226.215	9.12
226.449	18.12
226.683	22.12
226.918	26.12
227.152	30.12
227.387	27.12
227.621	51.12
227.856	62.12
228.09	45.12
228.324	58.12
228.559	52.12
228.793	91.12
229.027	183.12
229.262	192.12
229.496	212.12
229.73	219.12
229.964	218.12
230.199	225.12
230.433	242.12
230.667	250.12
230.901	267.12
231.136	264.12
231.37	289.12
231.604	315.12
231.838	289.12
232.072	308.12
232.306	316.12
232.541	326.12
232.775	351.12
233.009	390.12
233.243	436.12
233.477	469.12
233.711	540.12
233.945	555.12
234.179	527.12
234.413	568.12
234.647	635.12
234.881	726.12
235.115	714.12
235.349	682.12
235.583	613.12
235.817	591.12
236.051	639.12
236.285	695.12
236.519	780.12
236.753	764.12
236.987	728.12
237.221	686.12
237.455	734.12
237.689	748.12
237.922	778.12
238.156	814.12
238.39	956.12
238.624	1108.12
238.858	1075.12
239.091	862.12
239.325	870.12
239.559	827.12
239.793	904.12
240.027	1125.12
240.26	1079.12
240.494	1012.12
240.728	1008.12
240.961	1149.12
241.195	1122.12
241.429	1088.12
241.662	1072.12
241.896	933.12
242.13	816.12
242.363	780.12
242.597	776.12
242.83	939.12
243.064	960.12
243.298	997.12
243.531	1085.12
243.765	1140.12
243.998	1083.12
244.232	1026.12
244.465	1025.12
244.699	1005.12
244.932	1139.12
245.166	1134.12
245.399	958.12
245.633	906.12
245.866	941.12
246.099	1071.12
246.333	1257.12
246.566	1326.12
246.8	1340.12
247.033	1299.12
247.266	1196.12
247.5	1228.12
247.733	1197.12
247.966	1135.12
248.2	1179.12
248.433	1336.12
248.666	1462.12
248.899	1426.12
249.133	1477.12
249.366	1686.12
249.599	1811.12
249.832	1677.12
250.066	1411.12
250.299	1440.12
250.532	1451.12
250.765	1431.12
250.998	1302.12
251.231	1200.12
251.465	1302.12
251.698	1395.12
251.931	1300.12
252.164	1355.12
252.397	1558.12
252.63	1758.12
252.863	1952.12
253.096	2087.12
253.329	1956.12
253.562	1861.12
253.795	2072.12
254.028	2258.12
254.261	2354.12
254.494	2163.12
254.727	1926.12
254.96	1876.12
255.193	1966.12
255.426	1921.12
255.659	1413.12
255.892	1257.12
256.124	1276.12
256.357	1508.12
256.59	1885.12
256.823	1831.12
257.056	1574.12
257.289	1429.12
257.521	1389.12
257.754	1452.12
257.987	1570.12
258.22	1522.12
258.452	1470.12
258.685	1717.12
258.918	1953.12
259.151	1889.12
259.383	1746.12
259.616	1943.12
259.849	2100.12
260.081	2523.12
260.314	3050.12
260.547	2283.12
260.779	2036.12
261.012	2358.12
261.244	2400.12
261.477	2515.12
261.71	2482.12
261.942	2016.12
262.175	1912.12
262.407	1842.12
262.64	1944.12
262.872	2306.12
263.105	2616.12
263.337	2696.12
263.57	2495.12
263.802	1590.12
264.035	1275.12
264.267	1125.12
264.499	1042.12
264.732	1049.12
264.964	1052.12
265.197	1047.12
265.429	1029.12
265.661	1056.12
265.894	1064.12
266.126	1095.12
266.358	1159.12
266.591	1406.12
266.823	1748.12
267.055	1667.12
267.287	1307.12
267.52	1138.12
267.752	1113.12
267.984	1135.12
268.216	1156.12
268.448	1274.12
268.681	1407.12
268.913	1420.12
269.145	1328.12
269.377	1419.12
269.609	1552.12
269.841	1430.12
270.073	1344.12
270.306	1348.12
270.538	1494.12
270.77	1706.12
271.002	1710.12
271.234	1705.12
271.466	1889.12
271.698	2076.12
271.93	2067.12
272.162	1989.12
272.394	1937.12
272.626	1900.12
272.858	2045.12
273.09	2246.12
273.322	2034.12
273.553	2061.12
273.785	2392.12
274.017	3075.12
274.249	3842.12
274.481	3970.12
274.713	4172.12
274.945	4797.12
275.176	4897.12
275.408	4240.12
275.64	3880.12
275.872	3801.12
276.104	2960.12
276.335	2084.12
276.567	1937.12
276.799	2105.12
277.031	2462.12
277.262	2249.12
277.494	1787.12
277.726	1618.12
277.957	1696.12
278.189	1853.12
278.421	1897.12
278.652	1879.12
278.884	1724.12
279.115	1549.12
279.347	1419.12
279.579	1369.12
279.81	1380.12
280.042	1344.12
280.273	1324.12
280.505	1273.12
280.736	1272.12
280.968	1257.12
281.199	1217.12
281.431	1281.12
281.662	1275.12
281.894	1194.12
282.125	1156.12
282.356	1218.12
282.588	1268.12
282.819	1314.12
283.051	1461.12
283.282	1580.12
283.513	1687.12
283.745	1656.12
283.976	1665.12
284.207	1777.12
284.439	1817.12
284.67	1718.12
284.901	1697.12
285.132	1636.12
285.364	1657.12
285.595	1629.12
285.826	1732.12
286.057	1835.12
286.288	1672.12
286.52	1424.12
286.751	1394.12
286.982	1421.12
287.213	1537.12
287.444	1660.12
287.675	1708.12
287.906	1530.12
288.138	1421.12
288.369	1421.12
288.6	1455.12
288.831	1386.12
289.062	1328.12
289.293	1315.12
289.524	1288.12
289.755	1356.12
289.986	1340.12
290.217	1272.12
290.448	1208.12
290.679	1193.12
290.91	1175.12
291.141	1162.12
291.371	1216.12
291.602	1190.12
291.833	1178.12
292.064	1230.12
292.295	1273.12
292.526	1311.12
292.757	1365.12
292.987	1395.12
293.218	1336.12
293.449	1270.12
293.68	1290.12
293.91	1302.12
294.141	1361.12
294.372	1365.12
294.603	1478.12
294.833	1701.12
295.064	1817.12
295.295	1679.12
295.525	1541.12
295.756	1496.12
295.987	1367.12
296.217	1402.12
296.448	1434.12
296.679	1539.12
296.909	1710.12
297.14	1674.12
297.37	1672.12
297.601	1569.12
297.831	1364.12
298.062	1416.12
298.292	1592.12
298.523	1958.12
298.753	2173.12
298.984	1906.12
299.214	1491.12
299.445	1420.12
299.675	1493.12
299.905	1510.12
300.136	1544.12
300.366	1756.12
300.597	1715.12
300.827	1605.12
301.057	1512.12
301.288	1475.12
301.518	1402.12
301.748	1418.12
301.979	1596.12
302.209	1905.12
302.439	1977.12
302.669	1626.12
302.9	1541.12
303.13	1394.12
303.36	1422.12
303.59	1370.12
303.82	1340.12
304.051	1419.12
304.281	1394.12
304.511	1375.12
304.741	1417.12
304.971	1430.12
305.201	1374.12
305.431	1299.12
305.661	1388.12
305.891	1519.12
306.121	1575.12
306.352	1500.12
306.582	1392.12
306.812	1370.12
307.042	1368.12
307.272	1338.12
307.502	1318.12
307.731	1405.12
307.961	1493.12
308.191	1381.12
308.421	1352.12
308.651	1316.12
308.881	1260.12
309.111	1231.12
309.341	1260.12
309.571	1254.12
309.8	1260.12
310.03	1352.12
310.26	1442.12
310.49	1380.12
310.72	1281.12
310.949	1237.12
311.179	1221.12
311.409	1226.12
311.639	1285.12
311.868	1267.12
312.098	1295.12
312.328	1255.12
312.557	1292.12
312.787	1285.12
313.017	1243.12
313.246	1312.12
313.476	1312.12
313.706	1359.12
313.935	1356.12
314.165	1354.12
314.394	1322.12
314.624	1339.12
314.853	1312.12
315.083	1322.12
315.312	1416.12
315.542	1533.12
315.771	1533.12
316.001	1437.12
316.23	1380.12
316.46	1425.12
316.689	1444.12
316.919	1501.12
317.148	1461.12
317.377	1395.12
317.607	1421.12
317.836	1491.12
318.065	1570.12
318.295	1572.12
318.524	1500.12
318.753	1459.12
318.983	1490.12
319.212	1480.12
319.441	1597.12
319.67	1630.12
319.9	1626.12
320.129	1537.12
320.358	1466.12
320.587	1473.12
320.816	1488.12
321.046	1592.12
321.275	1767.12
321.504	1937.12
321.733	1851.12
321.962	1704.12
322.191	1708.12
322.42	1716.12
322.649	1779.12
322.878	1875.12
323.108	1872.12
323.337	1688.12
323.566	1595.12
323.795	1520.12
324.024	1514.12
324.253	1500.12
324.482	1468.12
324.71	1485.12
324.939	1534.12
325.168	1513.12
325.397	1441.12
325.626	1452.12
325.855	1516.12
326.084	1525.12
326.313	1499.12
326.542	1425.12
326.77	1441.12
326.999	1437.12
327.228	1442.12
327.457	1434.12
327.686	1401.12
327.914	1418.12
328.143	1423.12
328.372	1455.12
328.6	1474.12
328.829	1530.12
329.058	1494.12
329.287	1477.12
329.515	1440.12
329.744	1393.12
329.972	1395.12
330.201	1444.12
330.43	1468.12
330.658	1525.12
330.887	1622.12
331.115	1529.12
331.344	1457.12
331.572	1451.12
331.801	1468.12
332.03	1488.12
332.258	1493.12
332.486	1530.12
332.715	1589.12
332.943	1578.12
333.172	1612.12
333.4	1636.12
333.629	1668.12
333.857	1702.12
334.085	1699.12
334.314	1667.12
334.542	1683.12
334.771	1638.12
334.999	1610.12
335.227	1601.12
335.455	1592.12
335.684	1565.12
335.912	1578.12
336.14	1516.12
336.369	1541.12
336.597	1544.12
336.825	1560.12
337.053	1581.12
337.281	1618.12
337.51	1537.12
337.738	1514.12
337.966	1490.12
338.194	1532.12
338.422	1490.12
338.65	1473.12
338.878	1452.12
339.106	1458.12
339.334	1508.12
339.562	1541.12
339.79	1525.12
340.018	1506.12
340.246	1512.12
340.474	1540.12
340.702	1633.12
340.93	1688.12
341.158	1644.12
341.386	1594.12
341.614	1630.12
341.842	1559.12
342.07	1553.12
342.298	1557.12
342.526	1616.12
342.754	1688.12
342.981	1754.12
343.209	1643.12
343.437	1614.12
343.665	1725.12
343.893	1880.12
344.12	2157.12
344.348	2268.12
344.576	2058.12
344.804	1812.12
345.031	1666.12
345.259	1598.12
345.487	1590.12
345.714	1515.12
345.942	1509.12
346.17	1498.12
346.397	1538.12
346.625	1568.12
346.853	1586.12
347.08	1548.12
347.308	1500.12
347.535	1607.12
347.763	1716.12
347.99	1678.12
348.218	1516.12
348.445	1482.12
348.673	1478.12
348.9	1531.12
349.128	1628.12
349.355	1655.12
349.583	1592.12
349.81	1550.12
350.037	1535.12
350.265	1401.12
350.492	1364.12
350.72	1381.12
350.947	1397.12
351.174	1417.12
351.402	1432.12
351.629	1486.12
351.856	1444.12
352.083	1466.12
352.311	1557.12
352.538	1602.12
352.765	1657.12
352.992	1630.12
353.22	1487.12
353.447	1534.12
353.674	1529.12
353.901	1631.12
354.128	1625.12
354.355	1646.12
354.583	1581.12
354.81	1517.12
355.037	1544.12
355.264	1554.12
355.491	1708.12
355.718	1844.12
355.945	1835.12
356.172	1739.12
356.399	1727.12
356.626	1992.12
356.853	2245.12
357.08	2420.12
357.307	2551.12
357.534	2025.12
357.761	1794.12
357.988	2020.12
358.215	2521.12
358.441	2870.12
358.668	2391.12
358.895	2242.12
359.122	1785.12
359.349	1562.12
359.576	1505.12
359.802	1490.12
360.029	1449.12
360.256	1527.12
360.483	1720.12
360.709	1984.12
360.936	2220.12
361.163	2189.12
361.39	1796.12
361.616	1678.12
361.843	1902.12
362.07	2213.12
362.296	2105.12
362.523	1769.12
362.749	1614.12
362.976	1640.12
363.203	1930.12
363.429	2100.12
363.656	1738.12
363.882	1574.12
364.109	1579.12
364.335	1565.12
364.562	1580.12
364.788	1806.12
365.015	2048.12
365.241	1876.12
365.468	1612.12
365.694	1412.12
365.92	1346.12
366.147	1322.12
366.373	1324.12
366.599	1327.12
366.826	1328.12
367.052	1353.12
367.278	1420.12
367.505	1400.12
367.731	1438.12
367.957	1610.12
368.184	1646.12
368.41	1636.12
368.636	1672.12
368.862	1706.12
369.089	1679.12
369.315	1508.12
369.541	1458.12
369.767	1484.12
369.993	1450.12
370.219	1452.12
370.445	1585.12
370.672	1739.12
370.898	1850.12
371.124	1861.12
371.35	1628.12
371.576	1502.12
371.802	1639.12
372.028	1966.12
372.254	2284.12
372.48	1939.12
372.706	1822.12
372.932	1874.12
373.158	1938.12
373.384	2244.12
373.61	3016.12
373.835	3100.12
374.061	2321.12
374.287	1942.12
374.513	2175.12
374.739	2627.12
374.965	2817.12
375.191	2714.12
375.416	2076.12
375.642	1791.12
375.868	2030.12
376.094	2264.12
376.319	2001.12
376.545	2143.12
376.771	2249.12
376.997	1970.12
377.222	1507.12
377.448	1352.12
377.674	1346.12
377.899	1314.12
378.125	1326.12
378.35	1336.12
378.576	1420.12
378.802	1516.12
379.027	1581.12
379.253	1525.12
379.478	1566.12
379.704	1684.12
379.929	1768.12
380.155	1811.12
380.38	1566.12
380.606	1553.12
380.831	1634.12
381.057	1612.12
381.282	1600.12
381.507	1907.12
381.733	2295.12
381.958	2442.12
382.184	2576.12
382.409	2730.12
382.634	2594.12
382.86	2805.12
383.085	2339.12
383.31	1896.12
383.535	1950.12
383.761	2028.12
383.986	1923.12
384.211	2269.12
384.436	2211.12
384.662	1798.12
384.887	1746.12
385.112	1767.12
385.337	1803.12
385.562	1685.12
385.787	1890.12
386.013	2084.12
386.238	2178.12
386.463	1834.12
386.688	1708.12
386.913	1652.12
387.138	1644.12
387.363	1710.12
387.588	1775.12
387.813	1779.12
388.038	1934.12
388.263	1730.12
388.488	1677.12
388.713	1914.12
388.938	2035.12
389.163	1824.12
389.387	1615.12
389.612	1633.12
389.837	1691.12
390.062	1708.12
390.287	1762.12
390.512	1748.12
390.736	1659.12
390.961	1618.12
391.186	1486.12
391.411	1536.12
391.636	1588.12
391.86	1692.12
392.085	1812.12
392.31	1846.12
392.534	1810.12
392.759	1722.12
392.984	1822.12
393.208	1812.12
393.433	1735.12
393.658	1686.12
393.882	1584.12
394.107	1528.12
394.331	1554.12
394.556	1527.12
394.78	1574.12
395.005	1591.12
395.229	1625.12
395.454	1640.12
395.678	1713.12
395.903	1742.12
396.127	1617.12
396.352	1601.12
396.576	1571.12
396.801	1696.12
397.025	1937.12
397.249	1913.12
397.474	1712.12
397.698	1630.12
397.922	1662.12
398.147	1590.12
398.371	1643.12
398.595	1705.12
398.82	1726.12
399.044	1806.12
399.268	1937.12
399.492	2155.12
399.717	2387.12
399.941	2456.12
400.165	2292.12
400.389	2060.12
400.613	2040.12
400.837	1983.12
401.062	1811.12
401.286	1749.12
401.51	1720.12
401.734	1729.12
401.958	1761.12
402.182	1751.12
402.406	1805.12
402.63	1807.12
402.854	1834.12
403.078	1864.12
403.302	1980.12
403.526	1992.12
403.75	1953.12
403.974	1917.12
404.198	1938.12
404.422	2161.12
404.645	2540.12
404.869	2844.12
405.093	2181.12
405.317	1916.12
405.541	1831.12
405.765	1830.12
405.988	1867.12
406.212	2050.12
406.436	2390.12
406.66	2575.12
406.883	2182.12
407.107	2281.12
407.331	2625.12
407.555	2521.12
407.778	2227.12
408.002	2092.12
408.226	1982.12
408.449	1971.12
408.673	1958.12
408.896	1884.12
409.12	1824.12
409.344	1834.12
409.567	1779.12
409.791	1839.12
410.014	1777.12
410.238	1774.12
410.461	1803.12
410.685	1781.12
410.908	1776.12
411.132	1800.12
411.355	1745.12
411.578	1743.12
411.802	1788.12
412.025	1892.12
412.249	1885.12
412.472	1822.12
412.695	1754.12
412.919	1772.12
413.142	1792.12
413.365	1891.12
413.589	1940.12
413.812	1791.12
414.035	1763.12
414.258	1752.12
414.482	1965.12
414.705	1990.12
414.928	1806.12
415.151	1732.12
415.374	1738.12
415.597	1792.12
415.821	1743.12
416.044	1720.12
416.267	1704.12
416.49	1664.12
416.713	1633.12
416.936	1667.12
417.159	1677.12
417.382	1651.12
417.605	1711.12
417.828	1748.12
418.051	1759.12
418.274	1818.12
418.497	1826.12
418.72	1807.12
418.943	1890.12
419.166	1910.12
419.389	1982.12
419.611	1958.12
419.834	1951.12
420.057	2075.12
420.28	2050.12
420.503	1912.12
420.726	1712.12
420.948	1658.12
421.171	1692.12
421.394	1711.12
421.617	1714.12
421.839	1706.12
422.062	1781.12
422.285	1766.12
422.507	1753.12
422.73	1812.12
422.953	1854.12
423.175	1835.12
423.398	1788.12
423.621	1873.12
423.843	1908.12
424.066	1852.12
424.288	1800.12
424.511	1771.12
424.733	1761.12
424.956	1812.12
425.178	1907.12
425.401	1952.12
425.623	1726.12
425.846	1676.12
426.068	1787.12
426.291	1928.12
426.513	1745.12
426.735	1638.12
426.958	1705.12
427.18	1920.12
427.402	2264.12
427.625	1848.12
427.847	1606.12
428.069	1476.12
428.292	1604.12
428.514	1591.12
428.736	1535.12
428.958	1506.12
429.181	1450.12
429.403	1510.12
429.625	1611.12
429.847	1533.12
430.069	1540.12
430.292	1566.12
430.514	1545.12
430.736	1699.12
430.958	2134.12
431.18	1902.12
431.402	1584.12
431.624	1548.12
431.846	1534.12
432.068	1528.12
432.29	1581.12
432.512	1726.12
432.734	2156.12
432.956	2033.12
433.178	1610.12
433.4	1510.12
433.622	1539.12
433.844	1558.12
434.066	1545.12
434.287	1467.12
434.509	1560.12
434.731	1509.12
434.953	1621.12
435.175	1642.12
435.397	1648.12
435.618	1574.12
435.84	1549.12
436.062	1523.12
436.284	1478.12
436.505	1445.12
436.727	1428.12
436.949	1488.12
437.17	1502.12
437.392	1451.12
437.614	1458.12
437.835	1460.12
438.057	1521.12
438.278	1688.12
438.5	2294.12
438.721	2248.12
438.943	1629.12
439.165	1498.12
439.386	1486.12
439.608	1473.12
439.829	1504.12
440.05	1487.12
440.272	1504.12
440.493	1811.12
440.715	2124.12
440.936	1774.12
441.158	1594.12
441.379	1591.12
441.6	1805.12
441.822	1881.12
442.043	1675.12
442.264	1626.12
442.486	1600.12
442.707	1627.12
442.928	1616.12
443.149	1668.12
443.371	1614.12
443.592	1612.12
443.813	1633.12
444.034	1656.12
444.255	1731.12
444.476	1846.12
444.698	1857.12
444.919	1908.12
445.14	1944.12
445.361	1773.12
445.582	1726.12
445.803	1614.12
446.024	1594.12
446.245	1588.12
446.466	1536.12
446.687	1497.12
446.908	1575.12
447.129	1517.12
447.35	1486.12
447.571	1422.12
447.792	1446.12
448.013	1464.12
448.234	1412.12
448.455	1411.12
448.675	1429.12
448.896	1445.12
449.117	1390.12
449.338	1421.12
449.559	1448.12
449.779	1454.12
450	1432.12
450.221	1446.12
450.442	1464.12
450.662	1447.12
450.883	1457.12
451.104	1448.12
451.324	1428.12
451.545	1432.12
451.766	1435.12
451.986	1386.12
452.207	1400.12
452.428	1405.12
452.648	1379.12
452.869	1397.12
453.089	1439.12
453.31	1446.12
453.53	1332.12
453.751	1324.12
453.971	1325.12
454.192	1323.12
454.412	1265.12
454.633	1290.12
454.853	1320.12
455.073	1260.12
455.294	1282.12
455.514	1263.12
455.734	1296.12
455.955	1272.12
456.175	1285.12
456.395	1245.12
456.616	1244.12
456.836	1262.12
457.056	1299.12
457.276	1257.12
457.497	1274.12
457.717	1284.12
457.937	1262.12
458.157	1268.12
458.377	1308.12
458.598	1352.12
458.818	1371.12
459.038	1386.12
459.258	1409.12
459.478	1453.12
459.698	1508.12
459.918	1526.12
460.138	1582.12
460.358	1634.12
460.578	1659.12
460.798	1704.12
461.018	1705.12
461.238	1667.12
461.458	1692.12
461.678	1710.12
461.898	1745.12
462.118	1709.12
462.338	1779.12
462.558	1857.12
462.777	1915.12
462.997	2011.12
463.217	2108.12
463.437	2108.12
463.657	2013.12
463.876	1954.12
464.096	1967.12
464.316	1925.12
464.536	1966.12
464.755	1908.12
464.975	1894.12
465.195	1820.12
465.414	1777.12
465.634	1786.12
465.854	1824.12
466.073	1698.12
466.293	1688.12
466.512	1741.12
466.732	1838.12
466.951	1894.12
467.171	1668.12
467.391	1608.12
467.61	1687.12
467.829	1767.12
468.049	1763.12
468.268	1654.12
468.488	1610.12
468.707	1700.12
468.927	1989.12
469.146	2077.12
469.365	1888.12
469.585	1747.12
469.804	1908.12
470.023	1984.12
470.243	1864.12
470.462	1754.12
470.681	1729.12
470.901	1733.12
471.12	1770.12
471.339	1791.12
471.558	1712.12
471.777	1729.12
471.997	1837.12
472.216	1972.12
472.435	1938.12
472.654	1820.12
472.873	1732.12
473.092	1820.12
473.311	1868.12
473.53	1744.12
473.749	1736.12
473.968	1755.12
474.187	1742.12
474.406	1748.12
474.625	1733.12
474.844	1768.12
475.063	1872.12
475.282	1828.12
475.501	1770.12
475.72	1775.12
475.939	1841.12
476.158	1966.12
476.377	2052.12
476.596	2358.12
476.814	2453.12
477.033	2133.12
477.252	1964.12
477.471	1881.12
477.69	1872.12
477.908	2100.12
478.127	2138.12
478.346	1973.12
478.564	1969.12
478.783	1965.12
479.002	2046.12
479.22	2302.12
479.439	2590.12
479.658	2340.12
479.876	2153.12
480.095	2301.12
480.313	2340.12
480.532	2193.12
480.751	2139.12
480.969	2194.12
481.188	2426.12
481.406	2466.12
481.624	2277.12
481.843	2062.12
482.061	2004.12
482.28	2202.12
482.498	2376.12
482.717	2171.12
482.935	2141.12
483.153	1971.12
483.372	1848.12
483.59	1889.12
483.808	1894.12
484.027	1891.12
484.245	1833.12
484.463	1848.12
484.681	1932.12
484.9	2076.12
485.118	2206.12
485.336	2056.12
485.554	1952.12
485.772	2023.12
485.99	2182.12
486.209	2304.12
486.427	2196.12
486.645	2171.12
486.863	2293.12
487.081	2248.12
