Data from UnknownNail75mm.07152019.QswitchSynchronous.EN10.5scans.P1_HRD10591_15-21-16-324.txt Node
Date: Mon Jul 15 15:21:16 EDT 2019
User: cochatt
Spectrometer: HR+D1059
Trigger mode: 1
Integration Time (sec): 1.000000E-1
Scans to average: 1
Electric dark correction enabled: true
Nonlinearity correction enabled: false
Boxcar width: 0
XAxis mode: Wavelengths
Number of Pixels in Spectrum: 2048
>>>>>Begin Spectral Data<<<<<
223.165	-12.44
223.4	-12.44
223.635	-12.44
223.869	-6.44
224.104	-14.44
224.338	-18.44
224.573	-6.44
224.808	-16.44
225.042	-14.44
225.277	-7.44
225.511	-15.44
225.746	1.56
225.98	15.56
226.215	7.56
226.449	17.56
226.683	16.56
226.918	31.56
227.152	21.56
227.387	20.56
227.621	40.56
227.856	28.56
228.09	43.56
228.324	59.56
228.559	56.56
228.793	56.56
229.027	64.56
229.262	78.56
229.496	75.56
229.73	65.56
229.964	66.56
230.199	84.56
230.433	75.56
230.667	77.56
230.901	100.56
231.136	85.56
231.37	86.56
231.604	81.56
231.838	78.56
232.072	83.56
232.306	87.56
232.541	94.56
232.775	81.56
233.009	76.56
233.243	91.56
233.477	89.56
233.711	84.56
233.945	87.56
234.179	91.56
234.413	89.56
234.647	77.56
234.881	81.56
235.115	84.56
235.349	82.56
235.583	91.56
235.817	76.56
236.051	95.56
236.285	90.56
236.519	82.56
236.753	86.56
236.987	93.56
237.221	76.56
237.455	81.56
237.689	87.56
237.922	77.56
238.156	87.56
238.39	91.56
238.624	97.56
238.858	89.56
239.091	72.56
239.325	92.56
239.559	86.56
239.793	110.56
240.027	95.56
240.26	80.56
240.494	109.56
240.728	84.56
240.961	92.56
241.195	83.56
241.429	99.56
241.662	93.56
241.896	82.56
242.13	74.56
242.363	88.56
242.597	77.56
242.83	93.56
243.064	87.56
243.298	82.56
243.531	84.56
243.765	91.56
243.998	93.56
244.232	91.56
244.465	105.56
244.699	97.56
244.932	101.56
245.166	91.56
245.399	84.56
245.633	88.56
245.866	86.56
246.099	92.56
246.333	94.56
246.566	76.56
246.8	92.56
247.033	89.56
247.266	92.56
247.5	94.56
247.733	92.56
247.966	92.56
248.2	88.56
248.433	93.56
248.666	108.56
248.899	120.56
249.133	96.56
249.366	114.56
249.599	119.56
249.832	95.56
250.066	83.56
250.299	93.56
250.532	100.56
250.765	88.56
250.998	93.56
251.231	100.56
251.465	104.56
251.698	105.56
251.931	85.56
252.164	92.56
252.397	113.56
252.63	107.56
252.863	123.56
253.096	124.56
253.329	118.56
253.562	98.56
253.795	113.56
254.028	101.56
254.261	116.56
254.494	111.56
254.727	105.56
254.96	108.56
255.193	118.56
255.426	98.56
255.659	91.56
255.892	98.56
256.124	87.56
256.357	87.56
256.59	102.56
256.823	100.56
257.056	103.56
257.289	90.56
257.521	91.56
257.754	94.56
257.987	98.56
258.22	89.56
258.452	109.56
258.685	102.56
258.918	107.56
259.151	114.56
259.383	100.56
259.616	95.56
259.849	115.56
260.081	137.56
260.314	127.56
260.547	109.56
260.779	104.56
261.012	130.56
261.244	114.56
261.477	125.56
261.71	132.56
261.942	114.56
262.175	132.56
262.407	117.56
262.64	104.56
262.872	113.56
263.105	117.56
263.337	147.56
263.57	139.56
263.802	114.56
264.035	100.56
264.267	99.56
264.499	89.56
264.732	89.56
264.964	100.56
265.197	82.56
265.429	92.56
265.661	80.56
265.894	87.56
266.126	91.56
266.358	100.56
266.591	102.56
266.823	96.56
267.055	78.56
267.287	86.56
267.52	77.56
267.752	100.56
267.984	88.56
268.216	95.56
268.448	102.56
268.681	102.56
268.913	96.56
269.145	104.56
269.377	115.56
269.609	96.56
269.841	82.56
270.073	93.56
270.306	87.56
270.538	97.56
270.77	103.56
271.002	88.56
271.234	99.56
271.466	112.56
271.698	110.56
271.93	131.56
272.162	141.56
272.394	137.56
272.626	113.56
272.858	118.56
273.09	126.56
273.322	139.56
273.553	118.56
273.785	138.56
274.017	169.56
274.249	175.56
274.481	176.56
274.713	179.56
274.945	197.56
275.176	200.56
275.408	185.56
275.64	144.56
275.872	150.56
276.104	131.56
276.335	119.56
276.567	106.56
276.799	105.56
277.031	104.56
277.262	114.56
277.494	108.56
277.726	92.56
277.957	97.56
278.189	107.56
278.421	107.56
278.652	94.56
278.884	101.56
279.115	107.56
279.347	120.56
279.579	84.56
279.81	93.56
280.042	106.56
280.273	120.56
280.505	90.56
280.736	101.56
280.968	106.56
281.199	103.56
281.431	114.56
281.662	123.56
281.894	102.56
282.125	110.56
282.356	91.56
282.588	100.56
282.819	98.56
283.051	94.56
283.282	104.56
283.513	99.56
283.745	108.56
283.976	107.56
284.207	100.56
284.439	97.56
284.67	104.56
284.901	100.56
285.132	98.56
285.364	90.56
285.595	102.56
285.826	105.56
286.057	92.56
286.288	82.56
286.52	95.56
286.751	92.56
286.982	95.56
287.213	85.56
287.444	102.56
287.675	99.56
287.906	89.56
288.138	88.56
288.369	93.56
288.6	88.56
288.831	88.56
289.062	106.56
289.293	97.56
289.524	81.56
289.755	92.56
289.986	89.56
290.217	71.56
290.448	102.56
290.679	110.56
290.91	99.56
291.141	92.56
291.371	92.56
291.602	90.56
291.833	83.56
292.064	94.56
292.295	95.56
292.526	103.56
292.757	96.56
292.987	111.56
293.218	97.56
293.449	118.56
293.68	123.56
293.91	116.56
294.141	109.56
294.372	106.56
294.603	123.56
294.833	128.56
295.064	152.56
295.295	120.56
295.525	116.56
295.756	148.56
295.987	130.56
296.217	117.56
296.448	127.56
296.679	140.56
296.909	159.56
297.14	179.56
297.37	159.56
297.601	148.56
297.831	129.56
298.062	102.56
298.292	124.56
298.523	155.56
298.753	160.56
298.984	137.56
299.214	115.56
299.445	128.56
299.675	157.56
299.905	152.56
300.136	161.56
300.366	163.56
300.597	143.56
300.827	142.56
301.057	159.56
301.288	139.56
301.518	133.56
301.748	125.56
301.979	176.56
302.209	245.56
302.439	247.56
302.669	198.56
302.9	165.56
303.13	116.56
303.36	122.56
303.59	128.56
303.82	122.56
304.051	151.56
304.281	146.56
304.511	135.56
304.741	135.56
304.971	153.56
305.201	130.56
305.431	117.56
305.661	112.56
305.891	149.56
306.121	181.56
306.352	121.56
306.582	110.56
306.812	126.56
307.042	147.56
307.272	113.56
307.502	103.56
307.731	123.56
307.961	116.56
308.191	118.56
308.421	99.56
308.651	108.56
308.881	103.56
309.111	97.56
309.341	132.56
309.571	114.56
309.8	109.56
310.03	142.56
310.26	153.56
310.49	131.56
310.72	96.56
310.949	95.56
311.179	90.56
311.409	86.56
311.639	79.56
311.868	92.56
312.098	101.56
312.328	88.56
312.557	107.56
312.787	94.56
313.017	92.56
313.246	103.56
313.476	95.56
313.706	115.56
313.935	101.56
314.165	85.56
314.394	108.56
314.624	100.56
314.853	103.56
315.083	87.56
315.312	94.56
315.542	102.56
315.771	108.56
316.001	92.56
316.23	110.56
316.46	103.56
316.689	93.56
316.919	81.56
317.148	100.56
317.377	104.56
317.607	105.56
317.836	101.56
318.065	107.56
318.295	107.56
318.524	94.56
318.753	103.56
318.983	100.56
319.212	109.56
319.441	117.56
319.67	141.56
319.9	131.56
320.129	124.56
320.358	113.56
320.587	118.56
320.816	109.56
321.046	127.56
321.275	155.56
321.504	153.56
321.733	145.56
321.962	147.56
322.191	151.56
322.42	153.56
322.649	156.56
322.878	167.56
323.108	139.56
323.337	132.56
323.566	120.56
323.795	116.56
324.024	115.56
324.253	109.56
324.482	106.56
324.71	129.56
324.939	126.56
325.168	124.56
325.397	113.56
325.626	118.56
325.855	113.56
326.084	102.56
326.313	108.56
326.542	92.56
326.77	97.56
326.999	106.56
327.228	105.56
327.457	103.56
327.686	95.56
327.914	103.56
328.143	107.56
328.372	94.56
328.6	105.56
328.829	127.56
329.058	102.56
329.287	104.56
329.515	94.56
329.744	96.56
329.972	92.56
330.201	100.56
330.43	104.56
330.658	123.56
330.887	121.56
331.115	108.56
331.344	105.56
331.572	107.56
331.801	92.56
332.03	85.56
332.258	92.56
332.486	88.56
332.715	87.56
332.943	88.56
333.172	89.56
333.4	87.56
333.629	74.56
333.857	108.56
334.085	88.56
334.314	92.56
334.542	100.56
334.771	99.56
334.999	105.56
335.227	87.56
335.455	78.56
335.684	97.56
335.912	101.56
336.14	87.56
336.369	92.56
336.597	89.56
336.825	83.56
337.053	83.56
337.281	89.56
337.51	87.56
337.738	94.56
337.966	93.56
338.194	105.56
338.422	106.56
338.65	95.56
338.878	103.56
339.106	104.56
339.334	110.56
339.562	119.56
339.79	110.56
340.018	124.56
340.246	119.56
340.474	121.56
340.702	141.56
340.93	133.56
341.158	133.56
341.386	115.56
341.614	127.56
341.842	109.56
342.07	131.56
342.298	119.56
342.526	129.56
342.754	140.56
342.981	159.56
343.209	123.56
343.437	117.56
343.665	101.56
343.893	152.56
344.12	231.56
344.348	311.56
344.576	223.56
344.804	158.56
345.031	115.56
345.259	104.56
345.487	99.56
345.714	93.56
345.942	97.56
346.17	116.56
346.397	129.56
346.625	145.56
346.853	156.56
347.08	116.56
347.308	109.56
347.535	173.56
347.763	205.56
347.99	172.56
348.218	119.56
348.445	114.56
348.673	110.56
348.9	127.56
349.128	154.56
349.355	173.56
349.583	135.56
349.81	121.56
350.037	128.56
350.265	113.56
350.492	104.56
350.72	99.56
350.947	103.56
351.174	118.56
351.402	132.56
351.629	136.56
351.856	131.56
352.083	135.56
352.311	160.56
352.538	179.56
352.765	183.56
352.992	183.56
353.22	140.56
353.447	135.56
353.674	135.56
353.901	131.56
354.128	149.56
354.355	171.56
354.583	156.56
354.81	110.56
355.037	115.56
355.264	113.56
355.491	160.56
355.718	199.56
355.945	203.56
356.172	202.56
356.399	178.56
356.626	227.56
356.853	317.56
357.08	324.56
357.307	391.56
357.534	219.56
357.761	182.56
357.988	234.56
358.215	353.56
358.441	411.56
358.668	329.56
358.895	299.56
359.122	187.56
359.349	138.56
359.576	124.56
359.802	121.56
360.029	127.56
360.256	116.56
360.483	156.56
360.709	221.56
360.936	296.56
361.163	293.56
361.39	195.56
361.616	154.56
361.843	227.56
362.07	306.56
362.296	241.56
362.523	167.56
362.749	141.56
362.976	155.56
363.203	252.56
363.429	283.56
363.656	177.56
363.882	137.56
364.109	151.56
364.335	144.56
364.562	139.56
364.788	223.56
365.015	274.56
365.241	206.56
365.468	149.56
365.694	110.56
365.92	111.56
366.147	105.56
366.373	91.56
366.599	109.56
366.826	106.56
367.052	104.56
367.278	113.56
367.505	100.56
367.731	136.56
367.957	156.56
368.184	188.56
368.41	181.56
368.636	168.56
368.862	225.56
369.089	203.56
369.315	137.56
369.541	115.56
369.767	141.56
369.993	111.56
370.219	136.56
370.445	177.56
370.672	216.56
370.898	273.56
371.124	236.56
371.35	165.56
371.576	127.56
371.802	179.56
372.028	300.56
372.254	413.56
372.48	311.56
372.706	233.56
372.932	247.56
373.158	263.56
373.384	360.56
373.61	528.56
373.835	561.56
374.061	354.56
374.287	257.56
374.513	351.56
374.739	535.56
374.965	549.56
375.191	503.56
375.416	241.56
375.642	185.56
375.868	265.56
376.094	344.56
376.319	251.56
376.545	296.56
376.771	320.56
376.997	254.56
377.222	155.56
377.448	106.56
377.674	103.56
377.899	93.56
378.125	111.56
378.35	112.56
378.576	124.56
378.802	162.56
379.027	207.56
379.253	165.56
379.478	179.56
379.704	230.56
379.929	247.56
380.155	256.56
380.38	172.56
380.606	149.56
380.831	161.56
381.057	162.56
381.282	179.56
381.507	278.56
381.733	378.56
381.958	389.56
382.184	409.56
382.409	461.56
382.634	446.56
382.86	501.56
383.085	314.56
383.31	203.56
383.535	272.56
383.761	272.56
383.986	244.56
384.211	356.56
384.436	314.56
384.662	155.56
384.887	162.56
385.112	176.56
385.337	217.56
385.562	197.56
385.787	255.56
386.013	321.56
386.238	333.56
386.463	218.56
386.688	175.56
386.913	164.56
387.138	142.56
387.363	205.56
387.588	205.56
387.813	223.56
388.038	302.56
388.263	227.56
388.488	171.56
388.713	273.56
388.938	359.56
389.163	225.56
389.387	145.56
389.612	181.56
389.837	199.56
390.062	215.56
390.287	240.56
390.512	215.56
390.736	159.56
390.961	123.56
391.186	115.56
391.411	100.56
391.636	111.56
391.86	135.56
392.085	183.56
392.31	221.56
392.534	197.56
392.759	166.56
392.984	227.56
393.208	221.56
393.433	165.56
393.658	123.56
393.882	106.56
394.107	97.56
394.331	107.56
394.556	89.56
394.78	98.56
395.005	116.56
395.229	117.56
395.454	120.56
395.678	112.56
395.903	117.56
396.127	101.56
396.352	102.56
396.576	105.56
396.801	147.56
397.025	205.56
397.249	195.56
397.474	101.56
397.698	100.56
397.922	100.56
398.147	94.56
398.371	93.56
398.595	92.56
398.82	99.56
399.044	98.56
399.268	81.56
399.492	101.56
399.717	91.56
399.941	110.56
400.165	112.56
400.389	120.56
400.613	151.56
400.837	169.56
401.062	128.56
401.286	101.56
401.51	92.56
401.734	99.56
401.958	99.56
402.182	107.56
402.406	98.56
402.63	83.56
402.854	120.56
403.078	114.56
403.302	154.56
403.526	141.56
403.75	124.56
403.974	117.56
404.198	107.56
404.422	157.56
404.645	304.56
404.869	367.56
405.093	159.56
405.317	108.56
405.541	95.56
405.765	114.56
405.988	119.56
406.212	152.56
406.436	235.56
406.66	310.56
406.883	177.56
407.107	183.56
407.331	268.56
407.555	220.56
407.778	109.56
408.002	98.56
408.226	99.56
408.449	108.56
408.673	109.56
408.896	108.56
409.12	80.56
409.344	66.56
409.567	82.56
409.791	61.56
410.014	85.56
410.238	84.56
410.461	98.56
410.685	92.56
410.908	88.56
411.132	96.56
411.355	84.56
411.578	92.56
411.802	94.56
412.025	127.56
412.249	108.56
412.472	99.56
412.695	106.56
412.919	110.56
413.142	128.56
413.365	174.56
413.589	159.56
413.812	111.56
414.035	85.56
414.258	114.56
414.482	178.56
414.705	217.56
414.928	116.56
415.151	109.56
415.374	100.56
415.597	119.56
415.821	119.56
416.044	113.56
416.267	88.56
416.49	90.56
416.713	96.56
416.936	107.56
417.159	107.56
417.382	97.56
417.605	96.56
417.828	107.56
418.051	106.56
418.274	116.56
418.497	132.56
418.72	141.56
418.943	169.56
419.166	142.56
419.389	123.56
419.611	124.56
419.834	135.56
420.057	184.56
420.28	209.56
420.503	181.56
420.726	101.56
420.948	95.56
421.171	90.56
421.394	99.56
421.617	90.56
421.839	101.56
422.062	120.56
422.285	110.56
422.507	111.56
422.73	122.56
422.953	153.56
423.175	123.56
423.398	127.56
423.621	135.56
423.843	158.56
424.066	124.56
424.288	113.56
424.511	88.56
424.733	121.56
424.956	138.56
425.178	177.56
425.401	204.56
425.623	132.56
425.846	132.56
426.068	148.56
426.291	228.56
426.513	133.56
426.735	119.56
426.958	117.56
427.18	203.56
427.402	352.56
427.625	194.56
427.847	141.56
428.069	105.56
428.292	119.56
428.514	130.56
428.736	102.56
428.958	106.56
429.181	118.56
429.403	106.56
429.625	139.56
429.847	127.56
430.069	129.56
430.292	147.56
430.514	93.56
430.736	169.56
430.958	297.56
431.18	234.56
431.402	121.56
431.624	121.56
431.846	108.56
432.068	94.56
432.29	105.56
432.512	167.56
432.734	295.56
432.956	251.56
433.178	117.56
433.4	106.56
433.622	91.56
433.844	105.56
434.066	89.56
434.287	98.56
434.509	88.56
434.731	100.56
434.953	94.56
435.175	79.56
435.397	107.56
435.618	83.56
435.84	96.56
436.062	114.56
436.284	97.56
436.505	87.56
436.727	99.56
436.949	102.56
437.17	96.56
437.392	99.56
437.614	104.56
437.835	118.56
438.057	119.56
438.278	194.56
438.5	374.56
438.721	325.56
438.943	131.56
439.165	103.56
439.386	102.56
439.608	109.56
439.829	86.56
440.05	99.56
440.272	113.56
440.493	194.56
440.715	323.56
440.936	169.56
441.158	101.56
441.379	114.56
441.6	170.56
441.822	193.56
442.043	113.56
442.264	97.56
442.486	109.56
442.707	92.56
442.928	111.56
443.149	94.56
443.371	89.56
443.592	95.56
443.813	88.56
444.034	83.56
444.255	105.56
444.476	101.56
444.698	114.56
444.919	111.56
445.14	260.56
445.361	163.56
445.582	96.56
445.803	105.56
446.024	100.56
446.245	114.56
446.466	105.56
446.687	100.56
446.908	123.56
447.129	98.56
447.35	95.56
447.571	87.56
447.792	98.56
448.013	108.56
448.234	103.56
448.455	98.56
448.675	91.56
448.896	86.56
449.117	98.56
449.338	85.56
449.559	99.56
449.779	116.56
450	96.56
450.221	82.56
450.442	92.56
450.662	97.56
450.883	88.56
451.104	96.56
451.324	79.56
451.545	86.56
451.766	91.56
451.986	87.56
452.207	90.56
452.428	89.56
452.648	95.56
452.869	107.56
453.089	124.56
453.31	108.56
453.53	89.56
453.751	113.56
453.971	98.56
454.192	101.56
454.412	77.56
454.633	72.56
454.853	89.56
455.073	100.56
455.294	86.56
455.514	93.56
455.734	97.56
455.955	79.56
456.175	95.56
456.395	97.56
456.616	73.56
456.836	92.56
457.056	91.56
457.276	90.56
457.497	85.56
457.717	87.56
457.937	88.56
458.157	78.56
458.377	98.56
458.598	95.56
458.818	90.56
459.038	98.56
459.258	93.56
459.478	86.56
459.698	89.56
459.918	108.56
460.138	105.56
460.358	87.56
460.578	109.56
460.798	83.56
461.018	98.56
461.238	101.56
461.458	83.56
461.678	82.56
461.898	80.56
462.118	105.56
462.338	85.56
462.558	84.56
462.777	107.56
462.997	93.56
463.217	91.56
463.437	92.56
463.657	101.56
463.876	98.56
464.096	97.56
464.316	80.56
464.536	89.56
464.755	95.56
464.975	92.56
465.195	87.56
465.414	85.56
465.634	84.56
465.854	89.56
466.073	89.56
466.293	72.56
466.512	99.56
466.732	95.56
466.951	102.56
467.171	99.56
467.391	89.56
467.61	92.56
467.829	105.56
468.049	100.56
468.268	84.56
468.488	108.56
468.707	95.56
468.927	86.56
469.146	112.56
469.365	96.56
469.585	87.56
469.804	98.56
470.023	104.56
470.243	107.56
470.462	86.56
470.681	96.56
470.901	87.56
471.12	96.56
471.339	85.56
471.558	112.56
471.777	96.56
471.997	82.56
472.216	97.56
472.435	104.56
472.654	107.56
472.873	107.56
473.092	103.56
473.311	108.56
473.53	98.56
473.749	107.56
473.968	116.56
474.187	89.56
474.406	94.56
474.625	87.56
474.844	97.56
475.063	96.56
475.282	102.56
475.501	99.56
475.72	94.56
475.939	91.56
476.158	101.56
476.377	100.56
476.596	109.56
476.814	102.56
477.033	95.56
477.252	92.56
477.471	106.56
477.69	88.56
477.908	103.56
478.127	101.56
478.346	99.56
478.564	96.56
478.783	94.56
479.002	89.56
479.22	100.56
479.439	115.56
479.658	99.56
479.876	97.56
480.095	93.56
480.313	101.56
480.532	82.56
480.751	110.56
480.969	92.56
481.188	112.56
481.406	102.56
481.624	95.56
481.843	86.56
482.061	89.56
482.28	87.56
482.498	114.56
482.717	83.56
482.935	95.56
483.153	102.56
483.372	95.56
483.59	93.56
483.808	95.56
484.027	103.56
484.245	81.56
484.463	93.56
484.681	99.56
484.9	107.56
485.118	102.56
485.336	101.56
485.554	99.56
485.772	104.56
485.99	116.56
486.209	131.56
486.427	102.56
486.645	99.56
486.863	92.56
487.081	99.56
487.299	178.56
487.517	173.56
487.735	123.56
487.953	101.56
488.171	109.56
488.389	115.56
488.607	105.56
488.825	107.56
489.043	126.56
489.261	228.56
489.479	254.56
489.696	107.56
489.914	110.56
490.132	82.56
490.35	89.56
490.568	119.56
490.786	93.56
491.003	97.56
491.221	116.56
491.439	90.56
491.657	107.56
491.874	116.56
492.092	239.56
492.31	358.56
492.527	146.56
492.745	120.56
492.963	115.56
493.18	115.56
493.398	117.56
493.615	104.56
493.833	100.56
494.05	137.56
494.268	101.56
494.485	106.56
494.703	103.56
494.92	116.56
495.138	102.56
495.355	107.56
495.573	116.56
495.79	192.56
496.008	495.56
496.225	194.56
496.442	107.56
496.66	105.56
496.877	145.56
497.094	134.56
497.312	100.56
497.529	101.56
497.746	118.56
497.963	106.56
498.181	108.56
498.398	144.56
498.615	154.56
498.832	129.56
499.049	125.56
499.267	108.56
499.484	109.56
499.701	109.56
499.918	108.56
500.135	88.56
500.352	127.56
500.569	131.56
500.786	162.56
501.003	125.56
501.22	119.56
501.437	121.56
501.654	126.56
501.871	112.56
502.088	109.56
502.305	98.56
502.522	107.56
502.739	107.56
502.956	101.56
503.172	105.56
503.389	96.56
503.606	90.56
503.823	105.56
504.04	100.56
504.256	115.56
504.473	121.56
504.69	116.56
504.907	135.56
505.123	121.56
505.34	121.56
505.557	109.56
505.773	109.56
505.99	119.56
506.207	111.56
506.423	94.56
506.64	111.56
506.856	115.56
507.073	123.56
507.289	112.56
507.506	101.56
507.722	112.56
