Data from UnknownNail75mm.07152019.Lampedge.EN5.5scans.P1_HRD10591_15-16-23-731.txt Node
Date: Mon Jul 15 15:16:23 EDT 2019
User: cochatt
Spectrometer: HR+D1059
Trigger mode: 1
Integration Time (sec): 1.000000E-1
Scans to average: 1
Electric dark correction enabled: true
Nonlinearity correction enabled: false
Boxcar width: 0
XAxis mode: Wavelengths
Number of Pixels in Spectrum: 2048
>>>>>Begin Spectral Data<<<<<
223.165	-22.19
223.4	-22.19
223.635	-22.19
223.869	-3.19
224.104	-17.19
224.338	-6.19
224.573	-18.19
224.808	-19.19
225.042	-16.19
225.277	-4.19
225.511	7.81
225.746	-1.19
225.98	0.81
226.215	8.81
226.449	15.81
226.683	24.81
226.918	21.81
227.152	27.81
227.387	34.81
227.621	38.81
227.856	51.81
228.09	35.81
228.324	45.81
228.559	61.81
228.793	67.81
229.027	103.81
229.262	110.81
229.496	132.81
229.73	109.81
229.964	137.81
230.199	130.81
230.433	136.81
230.667	141.81
230.901	139.81
231.136	143.81
231.37	147.81
231.604	159.81
231.838	164.81
232.072	156.81
232.306	163.81
232.541	173.81
232.775	175.81
233.009	184.81
233.243	214.81
233.477	241.81
233.711	257.81
233.945	229.81
234.179	248.81
234.413	266.81
234.647	251.81
234.881	316.81
235.115	296.81
235.349	309.81
235.583	271.81
235.817	265.81
236.051	279.81
236.285	293.81
236.519	329.81
236.753	317.81
236.987	297.81
237.221	308.81
237.455	321.81
237.689	327.81
237.922	321.81
238.156	340.81
238.39	389.81
238.624	492.81
238.858	444.81
239.091	364.81
239.325	366.81
239.559	359.81
239.793	380.81
240.027	483.81
240.26	439.81
240.494	422.81
240.728	420.81
240.961	467.81
241.195	469.81
241.429	468.81
241.662	452.81
241.896	355.81
242.13	313.81
242.363	319.81
242.597	351.81
242.83	388.81
243.064	387.81
243.298	412.81
243.531	451.81
243.765	451.81
243.998	442.81
244.232	395.81
244.465	408.81
244.699	371.81
244.932	463.81
245.166	438.81
245.399	386.81
245.633	358.81
245.866	378.81
246.099	381.81
246.333	468.81
246.566	515.81
246.8	519.81
247.033	491.81
247.266	469.81
247.5	451.81
247.733	446.81
247.966	428.81
248.2	446.81
248.433	516.81
248.666	553.81
248.899	564.81
249.133	580.81
249.366	655.81
249.599	718.81
249.832	660.81
250.066	573.81
250.299	553.81
250.532	516.81
250.765	529.81
250.998	490.81
251.231	463.81
251.465	507.81
251.698	511.81
251.931	500.81
252.164	501.81
252.397	564.81
252.63	667.81
252.863	756.81
253.096	795.81
253.329	739.81
253.562	703.81
253.795	780.81
254.028	877.81
254.261	894.81
254.494	792.81
254.727	719.81
254.96	677.81
255.193	731.81
255.426	721.81
255.659	549.81
255.892	465.81
256.124	485.81
256.357	581.81
256.59	708.81
256.823	673.81
257.056	575.81
257.289	529.81
257.521	524.81
257.754	564.81
257.987	580.81
258.22	562.81
258.452	561.81
258.685	653.81
258.918	754.81
259.151	699.81
259.383	650.81
259.616	730.81
259.849	796.81
260.081	1059.81
260.314	1238.81
260.547	884.81
260.779	762.81
261.012	907.81
261.244	882.81
261.477	917.81
261.71	958.81
261.942	787.81
262.175	702.81
262.407	676.81
262.64	722.81
262.872	839.81
263.105	981.81
263.337	1031.81
263.57	949.81
263.802	612.81
264.035	465.81
264.267	451.81
264.499	401.81
264.732	404.81
264.964	415.81
265.197	383.81
265.429	407.81
265.661	395.81
265.894	401.81
266.126	423.81
266.358	457.81
266.591	530.81
266.823	648.81
267.055	607.81
267.287	484.81
267.52	443.81
267.752	417.81
267.984	427.81
268.216	440.81
268.448	473.81
268.681	533.81
268.913	531.81
269.145	491.81
269.377	524.81
269.609	553.81
269.841	533.81
270.073	505.81
270.306	499.81
270.538	536.81
270.77	583.81
271.002	622.81
271.234	613.81
271.466	700.81
271.698	742.81
271.93	727.81
272.162	699.81
272.394	698.81
272.626	697.81
272.858	715.81
273.09	794.81
273.322	756.81
273.553	722.81
273.785	841.81
274.017	1159.81
274.249	1393.81
274.481	1428.81
274.713	1557.81
274.945	1808.81
275.176	1915.81
275.408	1588.81
275.64	1439.81
275.872	1462.81
276.104	1102.81
276.335	767.81
276.567	715.81
276.799	751.81
277.031	912.81
277.262	789.81
277.494	638.81
277.726	606.81
277.957	612.81
278.189	684.81
278.421	651.81
278.652	663.81
278.884	632.81
279.115	582.81
279.347	533.81
279.579	524.81
279.81	521.81
280.042	509.81
280.273	499.81
280.505	489.81
280.736	497.81
280.968	487.81
281.199	472.81
281.431	485.81
281.662	463.81
281.894	478.81
282.125	469.81
282.356	479.81
282.588	471.81
282.819	514.81
283.051	534.81
283.282	567.81
283.513	604.81
283.745	575.81
283.976	606.81
284.207	614.81
284.439	663.81
284.67	610.81
284.901	607.81
285.132	599.81
285.364	593.81
285.595	580.81
285.826	603.81
286.057	637.81
286.288	589.81
286.52	552.81
286.751	548.81
286.982	542.81
287.213	541.81
287.444	584.81
287.675	595.81
287.906	557.81
288.138	530.81
288.369	533.81
288.6	522.81
288.831	536.81
289.062	495.81
289.293	500.81
289.524	510.81
289.755	513.81
289.986	503.81
290.217	498.81
290.448	476.81
290.679	489.81
290.91	459.81
291.141	477.81
291.371	494.81
291.602	483.81
291.833	464.81
292.064	466.81
292.295	481.81
292.526	508.81
292.757	516.81
292.987	517.81
293.218	504.81
293.449	506.81
293.68	507.81
293.91	522.81
294.141	543.81
294.372	551.81
294.603	569.81
294.833	610.81
295.064	669.81
295.295	642.81
295.525	581.81
295.756	571.81
295.987	553.81
296.217	552.81
296.448	535.81
296.679	578.81
296.909	626.81
297.14	629.81
297.37	611.81
297.601	589.81
297.831	548.81
298.062	540.81
298.292	586.81
298.523	684.81
298.753	744.81
298.984	694.81
299.214	586.81
299.445	577.81
299.675	563.81
299.905	587.81
300.136	586.81
300.366	628.81
300.597	614.81
300.827	594.81
301.057	589.81
301.288	566.81
301.518	532.81
301.748	576.81
301.979	627.81
302.209	732.81
302.439	789.81
302.669	649.81
302.9	607.81
303.13	557.81
303.36	547.81
303.59	536.81
303.82	544.81
304.051	580.81
304.281	557.81
304.511	532.81
304.741	529.81
304.971	571.81
305.201	573.81
305.431	546.81
305.661	547.81
305.891	594.81
306.121	600.81
306.352	572.81
306.582	566.81
306.812	542.81
307.042	541.81
307.272	520.81
307.502	516.81
307.731	560.81
307.961	545.81
308.191	552.81
308.421	522.81
308.651	514.81
308.881	486.81
309.111	501.81
309.341	475.81
309.571	533.81
309.8	503.81
310.03	531.81
310.26	555.81
310.49	525.81
310.72	503.81
310.949	484.81
311.179	485.81
311.409	491.81
311.639	490.81
311.868	517.81
312.098	496.81
312.328	512.81
312.557	509.81
312.787	516.81
313.017	501.81
313.246	509.81
313.476	537.81
313.706	523.81
313.935	516.81
314.165	509.81
314.394	537.81
314.624	540.81
314.853	550.81
315.083	539.81
315.312	536.81
315.542	567.81
315.771	571.81
316.001	578.81
316.23	563.81
316.46	547.81
316.689	571.81
316.919	587.81
317.148	562.81
317.377	536.81
317.607	549.81
317.836	553.81
318.065	595.81
318.295	591.81
318.524	563.81
318.753	559.81
318.983	578.81
319.212	559.81
319.441	586.81
319.67	596.81
319.9	634.81
320.129	570.81
320.358	570.81
320.587	554.81
320.816	564.81
321.046	583.81
321.275	624.81
321.504	663.81
321.733	669.81
321.962	612.81
322.191	626.81
322.42	625.81
322.649	653.81
322.878	667.81
323.108	656.81
323.337	618.81
323.566	601.81
323.795	561.81
324.024	580.81
324.253	561.81
324.482	545.81
324.71	558.81
324.939	592.81
325.168	604.81
325.397	558.81
325.626	567.81
325.855	584.81
326.084	605.81
326.313	588.81
326.542	549.81
326.77	580.81
326.999	576.81
327.228	555.81
327.457	547.81
327.686	564.81
327.914	569.81
328.143	588.81
328.372	571.81
328.6	581.81
328.829	594.81
329.058	591.81
329.287	567.81
329.515	579.81
329.744	575.81
329.972	573.81
330.201	570.81
330.43	604.81
330.658	588.81
330.887	631.81
331.115	598.81
331.344	589.81
331.572	559.81
331.801	587.81
332.03	596.81
332.258	595.81
332.486	611.81
332.715	638.81
332.943	639.81
333.172	656.81
333.4	681.81
333.629	671.81
333.857	683.81
334.085	660.81
334.314	671.81
334.542	649.81
334.771	649.81
334.999	648.81
335.227	654.81
335.455	658.81
335.684	657.81
335.912	648.81
336.14	641.81
336.369	621.81
336.597	636.81
336.825	639.81
337.053	606.81
337.281	616.81
337.51	637.81
337.738	620.81
337.966	588.81
338.194	623.81
338.422	612.81
338.65	598.81
338.878	595.81
339.106	591.81
339.334	594.81
339.562	601.81
339.79	583.81
340.018	590.81
340.246	584.81
340.474	595.81
340.702	639.81
340.93	628.81
341.158	641.81
341.386	619.81
341.614	619.81
341.842	599.81
342.07	602.81
342.298	639.81
342.526	622.81
342.754	650.81
342.981	667.81
343.209	628.81
343.437	631.81
343.665	667.81
343.893	727.81
344.12	851.81
344.348	867.81
344.576	792.81
344.804	709.81
345.031	649.81
345.259	624.81
345.487	599.81
345.714	599.81
345.942	599.81
346.17	578.81
346.397	591.81
346.625	624.81
346.853	615.81
347.08	583.81
347.308	589.81
347.535	637.81
347.763	652.81
347.99	623.81
348.218	568.81
348.445	578.81
348.673	563.81
348.9	598.81
349.128	616.81
349.355	634.81
349.583	612.81
349.81	607.81
350.037	591.81
350.265	568.81
350.492	537.81
350.72	551.81
350.947	539.81
351.174	551.81
351.402	575.81
351.629	576.81
351.856	558.81
352.083	543.81
352.311	588.81
352.538	612.81
352.765	620.81
352.992	615.81
353.22	587.81
353.447	570.81
353.674	583.81
353.901	596.81
354.128	608.81
354.355	637.81
354.583	601.81
354.81	584.81
355.037	584.81
355.264	600.81
355.491	637.81
355.718	675.81
355.945	661.81
356.172	671.81
356.399	661.81
356.626	745.81
356.853	836.81
357.08	875.81
357.307	930.81
357.534	755.81
357.761	685.81
357.988	781.81
358.215	954.81
358.441	1032.81
358.668	860.81
358.895	811.81
359.122	693.81
359.349	613.81
359.576	578.81
359.802	555.81
360.029	562.81
360.256	570.81
360.483	674.81
360.709	721.81
360.936	832.81
361.163	807.81
361.39	674.81
361.616	633.81
361.843	701.81
362.07	848.81
362.296	770.81
362.523	662.81
362.749	624.81
362.976	631.81
363.203	738.81
363.429	782.81
363.656	637.81
363.882	574.81
364.109	607.81
364.335	601.81
364.562	615.81
364.788	692.81
365.015	776.81
365.241	710.81
365.468	607.81
365.694	550.81
365.92	557.81
366.147	541.81
366.373	522.81
366.599	535.81
366.826	527.81
367.052	563.81
367.278	561.81
367.505	529.81
367.731	572.81
367.957	601.81
368.184	639.81
368.41	633.81
368.636	629.81
368.862	632.81
369.089	621.81
369.315	592.81
369.541	565.81
369.767	567.81
369.993	544.81
370.219	570.81
370.445	604.81
370.672	659.81
370.898	704.81
371.124	711.81
371.35	626.81
371.576	608.81
371.802	627.81
372.028	757.81
372.254	868.81
372.48	768.81
372.706	669.81
372.932	733.81
373.158	720.81
373.384	859.81
373.61	1115.81
373.835	1163.81
374.061	880.81
374.287	733.81
374.513	849.81
374.739	1019.81
374.965	1063.81
375.191	1069.81
375.416	817.81
375.642	711.81
375.868	807.81
376.094	848.81
376.319	762.81
376.545	775.81
376.771	809.81
376.997	754.81
377.222	597.81
377.448	549.81
377.674	533.81
377.899	550.81
378.125	538.81
378.35	545.81
378.576	562.81
378.802	559.81
379.027	632.81
379.253	595.81
379.478	607.81
379.704	653.81
379.929	667.81
380.155	701.81
380.38	622.81
380.606	622.81
380.831	631.81
381.057	628.81
381.282	625.81
381.507	728.81
381.733	879.81
381.958	914.81
382.184	979.81
382.409	1012.81
382.634	971.81
382.86	1035.81
383.085	882.81
383.31	735.81
383.535	772.81
383.761	764.81
383.986	728.81
384.211	863.81
384.436	821.81
384.662	697.81
384.887	685.81
385.112	695.81
385.337	708.81
385.562	703.81
385.787	745.81
386.013	824.81
386.238	836.81
386.463	727.81
386.688	673.81
386.913	652.81
387.138	635.81
387.363	671.81
387.588	697.81
387.813	698.81
388.038	741.81
388.263	712.81
388.488	699.81
388.713	759.81
388.938	815.81
389.163	715.81
389.387	657.81
389.612	652.81
389.837	675.81
390.062	667.81
390.287	691.81
390.512	667.81
390.736	671.81
390.961	661.81
391.186	605.81
391.411	631.81
391.636	633.81
391.86	701.81
392.085	740.81
392.31	759.81
392.534	706.81
392.759	715.81
392.984	735.81
393.208	785.81
393.433	819.81
393.658	802.81
393.882	673.81
394.107	633.81
394.331	650.81
394.556	623.81
394.78	633.81
395.005	628.81
395.229	631.81
395.454	655.81
395.678	663.81
395.903	686.81
396.127	663.81
396.352	656.81
396.576	673.81
396.801	713.81
397.025	804.81
397.249	793.81
397.474	706.81
397.698	661.81
397.922	663.81
398.147	661.81
398.371	675.81
398.595	685.81
398.82	687.81
399.044	711.81
399.268	785.81
399.492	892.81
399.717	959.81
399.941	983.81
400.165	884.81
400.389	824.81
400.613	816.81
400.837	813.81
401.062	741.81
401.286	715.81
401.51	711.81
401.734	682.81
401.958	707.81
402.182	719.81
402.406	731.81
402.63	727.81
402.854	739.81
403.078	767.81
403.302	818.81
403.526	806.81
403.75	829.81
403.974	804.81
404.198	826.81
404.422	845.81
404.645	1005.81
404.869	1088.81
405.093	847.81
405.317	790.81
405.541	777.81
405.765	748.81
405.988	772.81
406.212	815.81
406.436	961.81
406.66	993.81
406.883	869.81
407.107	900.81
407.331	994.81
407.555	992.81
407.778	905.81
408.002	851.81
408.226	813.81
408.449	813.81
408.673	785.81
408.896	770.81
409.12	765.81
409.344	766.81
409.567	755.81
409.791	766.81
410.014	753.81
410.238	759.81
410.461	744.81
410.685	753.81
410.908	745.81
411.132	736.81
411.355	717.81
411.578	735.81
411.802	755.81
412.025	761.81
412.249	770.81
412.472	746.81
412.695	731.81
412.919	708.81
413.142	736.81
413.365	766.81
413.589	767.81
413.812	737.81
414.035	721.81
414.258	717.81
414.482	777.81
414.705	804.81
414.928	727.81
415.151	706.81
415.374	732.81
415.597	740.81
415.821	734.81
416.044	713.81
416.267	691.81
416.49	674.81
416.713	668.81
416.936	683.81
417.159	676.81
417.382	690.81
417.605	689.81
417.828	685.81
418.051	709.81
418.274	735.81
418.497	713.81
418.72	737.81
418.943	740.81
419.166	773.81
419.389	801.81
419.611	796.81
419.834	776.81
420.057	816.81
420.28	811.81
420.503	761.81
420.726	706.81
420.948	700.81
421.171	700.81
421.394	693.81
421.617	700.81
421.839	701.81
422.062	731.81
422.285	717.81
422.507	737.81
422.73	736.81
422.953	760.81
423.175	718.81
423.398	725.81
423.621	761.81
423.843	766.81
424.066	756.81
424.288	730.81
424.511	720.81
424.733	730.81
424.956	713.81
425.178	764.81
425.401	752.81
425.623	693.81
425.846	708.81
426.068	696.81
426.291	754.81
426.513	713.81
426.735	690.81
426.958	691.81
427.18	735.81
427.402	888.81
427.625	729.81
427.847	662.81
428.069	633.81
428.292	643.81
428.514	644.81
428.736	607.81
428.958	611.81
429.181	614.81
429.403	615.81
429.625	639.81
429.847	639.81
430.069	657.81
430.292	653.81
430.514	654.81
430.736	696.81
430.958	809.81
431.18	770.81
431.402	632.81
431.624	625.81
431.846	621.81
432.068	652.81
432.29	639.81
432.512	699.81
432.734	863.81
432.956	780.81
433.178	650.81
433.4	637.81
433.622	628.81
433.844	640.81
434.066	632.81
434.287	621.81
434.509	607.81
434.731	669.81
434.953	669.81
435.175	705.81
435.397	697.81
435.618	635.81
435.84	661.81
436.062	637.81
436.284	605.81
436.505	602.81
436.727	640.81
436.949	612.81
437.17	616.81
437.392	599.81
437.614	614.81
437.835	623.81
438.057	618.81
438.278	691.81
438.5	889.81
438.721	867.81
438.943	636.81
439.165	627.81
439.386	623.81
439.608	590.81
439.829	589.81
440.05	648.81
440.272	627.81
440.493	723.81
440.715	836.81
440.936	738.81
441.158	674.81
441.379	683.81
441.6	729.81
441.822	736.81
442.043	679.81
442.264	679.81
442.486	661.81
442.707	654.81
442.928	683.81
443.149	703.81
443.371	675.81
443.592	671.81
443.813	667.81
444.034	655.81
444.255	719.81
444.476	732.81
444.698	769.81
444.919	767.81
445.14	911.81
445.361	785.81
445.582	696.81
445.803	683.81
446.024	656.81
446.245	648.81
446.466	629.81
446.687	598.81
446.908	636.81
447.129	616.81
447.35	604.81
447.571	585.81
447.792	601.81
448.013	603.81
448.234	608.81
448.455	605.81
448.675	579.81
448.896	579.81
449.117	568.81
449.338	559.81
449.559	568.81
449.779	579.81
450	589.81
450.221	586.81
450.442	580.81
450.662	593.81
450.883	609.81
451.104	590.81
451.324	593.81
451.545	592.81
451.766	578.81
451.986	571.81
452.207	569.81
452.428	614.81
452.648	585.81
452.869	570.81
453.089	590.81
453.31	597.81
453.53	559.81
453.751	553.81
453.971	541.81
454.192	542.81
454.412	560.81
454.633	557.81
454.853	546.81
455.073	524.81
455.294	546.81
455.514	523.81
455.734	544.81
455.955	541.81
456.175	531.81
456.395	546.81
456.616	539.81
456.836	540.81
457.056	526.81
457.276	541.81
457.497	550.81
457.717	547.81
457.937	538.81
458.157	520.81
458.377	568.81
458.598	555.81
458.818	585.81
459.038	581.81
459.258	593.81
459.478	620.81
459.698	623.81
459.918	625.81
460.138	649.81
460.358	686.81
460.578	688.81
460.798	719.81
461.018	715.81
461.238	683.81
461.458	705.81
461.678	695.81
461.898	703.81
462.118	709.81
462.338	726.81
462.558	755.81
462.777	772.81
462.997	856.81
463.217	873.81
463.437	872.81
463.657	833.81
463.876	824.81
464.096	803.81
464.316	799.81
464.536	793.81
464.755	780.81
464.975	791.81
465.195	731.81
465.414	717.81
465.634	720.81
465.854	702.81
466.073	695.81
466.293	661.81
466.512	709.81
466.732	727.81
466.951	745.81
467.171	668.81
467.391	661.81
467.61	661.81
467.829	704.81
468.049	708.81
468.268	647.81
468.488	648.81
468.707	671.81
468.927	808.81
469.146	825.81
469.365	762.81
469.585	689.81
469.804	751.81
470.023	815.81
470.243	746.81
470.462	719.81
470.681	705.81
470.901	703.81
471.12	720.81
471.339	739.81
471.558	677.81
471.777	685.81
471.997	746.81
472.216	800.81
472.435	790.81
472.654	705.81
472.873	699.81
473.092	726.81
473.311	748.81
473.53	708.81
473.749	683.81
473.968	699.81
474.187	683.81
474.406	678.81
474.625	689.81
474.844	681.81
475.063	745.81
475.282	712.81
475.501	704.81
475.72	715.81
475.939	701.81
476.158	745.81
476.377	848.81
476.596	995.81
476.814	982.81
477.033	871.81
477.252	787.81
477.471	733.81
477.69	745.81
477.908	823.81
478.127	867.81
478.346	812.81
478.564	781.81
478.783	772.81
479.002	832.81
479.22	924.81
479.439	1063.81
479.658	915.81
479.876	864.81
480.095	931.81
480.313	890.81
480.532	889.81
480.751	850.81
480.969	846.81
481.188	966.81
481.406	971.81
481.624	921.81
481.843	838.81
482.061	785.81
482.28	848.81
482.498	965.81
482.717	845.81
482.935	814.81
483.153	803.81
483.372	776.81
483.59	749.81
483.808	724.81
484.027	737.81
484.245	750.81
484.463	712.81
484.681	759.81
484.9	807.81
485.118	867.81
485.336	800.81
485.554	767.81
485.772	799.81
485.99	821.81
486.209	895.81
486.427	883.81
486.645	863.81
486.863	874.81
487.081	870.81
487.299	918.81
487.517	887.81
487.735	827.81
487.953	831.81
488.171	886.81
488.389	840.81
488.607	782.81
488.825	772.81
489.043	852.81
489.261	951.81
489.479	1004.81
489.696	884.81
489.914	822.81
490.132	793.81
490.35	791.81
490.568	776.81
490.786	767.81
491.003	763.81
491.221	811.81
491.439	757.81
491.657	771.81
491.874	830.81
492.092	988.81
492.31	1059.81
492.527	1003.81
492.745	960.81
492.963	932.81
493.18	911.81
493.398	902.81
493.615	919.81
493.833	866.81
494.05	852.81
494.268	888.81
494.485	883.81
494.703	871.81
494.92	875.81
495.138	852.81
495.355	872.81
495.573	840.81
495.79	921.81
496.008	1097.81
496.225	972.81
496.442	948.81
496.66	949.81
496.877	1003.81
497.094	1015.81
497.312	939.81
497.529	955.81
497.746	970.81
497.963	1004.81
498.181	1103.81
498.398	1179.81
498.615	1204.81
498.832	1295.81
499.049	1346.81
499.267	1278.81
499.484	1302.81
499.701	1434.81
499.918	1556.81
500.135	1758.81
500.352	1825.81
500.569	1901.81
500.786	1913.81
501.003	1859.81
501.22	1645.81
501.437	1506.81
