Data from UnknownNail75mm.07152019.Lampedge.EN5.5scans.P1_HRD10591_15-16-27-731.txt Node
Date: Mon Jul 15 15:16:27 EDT 2019
User: cochatt
Spectrometer: HR+D1059
Trigger mode: 1
Integration Time (sec): 1.000000E-1
Scans to average: 1
Electric dark correction enabled: true
Nonlinearity correction enabled: false
Boxcar width: 0
XAxis mode: Wavelengths
Number of Pixels in Spectrum: 2048
>>>>>Begin Spectral Data<<<<<
223.165	-8.88
223.4	-8.88
223.635	-8.88
223.869	-20.88
224.104	-13.88
224.338	-15.88
224.573	0.12
224.808	-8.88
225.042	-12.88
225.277	-3.88
225.511	-3.88
225.746	1.12
225.98	4.12
226.215	1.12
226.449	17.12
226.683	12.12
226.918	32.12
227.152	21.12
227.387	31.12
227.621	30.12
227.856	41.12
228.09	46.12
228.324	50.12
228.559	36.12
228.793	71.12
229.027	109.12
229.262	112.12
229.496	109.12
229.73	103.12
229.964	133.12
230.199	125.12
230.433	129.12
230.667	159.12
230.901	164.12
231.136	157.12
231.37	155.12
231.604	147.12
231.838	162.12
232.072	166.12
232.306	179.12
232.541	168.12
232.775	181.12
233.009	210.12
233.243	228.12
233.477	254.12
233.711	260.12
233.945	241.12
234.179	251.12
234.413	282.12
234.647	297.12
234.881	364.12
235.115	345.12
235.349	314.12
235.583	276.12
235.817	276.12
236.051	284.12
236.285	316.12
236.519	358.12
236.753	331.12
236.987	355.12
237.221	304.12
237.455	315.12
237.689	335.12
237.922	351.12
238.156	366.12
238.39	433.12
238.624	536.12
238.858	493.12
239.091	392.12
239.325	386.12
239.559	374.12
239.793	380.12
240.027	512.12
240.26	463.12
240.494	446.12
240.728	467.12
240.961	530.12
241.195	510.12
241.429	482.12
241.662	463.12
241.896	388.12
242.13	351.12
242.363	339.12
242.597	363.12
242.83	414.12
243.064	394.12
243.298	436.12
243.531	478.12
243.765	467.12
243.998	478.12
244.232	415.12
244.465	430.12
244.699	451.12
244.932	473.12
245.166	455.12
245.399	388.12
245.633	361.12
245.866	369.12
246.099	444.12
246.333	520.12
246.566	547.12
246.8	559.12
247.033	539.12
247.266	514.12
247.5	483.12
247.733	482.12
247.966	495.12
248.2	488.12
248.433	569.12
248.666	593.12
248.899	621.12
249.133	601.12
249.366	707.12
249.599	789.12
249.832	712.12
250.066	607.12
250.299	625.12
250.532	557.12
250.765	576.12
250.998	512.12
251.231	475.12
251.465	529.12
251.698	583.12
251.931	522.12
252.164	555.12
252.397	626.12
252.63	713.12
252.863	788.12
253.096	864.12
253.329	828.12
253.562	783.12
253.795	840.12
254.028	963.12
254.261	981.12
254.494	872.12
254.727	779.12
254.96	763.12
255.193	781.12
255.426	770.12
255.659	596.12
255.892	497.12
256.124	513.12
256.357	644.12
256.59	780.12
256.823	769.12
257.056	637.12
257.289	554.12
257.521	553.12
257.754	596.12
257.987	616.12
258.22	605.12
258.452	604.12
258.685	691.12
258.918	805.12
259.151	768.12
259.383	722.12
259.616	820.12
259.849	904.12
260.081	1109.12
260.314	1361.12
260.547	974.12
260.779	815.12
261.012	991.12
261.244	997.12
261.477	1024.12
261.71	1022.12
261.942	794.12
262.175	755.12
262.407	739.12
262.64	778.12
262.872	921.12
263.105	1056.12
263.337	1153.12
263.57	1033.12
263.802	649.12
264.035	493.12
264.267	472.12
264.499	428.12
264.732	448.12
264.964	427.12
265.197	418.12
265.429	434.12
265.661	427.12
265.894	413.12
266.126	433.12
266.358	469.12
266.591	545.12
266.823	677.12
267.055	638.12
267.287	543.12
267.52	468.12
267.752	443.12
267.984	449.12
268.216	478.12
268.448	503.12
268.681	555.12
268.913	564.12
269.145	525.12
269.377	573.12
269.609	593.12
269.841	565.12
270.073	535.12
270.306	535.12
270.538	583.12
270.77	659.12
271.002	648.12
271.234	643.12
271.466	705.12
271.698	800.12
271.93	799.12
272.162	741.12
272.394	751.12
272.626	729.12
272.858	795.12
273.09	869.12
273.322	796.12
273.553	774.12
273.785	918.12
274.017	1202.12
274.249	1536.12
274.481	1605.12
274.713	1703.12
274.945	2048.12
275.176	2093.12
275.408	1748.12
275.64	1563.12
275.872	1617.12
276.104	1191.12
276.335	828.12
276.567	804.12
276.799	820.12
277.031	927.12
277.262	867.12
277.494	675.12
277.726	610.12
277.957	648.12
278.189	715.12
278.421	745.12
278.652	752.12
278.884	651.12
279.115	600.12
279.347	556.12
279.579	549.12
279.81	561.12
280.042	542.12
280.273	564.12
280.505	537.12
280.736	502.12
280.968	490.12
281.199	500.12
281.431	508.12
281.662	521.12
281.894	485.12
282.125	481.12
282.356	493.12
282.588	497.12
282.819	538.12
283.051	531.12
283.282	605.12
283.513	656.12
283.745	623.12
283.976	642.12
284.207	652.12
284.439	686.12
284.67	642.12
284.901	620.12
285.132	601.12
285.364	603.12
285.595	613.12
285.826	651.12
286.057	676.12
286.288	634.12
286.52	569.12
286.751	565.12
286.982	564.12
287.213	573.12
287.444	627.12
287.675	621.12
287.906	602.12
288.138	578.12
288.369	568.12
288.6	547.12
288.831	529.12
289.062	532.12
289.293	530.12
289.524	509.12
289.755	541.12
289.986	547.12
290.217	512.12
290.448	497.12
290.679	495.12
290.91	496.12
291.141	494.12
291.371	489.12
291.602	496.12
291.833	472.12
292.064	509.12
292.295	521.12
292.526	525.12
292.757	523.12
292.987	560.12
293.218	550.12
293.449	523.12
293.68	523.12
293.91	544.12
294.141	581.12
294.372	562.12
294.603	603.12
294.833	665.12
295.064	688.12
295.295	665.12
295.525	592.12
295.756	607.12
295.987	544.12
296.217	592.12
296.448	567.12
296.679	595.12
296.909	623.12
297.14	637.12
297.37	642.12
297.601	630.12
297.831	570.12
298.062	573.12
298.292	613.12
298.523	734.12
298.753	795.12
298.984	723.12
299.214	611.12
299.445	559.12
299.675	587.12
299.905	603.12
300.136	620.12
300.366	701.12
300.597	655.12
300.827	615.12
301.057	601.12
301.288	603.12
301.518	555.12
301.748	595.12
301.979	637.12
302.209	786.12
302.439	812.12
302.669	684.12
302.9	628.12
303.13	588.12
303.36	568.12
303.59	554.12
303.82	569.12
304.051	585.12
304.281	557.12
304.511	573.12
304.741	571.12
304.971	602.12
305.201	586.12
305.431	565.12
305.661	571.12
305.891	600.12
306.121	651.12
306.352	605.12
306.582	577.12
306.812	558.12
307.042	575.12
307.272	525.12
307.502	526.12
307.731	579.12
307.961	607.12
308.191	564.12
308.421	545.12
308.651	529.12
308.881	537.12
309.111	481.12
309.341	526.12
309.571	520.12
309.8	520.12
310.03	558.12
310.26	613.12
310.49	559.12
310.72	547.12
310.949	519.12
311.179	526.12
311.409	521.12
311.639	515.12
311.868	545.12
312.098	519.12
312.328	540.12
312.557	542.12
312.787	531.12
313.017	554.12
313.246	528.12
313.476	547.12
313.706	540.12
313.935	543.12
314.165	538.12
314.394	549.12
314.624	585.12
314.853	559.12
315.083	557.12
315.312	558.12
315.542	598.12
315.771	619.12
316.001	587.12
316.23	572.12
316.46	567.12
316.689	569.12
316.919	587.12
317.148	613.12
317.377	573.12
317.607	573.12
317.836	624.12
318.065	625.12
318.295	594.12
318.524	588.12
318.753	592.12
318.983	595.12
319.212	604.12
319.441	612.12
319.67	634.12
319.9	632.12
320.129	610.12
320.358	581.12
320.587	577.12
320.816	589.12
321.046	612.12
321.275	663.12
321.504	695.12
321.733	688.12
321.962	673.12
322.191	665.12
322.42	663.12
322.649	683.12
322.878	697.12
323.108	700.12
323.337	666.12
323.566	629.12
323.795	608.12
324.024	617.12
324.253	611.12
324.482	587.12
324.71	592.12
324.939	579.12
325.168	593.12
325.397	579.12
325.626	605.12
325.855	621.12
326.084	630.12
326.313	624.12
326.542	588.12
326.77	586.12
326.999	590.12
327.228	578.12
327.457	593.12
327.686	602.12
327.914	595.12
328.143	603.12
328.372	612.12
328.6	617.12
328.829	593.12
329.058	610.12
329.287	595.12
329.515	602.12
329.744	587.12
329.972	580.12
330.201	585.12
330.43	602.12
330.658	608.12
330.887	627.12
331.115	611.12
331.344	620.12
331.572	614.12
331.801	610.12
332.03	608.12
332.258	607.12
332.486	628.12
332.715	656.12
332.943	642.12
333.172	674.12
333.4	694.12
333.629	700.12
333.857	736.12
334.085	708.12
334.314	699.12
334.542	670.12
334.771	662.12
334.999	683.12
335.227	668.12
335.455	683.12
335.684	672.12
335.912	662.12
336.14	653.12
336.369	660.12
336.597	659.12
336.825	656.12
337.053	669.12
337.281	659.12
337.51	642.12
337.738	640.12
337.966	618.12
338.194	638.12
338.422	626.12
338.65	616.12
338.878	612.12
339.106	603.12
339.334	623.12
339.562	622.12
339.79	634.12
340.018	631.12
340.246	629.12
340.474	617.12
340.702	635.12
340.93	658.12
341.158	657.12
341.386	629.12
341.614	628.12
341.842	656.12
342.07	636.12
342.298	640.12
342.526	652.12
342.754	651.12
342.981	669.12
343.209	665.12
343.437	642.12
343.665	675.12
343.893	766.12
344.12	852.12
344.348	908.12
344.576	821.12
344.804	735.12
345.031	633.12
345.259	645.12
345.487	604.12
345.714	617.12
345.942	620.12
346.17	605.12
346.397	593.12
346.625	623.12
346.853	660.12
347.08	624.12
347.308	632.12
347.535	643.12
347.763	699.12
347.99	677.12
348.218	617.12
348.445	613.12
348.673	601.12
348.9	609.12
349.128	651.12
349.355	675.12
349.583	624.12
349.81	630.12
350.037	620.12
350.265	597.12
350.492	584.12
350.72	558.12
350.947	579.12
351.174	573.12
351.402	608.12
351.629	595.12
351.856	576.12
352.083	553.12
352.311	609.12
352.538	645.12
352.765	652.12
352.992	641.12
353.22	617.12
353.447	610.12
353.674	607.12
353.901	633.12
354.128	636.12
354.355	621.12
354.583	639.12
354.81	579.12
355.037	592.12
355.264	635.12
355.491	665.12
355.718	698.12
355.945	703.12
356.172	700.12
356.399	685.12
356.626	785.12
356.853	908.12
357.08	912.12
357.307	987.12
357.534	771.12
357.761	731.12
357.988	795.12
358.215	1010.12
358.441	1103.12
358.668	932.12
358.895	841.12
359.122	655.12
359.349	641.12
359.576	613.12
359.802	594.12
360.029	581.12
360.256	625.12
360.483	661.12
360.709	761.12
360.936	848.12
361.163	831.12
361.39	689.12
361.616	680.12
361.843	747.12
362.07	868.12
362.296	813.12
362.523	689.12
362.749	645.12
362.976	649.12
363.203	763.12
363.429	835.12
363.656	688.12
363.882	617.12
364.109	636.12
364.335	608.12
364.562	625.12
364.788	681.12
365.015	827.12
365.241	739.12
365.468	642.12
365.694	587.12
365.92	576.12
366.147	551.12
366.373	567.12
366.599	554.12
366.826	560.12
367.052	568.12
367.278	580.12
367.505	553.12
367.731	600.12
367.957	647.12
368.184	659.12
368.41	629.12
368.636	643.12
368.862	667.12
369.089	665.12
369.315	629.12
369.541	611.12
369.767	600.12
369.993	601.12
370.219	616.12
370.445	632.12
370.672	673.12
370.898	727.12
371.124	720.12
371.35	643.12
371.576	604.12
371.802	691.12
372.028	783.12
372.254	907.12
372.48	797.12
372.706	731.12
372.932	756.12
373.158	783.12
373.384	912.12
373.61	1179.12
373.835	1227.12
374.061	935.12
374.287	795.12
374.513	897.12
374.739	1037.12
374.965	1114.12
375.191	1122.12
375.416	833.12
375.642	740.12
375.868	801.12
376.094	880.12
376.319	777.12
376.545	871.12
376.771	862.12
376.997	772.12
377.222	624.12
377.448	577.12
377.674	580.12
377.899	562.12
378.125	577.12
378.35	554.12
378.576	570.12
378.802	609.12
379.027	647.12
379.253	627.12
379.478	615.12
379.704	665.12
379.929	705.12
380.155	703.12
380.38	640.12
380.606	639.12
380.831	646.12
381.057	672.12
381.282	633.12
381.507	752.12
381.733	915.12
381.958	977.12
382.184	1001.12
382.409	1071.12
382.634	1011.12
382.86	1101.12
383.085	962.12
383.31	763.12
383.535	813.12
383.761	798.12
383.986	769.12
384.211	907.12
384.436	881.12
384.662	735.12
384.887	704.12
385.112	715.12
385.337	735.12
385.562	723.12
385.787	788.12
386.013	851.12
386.238	907.12
386.463	781.12
386.688	707.12
386.913	692.12
387.138	677.12
387.363	673.12
387.588	699.12
387.813	731.12
388.038	789.12
388.263	729.12
388.488	697.12
388.713	791.12
388.938	851.12
389.163	725.12
389.387	660.12
389.612	659.12
389.837	703.12
390.062	703.12
390.287	717.12
390.512	714.12
390.736	683.12
390.961	659.12
391.186	626.12
391.411	665.12
391.636	671.12
391.86	709.12
392.085	738.12
392.31	771.12
392.534	751.12
392.759	722.12
392.984	782.12
393.208	783.12
393.433	796.12
393.658	804.12
393.882	696.12
394.107	661.12
394.331	652.12
394.556	652.12
394.78	660.12
395.005	659.12
395.229	676.12
395.454	677.12
395.678	712.12
395.903	719.12
396.127	671.12
396.352	696.12
396.576	657.12
396.801	735.12
397.025	843.12
397.249	795.12
397.474	705.12
397.698	684.12
397.922	684.12
398.147	677.12
398.371	669.12
398.595	713.12
398.82	723.12
399.044	749.12
399.268	811.12
399.492	913.12
399.717	1007.12
399.941	1007.12
400.165	974.12
400.389	883.12
400.613	875.12
400.837	835.12
401.062	769.12
401.286	727.12
401.51	717.12
401.734	721.12
401.958	738.12
402.182	732.12
402.406	776.12
402.63	752.12
402.854	750.12
403.078	769.12
403.302	846.12
403.526	830.12
403.75	824.12
403.974	836.12
404.198	811.12
404.422	885.12
404.645	1047.12
404.869	1091.12
405.093	878.12
405.317	799.12
405.541	812.12
405.765	803.12
405.988	777.12
406.212	869.12
406.436	937.12
406.66	1061.12
406.883	917.12
407.107	915.12
407.331	1020.12
407.555	1047.12
407.778	899.12
408.002	896.12
408.226	868.12
408.449	836.12
408.673	819.12
408.896	805.12
409.12	777.12
409.344	792.12
409.567	775.12
409.791	775.12
410.014	792.12
410.238	741.12
410.461	763.12
410.685	762.12
410.908	764.12
411.132	742.12
411.355	744.12
411.578	760.12
411.802	747.12
412.025	783.12
412.249	779.12
412.472	776.12
412.695	732.12
412.919	765.12
413.142	735.12
413.365	772.12
413.589	801.12
413.812	746.12
414.035	744.12
414.258	739.12
414.482	831.12
414.705	825.12
414.928	757.12
415.151	727.12
415.374	715.12
415.597	749.12
415.821	736.12
416.044	737.12
416.267	712.12
416.49	700.12
416.713	708.12
416.936	711.12
417.159	709.12
417.382	729.12
417.605	723.12
417.828	728.12
418.051	722.12
418.274	732.12
418.497	727.12
418.72	753.12
418.943	781.12
419.166	779.12
419.389	826.12
419.611	792.12
419.834	805.12
420.057	831.12
420.28	817.12
420.503	802.12
420.726	703.12
420.948	709.12
421.171	726.12
421.394	724.12
421.617	686.12
421.839	723.12
422.062	748.12
422.285	736.12
422.507	752.12
422.73	739.12
422.953	766.12
423.175	749.12
423.398	755.12
423.621	768.12
423.843	784.12
424.066	762.12
424.288	723.12
424.511	715.12
424.733	725.12
424.956	724.12
425.178	777.12
425.401	793.12
425.623	744.12
425.846	701.12
426.068	729.12
426.291	766.12
426.513	735.12
426.735	703.12
426.958	705.12
427.18	746.12
427.402	917.12
427.625	779.12
427.847	686.12
428.069	659.12
428.292	664.12
428.514	658.12
428.736	677.12
428.958	651.12
429.181	659.12
429.403	652.12
429.625	669.12
429.847	660.12
430.069	680.12
430.292	697.12
430.514	663.12
430.736	720.12
430.958	845.12
431.18	798.12
431.402	659.12
431.624	639.12
431.846	647.12
432.068	640.12
432.29	670.12
432.512	718.12
432.734	877.12
432.956	836.12
433.178	681.12
433.4	659.12
433.622	669.12
433.844	660.12
434.066	642.12
434.287	649.12
434.509	635.12
434.731	684.12
434.953	695.12
435.175	707.12
435.397	703.12
435.618	678.12
435.84	690.12
436.062	686.12
436.284	639.12
436.505	604.12
436.727	632.12
436.949	626.12
437.17	649.12
437.392	642.12
437.614	617.12
437.835	641.12
438.057	666.12
438.278	722.12
438.5	917.12
438.721	951.12
438.943	673.12
439.165	628.12
439.386	626.12
439.608	645.12
439.829	617.12
440.05	631.12
440.272	678.12
440.493	713.12
440.715	849.12
440.936	728.12
441.158	678.12
441.379	691.12
441.6	753.12
441.822	776.12
442.043	731.12
442.264	698.12
442.486	699.12
442.707	680.12
442.928	705.12
443.149	706.12
443.371	705.12
443.592	683.12
443.813	696.12
444.034	729.12
444.255	757.12
444.476	777.12
444.698	771.12
444.919	779.12
445.14	903.12
445.361	769.12
445.582	683.12
445.803	686.12
446.024	681.12
446.245	661.12
446.466	668.12
446.687	644.12
446.908	671.12
447.129	643.12
447.35	609.12
447.571	624.12
447.792	631.12
448.013	626.12
448.234	587.12
448.455	604.12
448.675	612.12
448.896	575.12
449.117	596.12
449.338	619.12
449.559	597.12
449.779	608.12
450	610.12
450.221	604.12
450.442	600.12
450.662	632.12
450.883	639.12
451.104	626.12
451.324	626.12
451.545	614.12
451.766	623.12
451.986	628.12
452.207	593.12
452.428	605.12
452.648	601.12
452.869	595.12
453.089	614.12
453.31	607.12
453.53	571.12
453.751	573.12
453.971	562.12
454.192	571.12
454.412	554.12
454.633	555.12
454.853	555.12
455.073	556.12
455.294	556.12
455.514	552.12
455.734	559.12
455.955	569.12
456.175	559.12
456.395	562.12
456.616	568.12
456.836	573.12
457.056	552.12
457.276	551.12
457.497	577.12
457.717	536.12
457.937	559.12
458.157	555.12
458.377	547.12
458.598	578.12
458.818	586.12
459.038	597.12
459.258	633.12
459.478	653.12
459.698	640.12
459.918	683.12
460.138	689.12
460.358	712.12
460.578	672.12
460.798	728.12
461.018	736.12
461.238	732.12
461.458	706.12
461.678	721.12
461.898	725.12
462.118	738.12
462.338	756.12
462.558	758.12
462.777	804.12
462.997	843.12
463.217	921.12
463.437	897.12
463.657	869.12
463.876	836.12
464.096	855.12
464.316	811.12
464.536	830.12
464.755	804.12
464.975	800.12
465.195	777.12
465.414	783.12
465.634	732.12
465.854	771.12
466.073	716.12
466.293	661.12
466.512	713.12
466.732	765.12
466.951	779.12
467.171	705.12
467.391	703.12
467.61	675.12
467.829	722.12
468.049	752.12
468.268	692.12
468.488	683.12
468.707	739.12
468.927	855.12
469.146	917.12
469.365	811.12
469.585	747.12
469.804	815.12
470.023	860.12
470.243	755.12
470.462	741.12
470.681	723.12
470.901	735.12
471.12	751.12
471.339	780.12
471.558	715.12
471.777	735.12
471.997	768.12
472.216	845.12
472.435	852.12
472.654	779.12
472.873	727.12
473.092	755.12
473.311	799.12
473.53	764.12
473.749	717.12
473.968	729.12
474.187	719.12
474.406	708.12
474.625	703.12
474.844	748.12
475.063	804.12
475.282	778.12
475.501	761.12
475.72	746.12
475.939	765.12
476.158	813.12
476.377	882.12
476.596	1021.12
476.814	1062.12
477.033	905.12
477.252	812.12
477.471	766.12
477.69	815.12
477.908	891.12
478.127	928.12
478.346	817.12
478.564	789.12
478.783	819.12
479.002	879.12
479.22	979.12
479.439	1160.12
479.658	964.12
479.876	912.12
480.095	965.12
480.313	996.12
480.532	913.12
480.751	908.12
480.969	931.12
481.188	1027.12
481.406	1026.12
481.624	977.12
481.843	877.12
482.061	823.12
482.28	934.12
482.498	1016.12
482.717	891.12
482.935	900.12
483.153	827.12
483.372	786.12
483.59	795.12
483.808	785.12
484.027	772.12
484.245	770.12
484.463	781.12
484.681	817.12
484.9	848.12
485.118	882.12
485.336	864.12
485.554	808.12
485.772	822.12
485.99	898.12
486.209	943.12
486.427	907.12
486.645	874.12
486.863	914.12
487.081	917.12
487.299	994.12
487.517	924.12
487.735	849.12
487.953	869.12
488.171	938.12
488.389	881.12
488.607	825.12
488.825	826.12
489.043	864.12
489.261	1031.12
489.479	1069.12
489.696	919.12
489.914	867.12
490.132	838.12
490.35	811.12
490.568	817.12
490.786	794.12
491.003	819.12
491.221	829.12
491.439	824.12
491.657	833.12
491.874	894.12
492.092	1037.12
492.31	1083.12
492.527	1050.12
492.745	1038.12
492.963	964.12
493.18	949.12
493.398	936.12
493.615	971.12
493.833	898.12
494.05	898.12
494.268	944.12
494.485	918.12
494.703	898.12
494.92	919.12
495.138	907.12
495.355	882.12
495.573	875.12
495.79	954.12
496.008	1180.12
496.225	1026.12
496.442	987.12
496.66	1026.12
496.877	1047.12
497.094	1009.12
497.312	995.12
497.529	1017.12
497.746	1024.12
497.963	1098.12
498.181	1174.12
498.398	1248.12
498.615	1288.12
498.832	1360.12
499.049	1435.12
499.267	1345.12
499.484	1376.12
499.701	1487.12
499.918	1646.12
500.135	1801.12
500.352	1892.12
500.569	1954.12
500.786	1995.12
501.003	1895.12
501.22	1695.12
