Data from UnknownNail75mm.07152019.Lampedge.EN10.5scans.P1_HRD10591_15-18-24-731.txt Node
Date: Mon Jul 15 15:18:24 EDT 2019
User: cochatt
Spectrometer: HR+D1059
Trigger mode: 1
Integration Time (sec): 1.000000E-1
Scans to average: 1
Electric dark correction enabled: true
Nonlinearity correction enabled: false
Boxcar width: 0
XAxis mode: Wavelengths
Number of Pixels in Spectrum: 2048
>>>>>Begin Spectral Data<<<<<
223.165	-0.44
223.4	-0.44
223.635	-0.44
223.869	1.56
224.104	-16.44
224.338	-29.44
224.573	-16.44
224.808	-0.44
225.042	-3.44
225.277	-5.44
225.511	-3.44
225.746	-6.44
225.98	5.56
226.215	3.56
226.449	13.56
226.683	22.56
226.918	14.56
227.152	20.56
227.387	28.56
227.621	43.56
227.856	51.56
228.09	46.56
228.324	49.56
228.559	55.56
228.793	92.56
229.027	198.56
229.262	188.56
229.496	203.56
229.73	214.56
229.964	224.56
230.199	247.56
230.433	245.56
230.667	266.56
230.901	274.56
231.136	286.56
231.37	293.56
231.604	292.56
231.838	303.56
232.072	309.56
232.306	310.56
232.541	333.56
232.775	366.56
233.009	416.56
233.243	468.56
233.477	499.56
233.711	590.56
233.945	549.56
234.179	524.56
234.413	575.56
234.647	654.56
234.881	764.56
235.115	738.56
235.349	698.56
235.583	622.56
235.817	586.56
236.051	645.56
236.285	704.56
236.519	802.56
236.753	742.56
236.987	744.56
237.221	687.56
237.455	718.56
237.689	758.56
237.922	763.56
238.156	822.56
238.39	945.56
238.624	1110.56
238.858	1097.56
239.091	871.56
239.325	898.56
239.559	843.56
239.793	895.56
240.027	1080.56
240.26	1076.56
240.494	1020.56
240.728	1040.56
240.961	1158.56
241.195	1151.56
241.429	1098.56
241.662	1102.56
241.896	906.56
242.13	816.56
242.363	803.56
242.597	819.56
242.83	958.56
243.064	906.56
243.298	1049.56
243.531	1140.56
243.765	1087.56
243.998	1090.56
244.232	1064.56
244.465	1036.56
244.699	1032.56
244.932	1129.56
245.166	1138.56
245.399	962.56
245.633	901.56
245.866	970.56
246.099	1047.56
246.333	1242.56
246.566	1356.56
246.8	1388.56
247.033	1319.56
247.266	1247.56
247.5	1215.56
247.733	1214.56
247.966	1168.56
248.2	1222.56
248.433	1342.56
248.666	1420.56
248.899	1467.56
249.133	1461.56
249.366	1709.56
249.599	1871.56
249.832	1674.56
250.066	1460.56
250.299	1466.56
250.532	1408.56
250.765	1416.56
250.998	1264.56
251.231	1198.56
251.465	1295.56
251.698	1427.56
251.931	1344.56
252.164	1321.56
252.397	1524.56
252.63	1766.56
252.863	2004.56
253.096	2074.56
253.329	1944.56
253.562	1873.56
253.795	2062.56
254.028	2322.56
254.261	2399.56
254.494	2160.56
254.727	1935.56
254.96	1863.56
255.193	1980.56
255.426	1922.56
255.659	1448.56
255.892	1272.56
256.124	1286.56
256.357	1532.56
256.59	1911.56
256.823	1876.56
257.056	1581.56
257.289	1412.56
257.521	1404.56
257.754	1451.56
257.987	1533.56
258.22	1522.56
258.452	1483.56
258.685	1722.56
258.918	1993.56
259.151	1864.56
259.383	1750.56
259.616	1961.56
259.849	2116.56
260.081	2605.56
260.314	3077.56
260.547	2276.56
260.779	2052.56
261.012	2389.56
261.244	2391.56
261.477	2496.56
261.71	2530.56
261.942	2044.56
262.175	1892.56
262.407	1886.56
262.64	1920.56
262.872	2363.56
263.105	2660.56
263.337	2791.56
263.57	2472.56
263.802	1580.56
264.035	1228.56
264.267	1142.56
264.499	1087.56
264.732	1014.56
264.964	1018.56
265.197	1036.56
265.429	1048.56
265.661	1032.56
265.894	1047.56
266.126	1048.56
266.358	1163.56
266.591	1380.56
266.823	1758.56
267.055	1671.56
267.287	1326.56
267.52	1165.56
267.752	1079.56
267.984	1082.56
268.216	1144.56
268.448	1268.56
268.681	1449.56
268.913	1442.56
269.145	1342.56
269.377	1418.56
269.609	1580.56
269.841	1410.56
270.073	1361.56
270.306	1358.56
270.538	1501.56
270.77	1694.56
271.002	1692.56
271.234	1710.56
271.466	1888.56
271.698	2076.56
271.93	2117.56
272.162	1904.56
272.394	1920.56
272.626	1849.56
272.858	2014.56
273.09	2206.56
273.322	2125.56
273.553	2087.56
273.785	2386.56
274.017	3192.56
274.249	3891.56
274.481	3974.56
274.713	4172.56
274.945	4810.56
275.176	5002.56
275.408	4342.56
275.64	3985.56
275.872	3858.56
276.104	2980.56
276.335	2097.56
276.567	1969.56
276.799	2121.56
277.031	2500.56
277.262	2229.56
277.494	1760.56
277.726	1633.56
277.957	1674.56
278.189	1914.56
278.421	1889.56
278.652	1922.56
278.884	1704.56
279.115	1550.56
279.347	1458.56
279.579	1390.56
279.81	1381.56
280.042	1323.56
280.273	1326.56
280.505	1287.56
280.736	1246.56
280.968	1252.56
281.199	1248.56
281.431	1275.56
281.662	1261.56
281.894	1188.56
282.125	1171.56
282.356	1211.56
282.588	1255.56
282.819	1319.56
283.051	1430.56
283.282	1558.56
283.513	1698.56
283.745	1678.56
283.976	1654.56
284.207	1732.56
284.439	1826.56
284.67	1696.56
284.901	1685.56
285.132	1671.56
285.364	1639.56
285.595	1628.56
285.826	1717.56
286.057	1824.56
286.288	1634.56
286.52	1410.56
286.751	1411.56
286.982	1422.56
287.213	1530.56
287.444	1668.56
287.675	1727.56
287.906	1538.56
288.138	1446.56
288.369	1436.56
288.6	1454.56
288.831	1424.56
289.062	1299.56
289.293	1291.56
289.524	1350.56
289.755	1372.56
289.986	1331.56
290.217	1277.56
290.448	1230.56
290.679	1212.56
290.91	1182.56
291.141	1164.56
291.371	1175.56
291.602	1198.56
291.833	1184.56
292.064	1240.56
292.295	1269.56
292.526	1287.56
292.757	1342.56
292.987	1364.56
293.218	1313.56
293.449	1275.56
293.68	1275.56
293.91	1318.56
294.141	1358.56
294.372	1351.56
294.603	1502.56
294.833	1690.56
295.064	1805.56
295.295	1685.56
295.525	1482.56
295.756	1465.56
295.987	1383.56
296.217	1411.56
296.448	1419.56
296.679	1548.56
296.909	1655.56
297.14	1687.56
297.37	1667.56
297.601	1550.56
297.831	1413.56
298.062	1407.56
298.292	1631.56
298.523	1934.56
298.753	2142.56
298.984	1892.56
299.214	1538.56
299.445	1428.56
299.675	1460.56
299.905	1519.56
300.136	1607.56
300.366	1738.56
300.597	1681.56
300.827	1547.56
301.057	1567.56
301.288	1462.56
301.518	1395.56
301.748	1438.56
301.979	1667.56
302.209	1875.56
302.439	2043.56
302.669	1634.56
302.9	1513.56
303.13	1389.56
303.36	1397.56
303.59	1368.56
303.82	1358.56
304.051	1410.56
304.281	1409.56
304.511	1363.56
304.741	1370.56
304.971	1387.56
305.201	1409.56
305.431	1360.56
305.661	1358.56
305.891	1449.56
306.121	1566.56
306.352	1492.56
306.582	1405.56
306.812	1346.56
307.042	1386.56
307.272	1308.56
307.502	1307.56
307.731	1398.56
307.961	1485.56
308.191	1415.56
308.421	1310.56
308.651	1313.56
308.881	1255.56
309.111	1250.56
309.341	1232.56
309.571	1260.56
309.8	1298.56
310.03	1374.56
310.26	1468.56
310.49	1346.56
310.72	1292.56
310.949	1241.56
311.179	1233.56
311.409	1258.56
311.639	1262.56
311.868	1306.56
312.098	1265.56
312.328	1245.56
312.557	1285.56
312.787	1255.56
313.017	1315.56
313.246	1277.56
313.476	1298.56
313.706	1330.56
313.935	1349.56
314.165	1320.56
314.394	1324.56
314.624	1352.56
314.853	1326.56
315.083	1369.56
315.312	1408.56
315.542	1521.56
315.771	1541.56
316.001	1443.56
316.23	1405.56
316.46	1433.56
316.689	1452.56
316.919	1470.56
317.148	1494.56
317.377	1435.56
317.607	1392.56
317.836	1476.56
318.065	1537.56
318.295	1524.56
318.524	1502.56
318.753	1455.56
318.983	1507.56
319.212	1477.56
319.441	1560.56
319.67	1609.56
319.9	1585.56
320.129	1549.56
320.358	1484.56
320.587	1482.56
320.816	1463.56
321.046	1614.56
321.275	1761.56
321.504	1909.56
321.733	1794.56
321.962	1651.56
322.191	1673.56
322.42	1720.56
322.649	1727.56
322.878	1831.56
323.108	1848.56
323.337	1678.56
323.566	1535.56
323.795	1499.56
324.024	1495.56
324.253	1503.56
324.482	1485.56
324.71	1489.56
324.939	1543.56
325.168	1506.56
325.397	1448.56
325.626	1489.56
325.855	1524.56
326.084	1533.56
326.313	1543.56
326.542	1420.56
326.77	1431.56
326.999	1408.56
327.228	1372.56
327.457	1473.56
327.686	1416.56
327.914	1458.56
328.143	1446.56
328.372	1474.56
328.6	1482.56
328.829	1496.56
329.058	1491.56
329.287	1466.56
329.515	1472.56
329.744	1436.56
329.972	1418.56
330.201	1438.56
330.43	1422.56
330.658	1521.56
330.887	1571.56
331.115	1543.56
331.344	1458.56
331.572	1456.56
331.801	1451.56
332.03	1443.56
332.258	1483.56
332.486	1525.56
332.715	1581.56
332.943	1581.56
333.172	1637.56
333.4	1640.56
333.629	1670.56
333.857	1669.56
334.085	1690.56
334.314	1652.56
334.542	1623.56
334.771	1628.56
334.999	1593.56
335.227	1582.56
335.455	1617.56
335.684	1578.56
335.912	1567.56
336.14	1584.56
336.369	1548.56
336.597	1534.56
336.825	1560.56
337.053	1576.56
337.281	1588.56
337.51	1537.56
337.738	1517.56
337.966	1490.56
338.194	1516.56
338.422	1498.56
338.65	1483.56
338.878	1475.56
339.106	1510.56
339.334	1520.56
339.562	1538.56
339.79	1543.56
340.018	1451.56
340.246	1522.56
340.474	1580.56
340.702	1608.56
340.93	1699.56
341.158	1650.56
341.386	1558.56
341.614	1548.56
341.842	1574.56
342.07	1550.56
342.298	1557.56
342.526	1610.56
342.754	1698.56
342.981	1745.56
343.209	1647.56
343.437	1600.56
343.665	1696.56
343.893	1870.56
344.12	2159.56
344.348	2294.56
344.576	1984.56
344.804	1790.56
345.031	1632.56
345.259	1588.56
345.487	1563.56
345.714	1497.56
345.942	1489.56
346.17	1517.56
346.397	1505.56
346.625	1539.56
346.853	1629.56
347.08	1556.56
347.308	1542.56
347.535	1610.56
347.763	1714.56
347.99	1608.56
348.218	1475.56
348.445	1448.56
348.673	1482.56
348.9	1526.56
349.128	1599.56
349.355	1667.56
349.583	1564.56
349.81	1581.56
350.037	1514.56
350.265	1422.56
350.492	1384.56
350.72	1396.56
350.947	1397.56
351.174	1424.56
351.402	1434.56
351.629	1460.56
351.856	1451.56
352.083	1440.56
352.311	1516.56
352.538	1583.56
352.765	1641.56
352.992	1579.56
353.22	1527.56
353.447	1542.56
353.674	1549.56
353.901	1566.56
354.128	1599.56
354.355	1643.56
354.583	1569.56
354.81	1505.56
355.037	1499.56
355.264	1543.56
355.491	1652.56
355.718	1812.56
355.945	1800.56
356.172	1756.56
356.399	1766.56
356.626	1951.56
356.853	2334.56
357.08	2439.56
357.307	2559.56
357.534	1946.56
357.761	1783.56
357.988	2044.56
358.215	2542.56
358.441	2824.56
358.668	2423.56
358.895	2207.56
359.122	1805.56
359.349	1531.56
359.576	1488.56
359.802	1476.56
360.029	1465.56
360.256	1561.56
360.483	1707.56
360.709	1989.56
360.936	2250.56
361.163	2212.56
361.39	1825.56
361.616	1707.56
361.843	1913.56
362.07	2231.56
362.296	2092.56
362.523	1744.56
362.749	1574.56
362.976	1622.56
363.203	1939.56
363.429	2090.56
363.656	1746.56
363.882	1573.56
364.109	1553.56
364.335	1516.56
364.562	1589.56
364.788	1760.56
365.015	2012.56
365.241	1877.56
365.468	1582.56
365.694	1388.56
365.92	1372.56
366.147	1340.56
366.373	1305.56
366.599	1288.56
366.826	1331.56
367.052	1375.56
367.278	1407.56
367.505	1361.56
367.731	1482.56
367.957	1568.56
368.184	1625.56
368.41	1605.56
368.636	1644.56
368.862	1655.56
369.089	1647.56
369.315	1525.56
369.541	1474.56
369.767	1476.56
369.993	1407.56
370.219	1460.56
370.445	1548.56
370.672	1694.56
370.898	1778.56
371.124	1824.56
371.35	1622.56
371.576	1485.56
371.802	1639.56
372.028	1972.56
372.254	2250.56
372.48	1977.56
372.706	1822.56
372.932	1851.56
373.158	1908.56
373.384	2268.56
373.61	2977.56
373.835	3047.56
374.061	2335.56
374.287	1922.56
374.513	2216.56
374.739	2660.56
374.965	2834.56
375.191	2786.56
375.416	2022.56
375.642	1758.56
375.868	1957.56
376.094	2266.56
376.319	2029.56
376.545	2151.56
376.771	2238.56
376.997	1944.56
377.222	1521.56
377.448	1350.56
377.674	1351.56
377.899	1333.56
378.125	1292.56
378.35	1332.56
378.576	1384.56
378.802	1492.56
379.027	1590.56
379.253	1494.56
379.478	1508.56
379.704	1675.56
379.929	1791.56
380.155	1774.56
380.38	1591.56
380.606	1553.56
380.831	1624.56
381.057	1560.56
381.282	1582.56
381.507	1904.56
381.733	2316.56
381.958	2405.56
382.184	2612.56
382.409	2690.56
382.634	2596.56
382.86	2762.56
383.085	2274.56
383.31	1897.56
383.535	1950.56
383.761	2023.56
383.986	1950.56
384.211	2224.56
384.436	2179.56
384.662	1762.56
384.887	1727.56
385.112	1747.56
385.337	1750.56
385.562	1696.56
385.787	1858.56
386.013	2079.56
386.238	2139.56
386.463	1829.56
386.688	1676.56
386.913	1681.56
387.138	1591.56
387.363	1668.56
387.588	1722.56
387.813	1732.56
388.038	1952.56
388.263	1735.56
388.488	1672.56
388.713	1940.56
388.938	2080.56
389.163	1774.56
389.387	1598.56
389.612	1646.56
389.837	1687.56
390.062	1704.56
390.287	1780.56
390.512	1774.56
390.736	1657.56
390.961	1557.56
391.186	1531.56
391.411	1527.56
391.636	1577.56
391.86	1664.56
392.085	1808.56
392.31	1855.56
392.534	1764.56
392.759	1755.56
392.984	1779.56
393.208	1794.56
393.433	1778.56
393.658	1697.56
393.882	1563.56
394.107	1522.56
394.331	1511.56
394.556	1516.56
394.78	1566.56
395.005	1591.56
395.229	1621.56
395.454	1610.56
395.678	1667.56
395.903	1702.56
396.127	1602.56
396.352	1554.56
396.576	1588.56
396.801	1690.56
397.025	1931.56
397.249	1914.56
397.474	1697.56
397.698	1628.56
397.922	1627.56
398.147	1631.56
398.371	1613.56
398.595	1695.56
398.82	1720.56
399.044	1810.56
399.268	1930.56
399.492	2162.56
399.717	2343.56
399.941	2446.56
400.165	2250.56
400.389	2096.56
400.613	2035.56
400.837	2022.56
401.062	1840.56
401.286	1751.56
401.51	1758.56
401.734	1703.56
401.958	1750.56
402.182	1756.56
402.406	1792.56
402.63	1783.56
402.854	1795.56
403.078	1823.56
403.302	1954.56
403.526	1917.56
403.75	1937.56
403.974	1910.56
404.198	2001.56
404.422	2156.56
404.645	2604.56
404.869	2759.56
405.093	2111.56
405.317	1858.56
405.541	1888.56
405.765	1846.56
405.988	1885.56
406.212	2004.56
406.436	2387.56
406.66	2583.56
406.883	2161.56
407.107	2280.56
407.331	2618.56
407.555	2560.56
407.778	2185.56
408.002	2102.56
408.226	1974.56
408.449	1995.56
408.673	1976.56
408.896	1856.56
409.12	1851.56
409.344	1845.56
409.567	1771.56
409.791	1793.56
410.014	1793.56
410.238	1774.56
410.461	1797.56
410.685	1790.56
410.908	1757.56
411.132	1797.56
411.355	1735.56
411.578	1756.56
411.802	1807.56
412.025	1877.56
412.249	1903.56
412.472	1798.56
412.695	1762.56
412.919	1731.56
413.142	1805.56
413.365	1879.56
413.589	1920.56
413.812	1772.56
414.035	1758.56
414.258	1788.56
414.482	1993.56
414.705	2012.56
414.928	1755.56
415.151	1728.56
415.374	1747.56
415.597	1766.56
415.821	1764.56
416.044	1782.56
416.267	1681.56
416.49	1642.56
416.713	1644.56
416.936	1663.56
417.159	1669.56
417.382	1678.56
417.605	1679.56
417.828	1752.56
418.051	1754.56
418.274	1795.56
418.497	1776.56
418.72	1804.56
418.943	1838.56
419.166	1948.56
419.389	1969.56
419.611	1913.56
419.834	1936.56
420.057	2060.56
420.28	2089.56
420.503	1895.56
420.726	1710.56
420.948	1671.56
421.171	1643.56
421.394	1680.56
421.617	1699.56
421.839	1716.56
422.062	1794.56
422.285	1759.56
422.507	1765.56
422.73	1824.56
422.953	1824.56
423.175	1758.56
423.398	1794.56
423.621	1858.56
423.843	1880.56
424.066	1863.56
424.288	1768.56
424.511	1718.56
424.733	1749.56
424.956	1798.56
425.178	1935.56
425.401	1906.56
425.623	1748.56
425.846	1666.56
426.068	1768.56
426.291	1923.56
426.513	1758.56
426.735	1670.56
426.958	1707.56
427.18	1919.56
427.402	2266.56
427.625	1890.56
427.847	1564.56
428.069	1545.56
428.292	1555.56
428.514	1580.56
428.736	1491.56
428.958	1546.56
429.181	1491.56
429.403	1524.56
429.625	1580.56
429.847	1553.56
430.069	1550.56
430.292	1584.56
430.514	1550.56
430.736	1741.56
430.958	2098.56
431.18	1879.56
431.402	1591.56
431.624	1537.56
431.846	1512.56
432.068	1489.56
432.29	1554.56
432.512	1686.56
432.734	2128.56
432.956	2000.56
433.178	1600.56
433.4	1491.56
433.622	1554.56
433.844	1549.56
434.066	1502.56
434.287	1509.56
434.509	1548.56
434.731	1604.56
434.953	1637.56
435.175	1631.56
435.397	1658.56
435.618	1567.56
435.84	1515.56
436.062	1514.56
436.284	1448.56
436.505	1462.56
436.727	1480.56
436.949	1480.56
437.17	1473.56
437.392	1440.56
437.614	1495.56
437.835	1449.56
438.057	1520.56
438.278	1670.56
438.5	2318.56
438.721	2226.56
438.943	1617.56
439.165	1500.56
439.386	1503.56
439.608	1451.56
439.829	1461.56
440.05	1476.56
440.272	1550.56
440.493	1750.56
440.715	2131.56
440.936	1798.56
441.158	1577.56
441.379	1600.56
441.6	1788.56
441.822	1894.56
442.043	1699.56
442.264	1636.56
442.486	1603.56
442.707	1615.56
442.928	1663.56
443.149	1679.56
443.371	1611.56
443.592	1670.56
443.813	1648.56
444.034	1674.56
444.255	1779.56
444.476	1883.56
444.698	1855.56
444.919	1864.56
445.14	1961.56
445.361	1785.56
445.582	1667.56
445.803	1569.56
446.024	1562.56
446.245	1601.56
446.466	1517.56
446.687	1513.56
446.908	1595.56
447.129	1524.56
447.35	1471.56
447.571	1412.56
447.792	1438.56
448.013	1432.56
448.234	1412.56
448.455	1436.56
448.675	1362.56
448.896	1349.56
449.117	1378.56
449.338	1407.56
449.559	1386.56
449.779	1460.56
450	1430.56
450.221	1438.56
450.442	1440.56
450.662	1441.56
450.883	1491.56
451.104	1427.56
451.324	1423.56
451.545	1425.56
451.766	1384.56
451.986	1388.56
452.207	1446.56
452.428	1410.56
452.648	1383.56
452.869	1398.56
453.089	1429.56
453.31	1398.56
453.53	1324.56
453.751	1342.56
453.971	1304.56
454.192	1303.56
454.412	1239.56
454.633	1270.56
454.853	1283.56
455.073	1271.56
455.294	1317.56
455.514	1262.56
455.734	1278.56
455.955	1261.56
456.175	1277.56
456.395	1256.56
456.616	1246.56
456.836	1243.56
457.056	1243.56
457.276	1253.56
457.497	1256.56
457.717	1263.56
457.937	1271.56
458.157	1259.56
458.377	1293.56
458.598	1341.56
458.818	1350.56
459.038	1396.56
459.258	1445.56
459.478	1482.56
459.698	1510.56
459.918	1564.56
460.138	1557.56
460.358	1624.56
460.578	1638.56
460.798	1702.56
461.018	1730.56
461.238	1679.56
461.458	1682.56
461.678	1698.56
461.898	1718.56
462.118	1739.56
462.338	1789.56
462.558	1833.56
462.777	1918.56
462.997	2026.56
463.217	2098.56
463.437	2089.56
463.657	1998.56
463.876	1973.56
464.096	1919.56
464.316	1918.56
464.536	1987.56
464.755	1919.56
464.975	1900.56
465.195	1792.56
465.414	1781.56
465.634	1820.56
465.854	1778.56
466.073	1666.56
466.293	1702.56
466.512	1766.56
466.732	1855.56
466.951	1848.56
467.171	1682.56
467.391	1637.56
467.61	1613.56
467.829	1759.56
468.049	1754.56
468.268	1633.56
468.488	1652.56
468.707	1679.56
468.927	1991.56
469.146	2072.56
469.365	1890.56
469.585	1792.56
469.804	1874.56
470.023	2014.56
470.243	1802.56
470.462	1774.56
470.681	1771.56
470.901	1689.56
471.12	1816.56
471.339	1808.56
471.558	1723.56
471.777	1747.56
471.997	1822.56
472.216	1970.56
472.435	1966.56
472.654	1820.56
472.873	1749.56
473.092	1837.56
473.311	1869.56
473.53	1743.56
473.749	1724.56
473.968	1715.56
474.187	1745.56
474.406	1710.56
474.625	1718.56
474.844	1758.56
475.063	1894.56
475.282	1848.56
475.501	1835.56
475.72	1776.56
475.939	1794.56
476.158	1938.56
476.377	2090.56
476.596	2404.56
476.814	2472.56
477.033	2150.56
477.252	1962.56
477.471	1860.56
477.69	1920.56
477.908	2097.56
478.127	2179.56
478.346	1938.56
478.564	1952.56
478.783	1968.56
479.002	2004.56
479.22	2293.56
479.439	2598.56
479.658	2277.56
479.876	2161.56
480.095	2270.56
480.313	2338.56
480.532	2240.56
480.751	2192.56
480.969	2164.56
481.188	2417.56
481.406	2445.56
481.624	2342.56
481.843	2074.56
482.061	2008.56
482.28	2199.56
482.498	2376.56
482.717	2173.56
482.935	2089.56
483.153	1991.56
483.372	1895.56
483.59	1907.56
483.808	1948.56
484.027	1889.56
484.245	1845.56
484.463	1852.56
484.681	1914.56
484.9	2063.56
485.118	2180.56
485.336	2086.56
485.554	1927.56
485.772	1996.56
485.99	2151.56
486.209	2299.56
486.427	2246.56
486.645	2202.56
486.863	2293.56
487.081	2279.56
487.299	2423.56
