Data from UnknownNail75mm.07152019.Lampedge.EN5.5scans.P1_HRD10591_15-16-24-730.txt Node
Date: Mon Jul 15 15:16:24 EDT 2019
User: cochatt
Spectrometer: HR+D1059
Trigger mode: 1
Integration Time (sec): 1.000000E-1
Scans to average: 1
Electric dark correction enabled: true
Nonlinearity correction enabled: false
Boxcar width: 0
XAxis mode: Wavelengths
Number of Pixels in Spectrum: 2048
>>>>>Begin Spectral Data<<<<<
223.165	-17.94
223.4	-17.94
223.635	-17.94
223.869	-19.94
224.104	-16.94
224.338	-8.94
224.573	-14.94
224.808	-1.94
225.042	-9.94
225.277	-15.94
225.511	-3.94
225.746	21.06
225.98	3.06
226.215	7.06
226.449	22.06
226.683	14.06
226.918	30.06
227.152	13.06
227.387	33.06
227.621	39.06
227.856	39.06
228.09	46.06
228.324	49.06
228.559	53.06
228.793	62.06
229.027	135.06
229.262	110.06
229.496	123.06
229.73	129.06
229.964	123.06
230.199	128.06
230.433	130.06
230.667	142.06
230.901	139.06
231.136	151.06
231.37	146.06
231.604	157.06
231.838	154.06
232.072	158.06
232.306	172.06
232.541	171.06
232.775	171.06
233.009	186.06
233.243	218.06
233.477	220.06
233.711	250.06
233.945	248.06
234.179	237.06
234.413	261.06
234.647	295.06
234.881	353.06
235.115	326.06
235.349	313.06
235.583	262.06
235.817	269.06
236.051	291.06
236.285	335.06
236.519	359.06
236.753	318.06
236.987	317.06
237.221	303.06
237.455	306.06
237.689	318.06
237.922	341.06
238.156	342.06
238.39	401.06
238.624	488.06
238.858	477.06
239.091	375.06
239.325	379.06
239.559	363.06
239.793	386.06
240.027	465.06
240.26	463.06
240.494	461.06
240.728	442.06
240.961	505.06
241.195	496.06
241.429	485.06
241.662	467.06
241.896	370.06
242.13	331.06
242.363	328.06
242.597	338.06
242.83	386.06
243.064	382.06
243.298	427.06
243.531	445.06
243.765	438.06
243.998	428.06
244.232	402.06
244.465	426.06
244.699	419.06
244.932	482.06
245.166	456.06
245.399	399.06
245.633	363.06
245.866	379.06
246.099	409.06
246.333	513.06
246.566	537.06
246.8	529.06
247.033	508.06
247.266	483.06
247.5	473.06
247.733	447.06
247.966	456.06
248.2	446.06
248.433	530.06
248.666	551.06
248.899	570.06
249.133	585.06
249.366	681.06
249.599	719.06
249.832	704.06
250.066	592.06
250.299	588.06
250.532	539.06
250.765	565.06
250.998	514.06
251.231	495.06
251.465	507.06
251.698	575.06
251.931	523.06
252.164	523.06
252.397	586.06
252.63	693.06
252.863	742.06
253.096	782.06
253.329	758.06
253.562	733.06
253.795	795.06
254.028	917.06
254.261	963.06
254.494	842.06
254.727	723.06
254.96	701.06
255.193	782.06
255.426	758.06
255.659	579.06
255.892	468.06
256.124	504.06
256.357	599.06
256.59	755.06
256.823	708.06
257.056	625.06
257.289	553.06
257.521	549.06
257.754	563.06
257.987	597.06
258.22	586.06
258.452	559.06
258.685	668.06
258.918	777.06
259.151	740.06
259.383	685.06
259.616	777.06
259.849	851.06
260.081	1087.06
260.314	1319.06
260.547	953.06
260.779	789.06
261.012	943.06
261.244	935.06
261.477	989.06
261.71	996.06
261.942	773.06
262.175	715.06
262.407	660.06
262.64	746.06
262.872	906.06
263.105	1009.06
263.337	1069.06
263.57	987.06
263.802	654.06
264.035	497.06
264.267	427.06
264.499	419.06
264.732	410.06
264.964	419.06
265.197	418.06
265.429	414.06
265.661	408.06
265.894	402.06
266.126	428.06
266.358	446.06
266.591	560.06
266.823	652.06
267.055	616.06
267.287	497.06
267.52	444.06
267.752	426.06
267.984	421.06
268.216	475.06
268.448	481.06
268.681	544.06
268.913	525.06
269.145	518.06
269.377	521.06
269.609	586.06
269.841	544.06
270.073	518.06
270.306	545.06
270.538	576.06
270.77	627.06
271.002	635.06
271.234	641.06
271.466	691.06
271.698	777.06
271.93	761.06
272.162	723.06
272.394	709.06
272.626	690.06
272.858	762.06
273.09	823.06
273.322	766.06
273.553	767.06
273.785	888.06
274.017	1191.06
274.249	1422.06
274.481	1500.06
274.713	1602.06
274.945	1904.06
275.176	2005.06
275.408	1709.06
275.64	1498.06
275.872	1497.06
276.104	1124.06
276.335	781.06
276.567	733.06
276.799	770.06
277.031	907.06
277.262	802.06
277.494	655.06
277.726	599.06
277.957	654.06
278.189	671.06
278.421	691.06
278.652	660.06
278.884	632.06
279.115	586.06
279.347	558.06
279.579	536.06
279.81	543.06
280.042	516.06
280.273	531.06
280.505	499.06
280.736	493.06
280.968	480.06
281.199	489.06
281.431	498.06
281.662	491.06
281.894	473.06
282.125	444.06
282.356	467.06
282.588	493.06
282.819	498.06
283.051	547.06
283.282	577.06
283.513	633.06
283.745	596.06
283.976	608.06
284.207	634.06
284.439	644.06
284.67	622.06
284.901	614.06
285.132	590.06
285.364	600.06
285.595	606.06
285.826	636.06
286.057	653.06
286.288	623.06
286.52	547.06
286.751	546.06
286.982	558.06
287.213	583.06
287.444	610.06
287.675	614.06
287.906	603.06
288.138	563.06
288.369	539.06
288.6	563.06
288.831	558.06
289.062	515.06
289.293	518.06
289.524	517.06
289.755	526.06
289.986	514.06
290.217	514.06
290.448	497.06
290.679	484.06
290.91	485.06
291.141	476.06
291.371	495.06
291.602	495.06
291.833	480.06
292.064	500.06
292.295	502.06
292.526	490.06
292.757	513.06
292.987	551.06
293.218	491.06
293.449	483.06
293.68	529.06
293.91	545.06
294.141	558.06
294.372	545.06
294.603	553.06
294.833	642.06
295.064	680.06
295.295	630.06
295.525	587.06
295.756	604.06
295.987	542.06
296.217	542.06
296.448	544.06
296.679	611.06
296.909	645.06
297.14	655.06
297.37	641.06
297.601	630.06
297.831	555.06
298.062	559.06
298.292	607.06
298.523	705.06
298.753	796.06
298.984	707.06
299.214	590.06
299.445	581.06
299.675	597.06
299.905	589.06
300.136	617.06
300.366	640.06
300.597	633.06
300.827	621.06
301.057	613.06
301.288	587.06
301.518	533.06
301.748	574.06
301.979	657.06
302.209	746.06
302.439	784.06
302.669	670.06
302.9	597.06
303.13	563.06
303.36	568.06
303.59	561.06
303.82	562.06
304.051	557.06
304.281	561.06
304.511	542.06
304.741	551.06
304.971	586.06
305.201	577.06
305.431	534.06
305.661	551.06
305.891	609.06
306.121	611.06
306.352	582.06
306.582	551.06
306.812	525.06
307.042	585.06
307.272	550.06
307.502	528.06
307.731	553.06
307.961	553.06
308.191	545.06
308.421	541.06
308.651	494.06
308.881	491.06
309.111	499.06
309.341	501.06
309.571	498.06
309.8	509.06
310.03	541.06
310.26	550.06
310.49	542.06
310.72	501.06
310.949	495.06
311.179	521.06
311.409	524.06
311.639	511.06
311.868	529.06
312.098	539.06
312.328	540.06
312.557	538.06
312.787	528.06
313.017	523.06
313.246	517.06
313.476	543.06
313.706	564.06
313.935	524.06
314.165	526.06
314.394	537.06
314.624	538.06
314.853	528.06
315.083	540.06
315.312	557.06
315.542	582.06
315.771	587.06
316.001	555.06
316.23	551.06
316.46	550.06
316.689	560.06
316.919	585.06
317.148	575.06
317.377	551.06
317.607	558.06
317.836	581.06
318.065	596.06
318.295	599.06
318.524	554.06
318.753	579.06
318.983	599.06
319.212	572.06
319.441	589.06
319.67	631.06
319.9	618.06
320.129	578.06
320.358	561.06
320.587	571.06
320.816	578.06
321.046	603.06
321.275	656.06
321.504	674.06
321.733	646.06
321.962	654.06
322.191	642.06
322.42	656.06
322.649	653.06
322.878	686.06
323.108	669.06
323.337	627.06
323.566	629.06
323.795	596.06
324.024	580.06
324.253	587.06
324.482	601.06
324.71	601.06
324.939	585.06
325.168	597.06
325.397	568.06
325.626	603.06
325.855	616.06
326.084	603.06
326.313	586.06
326.542	564.06
326.77	567.06
326.999	577.06
327.228	573.06
327.457	566.06
327.686	588.06
327.914	567.06
328.143	586.06
328.372	578.06
328.6	576.06
328.829	596.06
329.058	593.06
329.287	607.06
329.515	570.06
329.744	583.06
329.972	563.06
330.201	595.06
330.43	592.06
330.658	577.06
330.887	625.06
331.115	619.06
331.344	589.06
331.572	590.06
331.801	582.06
332.03	613.06
332.258	607.06
332.486	627.06
332.715	656.06
332.943	639.06
333.172	667.06
333.4	687.06
333.629	671.06
333.857	723.06
334.085	710.06
334.314	667.06
334.542	683.06
334.771	691.06
334.999	670.06
335.227	628.06
335.455	652.06
335.684	637.06
335.912	628.06
336.14	678.06
336.369	636.06
336.597	627.06
336.825	641.06
337.053	621.06
337.281	644.06
337.51	646.06
337.738	626.06
337.966	613.06
338.194	608.06
338.422	591.06
338.65	618.06
338.878	583.06
339.106	604.06
339.334	605.06
339.562	602.06
339.79	615.06
340.018	606.06
340.246	618.06
340.474	612.06
340.702	629.06
340.93	671.06
341.158	649.06
341.386	650.06
341.614	606.06
341.842	630.06
342.07	646.06
342.298	618.06
342.526	622.06
342.754	650.06
342.981	656.06
343.209	638.06
343.437	638.06
343.665	669.06
343.893	750.06
344.12	837.06
344.348	921.06
344.576	785.06
344.804	707.06
345.031	633.06
345.259	635.06
345.487	615.06
345.714	592.06
345.942	606.06
346.17	602.06
346.397	631.06
346.625	635.06
346.853	621.06
347.08	599.06
347.308	603.06
347.535	656.06
347.763	712.06
347.99	629.06
348.218	589.06
348.445	592.06
348.673	602.06
348.9	619.06
349.128	638.06
349.355	651.06
349.583	636.06
349.81	595.06
350.037	602.06
350.265	589.06
350.492	551.06
350.72	565.06
350.947	556.06
351.174	587.06
351.402	589.06
351.629	604.06
351.856	574.06
352.083	591.06
352.311	619.06
352.538	619.06
352.765	614.06
352.992	651.06
353.22	608.06
353.447	599.06
353.674	603.06
353.901	628.06
354.128	628.06
354.355	602.06
354.583	623.06
354.81	585.06
355.037	589.06
355.264	622.06
355.491	653.06
355.718	677.06
355.945	696.06
356.172	667.06
356.399	675.06
356.626	759.06
356.853	899.06
357.08	906.06
357.307	911.06
357.534	743.06
357.761	702.06
357.988	789.06
358.215	979.06
358.441	1045.06
358.668	890.06
358.895	786.06
359.122	663.06
359.349	612.06
359.576	609.06
359.802	575.06
360.029	597.06
360.256	606.06
360.483	685.06
360.709	728.06
360.936	828.06
361.163	824.06
361.39	700.06
361.616	669.06
361.843	737.06
362.07	876.06
362.296	789.06
362.523	672.06
362.749	626.06
362.976	661.06
363.203	785.06
363.429	817.06
363.656	675.06
363.882	602.06
364.109	619.06
364.335	618.06
364.562	601.06
364.788	687.06
365.015	787.06
365.241	736.06
365.468	644.06
365.694	566.06
365.92	555.06
366.147	523.06
366.373	551.06
366.599	548.06
366.826	529.06
367.052	543.06
367.278	589.06
367.505	545.06
367.731	565.06
367.957	606.06
368.184	642.06
368.41	629.06
368.636	645.06
368.862	683.06
369.089	661.06
369.315	606.06
369.541	601.06
369.767	595.06
369.993	582.06
370.219	595.06
370.445	594.06
370.672	674.06
370.898	698.06
371.124	706.06
371.35	646.06
371.576	614.06
371.802	660.06
372.028	783.06
372.254	885.06
372.48	797.06
372.706	709.06
372.932	757.06
373.158	770.06
373.384	887.06
373.61	1170.06
373.835	1174.06
374.061	921.06
374.287	763.06
374.513	864.06
374.739	1017.06
374.965	1115.06
375.191	1085.06
375.416	837.06
375.642	737.06
375.868	798.06
376.094	852.06
376.319	773.06
376.545	813.06
376.771	876.06
376.997	736.06
377.222	621.06
377.448	574.06
377.674	541.06
377.899	556.06
378.125	558.06
378.35	538.06
378.576	565.06
378.802	602.06
379.027	644.06
379.253	616.06
379.478	615.06
379.704	677.06
379.929	696.06
380.155	697.06
380.38	627.06
380.606	624.06
380.831	659.06
381.057	638.06
381.282	672.06
381.507	729.06
381.733	879.06
381.958	925.06
382.184	981.06
382.409	1021.06
382.634	985.06
382.86	1050.06
383.085	877.06
383.31	762.06
383.535	779.06
383.761	797.06
383.986	777.06
384.211	854.06
384.436	874.06
384.662	728.06
384.887	692.06
385.112	707.06
385.337	718.06
385.562	700.06
385.787	754.06
386.013	850.06
386.238	883.06
386.463	754.06
386.688	709.06
386.913	684.06
387.138	649.06
387.363	683.06
387.588	694.06
387.813	705.06
388.038	751.06
388.263	739.06
388.488	679.06
388.713	776.06
388.938	823.06
389.163	727.06
389.387	683.06
389.612	685.06
389.837	689.06
390.062	694.06
390.287	721.06
390.512	707.06
390.736	685.06
390.961	661.06
391.186	639.06
391.411	651.06
391.636	652.06
391.86	694.06
392.085	734.06
392.31	759.06
392.534	747.06
392.759	701.06
392.984	747.06
393.208	791.06
393.433	812.06
393.658	813.06
393.882	684.06
394.107	653.06
394.331	670.06
394.556	662.06
394.78	655.06
395.005	657.06
395.229	661.06
395.454	658.06
395.678	702.06
395.903	693.06
396.127	694.06
396.352	649.06
396.576	657.06
396.801	723.06
397.025	833.06
397.249	800.06
397.474	688.06
397.698	690.06
397.922	685.06
398.147	662.06
398.371	677.06
398.595	695.06
398.82	729.06
399.044	750.06
399.268	803.06
399.492	885.06
399.717	1003.06
399.941	988.06
400.165	930.06
400.389	857.06
400.613	811.06
400.837	780.06
401.062	754.06
401.286	717.06
401.51	713.06
401.734	723.06
401.958	728.06
402.182	721.06
402.406	743.06
402.63	751.06
402.854	731.06
403.078	748.06
403.302	798.06
403.526	838.06
403.75	820.06
403.974	823.06
404.198	823.06
404.422	886.06
404.645	1039.06
404.869	1113.06
405.093	891.06
405.317	796.06
405.541	760.06
405.765	788.06
405.988	771.06
406.212	819.06
406.436	931.06
406.66	1002.06
406.883	854.06
407.107	925.06
407.331	1017.06
407.555	1011.06
407.778	891.06
408.002	845.06
408.226	859.06
408.449	828.06
408.673	795.06
408.896	793.06
409.12	772.06
409.344	788.06
409.567	744.06
409.791	801.06
410.014	762.06
410.238	760.06
410.461	767.06
410.685	751.06
410.908	734.06
411.132	749.06
411.355	738.06
411.578	729.06
411.802	738.06
412.025	767.06
412.249	801.06
412.472	767.06
412.695	744.06
412.919	718.06
413.142	739.06
413.365	762.06
413.589	779.06
413.812	753.06
414.035	729.06
414.258	710.06
414.482	780.06
414.705	797.06
414.928	750.06
415.151	717.06
415.374	721.06
415.597	738.06
415.821	739.06
416.044	741.06
416.267	703.06
416.49	695.06
416.713	694.06
416.936	714.06
417.159	698.06
417.382	703.06
417.605	718.06
417.828	689.06
418.051	715.06
418.274	737.06
418.497	769.06
418.72	764.06
418.943	771.06
419.166	770.06
419.389	796.06
419.611	772.06
419.834	781.06
420.057	801.06
420.28	818.06
420.503	774.06
420.726	719.06
420.948	714.06
421.171	700.06
421.394	711.06
421.617	687.06
421.839	713.06
422.062	726.06
422.285	713.06
422.507	726.06
422.73	729.06
422.953	719.06
423.175	722.06
423.398	749.06
423.621	763.06
423.843	748.06
424.066	748.06
424.288	730.06
424.511	743.06
424.733	726.06
424.956	743.06
425.178	786.06
425.401	754.06
425.623	689.06
425.846	706.06
426.068	708.06
426.291	759.06
426.513	710.06
426.735	682.06
426.958	703.06
427.18	793.06
427.402	901.06
427.625	762.06
427.847	663.06
428.069	614.06
428.292	649.06
428.514	638.06
428.736	616.06
428.958	635.06
429.181	636.06
429.403	647.06
429.625	662.06
429.847	651.06
430.069	625.06
430.292	651.06
430.514	649.06
430.736	693.06
430.958	822.06
431.18	786.06
431.402	657.06
431.624	626.06
431.846	626.06
432.068	650.06
432.29	645.06
432.512	689.06
432.734	824.06
432.956	794.06
433.178	666.06
433.4	645.06
433.622	629.06
433.844	657.06
434.066	630.06
434.287	647.06
434.509	637.06
434.731	652.06
434.953	685.06
435.175	685.06
435.397	703.06
435.618	646.06
435.84	641.06
436.062	671.06
436.284	617.06
436.505	589.06
436.727	611.06
436.949	626.06
437.17	625.06
437.392	653.06
437.614	630.06
437.835	626.06
438.057	642.06
438.278	695.06
438.5	918.06
438.721	893.06
438.943	675.06
439.165	634.06
439.386	621.06
439.608	619.06
439.829	642.06
440.05	619.06
440.272	644.06
440.493	740.06
440.715	816.06
440.936	717.06
441.158	670.06
441.379	694.06
441.6	738.06
441.822	766.06
442.043	685.06
442.264	671.06
442.486	685.06
442.707	661.06
442.928	708.06
443.149	689.06
443.371	691.06
443.592	693.06
443.813	656.06
444.034	702.06
444.255	751.06
444.476	766.06
444.698	727.06
444.919	791.06
445.14	930.06
445.361	787.06
445.582	709.06
445.803	675.06
446.024	666.06
446.245	662.06
446.466	643.06
446.687	628.06
446.908	634.06
447.129	638.06
447.35	610.06
447.571	594.06
447.792	616.06
448.013	598.06
448.234	599.06
448.455	605.06
448.675	592.06
448.896	592.06
449.117	589.06
449.338	583.06
449.559	583.06
449.779	614.06
450	578.06
450.221	589.06
450.442	609.06
450.662	607.06
450.883	607.06
451.104	598.06
451.324	586.06
451.545	622.06
451.766	590.06
451.986	574.06
452.207	583.06
452.428	598.06
452.648	582.06
452.869	602.06
453.089	604.06
453.31	573.06
453.53	581.06
453.751	550.06
453.971	547.06
454.192	563.06
454.412	519.06
454.633	557.06
454.853	551.06
455.073	549.06
455.294	547.06
455.514	587.06
455.734	548.06
455.955	538.06
456.175	543.06
456.395	539.06
456.616	518.06
456.836	557.06
457.056	539.06
457.276	524.06
457.497	545.06
457.717	552.06
457.937	550.06
458.157	560.06
458.377	589.06
458.598	571.06
458.818	597.06
459.038	600.06
459.258	587.06
459.478	613.06
459.698	634.06
459.918	655.06
460.138	657.06
460.358	700.06
460.578	721.06
460.798	702.06
461.018	709.06
461.238	683.06
461.458	707.06
461.678	699.06
461.898	699.06
462.118	752.06
462.338	770.06
462.558	787.06
462.777	806.06
462.997	838.06
463.217	882.06
463.437	871.06
463.657	830.06
463.876	802.06
464.096	799.06
464.316	805.06
464.536	805.06
464.755	806.06
464.975	773.06
465.195	776.06
465.414	753.06
465.634	753.06
465.854	748.06
466.073	702.06
466.293	681.06
466.512	721.06
466.732	767.06
466.951	783.06
467.171	698.06
467.391	686.06
467.61	666.06
467.829	736.06
468.049	707.06
468.268	652.06
468.488	679.06
468.707	702.06
468.927	809.06
469.146	865.06
469.365	793.06
469.585	728.06
469.804	778.06
470.023	830.06
470.243	729.06
470.462	736.06
470.681	713.06
470.901	710.06
471.12	729.06
471.339	729.06
471.558	709.06
471.777	704.06
471.997	738.06
472.216	802.06
472.435	825.06
472.654	757.06
472.873	719.06
473.092	754.06
473.311	763.06
473.53	706.06
473.749	697.06
473.968	727.06
474.187	704.06
474.406	699.06
474.625	689.06
474.844	717.06
475.063	756.06
475.282	731.06
475.501	728.06
475.72	697.06
475.939	734.06
476.158	781.06
476.377	835.06
476.596	990.06
476.814	1035.06
477.033	852.06
477.252	784.06
477.471	773.06
477.69	759.06
477.908	850.06
478.127	898.06
478.346	820.06
478.564	786.06
478.783	801.06
479.002	851.06
479.22	961.06
479.439	1097.06
479.658	918.06
479.876	863.06
480.095	936.06
480.313	959.06
480.532	876.06
480.751	877.06
480.969	917.06
481.188	1013.06
481.406	1003.06
481.624	974.06
481.843	842.06
482.061	816.06
482.28	917.06
482.498	969.06
482.717	867.06
482.935	838.06
483.153	816.06
483.372	746.06
483.59	761.06
483.808	750.06
484.027	757.06
484.245	735.06
484.463	746.06
484.681	793.06
484.9	825.06
485.118	869.06
485.336	821.06
485.554	796.06
485.772	827.06
485.99	871.06
486.209	906.06
486.427	891.06
486.645	899.06
486.863	923.06
487.081	887.06
487.299	962.06
487.517	890.06
487.735	841.06
487.953	862.06
488.171	909.06
488.389	870.06
488.607	803.06
488.825	808.06
489.043	883.06
489.261	1045.06
489.479	1010.06
489.696	897.06
489.914	835.06
490.132	824.06
490.35	782.06
490.568	779.06
490.786	793.06
491.003	811.06
491.221	808.06
491.439	822.06
491.657	805.06
491.874	860.06
492.092	990.06
492.31	1067.06
492.527	1024.06
492.745	988.06
492.963	940.06
493.18	923.06
493.398	946.06
493.615	948.06
493.833	878.06
494.05	904.06
494.268	916.06
494.485	879.06
494.703	884.06
494.92	909.06
495.138	873.06
495.355	866.06
495.573	870.06
495.79	913.06
496.008	1121.06
496.225	979.06
496.442	921.06
496.66	1001.06
496.877	1014.06
497.094	1005.06
497.312	933.06
497.529	979.06
497.746	982.06
497.963	1046.06
498.181	1098.06
498.398	1212.06
498.615	1268.06
498.832	1346.06
499.049	1388.06
499.267	1291.06
499.484	1341.06
499.701	1436.06
499.918	1597.06
500.135	1751.06
500.352	1868.06
500.569	1961.06
500.786	1925.06
501.003	1869.06
501.22	1664.06
