Data from UnknownNail75mm.07152019.QswitchSynchronous.EN10.5scans.P1_HRD10591_15-21-15-324.txt Node
Date: Mon Jul 15 15:21:15 EDT 2019
User: cochatt
Spectrometer: HR+D1059
Trigger mode: 1
Integration Time (sec): 1.000000E-1
Scans to average: 1
Electric dark correction enabled: true
Nonlinearity correction enabled: false
Boxcar width: 0
XAxis mode: Wavelengths
Number of Pixels in Spectrum: 2048
>>>>>Begin Spectral Data<<<<<
223.165	-2.75
223.4	-2.75
223.635	-2.75
223.869	-12.75
224.104	-21.75
224.338	-18.75
224.573	-10.75
224.808	-12.75
225.042	3.25
225.277	5.25
225.511	-2.75
225.746	-6.75
225.98	0.25
226.215	4.25
226.449	6.25
226.683	23.25
226.918	31.25
227.152	15.25
227.387	38.25
227.621	55.25
227.856	42.25
228.09	62.25
228.324	47.25
228.559	55.25
228.793	56.25
229.027	60.25
229.262	56.25
229.496	72.25
229.73	66.25
229.964	68.25
230.199	77.25
230.433	81.25
230.667	83.25
230.901	69.25
231.136	86.25
231.37	89.25
231.604	82.25
231.838	89.25
232.072	83.25
232.306	92.25
232.541	100.25
232.775	89.25
233.009	86.25
233.243	99.25
233.477	97.25
233.711	86.25
233.945	94.25
234.179	77.25
234.413	90.25
234.647	93.25
234.881	85.25
235.115	93.25
235.349	93.25
235.583	97.25
235.817	85.25
236.051	87.25
236.285	80.25
236.519	90.25
236.753	80.25
236.987	90.25
237.221	105.25
237.455	88.25
237.689	98.25
237.922	108.25
238.156	83.25
238.39	92.25
238.624	98.25
238.858	86.25
239.091	95.25
239.325	83.25
239.559	78.25
239.793	78.25
240.027	86.25
240.26	83.25
240.494	87.25
240.728	87.25
240.961	101.25
241.195	82.25
241.429	100.25
241.662	102.25
241.896	73.25
242.13	92.25
242.363	91.25
242.597	69.25
242.83	91.25
243.064	72.25
243.298	93.25
243.531	99.25
243.765	79.25
243.998	98.25
244.232	80.25
244.465	80.25
244.699	79.25
244.932	91.25
245.166	84.25
245.399	91.25
245.633	88.25
245.866	75.25
246.099	80.25
246.333	98.25
246.566	80.25
246.8	90.25
247.033	99.25
247.266	111.25
247.5	98.25
247.733	105.25
247.966	89.25
248.2	94.25
248.433	115.25
248.666	111.25
248.899	113.25
249.133	133.25
249.366	122.25
249.599	131.25
249.832	83.25
250.066	97.25
250.299	100.25
250.532	99.25
250.765	98.25
250.998	93.25
251.231	81.25
251.465	105.25
251.698	96.25
251.931	104.25
252.164	108.25
252.397	110.25
252.63	122.25
252.863	132.25
253.096	120.25
253.329	115.25
253.562	105.25
253.795	111.25
254.028	118.25
254.261	134.25
254.494	121.25
254.727	106.25
254.96	119.25
255.193	122.25
255.426	111.25
255.659	99.25
255.892	89.25
256.124	105.25
256.357	101.25
256.59	112.25
256.823	89.25
257.056	102.25
257.289	99.25
257.521	97.25
257.754	79.25
257.987	104.25
258.22	105.25
258.452	116.25
258.685	102.25
258.918	112.25
259.151	100.25
259.383	100.25
259.616	111.25
259.849	107.25
260.081	126.25
260.314	146.25
260.547	112.25
260.779	113.25
261.012	133.25
261.244	121.25
261.477	145.25
261.71	129.25
261.942	114.25
262.175	117.25
262.407	108.25
262.64	110.25
262.872	128.25
263.105	131.25
263.337	146.25
263.57	139.25
263.802	106.25
264.035	79.25
264.267	75.25
264.499	92.25
264.732	97.25
264.964	90.25
265.197	85.25
265.429	91.25
265.661	87.25
265.894	92.25
266.126	94.25
266.358	113.25
266.591	99.25
266.823	99.25
267.055	102.25
267.287	93.25
267.52	83.25
267.752	99.25
267.984	93.25
268.216	95.25
268.448	114.25
268.681	84.25
268.913	93.25
269.145	91.25
269.377	98.25
269.609	89.25
269.841	100.25
270.073	92.25
270.306	95.25
270.538	95.25
270.77	96.25
271.002	108.25
271.234	114.25
271.466	93.25
271.698	131.25
271.93	124.25
272.162	144.25
272.394	141.25
272.626	135.25
272.858	116.25
273.09	118.25
273.322	110.25
273.553	121.25
273.785	147.25
274.017	163.25
274.249	181.25
274.481	173.25
274.713	199.25
274.945	212.25
275.176	208.25
275.408	186.25
275.64	151.25
275.872	161.25
276.104	129.25
276.335	110.25
276.567	127.25
276.799	117.25
277.031	107.25
277.262	111.25
277.494	111.25
277.726	116.25
277.957	95.25
278.189	103.25
278.421	104.25
278.652	94.25
278.884	110.25
279.115	121.25
279.347	100.25
279.579	94.25
279.81	95.25
280.042	100.25
280.273	92.25
280.505	108.25
280.736	104.25
280.968	92.25
281.199	101.25
281.431	112.25
281.662	111.25
281.894	104.25
282.125	86.25
282.356	92.25
282.588	105.25
282.819	109.25
283.051	90.25
283.282	100.25
283.513	120.25
283.745	123.25
283.976	115.25
284.207	93.25
284.439	104.25
284.67	92.25
284.901	89.25
285.132	104.25
285.364	98.25
285.595	105.25
285.826	99.25
286.057	96.25
286.288	92.25
286.52	90.25
286.751	118.25
286.982	96.25
287.213	88.25
287.444	88.25
287.675	95.25
287.906	106.25
288.138	89.25
288.369	97.25
288.6	80.25
288.831	97.25
289.062	83.25
289.293	92.25
289.524	97.25
289.755	114.25
289.986	93.25
290.217	81.25
290.448	91.25
290.679	77.25
290.91	86.25
291.141	97.25
291.371	105.25
291.602	87.25
291.833	94.25
292.064	104.25
292.295	95.25
292.526	108.25
292.757	122.25
292.987	119.25
293.218	106.25
293.449	101.25
293.68	109.25
293.91	117.25
294.141	123.25
294.372	121.25
294.603	115.25
294.833	133.25
295.064	142.25
295.295	141.25
295.525	140.25
295.756	126.25
295.987	142.25
296.217	123.25
296.448	118.25
296.679	144.25
296.909	163.25
297.14	165.25
297.37	156.25
297.601	166.25
297.831	129.25
298.062	135.25
298.292	145.25
298.523	151.25
298.753	153.25
298.984	129.25
299.214	111.25
299.445	116.25
299.675	146.25
299.905	144.25
300.136	148.25
300.366	168.25
300.597	160.25
300.827	136.25
301.057	149.25
301.288	147.25
301.518	106.25
301.748	144.25
301.979	183.25
302.209	270.25
302.439	273.25
302.669	205.25
302.9	169.25
303.13	146.25
303.36	129.25
303.59	108.25
303.82	130.25
304.051	147.25
304.281	132.25
304.511	131.25
304.741	133.25
304.971	147.25
305.201	130.25
305.431	123.25
305.661	141.25
305.891	149.25
306.121	181.25
306.352	142.25
306.582	117.25
306.812	127.25
307.042	113.25
307.272	117.25
307.502	109.25
307.731	125.25
307.961	131.25
308.191	102.25
308.421	100.25
308.651	115.25
308.881	108.25
309.111	104.25
309.341	111.25
309.571	108.25
309.8	110.25
310.03	139.25
310.26	152.25
310.49	144.25
310.72	113.25
310.949	85.25
311.179	94.25
311.409	90.25
311.639	100.25
311.868	85.25
312.098	123.25
312.328	88.25
312.557	96.25
312.787	108.25
313.017	99.25
313.246	88.25
313.476	98.25
313.706	87.25
313.935	89.25
314.165	96.25
314.394	90.25
314.624	96.25
314.853	104.25
315.083	108.25
315.312	97.25
315.542	99.25
315.771	100.25
316.001	106.25
316.23	95.25
316.46	100.25
316.689	90.25
316.919	95.25
317.148	105.25
317.377	97.25
317.607	110.25
317.836	114.25
318.065	105.25
318.295	121.25
318.524	109.25
318.753	122.25
318.983	105.25
319.212	106.25
319.441	111.25
319.67	123.25
319.9	136.25
320.129	125.25
320.358	115.25
320.587	113.25
320.816	120.25
321.046	112.25
321.275	156.25
321.504	180.25
321.733	160.25
321.962	149.25
322.191	153.25
322.42	168.25
322.649	171.25
322.878	173.25
323.108	158.25
323.337	120.25
323.566	102.25
323.795	121.25
324.024	117.25
324.253	102.25
324.482	95.25
324.71	113.25
324.939	119.25
325.168	104.25
325.397	107.25
325.626	115.25
325.855	106.25
326.084	91.25
326.313	106.25
326.542	87.25
326.77	105.25
326.999	100.25
327.228	107.25
327.457	116.25
327.686	89.25
327.914	93.25
328.143	91.25
328.372	106.25
328.6	117.25
328.829	123.25
329.058	119.25
329.287	108.25
329.515	99.25
329.744	99.25
329.972	104.25
330.201	100.25
330.43	108.25
330.658	103.25
330.887	120.25
331.115	108.25
331.344	93.25
331.572	91.25
331.801	93.25
332.03	90.25
332.258	93.25
332.486	99.25
332.715	103.25
332.943	90.25
333.172	113.25
333.4	91.25
333.629	107.25
333.857	95.25
334.085	83.25
334.314	91.25
334.542	89.25
334.771	92.25
334.999	114.25
335.227	103.25
335.455	97.25
335.684	105.25
335.912	99.25
336.14	93.25
336.369	84.25
336.597	93.25
336.825	82.25
337.053	105.25
337.281	96.25
337.51	87.25
337.738	82.25
337.966	107.25
338.194	91.25
338.422	106.25
338.65	100.25
338.878	97.25
339.106	100.25
339.334	123.25
339.562	105.25
339.79	116.25
340.018	122.25
340.246	126.25
340.474	129.25
340.702	134.25
340.93	130.25
341.158	114.25
341.386	101.25
341.614	118.25
341.842	124.25
342.07	112.25
342.298	119.25
342.526	130.25
342.754	157.25
342.981	147.25
343.209	122.25
343.437	117.25
343.665	112.25
343.893	151.25
344.12	255.25
344.348	307.25
344.576	220.25
344.804	149.25
345.031	118.25
345.259	107.25
345.487	118.25
345.714	104.25
345.942	91.25
346.17	110.25
346.397	107.25
346.625	143.25
346.853	155.25
347.08	126.25
347.308	129.25
347.535	169.25
347.763	202.25
347.99	183.25
348.218	132.25
348.445	112.25
348.673	108.25
348.9	122.25
349.128	165.25
349.355	177.25
349.583	136.25
349.81	130.25
350.037	155.25
350.265	98.25
350.492	97.25
350.72	110.25
350.947	113.25
351.174	115.25
351.402	136.25
351.629	133.25
351.856	123.25
352.083	122.25
352.311	154.25
352.538	189.25
352.765	193.25
352.992	183.25
353.22	135.25
353.447	128.25
353.674	136.25
353.901	145.25
354.128	155.25
354.355	168.25
354.583	146.25
354.81	127.25
355.037	113.25
355.264	127.25
355.491	169.25
355.718	225.25
355.945	231.25
356.172	206.25
356.399	177.25
356.626	237.25
356.853	314.25
357.08	357.25
357.307	383.25
357.534	222.25
357.761	179.25
357.988	239.25
358.215	356.25
358.441	424.25
358.668	333.25
358.895	309.25
359.122	192.25
359.349	125.25
359.576	123.25
359.802	128.25
360.029	129.25
360.256	130.25
360.483	173.25
360.709	239.25
360.936	323.25
361.163	312.25
361.39	200.25
361.616	167.25
361.843	232.25
362.07	314.25
362.296	237.25
362.523	182.25
362.749	127.25
362.976	182.25
363.203	243.25
363.429	288.25
363.656	187.25
363.882	139.25
364.109	151.25
364.335	159.25
364.562	153.25
364.788	207.25
365.015	299.25
365.241	230.25
365.468	148.25
365.694	121.25
365.92	108.25
366.147	84.25
366.373	99.25
366.599	118.25
366.826	107.25
367.052	122.25
367.278	113.25
367.505	127.25
367.731	137.25
367.957	168.25
368.184	186.25
368.41	189.25
368.636	194.25
368.862	181.25
369.089	193.25
369.315	138.25
369.541	132.25
369.767	135.25
369.993	121.25
370.219	133.25
370.445	176.25
370.672	230.25
370.898	263.25
371.124	277.25
371.35	185.25
371.576	129.25
371.802	185.25
372.028	296.25
372.254	403.25
372.48	319.25
372.706	243.25
372.932	246.25
373.158	241.25
373.384	328.25
373.61	549.25
373.835	577.25
374.061	350.25
374.287	258.25
374.513	370.25
374.739	511.25
374.965	561.25
375.191	498.25
375.416	249.25
375.642	191.25
375.868	266.25
376.094	354.25
376.319	257.25
376.545	329.25
376.771	337.25
376.997	269.25
377.222	140.25
377.448	109.25
377.674	120.25
377.899	101.25
378.125	114.25
378.35	96.25
378.576	116.25
378.802	179.25
379.027	197.25
379.253	160.25
379.478	171.25
379.704	231.25
379.929	265.25
380.155	261.25
380.38	169.25
380.606	150.25
380.831	151.25
381.057	142.25
381.282	175.25
381.507	263.25
381.733	380.25
381.958	395.25
382.184	428.25
382.409	431.25
382.634	469.25
382.86	519.25
383.085	358.25
383.31	224.25
383.535	282.25
383.761	292.25
383.986	226.25
384.211	354.25
384.436	328.25
384.662	164.25
384.887	154.25
385.112	203.25
385.337	210.25
385.562	187.25
385.787	260.25
386.013	320.25
386.238	327.25
386.463	196.25
386.688	190.25
386.913	171.25
387.138	148.25
387.363	182.25
387.588	207.25
387.813	221.25
388.038	305.25
388.263	215.25
388.488	185.25
388.713	270.25
388.938	355.25
389.163	235.25
389.387	148.25
389.612	187.25
389.837	203.25
390.062	224.25
390.287	235.25
390.512	203.25
390.736	177.25
390.961	137.25
391.186	113.25
391.411	112.25
391.636	110.25
391.86	135.25
392.085	165.25
392.31	219.25
392.534	215.25
392.759	209.25
392.984	244.25
393.208	224.25
393.433	174.25
393.658	126.25
393.882	111.25
394.107	94.25
394.331	101.25
394.556	96.25
394.78	99.25
395.005	115.25
395.229	110.25
395.454	112.25
395.678	116.25
395.903	127.25
396.127	93.25
396.352	109.25
396.576	111.25
396.801	150.25
397.025	211.25
397.249	185.25
397.474	115.25
397.698	98.25
397.922	105.25
398.147	101.25
398.371	107.25
398.595	100.25
398.82	96.25
399.044	84.25
399.268	96.25
399.492	97.25
399.717	103.25
399.941	114.25
400.165	131.25
400.389	115.25
400.613	149.25
400.837	165.25
401.062	123.25
401.286	95.25
401.51	109.25
401.734	108.25
401.958	103.25
402.182	93.25
402.406	116.25
402.63	94.25
402.854	98.25
403.078	104.25
403.302	140.25
403.526	145.25
403.75	124.25
403.974	115.25
404.198	107.25
404.422	163.25
404.645	303.25
404.869	367.25
405.093	144.25
405.317	96.25
405.541	109.25
405.765	120.25
405.988	111.25
406.212	147.25
406.436	264.25
406.66	329.25
406.883	161.25
407.107	179.25
407.331	267.25
407.555	241.25
407.778	135.25
408.002	99.25
408.226	96.25
408.449	94.25
408.673	93.25
408.896	107.25
409.12	92.25
409.344	89.25
409.567	82.25
409.791	80.25
410.014	97.25
410.238	87.25
410.461	85.25
410.685	92.25
410.908	103.25
411.132	110.25
411.355	88.25
411.578	91.25
411.802	91.25
412.025	122.25
412.249	112.25
412.472	95.25
412.695	113.25
412.919	109.25
413.142	111.25
413.365	163.25
413.589	155.25
413.812	107.25
414.035	103.25
414.258	112.25
414.482	180.25
414.705	207.25
414.928	107.25
415.151	85.25
415.374	105.25
415.597	110.25
415.821	129.25
416.044	116.25
416.267	94.25
416.49	89.25
416.713	93.25
416.936	100.25
417.159	87.25
417.382	94.25
417.605	105.25
417.828	131.25
418.051	107.25
418.274	132.25
418.497	135.25
418.72	123.25
418.943	163.25
419.166	133.25
419.389	128.25
419.611	106.25
419.834	137.25
420.057	205.25
420.28	207.25
420.503	185.25
420.726	115.25
420.948	99.25
421.171	126.25
421.394	127.25
421.617	81.25
421.839	103.25
422.062	113.25
422.285	111.25
422.507	122.25
422.73	117.25
422.953	144.25
423.175	105.25
423.398	106.25
423.621	135.25
423.843	160.25
424.066	119.25
424.288	114.25
424.511	89.25
424.733	108.25
424.956	149.25
425.178	208.25
425.401	216.25
425.623	125.25
425.846	114.25
426.068	158.25
426.291	225.25
426.513	129.25
426.735	111.25
426.958	149.25
427.18	220.25
427.402	362.25
427.625	186.25
427.847	111.25
428.069	103.25
428.292	109.25
428.514	130.25
428.736	85.25
428.958	105.25
429.181	119.25
429.403	124.25
429.625	163.25
429.847	122.25
430.069	138.25
430.292	138.25
430.514	105.25
430.736	157.25
430.958	311.25
431.18	235.25
431.402	123.25
431.624	117.25
431.846	120.25
432.068	89.25
432.29	101.25
432.512	171.25
432.734	323.25
432.956	240.25
433.178	103.25
433.4	99.25
433.622	100.25
433.844	103.25
434.066	107.25
434.287	107.25
434.509	100.25
434.731	101.25
434.953	85.25
435.175	91.25
435.397	96.25
435.618	111.25
435.84	107.25
436.062	89.25
436.284	91.25
436.505	92.25
436.727	97.25
436.949	99.25
437.17	90.25
437.392	94.25
437.614	109.25
437.835	117.25
438.057	121.25
438.278	177.25
438.5	392.25
438.721	355.25
438.943	134.25
439.165	113.25
439.386	96.25
439.608	93.25
439.829	97.25
440.05	113.25
440.272	124.25
440.493	195.25
440.715	328.25
440.936	180.25
441.158	97.25
441.379	113.25
441.6	159.25
441.822	194.25
442.043	110.25
442.264	85.25
442.486	98.25
442.707	101.25
442.928	101.25
443.149	103.25
443.371	107.25
443.592	111.25
443.813	92.25
444.034	87.25
444.255	105.25
444.476	111.25
444.698	92.25
444.919	112.25
445.14	266.25
445.361	163.25
445.582	97.25
445.803	84.25
446.024	119.25
446.245	109.25
446.466	116.25
446.687	93.25
446.908	115.25
447.129	99.25
447.35	88.25
447.571	95.25
447.792	121.25
448.013	93.25
448.234	95.25
448.455	100.25
448.675	97.25
448.896	92.25
449.117	93.25
449.338	90.25
449.559	117.25
449.779	119.25
450	83.25
450.221	91.25
450.442	91.25
450.662	102.25
450.883	92.25
451.104	75.25
451.324	89.25
451.545	84.25
451.766	83.25
451.986	77.25
452.207	113.25
452.428	87.25
452.648	102.25
452.869	104.25
453.089	131.25
453.31	113.25
453.53	104.25
453.751	91.25
453.971	99.25
454.192	97.25
454.412	88.25
454.633	77.25
454.853	103.25
455.073	100.25
455.294	87.25
455.514	91.25
455.734	100.25
455.955	91.25
456.175	87.25
456.395	77.25
456.616	81.25
456.836	81.25
457.056	91.25
457.276	85.25
457.497	80.25
457.717	80.25
457.937	91.25
458.157	82.25
458.377	93.25
458.598	74.25
458.818	94.25
459.038	89.25
459.258	80.25
459.478	91.25
459.698	94.25
459.918	103.25
460.138	95.25
460.358	92.25
460.578	99.25
460.798	92.25
461.018	102.25
461.238	93.25
461.458	88.25
461.678	78.25
461.898	87.25
462.118	88.25
462.338	78.25
462.558	88.25
462.777	96.25
462.997	84.25
463.217	91.25
463.437	91.25
463.657	92.25
463.876	85.25
464.096	87.25
464.316	83.25
464.536	94.25
464.755	93.25
464.975	105.25
465.195	92.25
465.414	87.25
465.634	82.25
465.854	91.25
466.073	96.25
466.293	81.25
466.512	92.25
466.732	97.25
466.951	85.25
467.171	83.25
467.391	82.25
467.61	100.25
467.829	92.25
468.049	117.25
468.268	83.25
468.488	92.25
468.707	101.25
468.927	96.25
469.146	107.25
469.365	94.25
469.585	105.25
469.804	91.25
470.023	107.25
470.243	89.25
470.462	97.25
470.681	79.25
470.901	90.25
471.12	100.25
471.339	92.25
471.558	96.25
471.777	98.25
471.997	93.25
472.216	113.25
472.435	102.25
472.654	114.25
472.873	99.25
473.092	103.25
473.311	99.25
473.53	86.25
473.749	100.25
473.968	97.25
474.187	91.25
474.406	108.25
474.625	91.25
474.844	101.25
475.063	104.25
475.282	97.25
475.501	84.25
475.72	92.25
475.939	88.25
476.158	85.25
476.377	104.25
476.596	118.25
476.814	108.25
477.033	106.25
477.252	103.25
477.471	88.25
477.69	89.25
477.908	95.25
478.127	108.25
478.346	81.25
478.564	105.25
478.783	101.25
479.002	101.25
479.22	116.25
479.439	103.25
479.658	88.25
479.876	84.25
480.095	96.25
480.313	97.25
480.532	101.25
480.751	97.25
480.969	83.25
481.188	115.25
481.406	99.25
481.624	101.25
481.843	95.25
482.061	78.25
482.28	94.25
482.498	107.25
482.717	102.25
482.935	84.25
483.153	93.25
483.372	97.25
483.59	97.25
483.808	98.25
484.027	94.25
484.245	90.25
484.463	91.25
484.681	101.25
484.9	99.25
485.118	98.25
485.336	100.25
485.554	92.25
485.772	93.25
485.99	114.25
486.209	129.25
486.427	115.25
486.645	97.25
486.863	106.25
487.081	119.25
487.299	172.25
487.517	193.25
487.735	121.25
487.953	120.25
488.171	122.25
488.389	92.25
488.607	85.25
488.825	117.25
489.043	144.25
489.261	239.25
489.479	240.25
489.696	129.25
489.914	97.25
490.132	86.25
490.35	81.25
490.568	97.25
490.786	98.25
491.003	100.25
491.221	96.25
491.439	115.25
491.657	117.25
491.874	135.25
492.092	252.25
492.31	370.25
492.527	149.25
492.745	122.25
492.963	94.25
493.18	117.25
493.398	96.25
493.615	107.25
493.833	109.25
494.05	115.25
494.268	104.25
494.485	103.25
494.703	98.25
494.92	115.25
495.138	105.25
495.355	104.25
495.573	117.25
495.79	217.25
496.008	513.25
496.225	194.25
496.442	123.25
496.66	113.25
496.877	135.25
497.094	123.25
497.312	109.25
497.529	109.25
497.746	106.25
497.963	128.25
498.181	116.25
498.398	145.25
498.615	179.25
498.832	120.25
499.049	115.25
499.267	89.25
499.484	112.25
499.701	112.25
499.918	104.25
500.135	91.25
500.352	116.25
500.569	131.25
500.786	160.25
501.003	159.25
501.22	125.25
501.437	129.25
501.654	121.25
501.871	100.25
502.088	101.25
502.305	112.25
502.522	103.25
502.739	98.25
502.956	105.25
503.172	98.25
503.389	103.25
503.606	111.25
503.823	97.25
504.04	107.25
504.256	127.25
504.473	123.25
504.69	111.25
504.907	127.25
505.123	131.25
505.34	131.25
505.557	113.25
505.773	109.25
505.99	101.25
506.207	118.25
506.423	116.25
506.64	108.25
506.856	116.25
507.073	110.25
507.289	103.25
507.506	107.25
507.722	145.25
