Data from UnknownNail75mm.07152019.QswitchSynchronous.EN10.5scans.P1_HRD10591_15-21-17-324.txt Node
Date: Mon Jul 15 15:21:17 EDT 2019
User: cochatt
Spectrometer: HR+D1059
Trigger mode: 1
Integration Time (sec): 1.000000E-1
Scans to average: 1
Electric dark correction enabled: true
Nonlinearity correction enabled: false
Boxcar width: 0
XAxis mode: Wavelengths
Number of Pixels in Spectrum: 2048
>>>>>Begin Spectral Data<<<<<
223.165	-24.19
223.4	-24.19
223.635	-24.19
223.869	-27.19
224.104	-25.19
224.338	-7.19
224.573	-9.19
224.808	-15.19
225.042	-1.19
225.277	0.81
225.511	-18.19
225.746	0.81
225.98	21.81
226.215	23.81
226.449	4.81
226.683	13.81
226.918	29.81
227.152	31.81
227.387	17.81
227.621	39.81
227.856	48.81
228.09	49.81
228.324	36.81
228.559	50.81
228.793	59.81
229.027	67.81
229.262	64.81
229.496	72.81
229.73	79.81
229.964	66.81
230.199	81.81
230.433	75.81
230.667	75.81
230.901	66.81
231.136	79.81
231.37	80.81
231.604	89.81
231.838	82.81
232.072	75.81
232.306	83.81
232.541	86.81
232.775	91.81
233.009	89.81
233.243	94.81
233.477	91.81
233.711	93.81
233.945	67.81
234.179	90.81
234.413	87.81
234.647	87.81
234.881	91.81
235.115	79.81
235.349	95.81
235.583	81.81
235.817	87.81
236.051	95.81
236.285	93.81
236.519	101.81
236.753	107.81
236.987	90.81
237.221	96.81
237.455	87.81
237.689	75.81
237.922	91.81
238.156	89.81
238.39	100.81
238.624	92.81
238.858	85.81
239.091	94.81
239.325	91.81
239.559	93.81
239.793	102.81
240.027	97.81
240.26	87.81
240.494	96.81
240.728	88.81
240.961	98.81
241.195	81.81
241.429	91.81
241.662	97.81
241.896	92.81
242.13	67.81
242.363	68.81
242.597	71.81
242.83	89.81
243.064	87.81
243.298	83.81
243.531	92.81
243.765	93.81
243.998	88.81
244.232	88.81
244.465	76.81
244.699	97.81
244.932	80.81
245.166	89.81
245.399	83.81
245.633	84.81
245.866	105.81
246.099	95.81
246.333	87.81
246.566	99.81
246.8	107.81
247.033	83.81
247.266	97.81
247.5	98.81
247.733	98.81
247.966	104.81
248.2	98.81
248.433	105.81
248.666	106.81
248.899	113.81
249.133	123.81
249.366	119.81
249.599	120.81
249.832	117.81
250.066	108.81
250.299	99.81
250.532	97.81
250.765	100.81
250.998	89.81
251.231	105.81
251.465	107.81
251.698	109.81
251.931	107.81
252.164	117.81
252.397	96.81
252.63	114.81
252.863	126.81
253.096	127.81
253.329	120.81
253.562	113.81
253.795	117.81
254.028	133.81
254.261	125.81
254.494	122.81
254.727	114.81
254.96	114.81
255.193	117.81
255.426	121.81
255.659	91.81
255.892	82.81
256.124	95.81
256.357	109.81
256.59	106.81
256.823	88.81
257.056	89.81
257.289	99.81
257.521	109.81
257.754	104.81
257.987	102.81
258.22	106.81
258.452	102.81
258.685	117.81
258.918	109.81
259.151	106.81
259.383	93.81
259.616	95.81
259.849	98.81
260.081	135.81
260.314	144.81
260.547	117.81
260.779	116.81
261.012	123.81
261.244	120.81
261.477	132.81
261.71	135.81
261.942	106.81
262.175	113.81
262.407	111.81
262.64	107.81
262.872	121.81
263.105	135.81
263.337	151.81
263.57	127.81
263.802	104.81
264.035	95.81
264.267	91.81
264.499	101.81
264.732	91.81
264.964	103.81
265.197	98.81
265.429	87.81
265.661	88.81
265.894	87.81
266.126	98.81
266.358	80.81
266.591	101.81
266.823	92.81
267.055	86.81
267.287	76.81
267.52	92.81
267.752	101.81
267.984	94.81
268.216	100.81
268.448	93.81
268.681	101.81
268.913	95.81
269.145	99.81
269.377	89.81
269.609	100.81
269.841	100.81
270.073	106.81
270.306	98.81
270.538	84.81
270.77	82.81
271.002	107.81
271.234	108.81
271.466	103.81
271.698	117.81
271.93	118.81
272.162	148.81
272.394	157.81
272.626	127.81
272.858	119.81
273.09	128.81
273.322	134.81
273.553	137.81
273.785	149.81
274.017	170.81
274.249	175.81
274.481	184.81
274.713	204.81
274.945	213.81
275.176	204.81
275.408	182.81
275.64	159.81
275.872	157.81
276.104	151.81
276.335	109.81
276.567	125.81
276.799	108.81
277.031	116.81
277.262	108.81
277.494	93.81
277.726	101.81
277.957	102.81
278.189	113.81
278.421	105.81
278.652	99.81
278.884	119.81
279.115	123.81
279.347	106.81
279.579	110.81
279.81	104.81
280.042	100.81
280.273	111.81
280.505	106.81
280.736	105.81
280.968	90.81
281.199	105.81
281.431	115.81
281.662	96.81
281.894	96.81
282.125	113.81
282.356	106.81
282.588	106.81
282.819	107.81
283.051	88.81
283.282	109.81
283.513	120.81
283.745	105.81
283.976	105.81
284.207	95.81
284.439	103.81
284.67	111.81
284.901	105.81
285.132	91.81
285.364	106.81
285.595	95.81
285.826	94.81
286.057	99.81
286.288	89.81
286.52	95.81
286.751	87.81
286.982	104.81
287.213	99.81
287.444	93.81
287.675	113.81
287.906	102.81
288.138	100.81
288.369	82.81
288.6	81.81
288.831	95.81
289.062	85.81
289.293	79.81
289.524	105.81
289.755	99.81
289.986	93.81
290.217	91.81
290.448	89.81
290.679	93.81
290.91	100.81
291.141	97.81
291.371	97.81
291.602	98.81
291.833	88.81
292.064	93.81
292.295	105.81
292.526	96.81
292.757	118.81
292.987	116.81
293.218	107.81
293.449	106.81
293.68	121.81
293.91	122.81
294.141	127.81
294.372	103.81
294.603	117.81
294.833	132.81
295.064	138.81
295.295	120.81
295.525	132.81
295.756	147.81
295.987	118.81
296.217	117.81
296.448	132.81
296.679	140.81
296.909	171.81
297.14	183.81
297.37	187.81
297.601	162.81
297.831	121.81
298.062	117.81
298.292	135.81
298.523	168.81
298.753	177.81
298.984	128.81
299.214	120.81
299.445	127.81
299.675	128.81
299.905	153.81
300.136	165.81
300.366	172.81
300.597	146.81
300.827	149.81
301.057	154.81
301.288	141.81
301.518	133.81
301.748	141.81
301.979	186.81
302.209	267.81
302.439	283.81
302.669	195.81
302.9	183.81
303.13	143.81
303.36	118.81
303.59	113.81
303.82	131.81
304.051	144.81
304.281	151.81
304.511	143.81
304.741	155.81
304.971	151.81
305.201	128.81
305.431	127.81
305.661	130.81
305.891	163.81
306.121	182.81
306.352	141.81
306.582	111.81
306.812	120.81
307.042	132.81
307.272	111.81
307.502	109.81
307.731	113.81
307.961	117.81
308.191	98.81
308.421	100.81
308.651	100.81
308.881	109.81
309.111	104.81
309.341	80.81
309.571	116.81
309.8	116.81
310.03	148.81
310.26	163.81
310.49	134.81
310.72	89.81
310.949	96.81
311.179	100.81
311.409	101.81
311.639	104.81
311.868	113.81
312.098	113.81
312.328	101.81
312.557	113.81
312.787	87.81
313.017	105.81
313.246	104.81
313.476	91.81
313.706	96.81
313.935	102.81
314.165	88.81
314.394	104.81
314.624	114.81
314.853	107.81
315.083	104.81
315.312	89.81
315.542	103.81
315.771	101.81
316.001	119.81
316.23	111.81
316.46	108.81
316.689	95.81
316.919	96.81
317.148	103.81
317.377	110.81
317.607	118.81
317.836	109.81
318.065	109.81
318.295	105.81
318.524	95.81
318.753	106.81
318.983	111.81
319.212	132.81
319.441	156.81
319.67	145.81
319.9	139.81
320.129	137.81
320.358	132.81
320.587	119.81
320.816	113.81
321.046	134.81
321.275	161.81
321.504	181.81
321.733	179.81
321.962	155.81
322.191	155.81
322.42	181.81
322.649	192.81
322.878	171.81
323.108	166.81
323.337	128.81
323.566	121.81
323.795	123.81
324.024	127.81
324.253	114.81
324.482	113.81
324.71	120.81
324.939	132.81
325.168	119.81
325.397	98.81
325.626	92.81
325.855	105.81
326.084	85.81
326.313	96.81
326.542	100.81
326.77	108.81
326.999	132.81
327.228	100.81
327.457	96.81
327.686	94.81
327.914	98.81
328.143	106.81
328.372	114.81
328.6	108.81
328.829	124.81
329.058	116.81
329.287	100.81
329.515	100.81
329.744	104.81
329.972	103.81
330.201	91.81
330.43	95.81
330.658	140.81
330.887	131.81
331.115	109.81
331.344	97.81
331.572	88.81
331.801	95.81
332.03	96.81
332.258	91.81
332.486	105.81
332.715	107.81
332.943	105.81
333.172	97.81
333.4	84.81
333.629	105.81
333.857	107.81
334.085	99.81
334.314	109.81
334.542	99.81
334.771	91.81
334.999	100.81
335.227	102.81
335.455	93.81
335.684	95.81
335.912	101.81
336.14	97.81
336.369	94.81
336.597	99.81
336.825	100.81
337.053	118.81
337.281	104.81
337.51	101.81
337.738	101.81
337.966	101.81
338.194	97.81
338.422	102.81
338.65	85.81
338.878	97.81
339.106	103.81
339.334	116.81
339.562	104.81
339.79	104.81
340.018	124.81
340.246	112.81
340.474	123.81
340.702	133.81
340.93	149.81
341.158	148.81
341.386	116.81
341.614	109.81
341.842	128.81
342.07	128.81
342.298	119.81
342.526	122.81
342.754	149.81
342.981	151.81
343.209	138.81
343.437	97.81
343.665	118.81
343.893	169.81
344.12	275.81
344.348	312.81
344.576	241.81
344.804	167.81
345.031	115.81
345.259	100.81
345.487	115.81
345.714	100.81
345.942	98.81
346.17	121.81
346.397	115.81
346.625	133.81
346.853	152.81
347.08	144.81
347.308	132.81
347.535	164.81
347.763	203.81
347.99	178.81
348.218	115.81
348.445	115.81
348.673	116.81
348.9	130.81
349.128	170.81
349.355	190.81
349.583	147.81
349.81	153.81
350.037	154.81
350.265	117.81
350.492	111.81
350.72	107.81
350.947	111.81
351.174	116.81
351.402	125.81
351.629	152.81
351.856	119.81
352.083	133.81
352.311	163.81
352.538	192.81
352.765	220.81
352.992	199.81
353.22	138.81
353.447	146.81
353.674	160.81
353.901	147.81
354.128	155.81
354.355	163.81
354.583	157.81
354.81	121.81
355.037	119.81
355.264	135.81
355.491	171.81
355.718	239.81
355.945	239.81
356.172	219.81
356.399	195.81
356.626	263.81
356.853	330.81
357.08	363.81
357.307	386.81
357.534	233.81
357.761	179.81
357.988	238.81
358.215	365.81
358.441	447.81
358.668	348.81
358.895	360.81
359.122	206.81
359.349	142.81
359.576	130.81
359.802	109.81
360.029	112.81
360.256	138.81
360.483	187.81
360.709	244.81
360.936	345.81
361.163	320.81
361.39	211.81
361.616	191.81
361.843	236.81
362.07	340.81
362.296	274.81
362.523	178.81
362.749	139.81
362.976	156.81
363.203	250.81
363.429	299.81
363.656	186.81
363.882	137.81
364.109	145.81
364.335	147.81
364.562	172.81
364.788	241.81
365.015	336.81
365.241	249.81
365.468	165.81
365.694	117.81
365.92	130.81
366.147	105.81
366.373	114.81
366.599	98.81
366.826	112.81
367.052	131.81
367.278	114.81
367.505	114.81
367.731	147.81
367.957	165.81
368.184	201.81
368.41	217.81
368.636	205.81
368.862	225.81
369.089	196.81
369.315	148.81
369.541	148.81
369.767	144.81
369.993	123.81
370.219	117.81
370.445	160.81
370.672	240.81
370.898	297.81
371.124	279.81
371.35	187.81
371.576	129.81
371.802	188.81
372.028	337.81
372.254	439.81
372.48	315.81
372.706	244.81
372.932	280.81
373.158	261.81
373.384	380.81
373.61	609.81
373.835	607.81
374.061	385.81
374.287	254.81
374.513	387.81
374.739	531.81
374.965	593.81
375.191	512.81
375.416	269.81
375.642	211.81
375.868	297.81
376.094	371.81
376.319	284.81
376.545	346.81
376.771	349.81
376.997	277.81
377.222	140.81
377.448	111.81
377.674	116.81
377.899	109.81
378.125	90.81
378.35	117.81
378.576	140.81
378.802	177.81
379.027	215.81
379.253	187.81
379.478	189.81
379.704	238.81
379.929	277.81
380.155	279.81
380.38	188.81
380.606	137.81
380.831	167.81
381.057	154.81
381.282	192.81
381.507	293.81
381.733	386.81
381.958	411.81
382.184	435.81
382.409	480.81
382.634	502.81
382.86	543.81
383.085	369.81
383.31	241.81
383.535	282.81
383.761	307.81
383.986	246.81
384.211	381.81
384.436	340.81
384.662	176.81
384.887	179.81
385.112	213.81
385.337	236.81
385.562	197.81
385.787	261.81
386.013	341.81
386.238	392.81
386.463	217.81
386.688	177.81
386.913	165.81
387.138	146.81
387.363	204.81
387.588	230.81
387.813	234.81
388.038	319.81
388.263	234.81
388.488	187.81
388.713	295.81
388.938	395.81
389.163	236.81
389.387	146.81
389.612	171.81
389.837	211.81
390.062	233.81
390.287	242.81
390.512	235.81
390.736	167.81
390.961	152.81
391.186	107.81
391.411	102.81
391.636	114.81
391.86	146.81
392.085	179.81
392.31	229.81
392.534	226.81
392.759	199.81
392.984	260.81
393.208	241.81
393.433	179.81
393.658	133.81
393.882	91.81
394.107	93.81
394.331	98.81
394.556	102.81
394.78	116.81
395.005	130.81
395.229	127.81
395.454	123.81
395.678	124.81
395.903	129.81
396.127	121.81
396.352	100.81
396.576	115.81
396.801	154.81
397.025	204.81
397.249	215.81
397.474	117.81
397.698	108.81
397.922	95.81
398.147	101.81
398.371	82.81
398.595	112.81
398.82	99.81
399.044	105.81
399.268	75.81
399.492	90.81
399.717	111.81
399.941	115.81
400.165	93.81
400.389	121.81
400.613	158.81
400.837	171.81
401.062	113.81
401.286	102.81
401.51	107.81
401.734	110.81
401.958	99.81
402.182	103.81
402.406	101.81
402.63	116.81
402.854	106.81
403.078	121.81
403.302	155.81
403.526	167.81
403.75	128.81
403.974	102.81
404.198	115.81
404.422	152.81
404.645	287.81
404.869	393.81
405.093	155.81
405.317	107.81
405.541	102.81
405.765	102.81
405.988	116.81
406.212	173.81
406.436	276.81
406.66	323.81
406.883	171.81
407.107	175.81
407.331	289.81
407.555	245.81
407.778	142.81
408.002	129.81
408.226	98.81
408.449	93.81
408.673	119.81
408.896	94.81
409.12	82.81
409.344	93.81
409.567	92.81
409.791	107.81
410.014	102.81
410.238	104.81
410.461	106.81
410.685	91.81
410.908	107.81
411.132	111.81
411.355	99.81
411.578	109.81
411.802	94.81
412.025	122.81
412.249	107.81
412.472	105.81
412.695	112.81
412.919	113.81
413.142	132.81
413.365	168.81
413.589	166.81
413.812	118.81
414.035	104.81
414.258	129.81
414.482	204.81
414.705	208.81
414.928	127.81
415.151	99.81
415.374	113.81
415.597	136.81
415.821	135.81
416.044	111.81
416.267	101.81
416.49	100.81
416.713	99.81
416.936	102.81
417.159	99.81
417.382	114.81
417.605	114.81
417.828	128.81
418.051	123.81
418.274	125.81
418.497	124.81
418.72	137.81
418.943	175.81
419.166	150.81
419.389	130.81
419.611	126.81
419.834	137.81
420.057	205.81
420.28	229.81
420.503	207.81
420.726	116.81
420.948	105.81
421.171	112.81
421.394	93.81
421.617	105.81
421.839	111.81
422.062	119.81
422.285	125.81
422.507	112.81
422.73	126.81
422.953	146.81
423.175	126.81
423.398	109.81
423.621	171.81
423.843	155.81
424.066	127.81
424.288	111.81
424.511	99.81
424.733	113.81
424.956	151.81
425.178	221.81
425.401	231.81
425.623	123.81
425.846	123.81
426.068	154.81
426.291	242.81
426.513	153.81
426.735	135.81
426.958	128.81
427.18	229.81
427.402	382.81
427.625	193.81
427.847	117.81
428.069	100.81
428.292	112.81
428.514	137.81
428.736	111.81
428.958	109.81
429.181	110.81
429.403	127.81
429.625	129.81
429.847	124.81
430.069	157.81
430.292	138.81
430.514	111.81
430.736	180.81
430.958	345.81
431.18	250.81
431.402	136.81
431.624	116.81
431.846	97.81
432.068	98.81
432.29	115.81
432.512	166.81
432.734	335.81
432.956	286.81
433.178	114.81
433.4	103.81
433.622	107.81
433.844	101.81
434.066	105.81
434.287	94.81
434.509	90.81
434.731	85.81
434.953	98.81
435.175	108.81
435.397	107.81
435.618	89.81
435.84	104.81
436.062	95.81
436.284	89.81
436.505	89.81
436.727	106.81
436.949	95.81
437.17	102.81
437.392	112.81
437.614	108.81
437.835	114.81
438.057	126.81
438.278	193.81
438.5	435.81
438.721	382.81
438.943	139.81
439.165	92.81
439.386	87.81
439.608	99.81
439.829	91.81
440.05	108.81
440.272	124.81
440.493	213.81
440.715	329.81
440.936	201.81
441.158	115.81
441.379	127.81
441.6	194.81
441.822	212.81
442.043	103.81
442.264	71.81
442.486	94.81
442.707	103.81
442.928	100.81
443.149	124.81
443.371	107.81
443.592	78.81
443.813	99.81
444.034	107.81
444.255	98.81
444.476	119.81
444.698	82.81
444.919	109.81
445.14	255.81
445.361	155.81
445.582	107.81
445.803	103.81
446.024	108.81
446.245	119.81
446.466	114.81
446.687	113.81
446.908	128.81
447.129	115.81
447.35	96.81
447.571	86.81
447.792	119.81
448.013	99.81
448.234	100.81
448.455	96.81
448.675	96.81
448.896	83.81
449.117	104.81
449.338	91.81
449.559	105.81
449.779	113.81
450	98.81
450.221	95.81
450.442	105.81
450.662	79.81
450.883	91.81
451.104	96.81
451.324	81.81
451.545	81.81
451.766	75.81
451.986	72.81
452.207	89.81
452.428	101.81
452.648	97.81
452.869	111.81
453.089	143.81
453.31	103.81
453.53	90.81
453.751	103.81
453.971	85.81
454.192	79.81
454.412	89.81
454.633	90.81
454.853	101.81
455.073	101.81
455.294	92.81
455.514	82.81
455.734	88.81
455.955	100.81
456.175	86.81
456.395	80.81
456.616	84.81
456.836	91.81
457.056	109.81
457.276	87.81
457.497	89.81
457.717	85.81
457.937	91.81
458.157	97.81
458.377	98.81
458.598	94.81
458.818	98.81
459.038	74.81
459.258	80.81
459.478	79.81
459.698	95.81
459.918	91.81
460.138	89.81
460.358	83.81
460.578	93.81
460.798	108.81
461.018	80.81
461.238	97.81
461.458	92.81
461.678	91.81
461.898	93.81
462.118	103.81
462.338	92.81
462.558	97.81
462.777	90.81
462.997	93.81
463.217	104.81
463.437	83.81
463.657	93.81
463.876	83.81
464.096	97.81
464.316	92.81
464.536	91.81
464.755	90.81
464.975	95.81
465.195	82.81
465.414	75.81
465.634	92.81
465.854	83.81
466.073	82.81
466.293	94.81
466.512	97.81
466.732	114.81
466.951	108.81
467.171	96.81
467.391	85.81
467.61	101.81
467.829	99.81
468.049	98.81
468.268	94.81
468.488	91.81
468.707	88.81
468.927	110.81
469.146	117.81
469.365	103.81
469.585	87.81
469.804	98.81
470.023	99.81
470.243	105.81
470.462	75.81
470.681	93.81
470.901	83.81
471.12	103.81
471.339	80.81
471.558	98.81
471.777	96.81
471.997	95.81
472.216	96.81
472.435	92.81
472.654	90.81
472.873	96.81
473.092	91.81
473.311	110.81
473.53	101.81
473.749	103.81
473.968	99.81
474.187	91.81
474.406	89.81
474.625	95.81
474.844	86.81
475.063	113.81
475.282	108.81
475.501	93.81
475.72	91.81
475.939	105.81
476.158	88.81
476.377	105.81
476.596	124.81
476.814	130.81
477.033	109.81
477.252	83.81
477.471	101.81
477.69	79.81
477.908	96.81
478.127	90.81
478.346	92.81
478.564	84.81
478.783	96.81
479.002	100.81
479.22	108.81
479.439	122.81
479.658	96.81
479.876	107.81
480.095	93.81
480.313	95.81
480.532	98.81
480.751	71.81
480.969	93.81
481.188	109.81
481.406	107.81
481.624	101.81
481.843	90.81
482.061	85.81
482.28	96.81
482.498	115.81
482.717	102.81
482.935	91.81
483.153	101.81
483.372	106.81
483.59	99.81
483.808	92.81
484.027	98.81
484.245	96.81
484.463	92.81
484.681	95.81
484.9	80.81
485.118	110.81
485.336	95.81
485.554	102.81
485.772	107.81
485.99	107.81
486.209	149.81
486.427	112.81
486.645	113.81
486.863	102.81
487.081	111.81
487.299	181.81
487.517	198.81
487.735	109.81
487.953	106.81
488.171	125.81
488.389	107.81
488.607	109.81
488.825	114.81
489.043	136.81
489.261	263.81
489.479	292.81
489.696	120.81
489.914	97.81
490.132	93.81
490.35	87.81
490.568	119.81
490.786	111.81
491.003	106.81
491.221	123.81
491.439	108.81
491.657	113.81
491.874	137.81
492.092	275.81
492.31	393.81
492.527	176.81
492.745	110.81
492.963	123.81
493.18	110.81
493.398	108.81
493.615	108.81
493.833	120.81
494.05	129.81
494.268	122.81
494.485	107.81
494.703	104.81
494.92	111.81
495.138	101.81
495.355	112.81
495.573	139.81
495.79	240.81
496.008	541.81
496.225	208.81
496.442	121.81
496.66	110.81
496.877	132.81
497.094	124.81
497.312	109.81
497.529	99.81
497.746	110.81
497.963	117.81
498.181	139.81
498.398	146.81
498.615	186.81
498.832	137.81
499.049	107.81
499.267	100.81
499.484	115.81
499.701	91.81
499.918	94.81
500.135	91.81
500.352	135.81
500.569	139.81
500.786	165.81
501.003	155.81
501.22	98.81
501.437	113.81
501.654	117.81
501.871	109.81
502.088	95.81
502.305	122.81
502.522	111.81
502.739	107.81
502.956	112.81
503.172	107.81
503.389	94.81
503.606	87.81
503.823	103.81
504.04	122.81
504.256	127.81
504.473	122.81
504.69	119.81
504.907	129.81
505.123	134.81
505.34	159.81
505.557	115.81
505.773	127.81
505.99	105.81
506.207	135.81
506.423	107.81
506.64	102.81
506.856	118.81
