Data from UnknownNail75mm.07152019.Lampedge.EN7.5scans.P1_HRD10591_15-17-39-731.txt Node
Date: Mon Jul 15 15:17:39 EDT 2019
User: cochatt
Spectrometer: HR+D1059
Trigger mode: 1
Integration Time (sec): 1.000000E-1
Scans to average: 1
Electric dark correction enabled: true
Nonlinearity correction enabled: false
Boxcar width: 0
XAxis mode: Wavelengths
Number of Pixels in Spectrum: 2048
>>>>>Begin Spectral Data<<<<<
223.165	-14.56
223.4	-14.56
223.635	-14.56
223.869	-10.56
224.104	-18.56
224.338	-17.56
224.573	-4.56
224.808	-16.56
225.042	-10.56
225.277	3.44
225.511	-8.56
225.746	-3.56
225.98	8.44
226.215	15.44
226.449	16.44
226.683	12.44
226.918	14.44
227.152	34.44
227.387	41.44
227.621	44.44
227.856	45.44
228.09	50.44
228.324	58.44
228.559	66.44
228.793	75.44
229.027	161.44
229.262	151.44
229.496	169.44
229.73	159.44
229.964	159.44
230.199	177.44
230.433	161.44
230.667	196.44
230.901	203.44
231.136	212.44
231.37	205.44
231.604	223.44
231.838	221.44
232.072	231.44
232.306	225.44
232.541	241.44
232.775	270.44
233.009	285.44
233.243	334.44
233.477	346.44
233.711	397.44
233.945	387.44
234.179	376.44
234.413	413.44
234.647	451.44
234.881	527.44
235.115	512.44
235.349	466.44
235.583	418.44
235.817	428.44
236.051	456.44
236.285	487.44
236.519	531.44
236.753	541.44
236.987	513.44
237.221	496.44
237.455	491.44
237.689	512.44
237.922	539.44
238.156	555.44
238.39	655.44
238.624	772.44
238.858	735.44
239.091	597.44
239.325	617.44
239.559	573.44
239.793	640.44
240.027	766.44
240.26	739.44
240.494	707.44
240.728	691.44
240.961	818.44
241.195	791.44
241.429	751.44
241.662	756.44
241.896	593.44
242.13	533.44
242.363	531.44
242.597	557.44
242.83	633.44
243.064	657.44
243.298	687.44
243.531	745.44
243.765	760.44
243.998	743.44
244.232	671.44
244.465	678.44
244.699	670.44
244.932	756.44
245.166	743.44
245.399	659.44
245.633	603.44
245.866	618.44
246.099	707.44
246.333	825.44
246.566	882.44
246.8	919.44
247.033	867.44
247.266	783.44
247.5	777.44
247.733	789.44
247.966	731.44
248.2	781.44
248.433	856.44
248.666	936.44
248.899	975.44
249.133	973.44
249.366	1138.44
249.599	1254.44
249.832	1134.44
250.066	967.44
250.299	977.44
250.532	969.44
250.765	915.44
250.998	845.44
251.231	799.44
251.465	847.44
251.698	931.44
251.931	870.44
252.164	868.44
252.397	974.44
252.63	1164.44
252.863	1295.44
253.096	1357.44
253.329	1309.44
253.562	1215.44
253.795	1363.44
254.028	1513.44
254.261	1570.44
254.494	1429.44
254.727	1234.44
254.96	1203.44
255.193	1293.44
255.426	1265.44
255.659	966.44
255.892	799.44
256.124	823.44
256.357	988.44
256.59	1267.44
256.823	1242.44
257.056	1053.44
257.289	941.44
257.521	910.44
257.754	965.44
257.987	993.44
258.22	949.44
258.452	935.44
258.685	1118.44
258.918	1275.44
259.151	1240.44
259.383	1163.44
259.616	1313.44
259.849	1376.44
260.081	1742.44
260.314	2097.44
260.547	1525.44
260.779	1315.44
261.012	1551.44
261.244	1572.44
261.477	1635.44
261.71	1646.44
261.942	1321.44
262.175	1222.44
262.407	1198.44
262.64	1245.44
262.872	1509.44
263.105	1728.44
263.337	1831.44
263.57	1649.44
263.802	1039.44
264.035	806.44
264.267	744.44
264.499	672.44
264.732	672.44
264.964	684.44
265.197	667.44
265.429	694.44
265.661	656.44
265.894	661.44
266.126	683.44
266.358	745.44
266.591	933.44
266.823	1083.44
267.055	1087.44
267.287	868.44
267.52	733.44
267.752	718.44
267.984	727.44
268.216	728.44
268.448	810.44
268.681	912.44
268.913	901.44
269.145	861.44
269.377	899.44
269.609	969.44
269.841	903.44
270.073	870.44
270.306	882.44
270.538	927.44
270.77	1051.44
271.002	1063.44
271.234	1063.44
271.466	1186.44
271.698	1286.44
271.93	1301.44
272.162	1259.44
272.394	1194.44
272.626	1192.44
272.858	1302.44
273.09	1413.44
273.322	1313.44
273.553	1299.44
273.785	1519.44
274.017	1976.44
274.249	2535.44
274.481	2583.44
274.713	2755.44
274.945	3191.44
275.176	3321.44
275.408	2816.44
275.64	2522.44
275.872	2557.44
276.104	1931.44
276.335	1336.44
276.567	1256.44
276.799	1345.44
277.031	1543.44
277.262	1432.44
277.494	1107.44
277.726	1027.44
277.957	1056.44
278.189	1179.44
278.421	1169.44
278.652	1171.44
278.884	1106.44
279.115	967.44
279.347	925.44
279.579	892.44
279.81	892.44
280.042	877.44
280.273	864.44
280.505	807.44
280.736	779.44
280.968	800.44
281.199	804.44
281.431	765.44
281.662	795.44
281.894	764.44
282.125	765.44
282.356	783.44
282.588	815.44
282.819	860.44
283.051	912.44
283.282	999.44
283.513	1067.44
283.745	1012.44
283.976	1029.44
284.207	1100.44
284.439	1134.44
284.67	1065.44
284.901	1051.44
285.132	1065.44
285.364	1053.44
285.595	1047.44
285.826	1060.44
286.057	1159.44
286.288	1021.44
286.52	901.44
286.751	885.44
286.982	916.44
287.213	955.44
287.444	1040.44
287.675	1044.44
287.906	989.44
288.138	893.44
288.369	911.44
288.6	933.44
288.831	872.44
289.062	891.44
289.293	815.44
289.524	828.44
289.755	831.44
289.986	867.44
290.217	815.44
290.448	776.44
290.679	783.44
290.91	761.44
291.141	751.44
291.371	772.44
291.602	762.44
291.833	777.44
292.064	809.44
292.295	817.44
292.526	810.44
292.757	857.44
292.987	869.44
293.218	822.44
293.449	831.44
293.68	832.44
293.91	832.44
294.141	867.44
294.372	879.44
294.603	953.44
294.833	1064.44
295.064	1149.44
295.295	1042.44
295.525	935.44
295.756	935.44
295.987	872.44
296.217	913.44
296.448	912.44
296.679	940.44
296.909	1054.44
297.14	1049.44
297.37	1013.44
297.601	982.44
297.831	918.44
298.062	870.44
298.292	1006.44
298.523	1181.44
298.753	1346.44
298.984	1187.44
299.214	964.44
299.445	902.44
299.675	929.44
299.905	966.44
300.136	1017.44
300.366	1049.44
300.597	1075.44
300.827	988.44
301.057	958.44
301.288	924.44
301.518	877.44
301.748	952.44
301.979	1027.44
302.209	1192.44
302.439	1251.44
302.669	1053.44
302.9	978.44
303.13	883.44
303.36	883.44
303.59	869.44
303.82	876.44
304.051	929.44
304.281	887.44
304.511	898.44
304.741	885.44
304.971	922.44
305.201	917.44
305.431	862.44
305.661	882.44
305.891	956.44
306.121	1007.44
306.352	953.44
306.582	900.44
306.812	896.44
307.042	887.44
307.272	845.44
307.502	839.44
307.731	890.44
307.961	920.44
308.191	918.44
308.421	854.44
308.651	865.44
308.881	812.44
309.111	819.44
309.341	799.44
309.571	829.44
309.8	832.44
310.03	863.44
310.26	902.44
310.49	899.44
310.72	835.44
310.949	821.44
311.179	808.44
311.409	806.44
311.639	811.44
311.868	845.44
312.098	825.44
312.328	832.44
312.557	823.44
312.787	828.44
313.017	813.44
313.246	833.44
313.476	844.44
313.706	856.44
313.935	853.44
314.165	861.44
314.394	873.44
314.624	872.44
314.853	853.44
315.083	872.44
315.312	920.44
315.542	975.44
315.771	1012.44
316.001	901.44
316.23	890.44
316.46	898.44
316.689	914.44
316.919	930.44
317.148	922.44
317.377	917.44
317.607	905.44
317.836	934.44
318.065	971.44
318.295	986.44
318.524	925.44
318.753	942.44
318.983	948.44
319.212	964.44
319.441	989.44
319.67	998.44
319.9	979.44
320.129	972.44
320.358	920.44
320.587	918.44
320.816	952.44
321.046	1011.44
321.275	1084.44
321.504	1167.44
321.733	1140.44
321.962	1039.44
322.191	1045.44
322.42	1079.44
322.649	1088.44
322.878	1108.44
323.108	1149.44
323.337	1030.44
323.566	993.44
323.795	954.44
324.024	936.44
324.253	964.44
324.482	978.44
324.71	963.44
324.939	941.44
325.168	938.44
325.397	928.44
325.626	948.44
325.855	998.44
326.084	987.44
326.313	986.44
326.542	938.44
326.77	932.44
326.999	905.44
327.228	909.44
327.457	907.44
327.686	943.44
327.914	912.44
328.143	941.44
328.372	954.44
328.6	929.44
328.829	939.44
329.058	963.44
329.287	927.44
329.515	964.44
329.744	943.44
329.972	906.44
330.201	936.44
330.43	926.44
330.658	983.44
330.887	1029.44
331.115	985.44
331.344	919.44
331.572	941.44
331.801	937.44
332.03	930.44
332.258	982.44
332.486	981.44
332.715	1051.44
332.943	1030.44
333.172	1075.44
333.4	1080.44
333.629	1083.44
333.857	1119.44
334.085	1089.44
334.314	1115.44
334.542	1052.44
334.771	1046.44
334.999	1060.44
335.227	1067.44
335.455	1023.44
335.684	1035.44
335.912	1024.44
336.14	1005.44
336.369	1021.44
336.597	1032.44
336.825	1005.44
337.053	1051.44
337.281	1023.44
337.51	984.44
337.738	995.44
337.966	998.44
338.194	975.44
338.422	979.44
338.65	947.44
338.878	956.44
339.106	948.44
339.334	986.44
339.562	992.44
339.79	941.44
340.018	943.44
340.246	965.44
340.474	991.44
340.702	1028.44
340.93	1065.44
341.158	1014.44
341.386	1012.44
341.614	998.44
341.842	1012.44
342.07	1030.44
342.298	1009.44
342.526	1011.44
342.754	1081.44
342.981	1109.44
343.209	1073.44
343.437	1041.44
343.665	1108.44
343.893	1216.44
344.12	1388.44
344.348	1447.44
344.576	1309.44
344.804	1123.44
345.031	1029.44
345.259	1018.44
345.487	987.44
345.714	960.44
345.942	958.44
346.17	964.44
346.397	975.44
346.625	1006.44
346.853	1007.44
347.08	983.44
347.308	996.44
347.535	1018.44
347.763	1090.44
347.99	1061.44
348.218	971.44
348.445	966.44
348.673	968.44
348.9	971.44
349.128	1015.44
349.355	1024.44
349.583	987.44
349.81	1009.44
350.037	983.44
350.265	913.44
350.492	911.44
350.72	905.44
350.947	894.44
351.174	872.44
351.402	924.44
351.629	948.44
351.856	943.44
352.083	950.44
352.311	979.44
352.538	991.44
352.765	1037.44
352.992	1045.44
353.22	981.44
353.447	956.44
353.674	987.44
353.901	998.44
354.128	1017.44
354.355	1023.44
354.583	1003.44
354.81	963.44
355.037	936.44
355.264	1004.44
355.491	1064.44
355.718	1141.44
355.945	1128.44
356.172	1128.44
356.399	1069.44
356.626	1182.44
356.853	1427.44
357.08	1481.44
357.307	1567.44
357.534	1231.44
357.761	1154.44
357.988	1299.44
358.215	1545.44
358.441	1751.44
358.668	1467.44
358.895	1375.44
359.122	1118.44
359.349	997.44
359.576	994.44
359.802	945.44
360.029	929.44
360.256	988.44
360.483	1079.44
360.709	1227.44
360.936	1362.44
361.163	1360.44
361.39	1123.44
361.616	1066.44
361.843	1199.44
362.07	1404.44
362.296	1274.44
362.523	1083.44
362.749	1021.44
362.976	1014.44
363.203	1192.44
363.429	1285.44
363.656	1095.44
363.882	996.44
364.109	988.44
364.335	968.44
364.562	995.44
364.788	1149.44
365.015	1265.44
365.241	1159.44
365.468	1035.44
365.694	915.44
365.92	888.44
366.147	865.44
366.373	828.44
366.599	888.44
366.826	854.44
367.052	895.44
367.278	899.44
367.505	891.44
367.731	933.44
367.957	1027.44
368.184	1035.44
368.41	1009.44
368.636	1037.44
368.862	1083.44
369.089	1029.44
369.315	966.44
369.541	968.44
369.767	949.44
369.993	946.44
370.219	944.44
370.445	1009.44
370.672	1103.44
370.898	1144.44
371.124	1177.44
371.35	1045.44
371.576	952.44
371.802	1069.44
372.028	1245.44
372.254	1404.44
372.48	1251.44
372.706	1134.44
372.932	1181.44
373.158	1237.44
373.384	1414.44
373.61	1783.44
373.835	1917.44
374.061	1451.44
374.287	1207.44
374.513	1385.44
374.739	1642.44
374.965	1717.44
375.191	1721.44
375.416	1321.44
375.642	1118.44
375.868	1257.44
376.094	1407.44
376.319	1255.44
376.545	1322.44
376.771	1384.44
376.997	1224.44
377.222	971.44
377.448	919.44
377.674	876.44
377.899	883.44
378.125	862.44
378.35	866.44
378.576	900.44
378.802	948.44
379.027	992.44
379.253	984.44
379.478	973.44
379.704	1078.44
379.929	1133.44
380.155	1096.44
380.38	1047.44
380.606	991.44
380.831	1054.44
381.057	1010.44
381.282	1022.44
381.507	1182.44
381.733	1423.44
381.958	1507.44
382.184	1616.44
382.409	1747.44
382.634	1586.44
382.86	1741.44
383.085	1497.44
383.31	1209.44
383.535	1241.44
383.761	1329.44
383.986	1214.44
384.211	1429.44
384.436	1399.44
384.662	1132.44
384.887	1111.44
385.112	1153.44
385.337	1153.44
385.562	1079.44
385.787	1216.44
386.013	1348.44
386.238	1358.44
386.463	1158.44
386.688	1091.44
386.913	1106.44
387.138	1076.44
387.363	1094.44
387.588	1116.44
387.813	1111.44
388.038	1247.44
388.263	1150.44
388.488	1084.44
388.713	1209.44
388.938	1333.44
389.163	1164.44
389.387	1051.44
389.612	1027.44
389.837	1103.44
390.062	1117.44
390.287	1111.44
390.512	1152.44
390.736	1066.44
390.961	1027.44
391.186	992.44
391.411	1024.44
391.636	1059.44
391.86	1104.44
392.085	1169.44
392.31	1189.44
392.534	1147.44
392.759	1133.44
392.984	1185.44
393.208	1188.44
393.433	1167.44
393.658	1099.44
393.882	1030.44
394.107	998.44
394.331	980.44
394.556	1009.44
394.78	1027.44
395.005	1045.44
395.229	1055.44
395.454	1077.44
395.678	1124.44
395.903	1127.44
396.127	1070.44
396.352	1037.44
396.576	1019.44
396.801	1094.44
397.025	1250.44
397.249	1221.44
397.474	1119.44
397.698	1060.44
397.922	1094.44
398.147	1068.44
398.371	1073.44
398.595	1135.44
398.82	1168.44
399.044	1197.44
399.268	1265.44
399.492	1443.44
399.717	1569.44
399.941	1577.44
400.165	1484.44
400.389	1362.44
400.613	1358.44
400.837	1285.44
401.062	1195.44
401.286	1153.44
401.51	1145.44
401.734	1128.44
401.958	1137.44
402.182	1137.44
402.406	1151.44
402.63	1167.44
402.854	1181.44
403.078	1220.44
403.302	1279.44
403.526	1316.44
403.75	1240.44
403.974	1292.44
404.198	1277.44
404.422	1389.44
404.645	1600.44
404.869	1734.44
405.093	1389.44
405.317	1252.44
405.541	1206.44
405.765	1251.44
405.988	1229.44
406.212	1299.44
406.436	1529.44
406.66	1627.44
406.883	1428.44
407.107	1481.44
407.331	1651.44
407.555	1631.44
407.778	1436.44
408.002	1365.44
408.226	1330.44
408.449	1320.44
408.673	1243.44
408.896	1242.44
409.12	1228.44
409.344	1229.44
409.567	1197.44
409.791	1212.44
410.014	1184.44
410.238	1204.44
410.461	1193.44
410.685	1224.44
410.908	1187.44
411.132	1216.44
411.355	1159.44
411.578	1157.44
411.802	1199.44
412.025	1238.44
412.249	1273.44
412.472	1181.44
412.695	1171.44
412.919	1172.44
413.142	1179.44
413.365	1207.44
413.589	1263.44
413.812	1177.44
414.035	1149.44
414.258	1159.44
414.482	1276.44
414.705	1285.44
414.928	1195.44
415.151	1143.44
415.374	1158.44
415.597	1174.44
415.821	1163.44
416.044	1150.44
416.267	1071.44
416.49	1090.44
416.713	1090.44
416.936	1065.44
417.159	1107.44
417.382	1115.44
417.605	1128.44
417.828	1123.44
418.051	1134.44
418.274	1136.44
418.497	1170.44
418.72	1178.44
418.943	1186.44
419.166	1222.44
419.389	1266.44
419.611	1266.44
419.834	1266.44
420.057	1344.44
420.28	1319.44
420.503	1233.44
420.726	1111.44
420.948	1099.44
421.171	1119.44
421.394	1100.44
421.617	1103.44
421.839	1123.44
422.062	1153.44
422.285	1099.44
422.507	1171.44
422.73	1159.44
422.953	1197.44
423.175	1166.44
423.398	1175.44
423.621	1199.44
423.843	1227.44
424.066	1231.44
424.288	1186.44
424.511	1131.44
424.733	1187.44
424.956	1165.44
425.178	1240.44
425.401	1284.44
425.623	1141.44
425.846	1129.44
426.068	1137.44
426.291	1239.44
426.513	1140.44
426.735	1083.44
426.958	1107.44
427.18	1199.44
427.402	1438.44
427.625	1218.44
427.847	1055.44
428.069	1000.44
428.292	1044.44
428.514	1049.44
428.736	1022.44
428.958	1008.44
429.181	971.44
429.403	969.44
429.625	1036.44
429.847	1026.44
430.069	1023.44
430.292	1058.44
430.514	1023.44
430.736	1103.44
430.958	1295.44
431.18	1224.44
431.402	1046.44
431.624	987.44
431.846	985.44
432.068	1016.44
432.29	1037.44
432.512	1106.44
432.734	1364.44
432.956	1277.44
433.178	1064.44
433.4	993.44
433.622	967.44
433.844	1022.44
434.066	985.44
434.287	963.44
434.509	995.44
434.731	1050.44
434.953	1072.44
435.175	1067.44
435.397	1086.44
435.618	1041.44
435.84	989.44
436.062	993.44
436.284	986.44
436.505	969.44
436.727	975.44
436.949	985.44
437.17	995.44
437.392	1015.44
437.614	982.44
437.835	982.44
438.057	1009.44
438.278	1121.44
438.5	1448.44
438.721	1438.44
438.943	1063.44
439.165	968.44
439.386	962.44
439.608	963.44
439.829	994.44
440.05	977.44
440.272	1046.44
440.493	1144.44
440.715	1358.44
440.936	1152.44
441.158	1055.44
441.379	1060.44
441.6	1193.44
441.822	1231.44
442.043	1115.44
442.264	1087.44
442.486	1049.44
442.707	1069.44
442.928	1083.44
443.149	1115.44
443.371	1079.44
443.592	1108.44
443.813	1097.44
444.034	1102.44
444.255	1152.44
444.476	1229.44
444.698	1240.44
444.919	1227.44
445.14	1367.44
445.361	1264.44
445.582	1122.44
445.803	1103.44
446.024	1072.44
446.245	1067.44
446.466	1055.44
446.687	993.44
446.908	1043.44
447.129	1013.44
447.35	957.44
447.571	968.44
447.792	950.44
448.013	954.44
448.234	928.44
448.455	948.44
448.675	943.44
448.896	893.44
449.117	924.44
449.338	930.44
449.559	951.44
449.779	982.44
450	938.44
450.221	956.44
450.442	961.44
450.662	936.44
450.883	971.44
451.104	966.44
451.324	934.44
451.545	976.44
451.766	919.44
451.986	914.44
452.207	927.44
452.428	930.44
452.648	911.44
452.869	923.44
453.089	933.44
453.31	935.44
453.53	870.44
453.751	879.44
453.971	887.44
454.192	879.44
454.412	840.44
454.633	854.44
454.853	846.44
455.073	883.44
455.294	823.44
455.514	841.44
455.734	846.44
455.955	816.44
456.175	846.44
456.395	827.44
456.616	843.44
456.836	852.44
457.056	841.44
457.276	832.44
457.497	860.44
457.717	838.44
457.937	854.44
458.157	856.44
458.377	868.44
458.598	915.44
458.818	943.44
459.038	919.44
459.258	951.44
459.478	989.44
459.698	998.44
459.918	1040.44
460.138	1051.44
460.358	1113.44
460.578	1127.44
460.798	1119.44
461.018	1155.44
461.238	1120.44
461.458	1099.44
461.678	1099.44
461.898	1142.44
462.118	1144.44
462.338	1205.44
462.558	1249.44
462.777	1284.44
462.997	1324.44
463.217	1395.44
463.437	1396.44
463.657	1325.44
463.876	1281.44
464.096	1291.44
464.316	1287.44
464.536	1299.44
464.755	1312.44
464.975	1250.44
465.195	1210.44
465.414	1181.44
465.634	1173.44
465.854	1221.44
466.073	1121.44
466.293	1112.44
466.512	1132.44
466.732	1214.44
466.951	1255.44
467.171	1107.44
467.391	1068.44
467.61	1086.44
467.829	1163.44
468.049	1153.44
468.268	1085.44
468.488	1062.44
468.707	1136.44
468.927	1352.44
469.146	1392.44
469.365	1231.44
469.585	1191.44
469.804	1246.44
470.023	1330.44
470.243	1189.44
470.462	1181.44
470.681	1158.44
470.901	1135.44
471.12	1151.44
471.339	1191.44
471.558	1131.44
471.777	1111.44
471.997	1189.44
472.216	1317.44
472.435	1304.44
472.654	1197.44
472.873	1160.44
473.092	1189.44
473.311	1251.44
473.53	1142.44
473.749	1113.44
473.968	1146.44
474.187	1135.44
474.406	1128.44
474.625	1135.44
474.844	1148.44
475.063	1226.44
475.282	1227.44
475.501	1185.44
475.72	1195.44
475.939	1189.44
476.158	1289.44
476.377	1364.44
476.596	1578.44
476.814	1676.44
477.033	1423.44
477.252	1272.44
477.471	1233.44
477.69	1247.44
477.908	1359.44
478.127	1444.44
478.346	1281.44
478.564	1307.44
478.783	1276.44
479.002	1334.44
479.22	1531.44
479.439	1721.44
479.658	1551.44
479.876	1375.44
480.095	1547.44
480.313	1520.44
480.532	1489.44
480.751	1427.44
480.969	1430.44
481.188	1602.44
481.406	1614.44
481.624	1516.44
481.843	1405.44
482.061	1349.44
482.28	1419.44
482.498	1578.44
482.717	1406.44
482.935	1383.44
483.153	1331.44
483.372	1243.44
483.59	1255.44
483.808	1273.44
484.027	1271.44
484.245	1183.44
484.463	1173.44
484.681	1279.44
484.9	1357.44
485.118	1414.44
485.336	1377.44
485.554	1275.44
485.772	1317.44
485.99	1419.44
486.209	1513.44
486.427	1421.44
486.645	1459.44
486.863	1474.44
487.081	1469.44
487.299	1544.44
487.517	1512.44
487.735	1374.44
487.953	1427.44
488.171	1467.44
488.389	1392.44
488.607	1309.44
488.825	1291.44
489.043	1435.44
489.261	1687.44
489.479	1749.44
489.696	1501.44
489.914	1408.44
490.132	1320.44
490.35	1327.44
490.568	1285.44
490.786	1241.44
491.003	1276.44
491.221	1374.44
491.439	1341.44
491.657	1340.44
491.874	1407.44
492.092	1659.44
492.31	1847.44
492.527	1760.44
492.745	1663.44
