Data from UnknownNail75mm.07152019.Lampedge.EN7.5scans.P1_HRD10591_15-17-37-731.txt Node
Date: Mon Jul 15 15:17:37 EDT 2019
User: cochatt
Spectrometer: HR+D1059
Trigger mode: 1
Integration Time (sec): 1.000000E-1
Scans to average: 1
Electric dark correction enabled: true
Nonlinearity correction enabled: false
Boxcar width: 0
XAxis mode: Wavelengths
Number of Pixels in Spectrum: 2048
>>>>>Begin Spectral Data<<<<<
223.165	-10.94
223.4	-10.94
223.635	-10.94
223.869	-21.94
224.104	-25.94
224.338	-7.94
224.573	-7.94
224.808	-10.94
225.042	-13.94
225.277	-17.94
225.511	-5.94
225.746	3.06
225.98	7.06
226.215	6.06
226.449	30.06
226.683	23.06
226.918	19.06
227.152	35.06
227.387	51.06
227.621	45.06
227.856	46.06
228.09	52.06
228.324	58.06
228.559	55.06
228.793	66.06
229.027	126.06
229.262	140.06
229.496	142.06
229.73	178.06
229.964	175.06
230.199	184.06
230.433	183.06
230.667	181.06
230.901	177.06
231.136	200.06
231.37	198.06
231.604	204.06
231.838	204.06
232.072	230.06
232.306	240.06
232.541	227.06
232.775	253.06
233.009	279.06
233.243	315.06
233.477	351.06
233.711	370.06
233.945	375.06
234.179	351.06
234.413	394.06
234.647	419.06
234.881	519.06
235.115	482.06
235.349	467.06
235.583	413.06
235.817	410.06
236.051	427.06
236.285	463.06
236.519	537.06
236.753	513.06
236.987	517.06
237.221	457.06
237.455	455.06
237.689	488.06
237.922	547.06
238.156	557.06
238.39	653.06
238.624	751.06
238.858	717.06
239.091	577.06
239.325	592.06
239.559	545.06
239.793	627.06
240.027	782.06
240.26	724.06
240.494	707.06
240.728	685.06
240.961	819.06
241.195	768.06
241.429	748.06
241.662	730.06
241.896	633.06
242.13	543.06
242.363	504.06
242.597	531.06
242.83	625.06
243.064	636.06
243.298	663.06
243.531	752.06
243.765	742.06
243.998	722.06
244.232	656.06
244.465	675.06
244.699	671.06
244.932	757.06
245.166	722.06
245.399	647.06
245.633	582.06
245.866	601.06
246.099	708.06
246.333	800.06
246.566	890.06
246.8	897.06
247.033	855.06
247.266	781.06
247.5	772.06
247.733	770.06
247.966	765.06
248.2	763.06
248.433	886.06
248.666	941.06
248.899	943.06
249.133	967.06
249.366	1089.06
249.599	1214.06
249.832	1125.06
250.066	951.06
250.299	953.06
250.532	944.06
250.765	895.06
250.998	838.06
251.231	781.06
251.465	821.06
251.698	932.06
251.931	865.06
252.164	891.06
252.397	986.06
252.63	1138.06
252.863	1299.06
253.096	1362.06
253.329	1291.06
253.562	1214.06
253.795	1311.06
254.028	1502.06
254.261	1559.06
254.494	1386.06
254.727	1225.06
254.96	1185.06
255.193	1257.06
255.426	1288.06
255.659	951.06
255.892	805.06
256.124	819.06
256.357	986.06
256.59	1222.06
256.823	1239.06
257.056	1015.06
257.289	879.06
257.521	876.06
257.754	931.06
257.987	964.06
258.22	949.06
258.452	937.06
258.685	1087.06
258.918	1274.06
259.151	1191.06
259.383	1142.06
259.616	1269.06
259.849	1361.06
260.081	1707.06
260.314	2067.06
260.547	1496.06
260.779	1311.06
261.012	1515.06
261.244	1560.06
261.477	1621.06
261.71	1671.06
261.942	1307.06
262.175	1202.06
262.407	1166.06
262.64	1259.06
262.872	1499.06
263.105	1693.06
263.337	1829.06
263.57	1629.06
263.802	1021.06
264.035	770.06
264.267	726.06
264.499	645.06
264.732	685.06
264.964	655.06
265.197	637.06
265.429	645.06
265.661	686.06
265.894	659.06
266.126	668.06
266.358	739.06
266.591	885.06
266.823	1069.06
267.055	1019.06
267.287	851.06
267.52	711.06
267.752	688.06
267.984	716.06
268.216	720.06
268.448	778.06
268.681	877.06
268.913	907.06
269.145	849.06
269.377	887.06
269.609	942.06
269.841	900.06
270.073	816.06
270.306	883.06
270.538	908.06
270.77	1071.06
271.002	1030.06
271.234	1043.06
271.466	1173.06
271.698	1329.06
271.93	1289.06
272.162	1167.06
272.394	1180.06
272.626	1183.06
272.858	1235.06
273.09	1400.06
273.322	1301.06
273.553	1260.06
273.785	1459.06
274.017	1973.06
274.249	2455.06
274.481	2555.06
274.713	2670.06
274.945	3180.06
275.176	3289.06
275.408	2812.06
275.64	2537.06
275.872	2532.06
276.104	1894.06
276.335	1332.06
276.567	1211.06
276.799	1315.06
277.031	1538.06
277.262	1412.06
277.494	1087.06
277.726	975.06
277.957	1045.06
278.189	1143.06
278.421	1164.06
278.652	1194.06
278.884	1073.06
279.115	952.06
279.347	902.06
279.579	826.06
279.81	879.06
280.042	866.06
280.273	836.06
280.505	825.06
280.736	812.06
280.968	785.06
281.199	760.06
281.431	794.06
281.662	792.06
281.894	778.06
282.125	759.06
282.356	768.06
282.588	808.06
282.819	829.06
283.051	899.06
283.282	963.06
283.513	1030.06
283.745	1003.06
283.976	1048.06
284.207	1082.06
284.439	1134.06
284.67	1049.06
284.901	1033.06
285.132	1056.06
285.364	1029.06
285.595	983.06
285.826	1083.06
286.057	1132.06
286.288	1020.06
286.52	878.06
286.751	849.06
286.982	888.06
287.213	931.06
287.444	999.06
287.675	1023.06
287.906	943.06
288.138	903.06
288.369	916.06
288.6	880.06
288.831	873.06
289.062	831.06
289.293	793.06
289.524	832.06
289.755	841.06
289.986	862.06
290.217	817.06
290.448	810.06
290.679	785.06
290.91	745.06
291.141	737.06
291.371	744.06
291.602	742.06
291.833	742.06
292.064	749.06
292.295	802.06
292.526	818.06
292.757	829.06
292.987	873.06
293.218	825.06
293.449	808.06
293.68	823.06
293.91	825.06
294.141	830.06
294.372	843.06
294.603	940.06
294.833	1040.06
295.064	1113.06
295.295	1065.06
295.525	924.06
295.756	919.06
295.987	880.06
296.217	866.06
296.448	874.06
296.679	927.06
296.909	1005.06
297.14	1050.06
297.37	996.06
297.601	956.06
297.831	872.06
298.062	872.06
298.292	984.06
298.523	1167.06
298.753	1311.06
298.984	1159.06
299.214	931.06
299.445	903.06
299.675	915.06
299.905	923.06
300.136	941.06
300.366	1054.06
300.597	1047.06
300.827	985.06
301.057	962.06
301.288	920.06
301.518	861.06
301.748	912.06
301.979	1021.06
302.209	1176.06
302.439	1205.06
302.669	1026.06
302.9	958.06
303.13	884.06
303.36	874.06
303.59	863.06
303.82	882.06
304.051	903.06
304.281	895.06
304.511	856.06
304.741	877.06
304.971	915.06
305.201	878.06
305.431	860.06
305.661	898.06
305.891	945.06
306.121	981.06
306.352	910.06
306.582	867.06
306.812	859.06
307.042	874.06
307.272	827.06
307.502	829.06
307.731	873.06
307.961	919.06
308.191	895.06
308.421	859.06
308.651	804.06
308.881	813.06
309.111	815.06
309.341	782.06
309.571	804.06
309.8	816.06
310.03	852.06
310.26	906.06
310.49	858.06
310.72	799.06
310.949	769.06
311.179	775.06
311.409	802.06
311.639	800.06
311.868	822.06
312.098	818.06
312.328	829.06
312.557	819.06
312.787	809.06
313.017	797.06
313.246	827.06
313.476	861.06
313.706	873.06
313.935	864.06
314.165	845.06
314.394	823.06
314.624	819.06
314.853	875.06
315.083	872.06
315.312	898.06
315.542	951.06
315.771	964.06
316.001	903.06
316.23	859.06
316.46	861.06
316.689	899.06
316.919	942.06
317.148	937.06
317.377	907.06
317.607	896.06
317.836	915.06
318.065	987.06
318.295	958.06
318.524	925.06
318.753	939.06
318.983	945.06
319.212	939.06
319.441	971.06
319.67	976.06
319.9	959.06
320.129	955.06
320.358	956.06
320.587	894.06
320.816	928.06
321.046	973.06
321.275	1069.06
321.504	1147.06
321.733	1072.06
321.962	1017.06
322.191	989.06
322.42	1055.06
322.649	1066.06
322.878	1118.06
323.108	1129.06
323.337	1041.06
323.566	991.06
323.795	945.06
324.024	915.06
324.253	907.06
324.482	916.06
324.71	950.06
324.939	923.06
325.168	919.06
325.397	878.06
325.626	923.06
325.855	957.06
326.084	988.06
326.313	946.06
326.542	891.06
326.77	909.06
326.999	895.06
327.228	912.06
327.457	894.06
327.686	890.06
327.914	913.06
328.143	938.06
328.372	919.06
328.6	942.06
328.829	955.06
329.058	948.06
329.287	924.06
329.515	892.06
329.744	909.06
329.972	893.06
330.201	917.06
330.43	913.06
330.658	953.06
330.887	996.06
331.115	963.06
331.344	907.06
331.572	929.06
331.801	965.06
332.03	923.06
332.258	947.06
332.486	978.06
332.715	1005.06
332.943	1003.06
333.172	1040.06
333.4	1064.06
333.629	1044.06
333.857	1078.06
334.085	1086.06
334.314	1084.06
334.542	1067.06
334.771	1024.06
334.999	1053.06
335.227	1044.06
335.455	1023.06
335.684	1051.06
335.912	1022.06
336.14	996.06
336.369	1002.06
336.597	1009.06
336.825	1019.06
337.053	1035.06
337.281	999.06
337.51	996.06
337.738	977.06
337.966	987.06
338.194	930.06
338.422	938.06
338.65	931.06
338.878	992.06
339.106	954.06
339.334	985.06
339.562	963.06
339.79	953.06
340.018	963.06
340.246	954.06
340.474	975.06
340.702	991.06
340.93	1020.06
341.158	1025.06
341.386	961.06
341.614	964.06
341.842	961.06
342.07	973.06
342.298	1008.06
342.526	1008.06
342.754	1056.06
342.981	1053.06
343.209	1028.06
343.437	1012.06
343.665	1053.06
343.893	1197.06
344.12	1374.06
344.348	1433.06
344.576	1245.06
344.804	1116.06
345.031	1025.06
345.259	1009.06
345.487	961.06
345.714	941.06
345.942	943.06
346.17	945.06
346.397	946.06
346.625	941.06
346.853	994.06
347.08	977.06
347.308	958.06
347.535	1026.06
347.763	1057.06
347.99	998.06
348.218	935.06
348.445	927.06
348.673	948.06
348.9	959.06
349.128	995.06
349.355	1011.06
349.583	988.06
349.81	971.06
350.037	970.06
350.265	925.06
350.492	871.06
350.72	897.06
350.947	907.06
351.174	894.06
351.402	909.06
351.629	944.06
351.856	894.06
352.083	945.06
352.311	981.06
352.538	981.06
352.765	1014.06
352.992	1021.06
353.22	967.06
353.447	935.06
353.674	958.06
353.901	996.06
354.128	987.06
354.355	969.06
354.583	969.06
354.81	932.06
355.037	932.06
355.264	951.06
355.491	1043.06
355.718	1104.06
355.945	1080.06
356.172	1079.06
356.399	1057.06
356.626	1188.06
356.853	1374.06
357.08	1464.06
357.307	1463.06
357.534	1189.06
357.761	1111.06
357.988	1259.06
358.215	1530.06
358.441	1716.06
358.668	1417.06
358.895	1313.06
359.122	1081.06
359.349	984.06
359.576	927.06
359.802	929.06
360.029	918.06
360.256	1001.06
360.483	1035.06
360.709	1213.06
360.936	1324.06
361.163	1305.06
361.39	1082.06
361.616	1021.06
361.843	1170.06
362.07	1306.06
362.296	1251.06
362.523	1047.06
362.749	1006.06
362.976	999.06
363.203	1164.06
363.429	1287.06
363.656	1081.06
363.882	975.06
364.109	997.06
364.335	964.06
364.562	984.06
364.788	1099.06
365.015	1245.06
365.241	1109.06
365.468	996.06
365.694	901.06
365.92	869.06
366.147	872.06
366.373	836.06
366.599	840.06
366.826	846.06
367.052	871.06
367.278	899.06
367.505	885.06
367.731	925.06
367.957	980.06
368.184	1014.06
368.41	994.06
368.636	1007.06
368.862	1045.06
369.089	1011.06
369.315	939.06
369.541	941.06
369.767	926.06
369.993	927.06
370.219	936.06
370.445	970.06
370.672	1048.06
370.898	1141.06
371.124	1091.06
371.35	1000.06
371.576	944.06
371.802	1043.06
372.028	1218.06
372.254	1374.06
372.48	1193.06
372.706	1074.06
372.932	1140.06
373.158	1195.06
373.384	1375.06
373.61	1755.06
373.835	1836.06
374.061	1411.06
374.287	1165.06
374.513	1339.06
374.739	1586.06
374.965	1703.06
375.191	1675.06
375.416	1291.06
375.642	1119.06
375.868	1223.06
376.094	1388.06
376.319	1248.06
376.545	1323.06
376.771	1381.06
376.997	1187.06
377.222	983.06
377.448	894.06
377.674	879.06
377.899	871.06
378.125	869.06
378.35	864.06
378.576	890.06
378.802	933.06
379.027	975.06
379.253	935.06
379.478	961.06
379.704	1053.06
379.929	1080.06
380.155	1090.06
380.38	976.06
380.606	934.06
380.831	1008.06
381.057	994.06
381.282	974.06
381.507	1148.06
381.733	1366.06
381.958	1474.06
382.184	1557.06
382.409	1633.06
382.634	1607.06
382.86	1678.06
383.085	1427.06
383.31	1177.06
383.535	1207.06
383.761	1236.06
383.986	1188.06
384.211	1386.06
384.436	1381.06
384.662	1161.06
384.887	1132.06
385.112	1124.06
385.337	1130.06
385.562	1073.06
385.787	1194.06
386.013	1307.06
386.238	1326.06
386.463	1109.06
386.688	1085.06
386.913	1067.06
387.138	1035.06
387.363	1076.06
387.588	1083.06
387.813	1116.06
388.038	1204.06
388.263	1119.06
388.488	1090.06
388.713	1226.06
388.938	1293.06
389.163	1121.06
389.387	1045.06
389.612	1029.06
389.837	1075.06
390.062	1099.06
390.287	1112.06
390.512	1105.06
390.736	1047.06
390.961	1021.06
391.186	997.06
391.411	963.06
391.636	1009.06
391.86	1091.06
392.085	1162.06
392.31	1189.06
392.534	1148.06
392.759	1108.06
392.984	1133.06
393.208	1162.06
393.433	1135.06
393.658	1112.06
393.882	1043.06
394.107	993.06
394.331	992.06
394.556	1012.06
394.78	1000.06
395.005	1045.06
395.229	1051.06
395.454	1061.06
395.678	1073.06
395.903	1097.06
396.127	1072.06
396.352	1005.06
396.576	1051.06
396.801	1112.06
397.025	1208.06
397.249	1189.06
397.474	1081.06
397.698	1057.06
397.922	1076.06
398.147	1019.06
398.371	1033.06
398.595	1101.06
398.82	1137.06
399.044	1171.06
399.268	1259.06
399.492	1395.06
399.717	1534.06
399.941	1569.06
400.165	1455.06
400.389	1331.06
400.613	1291.06
400.837	1275.06
401.062	1161.06
401.286	1149.06
401.51	1119.06
401.734	1130.06
401.958	1135.06
402.182	1119.06
402.406	1129.06
402.63	1185.06
402.854	1167.06
403.078	1186.06
403.302	1260.06
403.526	1252.06
403.75	1229.06
403.974	1224.06
404.198	1265.06
404.422	1375.06
404.645	1599.06
404.869	1697.06
405.093	1345.06
405.317	1194.06
405.541	1197.06
405.765	1225.06
405.988	1226.06
406.212	1281.06
406.436	1489.06
406.66	1585.06
406.883	1388.06
407.107	1453.06
407.331	1587.06
407.555	1598.06
407.778	1432.06
408.002	1375.06
408.226	1296.06
408.449	1267.06
408.673	1233.06
408.896	1207.06
409.12	1227.06
409.344	1184.06
409.567	1190.06
409.791	1181.06
410.014	1171.06
410.238	1146.06
410.461	1157.06
410.685	1145.06
410.908	1177.06
411.132	1197.06
411.355	1139.06
411.578	1125.06
411.802	1144.06
412.025	1205.06
412.249	1209.06
412.472	1163.06
412.695	1168.06
412.919	1133.06
413.142	1177.06
413.365	1225.06
413.589	1195.06
413.812	1162.06
414.035	1166.06
414.258	1148.06
414.482	1239.06
414.705	1265.06
414.928	1159.06
415.151	1125.06
415.374	1129.06
415.597	1151.06
415.821	1144.06
416.044	1160.06
416.267	1090.06
416.49	1081.06
416.713	1070.06
416.936	1075.06
417.159	1084.06
417.382	1080.06
417.605	1085.06
417.828	1136.06
418.051	1103.06
418.274	1145.06
418.497	1139.06
418.72	1164.06
418.943	1185.06
419.166	1224.06
419.389	1269.06
419.611	1245.06
419.834	1209.06
420.057	1301.06
420.28	1283.06
420.503	1193.06
420.726	1103.06
420.948	1087.06
421.171	1097.06
421.394	1092.06
421.617	1098.06
421.839	1131.06
422.062	1096.06
422.285	1122.06
422.507	1138.06
422.73	1140.06
422.953	1179.06
423.175	1169.06
423.398	1175.06
423.621	1128.06
423.843	1223.06
424.066	1163.06
424.288	1167.06
424.511	1112.06
424.733	1111.06
424.956	1176.06
425.178	1218.06
425.401	1235.06
425.623	1121.06
425.846	1075.06
426.068	1112.06
426.291	1211.06
426.513	1154.06
426.735	1077.06
426.958	1099.06
427.18	1193.06
427.402	1419.06
427.625	1179.06
427.847	1058.06
428.069	1005.06
428.292	1010.06
428.514	1023.06
428.736	1006.06
428.958	977.06
429.181	961.06
429.403	997.06
429.625	1021.06
429.847	988.06
430.069	1001.06
430.292	1013.06
430.514	1011.06
430.736	1103.06
430.958	1285.06
431.18	1226.06
431.402	1017.06
431.624	998.06
431.846	973.06
432.068	999.06
432.29	1027.06
432.512	1071.06
432.734	1337.06
432.956	1237.06
433.178	1029.06
433.4	1001.06
433.622	996.06
433.844	987.06
434.066	995.06
434.287	985.06
434.509	1015.06
434.731	1044.06
434.953	1053.06
435.175	1057.06
435.397	1105.06
435.618	1033.06
435.84	984.06
436.062	987.06
436.284	948.06
436.505	955.06
436.727	943.06
436.949	950.06
437.17	950.06
437.392	943.06
437.614	959.06
437.835	974.06
438.057	1002.06
438.278	1060.06
438.5	1399.06
438.721	1391.06
438.943	1051.06
439.165	977.06
439.386	963.06
439.608	905.06
439.829	978.06
440.05	964.06
440.272	988.06
440.493	1111.06
440.715	1311.06
440.936	1123.06
441.158	1020.06
441.379	1027.06
441.6	1196.06
441.822	1208.06
442.043	1118.06
442.264	1068.06
442.486	1047.06
442.707	1040.06
442.928	1077.06
443.149	1067.06
443.371	1061.06
443.592	1077.06
443.813	1077.06
444.034	1111.06
444.255	1141.06
444.476	1179.06
444.698	1233.06
444.919	1241.06
445.14	1339.06
445.361	1194.06
445.582	1111.06
445.803	1069.06
446.024	1022.06
446.245	1032.06
446.466	1009.06
446.687	1003.06
446.908	1011.06
447.129	970.06
447.35	955.06
447.571	954.06
447.792	973.06
448.013	927.06
448.234	895.06
448.455	921.06
448.675	898.06
448.896	893.06
449.117	880.06
449.338	959.06
449.559	928.06
449.779	926.06
450	922.06
450.221	909.06
450.442	931.06
450.662	925.06
450.883	949.06
451.104	951.06
451.324	937.06
451.545	942.06
451.766	905.06
451.986	924.06
452.207	900.06
452.428	892.06
452.648	906.06
452.869	935.06
453.089	911.06
453.31	940.06
453.53	880.06
453.751	854.06
453.971	879.06
454.192	863.06
454.412	839.06
454.633	856.06
454.853	835.06
455.073	839.06
455.294	856.06
455.514	844.06
455.734	837.06
455.955	816.06
456.175	836.06
456.395	850.06
456.616	817.06
456.836	843.06
457.056	831.06
457.276	800.06
457.497	835.06
457.717	808.06
457.937	862.06
458.157	843.06
458.377	859.06
458.598	883.06
458.818	907.06
459.038	943.06
459.258	927.06
459.478	972.06
459.698	1017.06
459.918	1040.06
460.138	1055.06
460.358	1097.06
460.578	1086.06
460.798	1107.06
461.018	1097.06
461.238	1095.06
461.458	1075.06
461.678	1106.06
461.898	1162.06
462.118	1122.06
462.338	1171.06
462.558	1212.06
462.777	1249.06
462.997	1325.06
463.217	1396.06
463.437	1365.06
463.657	1294.06
463.876	1271.06
464.096	1283.06
464.316	1257.06
464.536	1277.06
464.755	1235.06
464.975	1215.06
465.195	1211.06
465.414	1169.06
465.634	1160.06
465.854	1201.06
466.073	1117.06
466.293	1095.06
466.512	1123.06
466.732	1229.06
466.951	1227.06
467.171	1095.06
467.391	1081.06
467.61	1053.06
467.829	1156.06
468.049	1150.06
468.268	1050.06
468.488	1026.06
468.707	1101.06
468.927	1301.06
469.146	1382.06
469.365	1245.06
469.585	1146.06
469.804	1241.06
470.023	1309.06
470.243	1197.06
470.462	1133.06
470.681	1153.06
470.901	1147.06
471.12	1151.06
471.339	1164.06
471.558	1119.06
471.777	1115.06
471.997	1169.06
472.216	1296.06
472.435	1282.06
472.654	1189.06
472.873	1120.06
473.092	1181.06
473.311	1201.06
473.53	1116.06
473.749	1092.06
473.968	1107.06
474.187	1128.06
474.406	1114.06
474.625	1147.06
474.844	1151.06
475.063	1194.06
475.282	1216.06
475.501	1159.06
475.72	1149.06
475.939	1171.06
476.158	1252.06
476.377	1353.06
476.596	1564.06
476.814	1627.06
477.033	1381.06
477.252	1273.06
477.471	1221.06
477.69	1248.06
477.908	1381.06
478.127	1416.06
478.346	1276.06
478.564	1262.06
478.783	1313.06
479.002	1332.06
479.22	1515.06
479.439	1741.06
479.658	1515.06
479.876	1410.06
480.095	1508.06
480.313	1551.06
480.532	1439.06
480.751	1424.06
480.969	1425.06
481.188	1583.06
481.406	1606.06
481.624	1537.06
481.843	1376.06
482.061	1280.06
482.28	1433.06
482.498	1571.06
482.717	1379.06
482.935	1356.06
483.153	1282.06
483.372	1211.06
483.59	1224.06
483.808	1244.06
484.027	1208.06
484.245	1210.06
484.463	1214.06
484.681	1240.06
484.9	1303.06
485.118	1410.06
485.336	1324.06
485.554	1271.06
485.772	1299.06
485.99	1397.06
486.209	1485.06
486.427	1431.06
486.645	1403.06
486.863	1456.06
487.081	1427.06
487.299	1514.06
487.517	1484.06
487.735	1340.06
487.953	1364.06
488.171	1467.06
488.389	1321.06
488.607	1239.06
488.825	1295.06
489.043	1378.06
489.261	1630.06
489.479	1671.06
489.696	1518.06
489.914	1394.06
490.132	1327.06
490.35	1284.06
490.568	1314.06
490.786	1262.06
491.003	1252.06
491.221	1303.06
491.439	1324.06
491.657	1327.06
491.874	1389.06
492.092	1640.06
492.31	1755.06
492.527	1685.06
492.745	1645.06
492.963	1465.06
493.18	1496.06
