Data from WStandard_LampEnergy8_LIBS07252019.E.O._I.C._HRD10591_16-00-11-929.txt Node
Date: Thu Jul 25 16:00:11 EDT 2019
User: cochatt
Spectrometer: HR+D1059
Trigger mode: 1
Integration Time (sec): 1.000000E-1
Scans to average: 1
Electric dark correction enabled: true
Nonlinearity correction enabled: false
Boxcar width: 0
XAxis mode: Wavelengths
Number of Pixels in Spectrum: 2048
>>>>>Begin Spectral Data<<<<<
223.165	-9.81
223.4	-9.81
223.635	-9.81
223.869	-24.81
224.104	-29.81
224.338	-13.81
224.573	-24.81
224.808	-13.81
225.042	2.19
225.277	-15.81
225.511	-4.81
225.746	13.19
225.98	8.19
226.215	29.19
226.449	10.19
226.683	24.19
226.918	31.19
227.152	19.19
227.387	42.19
227.621	28.19
227.856	41.19
228.09	50.19
228.324	52.19
228.559	68.19
228.793	108.19
229.027	207.19
229.262	221.19
229.496	217.19
229.73	227.19
229.964	231.19
230.199	254.19
230.433	254.19
230.667	287.19
230.901	290.19
231.136	267.19
231.37	266.19
231.604	262.19
231.838	263.19
232.072	262.19
232.306	261.19
232.541	263.19
232.775	313.19
233.009	337.19
233.243	294.19
233.477	310.19
233.711	304.19
233.945	327.19
234.179	306.19
234.413	321.19
234.647	326.19
234.881	342.19
235.115	308.19
235.349	308.19
235.583	313.19
235.817	312.19
236.051	301.19
236.285	300.19
236.519	322.19
236.753	344.19
236.987	364.19
237.221	370.19
237.455	364.19
237.689	374.19
237.922	350.19
238.156	360.19
238.39	376.19
238.624	362.19
238.858	393.19
239.091	410.19
239.325	435.19
239.559	482.19
239.793	474.19
240.027	510.19
240.26	505.19
240.494	392.19
240.728	380.19
240.961	382.19
241.195	395.19
241.429	424.19
241.662	426.19
241.896	384.19
242.13	404.19
242.363	437.19
242.597	455.19
242.83	464.19
243.064	442.19
243.298	488.19
243.531	456.19
243.765	460.19
243.998	469.19
244.232	417.19
244.465	404.19
244.699	423.19
244.932	465.19
245.166	514.19
245.399	489.19
245.633	463.19
245.866	455.19
246.099	473.19
246.333	490.19
246.566	482.19
246.8	534.19
247.033	580.19
247.266	552.19
247.5	543.19
247.733	550.19
247.966	558.19
248.2	614.19
248.433	617.19
248.666	624.19
248.899	669.19
249.133	760.19
249.366	798.19
249.599	676.19
249.832	618.19
250.066	636.19
250.299	638.19
250.532	598.19
250.765	539.19
250.998	574.19
251.231	590.19
251.465	596.19
251.698	581.19
251.931	612.19
252.164	588.19
252.397	631.19
252.63	622.19
252.863	542.19
253.096	567.19
253.329	586.19
253.562	619.19
253.795	638.19
254.028	618.19
254.261	572.19
254.494	606.19
254.727	551.19
254.96	599.19
255.193	647.19
255.426	722.19
255.659	788.19
255.892	803.19
256.124	676.19
256.357	667.19
256.59	686.19
256.823	715.19
257.056	726.19
257.289	827.19
257.521	896.19
257.754	834.19
257.987	786.19
258.22	852.19
258.452	814.19
258.685	678.19
258.918	677.19
259.151	685.19
259.383	650.19
259.616	574.19
259.849	615.19
260.081	677.19
260.314	751.19
260.547	819.19
260.779	838.19
261.012	778.19
261.244	680.19
261.477	667.19
261.71	699.19
261.942	697.19
262.175	679.19
262.407	706.19
262.64	672.19
262.872	627.19
263.105	626.19
263.337	633.19
263.57	654.19
263.802	659.19
264.035	611.19
264.267	589.19
264.499	581.19
264.732	618.19
264.964	650.19
265.197	681.19
265.429	725.19
265.661	796.19
265.894	828.19
266.126	861.19
266.358	772.19
266.591	828.19
266.823	854.19
267.055	801.19
267.287	806.19
267.52	763.19
267.752	730.19
267.984	778.19
268.216	812.19
268.448	805.19
268.681	802.19
268.913	748.19
269.145	696.19
269.377	715.19
269.609	752.19
269.841	855.19
270.073	988.19
270.306	1110.19
270.538	1105.19
270.77	959.19
271.002	863.19
271.234	806.19
271.466	855.19
271.698	958.19
271.93	1076.19
272.162	1071.19
272.394	932.19
272.626	914.19
272.858	794.19
273.09	709.19
273.322	738.19
273.553	676.19
273.785	676.19
274.017	720.19
274.249	760.19
274.481	776.19
274.713	729.19
274.945	726.19
275.176	711.19
275.408	711.19
275.64	683.19
275.872	699.19
276.104	764.19
276.335	855.19
276.567	932.19
276.799	902.19
277.031	848.19
277.262	826.19
277.494	846.19
277.726	887.19
277.957	884.19
278.189	794.19
278.421	751.19
278.652	742.19
278.884	732.19
279.115	761.19
279.347	759.19
279.579	732.19
279.81	717.19
280.042	807.19
280.273	880.19
280.505	880.19
280.736	895.19
280.968	821.19
281.199	738.19
281.431	749.19
281.662	736.19
281.894	728.19
282.125	732.19
282.356	762.19
282.588	788.19
282.819	801.19
283.051	859.19
283.282	900.19
283.513	838.19
283.745	779.19
283.976	749.19
284.207	744.19
284.439	743.19
284.67	777.19
284.901	739.19
285.132	780.19
285.364	783.19
285.595	798.19
285.826	764.19
286.057	777.19
286.288	773.19
286.52	791.19
286.751	887.19
286.982	879.19
287.213	799.19
287.444	766.19
287.675	764.19
287.906	810.19
288.138	838.19
288.369	838.19
288.6	783.19
288.831	726.19
289.062	764.19
289.293	782.19
289.524	771.19
289.755	802.19
289.986	777.19
290.217	750.19
290.448	738.19
290.679	774.19
290.91	790.19
291.141	818.19
291.371	818.19
291.602	822.19
291.833	837.19
292.064	847.19
292.295	838.19
292.526	880.19
292.757	890.19
292.987	843.19
293.218	811.19
293.449	891.19
293.68	967.19
293.91	1020.19
294.141	956.19
294.372	936.19
294.603	972.19
294.833	991.19
295.064	947.19
295.295	829.19
295.525	782.19
295.756	774.19
295.987	728.19
296.217	749.19
296.448	800.19
296.679	808.19
296.909	788.19
297.14	774.19
297.37	791.19
297.601	847.19
297.831	887.19
298.062	878.19
298.292	839.19
298.523	785.19
298.753	787.19
298.984	814.19
299.214	806.19
299.445	830.19
299.675	839.19
299.905	835.19
300.136	819.19
300.366	784.19
300.597	782.19
300.827	786.19
301.057	836.19
301.288	889.19
301.518	866.19
301.748	871.19
301.979	934.19
302.209	937.19
302.439	979.19
302.669	989.19
302.9	947.19
303.13	883.19
303.36	868.19
303.59	866.19
303.82	877.19
304.051	875.19
304.281	846.19
304.511	862.19
304.741	950.19
304.971	1045.19
305.201	1083.19
305.431	953.19
305.661	851.19
305.891	774.19
306.121	763.19
306.352	802.19
306.582	873.19
306.812	910.19
307.042	946.19
307.272	988.19
307.502	997.19
307.731	1072.19
307.961	1073.19
308.191	977.19
308.421	871.19
308.651	863.19
308.881	873.19
309.111	854.19
309.341	830.19
309.571	845.19
309.8	825.19
310.03	824.19
310.26	835.19
310.49	832.19
310.72	896.19
310.949	892.19
311.179	884.19
311.409	866.19
311.639	849.19
311.868	845.19
312.098	865.19
312.328	857.19
312.557	861.19
312.787	867.19
313.017	878.19
313.246	880.19
313.476	872.19
313.706	879.19
313.935	875.19
314.165	915.19
314.394	967.19
314.624	959.19
314.853	1076.19
315.083	1063.19
315.312	1078.19
315.542	997.19
315.771	895.19
316.001	912.19
316.23	972.19
316.46	965.19
316.689	933.19
316.919	909.19
317.148	866.19
317.377	910.19
317.607	958.19
317.836	1061.19
318.065	1112.19
318.295	1034.19
318.524	987.19
318.753	982.19
318.983	959.19
319.212	936.19
319.441	924.19
319.67	950.19
319.9	952.19
320.129	1005.19
320.358	1032.19
320.587	1067.19
320.816	1049.19
321.046	1033.19
321.275	978.19
321.504	978.19
321.733	1058.19
321.962	999.19
322.191	949.19
322.42	934.19
322.649	951.19
322.878	922.19
323.108	940.19
323.337	996.19
323.566	968.19
323.795	967.19
324.024	972.19
324.253	942.19
324.482	932.19
324.71	924.19
324.939	884.19
325.168	930.19
325.397	949.19
325.626	973.19
325.855	976.19
326.084	931.19
326.313	939.19
326.542	952.19
326.77	975.19
326.999	957.19
327.228	928.19
327.457	887.19
327.686	888.19
327.914	904.19
328.143	921.19
328.372	953.19
328.6	946.19
328.829	927.19
329.058	918.19
329.287	925.19
329.515	940.19
329.744	968.19
329.972	1024.19
330.201	1043.19
330.43	1034.19
330.658	996.19
330.887	1006.19
331.115	999.19
331.344	986.19
331.572	991.19
331.801	973.19
332.03	998.19
332.258	992.19
332.486	984.19
332.715	1049.19
332.943	1040.19
333.172	1019.19
333.4	988.19
333.629	1025.19
333.857	1126.19
334.085	1232.19
334.314	1378.19
334.542	1460.19
334.771	1342.19
334.999	1160.19
335.227	1072.19
335.455	1043.19
335.684	1056.19
335.912	1075.19
336.14	1143.19
336.369	1065.19
336.597	1014.19
336.825	1003.19
337.053	1056.19
337.281	1102.19
337.51	1176.19
337.738	1179.19
337.966	1112.19
338.194	1007.19
338.422	1001.19
338.65	969.19
338.878	971.19
339.106	925.19
339.334	946.19
339.562	919.19
339.79	970.19
340.018	1028.19
340.246	1062.19
340.474	1039.19
340.702	1042.19
340.93	1038.19
341.158	992.19
341.386	1001.19
341.614	981.19
341.842	990.19
342.07	1001.19
342.298	1001.19
342.526	1008.19
342.754	981.19
342.981	1018.19
343.209	985.19
343.437	997.19
343.665	980.19
343.893	1004.19
344.12	1050.19
344.348	1064.19
344.576	1011.19
344.804	999.19
345.031	987.19
345.259	1000.19
345.487	941.19
345.714	915.19
345.942	913.19
346.17	931.19
346.397	934.19
346.625	929.19
346.853	880.19
347.08	900.19
347.308	912.19
347.535	940.19
347.763	973.19
347.99	948.19
348.218	910.19
348.445	914.19
348.673	946.19
348.9	953.19
349.128	1000.19
349.355	1010.19
349.583	984.19
349.81	960.19
350.037	926.19
350.265	884.19
350.492	852.19
350.72	937.19
350.947	973.19
351.174	975.19
351.402	898.19
351.629	867.19
351.856	873.19
352.083	875.19
352.311	906.19
352.538	906.19
352.765	966.19
352.992	947.19
353.22	935.19
353.447	890.19
353.674	939.19
353.901	926.19
354.128	913.19
354.355	920.19
354.583	970.19
354.81	954.19
355.037	965.19
355.264	951.19
355.491	954.19
355.718	950.19
355.945	913.19
356.172	908.19
356.399	856.19
356.626	932.19
356.853	952.19
357.08	1068.19
357.307	1128.19
357.534	1071.19
357.761	935.19
357.988	906.19
358.215	876.19
358.441	897.19
358.668	876.19
358.895	904.19
359.122	964.19
359.349	1039.19
359.576	1051.19
359.802	964.19
360.029	912.19
360.256	904.19
360.483	912.19
360.709	971.19
360.936	965.19
361.163	1029.19
361.39	1127.19
361.616	1154.19
361.843	1146.19
362.07	1082.19
362.296	977.19
362.523	906.19
362.749	922.19
362.976	933.19
363.203	956.19
363.429	914.19
363.656	910.19
363.882	942.19
364.109	1079.19
364.335	1104.19
364.562	1078.19
364.788	959.19
365.015	952.19
365.241	910.19
365.468	952.19
365.694	1012.19
365.92	1003.19
366.147	951.19
366.373	903.19
366.599	902.19
366.826	915.19
367.052	888.19
367.278	933.19
367.505	991.19
367.731	971.19
367.957	944.19
368.184	998.19
368.41	1074.19
368.636	1048.19
368.862	1073.19
369.089	1076.19
369.315	1012.19
369.541	986.19
369.767	971.19
369.993	937.19
370.219	932.19
370.445	970.19
370.672	1050.19
370.898	1074.19
371.124	1040.19
371.35	974.19
371.576	1056.19
371.802	1061.19
372.028	979.19
372.254	988.19
372.48	950.19
372.706	939.19
372.932	950.19
373.158	928.19
373.384	976.19
373.61	1018.19
373.835	1061.19
374.061	1010.19
374.287	1001.19
374.513	1001.19
374.739	996.19
374.965	1007.19
375.191	1043.19
375.416	1033.19
375.642	1031.19
375.868	1111.19
376.094	1105.19
376.319	1084.19
376.545	1026.19
376.771	1068.19
376.997	1089.19
377.222	1054.19
377.448	1016.19
377.674	1048.19
377.899	1039.19
378.125	1139.19
378.35	1076.19
378.576	990.19
378.802	968.19
379.027	970.19
379.253	984.19
379.478	983.19
379.704	1024.19
379.929	1023.19
380.155	1011.19
380.38	1028.19
380.606	1025.19
380.831	1052.19
381.057	1065.19
381.282	1064.19
381.507	1065.19
381.733	1107.19
381.958	1143.19
382.184	1060.19
382.409	1034.19
382.634	1023.19
382.86	1067.19
383.085	1020.19
383.31	1084.19
383.535	1190.19
383.761	1232.19
383.986	1131.19
384.211	1122.19
384.436	1126.19
384.662	1195.19
384.887	1194.19
385.112	1127.19
385.337	1126.19
385.562	1143.19
385.787	1144.19
386.013	1179.19
386.238	1180.19
386.463	1187.19
386.688	1251.19
386.913	1313.19
387.138	1260.19
387.363	1181.19
387.588	1172.19
387.813	1186.19
388.038	1188.19
388.263	1250.19
388.488	1174.19
388.713	1087.19
388.938	1104.19
389.163	1105.19
389.387	1119.19
389.612	1131.19
389.837	1170.19
390.062	1169.19
390.287	1159.19
390.512	1146.19
390.736	1122.19
390.961	1140.19
391.186	1101.19
391.411	1103.19
391.636	1099.19
391.86	1103.19
392.085	1149.19
392.31	1142.19
392.534	1124.19
392.759	1162.19
392.984	1128.19
393.208	1144.19
393.433	1191.19
393.658	1232.19
393.882	1204.19
394.107	1184.19
394.331	1159.19
394.556	1144.19
394.78	1176.19
395.005	1200.19
395.229	1246.19
395.454	1308.19
395.678	1317.19
395.903	1250.19
396.127	1210.19
396.352	1227.19
396.576	1267.19
396.801	1254.19
397.025	1242.19
397.249	1227.19
397.474	1255.19
397.698	1251.19
397.922	1299.19
398.147	1326.19
398.371	1374.19
398.595	1378.19
398.82	1316.19
399.044	1340.19
399.268	1422.19
399.492	1455.19
399.717	1475.19
399.941	1483.19
400.165	1478.19
400.389	1436.19
400.613	1456.19
400.837	1674.19
401.062	1811.19
401.286	1550.19
401.51	1450.19
401.734	1483.19
401.958	1417.19
402.182	1358.19
402.406	1304.19
402.63	1292.19
402.854	1305.19
403.078	1293.19
403.302	1317.19
403.526	1386.19
403.75	1346.19
403.974	1391.19
404.198	1405.19
404.422	1423.19
404.645	1479.19
404.869	1452.19
405.093	1338.19
405.317	1334.19
405.541	1340.19
405.765	1400.19
405.988	1379.19
406.212	1408.19
406.436	1408.19
406.66	1472.19
406.883	1494.19
407.107	1689.19
407.331	1837.19
407.555	1957.19
407.778	1710.19
408.002	1482.19
408.226	1423.19
408.449	1437.19
408.673	1352.19
408.896	1396.19
409.12	1441.19
409.344	1400.19
409.567	1338.19
409.791	1381.19
410.014	1404.19
410.238	1461.19
410.461	1558.19
410.685	1369.19
410.908	1369.19
411.132	1351.19
411.355	1366.19
411.578	1327.19
411.802	1358.19
412.025	1356.19
412.249	1359.19
412.472	1316.19
412.695	1328.19
412.919	1321.19
413.142	1340.19
413.365	1332.19
413.589	1380.19
413.812	1424.19
414.035	1434.19
414.258	1392.19
414.482	1340.19
414.705	1348.19
414.928	1307.19
415.151	1339.19
415.374	1308.19
415.597	1372.19
415.821	1366.19
416.044	1385.19
416.267	1345.19
416.49	1282.19
416.713	1285.19
416.936	1319.19
417.159	1372.19
417.382	1368.19
417.605	1309.19
417.828	1335.19
418.051	1349.19
418.274	1312.19
418.497	1306.19
418.72	1299.19
418.943	1240.19
419.166	1342.19
419.389	1371.19
419.611	1323.19
419.834	1321.19
420.057	1308.19
420.28	1315.19
420.503	1346.19
420.726	1346.19
420.948	1325.19
421.171	1295.19
421.394	1309.19
421.617	1355.19
421.839	1347.19
422.062	1317.19
422.285	1298.19
422.507	1292.19
422.73	1267.19
422.953	1227.19
423.175	1251.19
423.398	1330.19
423.621	1284.19
423.843	1308.19
424.066	1340.19
424.288	1428.19
424.511	1416.19
424.733	1383.19
424.956	1264.19
425.178	1252.19
425.401	1246.19
425.623	1280.19
425.846	1276.19
426.068	1352.19
426.291	1362.19
426.513	1357.19
426.735	1338.19
426.958	1462.19
427.18	1498.19
427.402	1398.19
427.625	1434.19
427.847	1387.19
428.069	1302.19
428.292	1293.19
428.514	1241.19
428.736	1248.19
428.958	1272.19
429.181	1304.19
429.403	1496.19
429.625	1780.19
429.847	1482.19
430.069	1334.19
430.292	1478.19
430.514	1452.19
430.736	1381.19
430.958	1389.19
431.18	1267.19
431.402	1232.19
431.624	1188.19
431.846	1191.19
432.068	1118.19
432.29	1172.19
432.512	1205.19
432.734	1248.19
432.956	1264.19
433.178	1340.19
433.4	1315.19
433.622	1323.19
433.844	1258.19
434.066	1211.19
434.287	1183.19
434.509	1192.19
434.731	1304.19
434.953	1373.19
435.175	1331.19
435.397	1303.19
435.618	1294.19
435.84	1259.19
436.062	1245.19
436.284	1282.19
436.505	1293.19
436.727	1318.19
436.949	1270.19
437.17	1240.19
437.392	1238.19
437.614	1206.19
437.835	1186.19
438.057	1245.19
438.278	1292.19
438.5	1224.19
438.721	1225.19
438.943	1222.19
439.165	1232.19
439.386	1246.19
439.608	1250.19
439.829	1267.19
440.05	1281.19
440.272	1256.19
440.493	1239.19
440.715	1266.19
440.936	1366.19
441.158	1436.19
441.379	1406.19
441.6	1363.19
441.822	1349.19
442.043	1312.19
442.264	1369.19
442.486	1286.19
442.707	1290.19
442.928	1277.19
443.149	1284.19
443.371	1354.19
443.592	1405.19
443.813	1386.19
444.034	1348.19
444.255	1368.19
444.476	1356.19
444.698	1400.19
444.919	1376.19
445.14	1493.19
445.361	1436.19
445.582	1454.19
445.803	1426.19
446.024	1374.19
446.245	1434.19
446.466	1371.19
446.687	1326.19
446.908	1350.19
447.129	1313.19
447.35	1337.19
447.571	1296.19
447.792	1292.19
448.013	1252.19
448.234	1270.19
448.455	1323.19
448.675	1316.19
448.896	1228.19
449.117	1191.19
449.338	1225.19
449.559	1262.19
449.779	1333.19
450	1438.19
450.221	1527.19
450.442	1444.19
450.662	1301.19
450.883	1208.19
451.104	1181.19
451.324	1198.19
451.545	1227.19
451.766	1198.19
451.986	1134.19
452.207	1117.19
452.428	1115.19
452.648	1080.19
452.869	1142.19
453.089	1174.19
453.31	1177.19
453.53	1166.19
453.751	1138.19
453.971	1072.19
454.192	1101.19
454.412	1159.19
454.633	1144.19
454.853	1124.19
455.073	1088.19
455.294	1084.19
455.514	1107.19
455.734	1083.19
455.955	1087.19
456.175	1059.19
456.395	1018.19
456.616	1084.19
456.836	1113.19
457.056	1113.19
457.276	1099.19
457.497	1049.19
457.717	1034.19
457.937	1054.19
458.157	1065.19
458.377	1072.19
458.598	1054.19
458.818	1075.19
459.038	1163.19
459.258	1206.19
459.478	1142.19
459.698	1125.19
459.918	1156.19
460.138	1243.19
460.358	1251.19
460.578	1275.19
460.798	1319.19
461.018	1355.19
461.238	1310.19
461.458	1318.19
461.678	1273.19
461.898	1249.19
462.118	1209.19
462.338	1257.19
462.558	1257.19
462.777	1265.19
462.997	1352.19
463.217	1370.19
463.437	1365.19
463.657	1263.19
463.876	1286.19
464.096	1279.19
464.316	1285.19
464.536	1318.19
464.755	1334.19
464.975	1271.19
465.195	1242.19
465.414	1324.19
465.634	1299.19
465.854	1285.19
466.073	1428.19
466.293	1343.19
466.512	1220.19
466.732	1261.19
466.951	1289.19
467.171	1241.19
467.391	1213.19
467.61	1185.19
467.829	1238.19
468.049	1339.19
468.268	1460.19
468.488	1322.19
468.707	1263.19
468.927	1231.19
469.146	1213.19
469.365	1216.19
469.585	1246.19
469.804	1234.19
470.023	1253.19
470.243	1246.19
470.462	1241.19
470.681	1216.19
470.901	1228.19
471.12	1275.19
471.339	1279.19
471.558	1227.19
471.777	1204.19
471.997	1226.19
472.216	1190.19
472.435	1124.19
472.654	1122.19
472.873	1180.19
473.092	1251.19
473.311	1220.19
473.53	1131.19
473.749	1102.19
473.968	1181.19
474.187	1239.19
474.406	1236.19
474.625	1220.19
474.844	1235.19
475.063	1237.19
475.282	1233.19
475.501	1194.19
475.72	1199.19
475.939	1295.19
476.158	1248.19
476.377	1194.19
476.596	1216.19
476.814	1228.19
477.033	1221.19
477.252	1281.19
477.471	1290.19
477.69	1301.19
477.908	1322.19
478.127	1342.19
478.346	1399.19
478.564	1431.19
478.783	1420.19
479.002	1491.19
479.22	1437.19
479.439	1460.19
479.658	1600.19
479.876	1536.19
480.095	1384.19
480.313	1367.19
480.532	1294.19
480.751	1314.19
480.969	1311.19
481.188	1272.19
481.406	1267.19
481.624	1225.19
481.843	1250.19
482.061	1295.19
482.28	1318.19
482.498	1341.19
482.717	1282.19
482.935	1334.19
483.153	1351.19
483.372	1381.19
483.59	1343.19
483.808	1351.19
484.027	1406.19
484.245	1446.19
484.463	1702.19
484.681	1885.19
484.9	1481.19
485.118	1364.19
485.336	1320.19
485.554	1391.19
485.772	1410.19
485.99	1364.19
486.209	1424.19
486.427	1388.19
486.645	1427.19
486.863	1427.19
487.081	1461.19
487.299	1487.19
487.517	1461.19
487.735	1466.19
487.953	1489.19
488.171	1507.19
488.389	1476.19
488.607	1478.19
488.825	1614.19
489.043	1548.19
489.261	1435.19
489.479	1512.19
489.696	1453.19
489.914	1496.19
490.132	1452.19
490.35	1455.19
490.568	1603.19
490.786	1528.19
491.003	1509.19
491.221	1572.19
491.439	1594.19
491.657	1609.19
491.874	1644.19
492.092	1695.19
492.31	1725.19
492.527	1679.19
492.745	1599.19
492.963	1628.19
493.18	1606.19
493.398	1730.19
