Data from WStandard_LampEnergy10_LIBS07252019.E.O._I.C._HRD10591_15-55-01-928.txt Node
Date: Thu Jul 25 15:55:01 EDT 2019
User: cochatt
Spectrometer: HR+D1059
Trigger mode: 1
Integration Time (sec): 1.000000E-1
Scans to average: 1
Electric dark correction enabled: true
Nonlinearity correction enabled: false
Boxcar width: 0
XAxis mode: Wavelengths
Number of Pixels in Spectrum: 2048
>>>>>Begin Spectral Data<<<<<
223.165	-13.38
223.4	-13.38
223.635	-13.38
223.869	-18.38
224.104	-18.38
224.338	-11.38
224.573	-12.38
224.808	-21.38
225.042	-15.38
225.277	-12.38
225.511	1.62
225.746	0.62
225.98	13.62
226.215	20.62
226.449	19.62
226.683	16.62
226.918	20.62
227.152	29.62
227.387	23.62
227.621	39.62
227.856	40.62
228.09	49.62
228.324	35.62
228.559	53.62
228.793	92.62
229.027	146.62
229.262	143.62
229.496	125.62
229.73	135.62
229.964	161.62
230.199	163.62
230.433	185.62
230.667	171.62
230.901	189.62
231.136	160.62
231.37	178.62
231.604	171.62
231.838	166.62
232.072	171.62
232.306	175.62
232.541	182.62
232.775	204.62
233.009	207.62
233.243	198.62
233.477	203.62
233.711	197.62
233.945	206.62
234.179	200.62
234.413	196.62
234.647	208.62
234.881	199.62
235.115	205.62
235.349	200.62
235.583	199.62
235.817	199.62
236.051	189.62
236.285	202.62
236.519	203.62
236.753	229.62
236.987	241.62
237.221	219.62
237.455	244.62
237.689	219.62
237.922	217.62
238.156	229.62
238.39	223.62
238.624	243.62
238.858	235.62
239.091	233.62
239.325	263.62
239.559	293.62
239.793	296.62
240.027	303.62
240.26	308.62
240.494	227.62
240.728	232.62
240.961	247.62
241.195	240.62
241.429	268.62
241.662	249.62
241.896	237.62
242.13	254.62
242.363	284.62
242.597	287.62
242.83	267.62
243.064	277.62
243.298	296.62
243.531	279.62
243.765	275.62
243.998	273.62
244.232	256.62
244.465	243.62
244.699	268.62
244.932	303.62
245.166	297.62
245.399	287.62
245.633	268.62
245.866	266.62
246.099	290.62
246.333	296.62
246.566	314.62
246.8	339.62
247.033	352.62
247.266	318.62
247.5	308.62
247.733	318.62
247.966	323.62
248.2	373.62
248.433	355.62
248.666	367.62
248.899	412.62
249.133	448.62
249.366	467.62
249.599	392.62
249.832	368.62
250.066	385.62
250.299	371.62
250.532	357.62
250.765	329.62
250.998	341.62
251.231	360.62
251.465	370.62
251.698	340.62
251.931	337.62
252.164	328.62
252.397	385.62
252.63	346.62
252.863	353.62
253.096	336.62
253.329	340.62
253.562	343.62
253.795	366.62
254.028	370.62
254.261	363.62
254.494	343.62
254.727	330.62
254.96	357.62
255.193	391.62
255.426	430.62
255.659	437.62
255.892	424.62
256.124	398.62
256.357	394.62
256.59	412.62
256.823	416.62
257.056	423.62
257.289	475.62
257.521	472.62
257.754	463.62
257.987	447.62
258.22	494.62
258.452	452.62
258.685	402.62
258.918	396.62
259.151	385.62
259.383	381.62
259.616	345.62
259.849	377.62
260.081	435.62
260.314	447.62
260.547	479.62
260.779	474.62
261.012	447.62
261.244	403.62
261.477	391.62
261.71	394.62
261.942	404.62
262.175	400.62
262.407	408.62
262.64	385.62
262.872	376.62
263.105	371.62
263.337	386.62
263.57	382.62
263.802	351.62
264.035	351.62
264.267	344.62
264.499	337.62
264.732	373.62
264.964	391.62
265.197	405.62
265.429	422.62
265.661	455.62
265.894	491.62
266.126	491.62
266.358	473.62
266.591	471.62
266.823	489.62
267.055	460.62
267.287	448.62
267.52	444.62
267.752	444.62
267.984	444.62
268.216	462.62
268.448	496.62
268.681	451.62
268.913	420.62
269.145	411.62
269.377	416.62
269.609	456.62
269.841	532.62
270.073	597.62
270.306	617.62
270.538	631.62
270.77	525.62
271.002	502.62
271.234	457.62
271.466	499.62
271.698	555.62
271.93	625.62
272.162	595.62
272.394	525.62
272.626	498.62
272.858	449.62
273.09	418.62
273.322	412.62
273.553	393.62
273.785	414.62
274.017	417.62
274.249	452.62
274.481	443.62
274.713	411.62
274.945	436.62
275.176	413.62
275.408	413.62
275.64	396.62
275.872	396.62
276.104	430.62
276.335	487.62
276.567	515.62
276.799	543.62
277.031	503.62
277.262	478.62
277.494	503.62
277.726	531.62
277.957	497.62
278.189	492.62
278.421	457.62
278.652	420.62
278.884	421.62
279.115	431.62
279.347	455.62
279.579	445.62
279.81	463.62
280.042	470.62
280.273	512.62
280.505	529.62
280.736	510.62
280.968	501.62
281.199	457.62
281.431	435.62
281.662	420.62
281.894	431.62
282.125	429.62
282.356	462.62
282.588	455.62
282.819	467.62
283.051	492.62
283.282	517.62
283.513	499.62
283.745	457.62
283.976	422.62
284.207	427.62
284.439	440.62
284.67	450.62
284.901	460.62
285.132	456.62
285.364	450.62
285.595	453.62
285.826	458.62
286.057	445.62
286.288	456.62
286.52	467.62
286.751	509.62
286.982	503.62
287.213	475.62
287.444	427.62
287.675	446.62
287.906	496.62
288.138	507.62
288.369	475.62
288.6	446.62
288.831	412.62
289.062	446.62
289.293	439.62
289.524	474.62
289.755	461.62
289.986	454.62
290.217	437.62
290.448	462.62
290.679	443.62
290.91	471.62
291.141	478.62
291.371	501.62
291.602	511.62
291.833	495.62
292.064	504.62
292.295	511.62
292.526	521.62
292.757	526.62
292.987	460.62
293.218	473.62
293.449	535.62
293.68	573.62
293.91	608.62
294.141	564.62
294.372	536.62
294.603	557.62
294.833	592.62
295.064	556.62
295.295	479.62
295.525	485.62
295.756	455.62
295.987	434.62
296.217	452.62
296.448	446.62
296.679	454.62
296.909	452.62
297.14	442.62
297.37	479.62
297.601	522.62
297.831	556.62
298.062	535.62
298.292	486.62
298.523	449.62
298.753	492.62
298.984	505.62
299.214	480.62
299.445	509.62
299.675	517.62
299.905	490.62
300.136	484.62
300.366	476.62
300.597	467.62
300.827	475.62
301.057	497.62
301.288	519.62
301.518	515.62
301.748	533.62
301.979	558.62
302.209	569.62
302.439	591.62
302.669	609.62
302.9	553.62
303.13	514.62
303.36	515.62
303.59	546.62
303.82	516.62
304.051	532.62
304.281	509.62
304.511	523.62
304.741	593.62
304.971	650.62
305.201	647.62
305.431	577.62
305.661	505.62
305.891	464.62
306.121	451.62
306.352	484.62
306.582	535.62
306.812	538.62
307.042	575.62
307.272	578.62
307.502	613.62
307.731	630.62
307.961	661.62
308.191	582.62
308.421	539.62
308.651	507.62
308.881	497.62
309.111	480.62
309.341	498.62
309.571	525.62
309.8	492.62
310.03	492.62
310.26	496.62
310.49	493.62
310.72	508.62
310.949	520.62
311.179	522.62
311.409	525.62
311.639	494.62
311.868	508.62
312.098	511.62
312.328	517.62
312.557	493.62
312.787	535.62
313.017	527.62
313.246	536.62
313.476	526.62
313.706	531.62
313.935	525.62
314.165	557.62
314.394	569.62
314.624	602.62
314.853	622.62
315.083	651.62
315.312	634.62
315.542	594.62
315.771	547.62
316.001	550.62
316.23	559.62
316.46	581.62
316.689	538.62
316.919	521.62
317.148	517.62
317.377	564.62
317.607	613.62
317.836	660.62
318.065	650.62
318.295	617.62
318.524	627.62
318.753	596.62
318.983	583.62
319.212	567.62
319.441	552.62
319.67	536.62
319.9	604.62
320.129	633.62
320.358	607.62
320.587	631.62
320.816	625.62
321.046	615.62
321.275	595.62
321.504	634.62
321.733	643.62
321.962	623.62
322.191	560.62
322.42	568.62
322.649	545.62
322.878	557.62
323.108	600.62
323.337	586.62
323.566	581.62
323.795	589.62
324.024	580.62
324.253	573.62
324.482	572.62
324.71	536.62
324.939	531.62
325.168	558.62
325.397	573.62
325.626	556.62
325.855	577.62
326.084	558.62
326.313	567.62
326.542	580.62
326.77	604.62
326.999	588.62
327.228	551.62
327.457	547.62
327.686	526.62
327.914	556.62
328.143	557.62
328.372	556.62
328.6	563.62
328.829	574.62
329.058	547.62
329.287	539.62
329.515	582.62
329.744	592.62
329.972	596.62
330.201	609.62
330.43	630.62
330.658	592.62
330.887	605.62
331.115	592.62
331.344	622.62
331.572	577.62
331.801	585.62
332.03	585.62
332.258	572.62
332.486	609.62
332.715	618.62
332.943	607.62
333.172	607.62
333.4	596.62
333.629	634.62
333.857	678.62
334.085	773.62
334.314	840.62
334.542	852.62
334.771	791.62
334.999	692.62
335.227	659.62
335.455	653.62
335.684	626.62
335.912	663.62
336.14	661.62
336.369	646.62
336.597	603.62
336.825	612.62
337.053	644.62
337.281	660.62
337.51	700.62
337.738	723.62
337.966	655.62
338.194	595.62
338.422	603.62
338.65	595.62
338.878	588.62
339.106	568.62
339.334	564.62
339.562	575.62
339.79	603.62
340.018	628.62
340.246	645.62
340.474	622.62
340.702	619.62
340.93	621.62
341.158	614.62
341.386	625.62
341.614	615.62
341.842	621.62
342.07	594.62
342.298	603.62
342.526	613.62
342.754	614.62
342.981	613.62
343.209	588.62
343.437	582.62
343.665	597.62
343.893	635.62
344.12	639.62
344.348	649.62
344.576	627.62
344.804	604.62
345.031	593.62
345.259	574.62
345.487	588.62
345.714	581.62
345.942	563.62
346.17	554.62
346.397	571.62
346.625	581.62
346.853	570.62
347.08	549.62
347.308	555.62
347.535	567.62
347.763	574.62
347.99	575.62
348.218	557.62
348.445	574.62
348.673	591.62
348.9	586.62
349.128	621.62
349.355	633.62
349.583	584.62
349.81	587.62
350.037	527.62
350.265	546.62
350.492	557.62
350.72	561.62
350.947	593.62
351.174	602.62
351.402	543.62
351.629	520.62
351.856	520.62
352.083	509.62
352.311	566.62
352.538	553.62
352.765	583.62
352.992	594.62
353.22	583.62
353.447	569.62
353.674	569.62
353.901	552.62
354.128	563.62
354.355	572.62
354.583	593.62
354.81	585.62
355.037	577.62
355.264	594.62
355.491	568.62
355.718	537.62
355.945	569.62
356.172	544.62
356.399	563.62
356.626	550.62
356.853	592.62
357.08	655.62
357.307	691.62
357.534	683.62
357.761	592.62
357.988	559.62
358.215	519.62
358.441	547.62
358.668	561.62
358.895	553.62
359.122	619.62
359.349	657.62
359.576	625.62
359.802	556.62
360.029	575.62
360.256	541.62
360.483	569.62
360.709	578.62
360.936	595.62
361.163	637.62
361.39	701.62
361.616	733.62
361.843	717.62
362.07	635.62
362.296	585.62
362.523	565.62
362.749	598.62
362.976	585.62
363.203	586.62
363.429	595.62
363.656	555.62
363.882	606.62
364.109	682.62
364.335	699.62
364.562	619.62
364.788	589.62
365.015	577.62
365.241	584.62
365.468	604.62
365.694	602.62
365.92	608.62
366.147	595.62
366.373	562.62
366.599	542.62
366.826	576.62
367.052	583.62
367.278	570.62
367.505	595.62
367.731	625.62
367.957	629.62
368.184	652.62
368.41	669.62
368.636	685.62
368.862	665.62
369.089	653.62
369.315	639.62
369.541	600.62
369.767	573.62
369.993	576.62
370.219	597.62
370.445	611.62
370.672	651.62
370.898	691.62
371.124	663.62
371.35	623.62
371.576	642.62
371.802	663.62
372.028	621.62
372.254	621.62
372.48	615.62
372.706	614.62
372.932	621.62
373.158	615.62
373.384	633.62
373.61	647.62
373.835	671.62
374.061	647.62
374.287	631.62
374.513	644.62
374.739	658.62
374.965	615.62
375.191	640.62
375.416	637.62
375.642	663.62
375.868	691.62
376.094	723.62
376.319	674.62
376.545	681.62
376.771	661.62
376.997	717.62
377.222	685.62
377.448	668.62
377.674	669.62
377.899	681.62
378.125	739.62
378.35	712.62
378.576	633.62
378.802	622.62
379.027	630.62
379.253	607.62
379.478	639.62
379.704	644.62
379.929	664.62
380.155	646.62
380.38	638.62
380.606	652.62
380.831	687.62
381.057	708.62
381.282	700.62
381.507	703.62
381.733	753.62
381.958	731.62
382.184	657.62
382.409	671.62
382.634	686.62
382.86	710.62
383.085	676.62
383.31	737.62
383.535	776.62
383.761	808.62
383.986	775.62
384.211	743.62
384.436	753.62
384.662	768.62
384.887	763.62
385.112	735.62
385.337	751.62
385.562	767.62
385.787	750.62
386.013	757.62
386.238	772.62
386.463	769.62
386.688	839.62
386.913	860.62
387.138	813.62
387.363	768.62
387.588	742.62
387.813	753.62
388.038	789.62
388.263	799.62
388.488	782.62
388.713	727.62
388.938	732.62
389.163	767.62
389.387	739.62
389.612	751.62
389.837	780.62
390.062	755.62
390.287	763.62
390.512	768.62
390.736	758.62
390.961	722.62
391.186	735.62
391.411	748.62
391.636	764.62
391.86	744.62
392.085	749.62
392.31	801.62
392.534	764.62
392.759	769.62
392.984	754.62
393.208	781.62
393.433	791.62
393.658	837.62
393.882	826.62
394.107	778.62
394.331	763.62
394.556	785.62
394.78	792.62
395.005	819.62
395.229	840.62
395.454	889.62
395.678	857.62
395.903	835.62
396.127	815.62
396.352	820.62
396.576	827.62
396.801	867.62
397.025	849.62
397.249	835.62
397.474	823.62
397.698	831.62
397.922	881.62
398.147	889.62
398.371	940.62
398.595	915.62
398.82	886.62
399.044	872.62
399.268	952.62
399.492	987.62
399.717	993.62
399.941	993.62
400.165	997.62
400.389	983.62
400.613	973.62
400.837	1139.62
401.062	1203.62
401.286	1008.62
401.51	979.62
401.734	989.62
401.958	950.62
402.182	911.62
402.406	877.62
402.63	871.62
402.854	893.62
403.078	899.62
403.302	883.62
403.526	930.62
403.75	947.62
403.974	940.62
404.198	943.62
404.422	1000.62
404.645	1019.62
404.869	980.62
405.093	923.62
405.317	908.62
405.541	934.62
405.765	945.62
405.988	919.62
406.212	956.62
406.436	965.62
406.66	1003.62
406.883	1008.62
407.107	1149.62
407.331	1227.62
407.555	1281.62
407.778	1146.62
408.002	1010.62
408.226	961.62
408.449	955.62
408.673	950.62
408.896	940.62
409.12	958.62
409.344	956.62
409.567	921.62
409.791	954.62
410.014	985.62
410.238	1021.62
410.461	1063.62
410.685	974.62
410.908	931.62
411.132	928.62
411.355	933.62
411.578	920.62
411.802	944.62
412.025	962.62
412.249	943.62
412.472	897.62
412.695	947.62
412.919	928.62
413.142	900.62
413.365	934.62
413.589	964.62
413.812	1029.62
414.035	986.62
414.258	936.62
414.482	953.62
414.705	931.62
414.928	915.62
415.151	915.62
415.374	927.62
415.597	953.62
415.821	956.62
416.044	949.62
416.267	939.62
416.49	924.62
416.713	935.62
416.936	940.62
417.159	968.62
417.382	973.62
417.605	917.62
417.828	937.62
418.051	968.62
418.274	955.62
418.497	923.62
418.72	906.62
418.943	942.62
419.166	951.62
419.389	987.62
419.611	915.62
419.834	935.62
420.057	937.62
420.28	941.62
420.503	968.62
420.726	965.62
420.948	936.62
421.171	947.62
421.394	946.62
421.617	961.62
421.839	1000.62
422.062	963.62
422.285	951.62
422.507	910.62
422.73	911.62
422.953	880.62
423.175	872.62
423.398	927.62
423.621	918.62
423.843	927.62
424.066	993.62
424.288	1036.62
424.511	1028.62
424.733	955.62
424.956	919.62
425.178	939.62
425.401	936.62
425.623	947.62
425.846	926.62
426.068	983.62
426.291	984.62
426.513	978.62
426.735	983.62
426.958	1037.62
427.18	1084.62
427.402	1004.62
427.625	1032.62
427.847	1005.62
428.069	923.62
428.292	926.62
428.514	901.62
428.736	904.62
428.958	923.62
429.181	949.62
429.403	1076.62
429.625	1231.62
429.847	1051.62
430.069	953.62
430.292	1049.62
430.514	1030.62
430.736	983.62
430.958	997.62
431.18	942.62
431.402	888.62
431.624	862.62
431.846	807.62
432.068	753.62
432.29	778.62
432.512	828.62
432.734	867.62
432.956	923.62
433.178	955.62
433.4	958.62
433.622	953.62
433.844	919.62
434.066	864.62
434.287	795.62
434.509	793.62
434.731	840.62
434.953	934.62
435.175	937.62
435.397	916.62
435.618	885.62
435.84	855.62
436.062	842.62
436.284	896.62
436.505	968.62
436.727	942.62
436.949	946.62
437.17	922.62
437.392	886.62
437.614	859.62
437.835	805.62
438.057	811.62
438.278	859.62
438.5	872.62
438.721	888.62
438.943	923.62
439.165	931.62
439.386	939.62
439.608	929.62
439.829	953.62
440.05	994.62
440.272	928.62
440.493	968.62
440.715	992.62
440.936	1038.62
441.158	1086.62
441.379	1040.62
441.6	1054.62
441.822	1035.62
442.043	1016.62
442.264	996.62
442.486	998.62
442.707	953.62
442.928	950.62
443.149	988.62
443.371	998.62
443.592	1010.62
443.813	979.62
444.034	1021.62
444.255	1061.62
444.476	1056.62
444.698	1039.62
444.919	1026.62
445.14	1152.62
445.361	1097.62
445.582	1093.62
445.803	1083.62
446.024	1057.62
446.245	1085.62
446.466	1049.62
446.687	1034.62
446.908	1051.62
447.129	1020.62
447.35	1048.62
447.571	999.62
447.792	959.62
448.013	955.62
448.234	948.62
448.455	1006.62
448.675	997.62
448.896	950.62
449.117	943.62
449.338	940.62
449.559	944.62
449.779	981.62
450	1035.62
450.221	1074.62
450.442	1017.62
450.662	943.62
450.883	880.62
451.104	883.62
451.324	888.62
451.545	870.62
451.766	877.62
451.986	840.62
452.207	818.62
452.428	810.62
452.648	790.62
452.869	792.62
453.089	795.62
453.31	771.62
453.53	821.62
453.751	752.62
453.971	727.62
454.192	720.62
454.412	763.62
454.633	816.62
454.853	761.62
455.073	766.62
455.294	775.62
455.514	765.62
455.734	774.62
455.955	771.62
456.175	735.62
456.395	720.62
456.616	751.62
456.836	734.62
457.056	733.62
457.276	741.62
457.497	703.62
457.717	678.62
457.937	680.62
458.157	738.62
458.377	695.62
458.598	677.62
458.818	687.62
459.038	711.62
459.258	726.62
459.478	716.62
459.698	698.62
459.918	761.62
460.138	807.62
460.358	817.62
460.578	851.62
460.798	861.62
461.018	914.62
461.238	871.62
461.458	896.62
461.678	839.62
461.898	833.62
462.118	827.62
462.338	839.62
462.558	872.62
462.777	862.62
462.997	891.62
463.217	911.62
463.437	884.62
463.657	841.62
463.876	847.62
464.096	833.62
464.316	871.62
464.536	884.62
464.755	891.62
464.975	897.62
465.195	864.62
465.414	875.62
465.634	893.62
465.854	913.62
466.073	970.62
466.293	927.62
466.512	862.62
466.732	898.62
466.951	903.62
467.171	896.62
467.391	897.62
467.61	900.62
467.829	886.62
468.049	998.62
468.268	1028.62
468.488	987.62
468.707	943.62
468.927	910.62
469.146	911.62
469.365	910.62
469.585	935.62
469.804	924.62
470.023	945.62
470.243	939.62
470.462	938.62
470.681	936.62
470.901	916.62
471.12	917.62
471.339	957.62
471.558	943.62
471.777	919.62
471.997	888.62
472.216	859.62
472.435	781.62
472.654	770.62
472.873	795.62
473.092	860.62
473.311	838.62
473.53	841.62
473.749	823.62
473.968	841.62
474.187	852.62
474.406	864.62
474.625	866.62
474.844	901.62
475.063	889.62
475.282	876.62
475.501	849.62
475.72	829.62
475.939	926.62
476.158	917.62
476.377	897.62
476.596	843.62
476.814	838.62
477.033	809.62
477.252	858.62
477.471	910.62
477.69	943.62
477.908	949.62
478.127	1007.62
478.346	1015.62
478.564	1017.62
478.783	1007.62
479.002	1056.62
479.22	1010.62
479.439	1048.62
479.658	1072.62
479.876	1016.62
480.095	919.62
480.313	927.62
480.532	900.62
480.751	884.62
480.969	832.62
481.188	785.62
481.406	795.62
481.624	775.62
481.843	824.62
482.061	840.62
482.28	871.62
482.498	919.62
482.717	889.62
482.935	916.62
483.153	968.62
483.372	1040.62
483.59	1024.62
483.808	977.62
484.027	952.62
484.245	1011.62
484.463	1228.62
484.681	1319.62
484.9	1044.62
485.118	948.62
485.336	927.62
485.554	913.62
485.772	931.62
485.99	907.62
486.209	895.62
486.427	926.62
486.645	947.62
486.863	1039.62
487.081	1033.62
487.299	1007.62
487.517	1033.62
487.735	1119.62
487.953	1203.62
488.171	1188.62
488.389	1163.62
488.607	1105.62
488.825	1158.62
489.043	1058.62
489.261	1008.62
489.479	1038.62
489.696	1044.62
489.914	1040.62
490.132	1037.62
490.35	1100.62
490.568	1216.62
490.786	1214.62
491.003	1173.62
491.221	1259.62
491.439	1303.62
491.657	1278.62
491.874	1375.62
492.092	1431.62
492.31	1493.62
492.527	1428.62
492.745	1347.62
492.963	1339.62
493.18	1327.62
493.398	1347.62
493.615	1319.62
493.833	1293.62
494.05	1264.62
494.268	1277.62
494.485	1227.62
494.703	1249.62
494.92	1240.62
495.138	1217.62
495.355	1216.62
495.573	1295.62
495.79	1264.62
496.008	1285.62
496.225	1243.62
496.442	1248.62
496.66	1244.62
496.877	1208.62
497.094	1224.62
497.312	1233.62
497.529	1196.62
497.746	1240.62
497.963	1295.62
498.181	1289.62
498.398	1268.62
498.615	1225.62
498.832	1147.62
499.049	1135.62
499.267	1172.62
499.484	1281.62
499.701	1344.62
499.918	1376.62
500.135	1496.62
