Data from WStandard_LampEnergy5.5LIBS07252019.E.O._I.C._HRD10591_16-09-35-921.txt Node
Date: Thu Jul 25 16:09:35 EDT 2019
User: cochatt
Spectrometer: HR+D1059
Trigger mode: 1
Integration Time (sec): 1.000000E-1
Scans to average: 1
Electric dark correction enabled: true
Nonlinearity correction enabled: false
Boxcar width: 0
XAxis mode: Wavelengths
Number of Pixels in Spectrum: 2048
>>>>>Begin Spectral Data<<<<<
223.165	-17.06
223.4	-17.06
223.635	-17.06
223.869	-32.06
224.104	-11.06
224.338	-10.06
224.573	-5.06
224.808	-3.06
225.042	-1.06
225.277	2.94
225.511	-8.06
225.746	-11.06
225.98	9.94
226.215	13.94
226.449	4.94
226.683	6.94
226.918	29.94
227.152	29.94
227.387	23.94
227.621	42.94
227.856	31.94
228.09	46.94
228.324	50.94
228.559	46.94
228.793	137.94
229.027	332.94
229.262	370.94
229.496	357.94
229.73	394.94
229.964	429.94
230.199	437.94
230.433	441.94
230.667	483.94
230.901	512.94
231.136	469.94
231.37	464.94
231.604	485.94
231.838	450.94
232.072	446.94
232.306	429.94
232.541	473.94
232.775	528.94
233.009	584.94
233.243	529.94
233.477	510.94
233.711	532.94
233.945	546.94
234.179	538.94
234.413	547.94
234.647	610.94
234.881	573.94
235.115	513.94
235.349	519.94
235.583	546.94
235.817	534.94
236.051	522.94
236.285	512.94
236.519	568.94
236.753	633.94
236.987	656.94
237.221	650.94
237.455	716.94
237.689	698.94
237.922	661.94
238.156	631.94
238.39	641.94
238.624	660.94
238.858	713.94
239.091	734.94
239.325	787.94
239.559	897.94
239.793	920.94
240.027	996.94
240.26	1025.94
240.494	740.94
240.728	706.94
240.961	719.94
241.195	696.94
241.429	768.94
241.662	774.94
241.896	733.94
242.13	724.94
242.363	837.94
242.597	886.94
242.83	808.94
243.064	867.94
243.298	939.94
243.531	918.94
243.765	896.94
243.998	881.94
244.232	792.94
244.465	754.94
244.699	740.94
244.932	868.94
245.166	1016.94
245.399	936.94
245.633	884.94
245.866	858.94
246.099	910.94
246.333	906.94
246.566	934.94
246.8	964.94
247.033	1117.94
247.266	1033.94
247.5	1028.94
247.733	1048.94
247.966	1064.94
248.2	1200.94
248.433	1155.94
248.666	1153.94
248.899	1267.94
249.133	1456.94
249.366	1643.94
249.599	1388.94
249.832	1164.94
250.066	1224.94
250.299	1210.94
250.532	1150.94
250.765	1025.94
250.998	1106.94
251.231	1151.94
251.465	1197.94
251.698	1110.94
251.931	1099.94
252.164	1141.94
252.397	1209.94
252.63	1215.94
252.863	1078.94
253.096	1074.94
253.329	1107.94
253.562	1136.94
253.795	1213.94
254.028	1242.94
254.261	1145.94
254.494	1125.94
254.727	1038.94
254.96	1091.94
255.193	1223.94
255.426	1356.94
255.659	1594.94
255.892	1617.94
256.124	1314.94
256.357	1294.94
256.59	1346.94
256.823	1370.94
257.056	1328.94
257.289	1650.94
257.521	1801.94
257.754	1628.94
257.987	1547.94
258.22	1704.94
258.452	1678.94
258.685	1357.94
258.918	1328.94
259.151	1349.94
259.383	1274.94
259.616	1136.94
259.849	1186.94
260.081	1341.94
260.314	1460.94
260.547	1628.94
260.779	1657.94
261.012	1552.94
261.244	1370.94
261.477	1317.94
261.71	1370.94
261.942	1352.94
262.175	1286.94
262.407	1381.94
262.64	1320.94
262.872	1260.94
263.105	1203.94
263.337	1223.94
263.57	1241.94
263.802	1248.94
264.035	1156.94
264.267	1090.94
264.499	1126.94
264.732	1188.94
264.964	1258.94
265.197	1300.94
265.429	1312.94
265.661	1502.94
265.894	1692.94
266.126	1742.94
266.358	1536.94
266.591	1570.94
266.823	1729.94
267.055	1548.94
267.287	1544.94
267.52	1503.94
267.752	1485.94
267.984	1477.94
268.216	1556.94
268.448	1617.94
268.681	1585.94
268.913	1439.94
269.145	1364.94
269.377	1352.94
269.609	1453.94
269.841	1641.94
270.073	1956.94
270.306	2193.94
270.538	2346.94
270.77	1924.94
271.002	1677.94
271.234	1617.94
271.466	1541.94
271.698	1727.94
271.93	2101.94
272.162	2120.94
272.394	1901.94
272.626	1797.94
272.858	1614.94
273.09	1406.94
273.322	1400.94
273.553	1330.94
273.785	1343.94
274.017	1423.94
274.249	1521.94
274.481	1502.94
274.713	1388.94
274.945	1362.94
275.176	1400.94
275.408	1340.94
275.64	1333.94
275.872	1316.94
276.104	1428.94
276.335	1587.94
276.567	1765.94
276.799	1824.94
277.031	1622.94
277.262	1590.94
277.494	1597.94
277.726	1759.94
277.957	1775.94
278.189	1609.94
278.421	1493.94
278.652	1412.94
278.884	1430.94
279.115	1423.94
279.347	1485.94
279.579	1416.94
279.81	1429.94
280.042	1556.94
280.273	1721.94
280.505	1684.94
280.736	1730.94
280.968	1651.94
281.199	1462.94
281.431	1402.94
281.662	1407.94
281.894	1421.94
282.125	1444.94
282.356	1491.94
282.588	1524.94
282.819	1468.94
283.051	1624.94
283.282	1716.94
283.513	1685.94
283.745	1494.94
283.976	1353.94
284.207	1389.94
284.439	1397.94
284.67	1414.94
284.901	1466.94
285.132	1503.94
285.364	1507.94
285.595	1539.94
285.826	1485.94
286.057	1426.94
286.288	1442.94
286.52	1518.94
286.751	1635.94
286.982	1712.94
287.213	1540.94
287.444	1421.94
287.675	1419.94
287.906	1515.94
288.138	1587.94
288.369	1569.94
288.6	1484.94
288.831	1419.94
289.062	1463.94
289.293	1449.94
289.524	1423.94
289.755	1545.94
289.986	1548.94
290.217	1396.94
290.448	1412.94
290.679	1517.94
290.91	1488.94
291.141	1517.94
291.371	1587.94
291.602	1558.94
291.833	1531.94
292.064	1645.94
292.295	1547.94
292.526	1581.94
292.757	1679.94
292.987	1613.94
293.218	1514.94
293.449	1616.94
293.68	1784.94
293.91	1942.94
294.141	1810.94
294.372	1722.94
294.603	1805.94
294.833	1853.94
295.064	1782.94
295.295	1592.94
295.525	1548.94
295.756	1473.94
295.987	1384.94
296.217	1394.94
296.448	1432.94
296.679	1478.94
296.909	1486.94
297.14	1436.94
297.37	1458.94
297.601	1550.94
297.831	1651.94
298.062	1629.94
298.292	1542.94
298.523	1485.94
298.753	1466.94
298.984	1483.94
299.214	1511.94
299.445	1504.94
299.675	1548.94
299.905	1578.94
300.136	1547.94
300.366	1494.94
300.597	1430.94
300.827	1442.94
301.057	1498.94
301.288	1586.94
301.518	1594.94
301.748	1598.94
301.979	1666.94
302.209	1691.94
302.439	1794.94
302.669	1897.94
302.9	1762.94
303.13	1558.94
303.36	1616.94
303.59	1622.94
303.82	1620.94
304.051	1577.94
304.281	1608.94
304.511	1608.94
304.741	1676.94
304.971	1835.94
305.201	1985.94
305.431	1844.94
305.661	1584.94
305.891	1420.94
306.121	1396.94
306.352	1451.94
306.582	1568.94
306.812	1674.94
307.042	1758.94
307.272	1754.94
307.502	1765.94
307.731	1925.94
307.961	2015.94
308.191	1944.94
308.421	1697.94
308.651	1594.94
308.881	1532.94
309.111	1551.94
309.341	1542.94
309.571	1532.94
309.8	1554.94
310.03	1542.94
310.26	1526.94
310.49	1521.94
310.72	1580.94
310.949	1614.94
311.179	1642.94
311.409	1618.94
311.639	1558.94
311.868	1542.94
312.098	1556.94
312.328	1562.94
312.557	1539.94
312.787	1572.94
313.017	1600.94
313.246	1637.94
313.476	1593.94
313.706	1629.94
313.935	1619.94
314.165	1644.94
314.394	1682.94
314.624	1752.94
314.853	1873.94
315.083	1920.94
315.312	1995.94
315.542	1868.94
315.771	1634.94
316.001	1682.94
316.23	1722.94
316.46	1752.94
316.689	1704.94
316.919	1629.94
317.148	1588.94
317.377	1614.94
317.607	1738.94
317.836	1924.94
318.065	1960.94
318.295	1900.94
318.524	1805.94
318.753	1704.94
318.983	1724.94
319.212	1728.94
319.441	1672.94
319.67	1651.94
319.9	1684.94
320.129	1731.94
320.358	1843.94
320.587	1922.94
320.816	1909.94
321.046	1831.94
321.275	1758.94
321.504	1754.94
321.733	1850.94
321.962	1883.94
322.191	1684.94
322.42	1674.94
322.649	1698.94
322.878	1639.94
323.108	1637.94
323.337	1762.94
323.566	1754.94
323.795	1728.94
324.024	1760.94
324.253	1691.94
324.482	1704.94
324.71	1700.94
324.939	1595.94
325.168	1642.94
325.397	1666.94
325.626	1753.94
325.855	1744.94
326.084	1690.94
326.313	1676.94
326.542	1688.94
326.77	1699.94
326.999	1753.94
327.228	1697.94
327.457	1622.94
327.686	1571.94
327.914	1635.94
328.143	1657.94
328.372	1632.94
328.6	1722.94
328.829	1717.94
329.058	1672.94
329.287	1632.94
329.515	1678.94
329.744	1733.94
329.972	1822.94
330.201	1871.94
330.43	1849.94
330.658	1764.94
330.887	1777.94
331.115	1772.94
331.344	1800.94
331.572	1763.94
331.801	1795.94
332.03	1794.94
332.258	1763.94
332.486	1790.94
332.715	1818.94
332.943	1836.94
333.172	1769.94
333.4	1836.94
333.629	1878.94
333.857	1966.94
334.085	2136.94
334.314	2347.94
334.542	2605.94
334.771	2415.94
334.999	2104.94
335.227	2014.94
335.455	1966.94
335.684	1921.94
335.912	1941.94
336.14	1988.94
336.369	1935.94
336.597	1873.94
336.825	1780.94
337.053	1877.94
337.281	1967.94
337.51	2026.94
337.738	2109.94
337.966	2039.94
338.194	1836.94
338.422	1776.94
338.65	1759.94
338.878	1768.94
339.106	1736.94
339.334	1695.94
339.562	1664.94
339.79	1673.94
340.018	1782.94
340.246	1861.94
340.474	1870.94
340.702	1848.94
340.93	1860.94
341.158	1816.94
341.386	1767.94
341.614	1804.94
341.842	1774.94
342.07	1758.94
342.298	1765.94
342.526	1809.94
342.754	1777.94
342.981	1750.94
343.209	1724.94
343.437	1760.94
343.665	1753.94
343.893	1805.94
344.12	1878.94
344.348	1895.94
344.576	1866.94
344.804	1786.94
345.031	1729.94
345.259	1774.94
345.487	1692.94
345.714	1657.94
345.942	1631.94
346.17	1619.94
346.397	1672.94
346.625	1688.94
346.853	1577.94
347.08	1603.94
347.308	1572.94
347.535	1615.94
347.763	1727.94
347.99	1640.94
348.218	1564.94
348.445	1541.94
348.673	1659.94
348.9	1684.94
349.128	1723.94
349.355	1776.94
349.583	1748.94
349.81	1707.94
350.037	1550.94
350.265	1532.94
350.492	1535.94
350.72	1550.94
350.947	1635.94
351.174	1702.94
351.402	1618.94
351.629	1546.94
351.856	1529.94
352.083	1530.94
352.311	1548.94
352.538	1548.94
352.765	1641.94
352.992	1688.94
353.22	1635.94
353.447	1588.94
353.674	1605.94
353.901	1652.94
354.128	1588.94
354.355	1558.94
354.583	1656.94
354.81	1699.94
355.037	1698.94
355.264	1686.94
355.491	1660.94
355.718	1657.94
355.945	1657.94
356.172	1592.94
356.399	1550.94
356.626	1572.94
356.853	1642.94
357.08	1731.94
357.307	1904.94
357.534	1922.94
357.761	1703.94
357.988	1573.94
358.215	1522.94
358.441	1568.94
358.668	1546.94
358.895	1589.94
359.122	1629.94
359.349	1813.94
359.576	1787.94
359.802	1627.94
360.029	1550.94
360.256	1532.94
360.483	1586.94
360.709	1637.94
360.936	1687.94
361.163	1718.94
361.39	1874.94
361.616	2041.94
361.843	1997.94
362.07	1913.94
362.296	1626.94
362.523	1610.94
362.749	1614.94
362.976	1660.94
363.203	1659.94
363.429	1606.94
363.656	1564.94
363.882	1658.94
364.109	1757.94
364.335	1914.94
364.562	1772.94
364.788	1705.94
365.015	1662.94
365.241	1577.94
365.468	1602.94
365.694	1672.94
365.92	1758.94
366.147	1656.94
366.373	1568.94
366.599	1561.94
366.826	1569.94
367.052	1606.94
367.278	1630.94
367.505	1613.94
367.731	1652.94
367.957	1641.94
368.184	1638.94
368.41	1808.94
368.636	1782.94
368.862	1793.94
369.089	1825.94
369.315	1765.94
369.541	1690.94
369.767	1670.94
369.993	1610.94
370.219	1623.94
370.445	1637.94
370.672	1712.94
370.898	1820.94
371.124	1820.94
371.35	1738.94
371.576	1765.94
371.802	1854.94
372.028	1738.94
372.254	1677.94
372.48	1608.94
372.706	1602.94
372.932	1604.94
373.158	1643.94
373.384	1654.94
373.61	1712.94
373.835	1795.94
374.061	1709.94
374.287	1717.94
374.513	1722.94
374.739	1719.94
374.965	1765.94
375.191	1750.94
375.416	1793.94
375.642	1746.94
375.868	1868.94
376.094	1880.94
376.319	1829.94
376.545	1690.94
376.771	1710.94
376.997	1827.94
377.222	1819.94
377.448	1747.94
377.674	1757.94
377.899	1742.94
378.125	1837.94
378.35	1855.94
378.576	1721.94
378.802	1682.94
379.027	1645.94
379.253	1674.94
379.478	1664.94
379.704	1688.94
379.929	1690.94
380.155	1676.94
380.38	1706.94
380.606	1752.94
380.831	1690.94
381.057	1779.94
381.282	1813.94
381.507	1747.94
381.733	1812.94
381.958	1941.94
382.184	1808.94
382.409	1746.94
382.634	1831.94
382.86	1788.94
383.085	1754.94
383.31	1814.94
383.535	1937.94
383.761	2048.94
383.986	1944.94
384.211	1932.94
384.436	1883.94
384.662	1974.94
384.887	2024.94
385.112	1957.94
385.337	1930.94
385.562	1912.94
385.787	1926.94
386.013	1999.94
386.238	2016.94
386.463	1974.94
386.688	2086.94
386.913	2230.94
387.138	2136.94
387.363	2037.94
387.588	2033.94
387.813	2005.94
388.038	2012.94
388.263	2129.94
388.488	2028.94
388.713	1870.94
388.938	1875.94
389.163	1901.94
389.387	1940.94
389.612	1901.94
389.837	1952.94
390.062	1968.94
390.287	1972.94
390.512	1970.94
390.736	1942.94
390.961	1885.94
391.186	1870.94
391.411	1876.94
391.636	1920.94
391.86	1956.94
392.085	1924.94
392.31	1958.94
392.534	1949.94
392.759	1961.94
392.984	1962.94
393.208	1976.94
393.433	2025.94
393.658	2056.94
393.882	2116.94
394.107	1932.94
394.331	1947.94
394.556	1927.94
394.78	1926.94
395.005	2002.94
395.229	2056.94
395.454	2161.94
395.678	2245.94
395.903	2134.94
396.127	2079.94
396.352	2059.94
396.576	2117.94
396.801	2126.94
397.025	2084.94
397.249	2145.94
397.474	2096.94
397.698	2103.94
397.922	2182.94
398.147	2245.94
398.371	2313.94
398.595	2322.94
398.82	2195.94
399.044	2275.94
399.268	2376.94
399.492	2521.94
399.717	2635.94
399.941	2667.94
400.165	2585.94
400.389	2521.94
400.613	2452.94
400.837	2686.94
401.062	3123.94
401.286	2680.94
401.51	2404.94
401.734	2485.94
401.958	2460.94
402.182	2312.94
402.406	2243.94
402.63	2166.94
402.854	2189.94
403.078	2279.94
403.302	2303.94
403.526	2321.94
403.75	2267.94
403.974	2359.94
404.198	2333.94
404.422	2363.94
404.645	2467.94
404.869	2460.94
405.093	2283.94
405.317	2244.94
405.541	2326.94
405.765	2346.94
405.988	2320.94
406.212	2345.94
406.436	2406.94
406.66	2482.94
406.883	2454.94
407.107	2742.94
407.331	2979.94
407.555	3265.94
407.778	3026.94
408.002	2528.94
408.226	2422.94
408.449	2462.94
408.673	2369.94
408.896	2391.94
409.12	2447.94
409.344	2376.94
409.567	2293.94
409.791	2344.94
410.014	2385.94
410.238	2509.94
410.461	2638.94
410.685	2385.94
410.908	2248.94
411.132	2308.94
411.355	2293.94
411.578	2258.94
411.802	2258.94
412.025	2301.94
412.249	2220.94
412.472	2210.94
412.695	2192.94
412.919	2160.94
413.142	2228.94
413.365	2210.94
413.589	2259.94
413.812	2329.94
414.035	2418.94
414.258	2272.94
414.482	2172.94
414.705	2249.94
414.928	2187.94
415.151	2205.94
415.374	2234.94
415.597	2252.94
415.821	2270.94
416.044	2346.94
416.267	2388.94
416.49	2163.94
416.713	2120.94
416.936	2177.94
417.159	2245.94
417.382	2255.94
417.605	2128.94
417.828	2235.94
418.051	2261.94
418.274	2211.94
418.497	2086.94
418.72	2139.94
418.943	2151.94
419.166	2320.94
419.389	2392.94
419.611	2283.94
419.834	2180.94
420.057	2226.94
420.28	2120.94
420.503	2130.94
420.726	2136.94
420.948	2172.94
421.171	2074.94
421.394	2109.94
421.617	2191.94
421.839	2168.94
422.062	2129.94
422.285	2092.94
422.507	2112.94
422.73	2029.94
422.953	2018.94
423.175	2054.94
423.398	2114.94
423.621	2117.94
423.843	2146.94
424.066	2188.94
424.288	2262.94
424.511	2290.94
424.733	2202.94
424.956	2030.94
425.178	2045.94
425.401	2054.94
425.623	2039.94
425.846	2030.94
426.068	2110.94
426.291	2182.94
426.513	2164.94
426.735	2164.94
426.958	2289.94
427.18	2429.94
427.402	2233.94
427.625	2266.94
427.847	2270.94
428.069	2175.94
428.292	2094.94
428.514	2025.94
428.736	2003.94
428.958	2098.94
429.181	2088.94
429.403	2304.94
429.625	2876.94
429.847	2555.94
430.069	2113.94
430.292	2299.94
430.514	2387.94
430.736	2213.94
430.958	2308.94
431.18	2194.94
431.402	2063.94
431.624	2049.94
431.846	2052.94
432.068	2001.94
432.29	2036.94
432.512	2101.94
432.734	2086.94
432.956	2123.94
433.178	2259.94
433.4	2207.94
433.622	2178.94
433.844	2111.94
434.066	2056.94
434.287	2017.94
434.509	2100.94
434.731	2201.94
434.953	2388.94
435.175	2302.94
435.397	2226.94
435.618	2176.94
435.84	2172.94
436.062	2138.94
436.284	2150.94
436.505	2170.94
436.727	2222.94
436.949	2168.94
437.17	2090.94
437.392	2102.94
437.614	2066.94
437.835	1996.94
438.057	2168.94
438.278	2270.94
438.5	2099.94
438.721	2015.94
438.943	2049.94
439.165	2030.94
439.386	1988.94
439.608	2024.94
439.829	2064.94
440.05	2080.94
440.272	2020.94
440.493	1998.94
440.715	2045.94
440.936	2206.94
441.158	2406.94
441.379	2338.94
441.6	2260.94
441.822	2214.94
442.043	2216.94
442.264	2145.94
442.486	2047.94
442.707	2082.94
442.928	2029.94
443.149	2117.94
443.371	2222.94
443.592	2318.94
443.813	2269.94
444.034	2250.94
444.255	2235.94
444.476	2277.94
444.698	2329.94
444.919	2298.94
445.14	2384.94
445.361	2386.94
445.582	2509.94
445.803	2342.94
446.024	2235.94
446.245	2329.94
446.466	2272.94
446.687	2112.94
446.908	2112.94
447.129	2056.94
447.35	2105.94
447.571	2090.94
447.792	2044.94
448.013	1978.94
448.234	2009.94
448.455	2109.94
448.675	2150.94
448.896	1978.94
449.117	1930.94
449.338	1995.94
449.559	2081.94
449.779	2168.94
450	2417.94
450.221	2545.94
450.442	2522.94
450.662	2163.94
450.883	1951.94
451.104	1896.94
451.324	1973.94
451.545	2040.94
451.766	2009.94
451.986	1892.94
452.207	1888.94
452.428	1837.94
452.648	1815.94
452.869	1886.94
453.089	2011.94
453.31	2008.94
453.53	2046.94
453.751	1950.94
453.971	1852.94
454.192	1869.94
454.412	2063.94
454.633	1988.94
454.853	1897.94
455.073	1765.94
455.294	1772.94
455.514	1787.94
455.734	1823.94
455.955	1837.94
456.175	1823.94
456.395	1868.94
456.616	1889.94
456.836	1932.94
457.056	1859.94
457.276	1902.94
457.497	1846.94
457.717	1769.94
457.937	1798.94
458.157	1822.94
458.377	1830.94
458.598	1796.94
458.818	1810.94
459.038	1924.94
459.258	2077.94
459.478	2062.94
459.698	2023.94
459.918	2060.94
460.138	2149.94
460.358	2162.94
460.578	2189.94
460.798	2215.94
461.018	2413.94
461.238	2289.94
461.458	2166.94
461.678	2212.94
461.898	2154.94
462.118	2088.94
462.338	2193.94
462.558	2265.94
462.777	2210.94
462.997	2304.94
463.217	2450.94
463.437	2405.94
463.657	2266.94
463.876	2202.94
464.096	2162.94
464.316	2234.94
464.536	2305.94
464.755	2307.94
464.975	2328.94
465.195	2232.94
465.414	2315.94
465.634	2316.94
465.854	2184.94
466.073	2303.94
466.293	2259.94
466.512	2025.94
466.732	1998.94
466.951	2130.94
467.171	2063.94
467.391	1974.94
467.61	1957.94
467.829	1962.94
468.049	2130.94
468.268	2367.94
468.488	2206.94
468.707	2108.94
468.927	2025.94
469.146	2012.94
469.365	1970.94
469.585	2003.94
469.804	1933.94
470.023	1991.94
470.243	2036.94
470.462	1992.94
470.681	1935.94
470.901	2048.94
471.12	1988.94
471.339	1985.94
471.558	1913.94
471.777	1903.94
471.997	1944.94
472.216	1957.94
472.435	1912.94
472.654	1932.94
472.873	2018.94
473.092	2132.94
473.311	2011.94
473.53	1980.94
473.749	1875.94
473.968	1995.94
474.187	2078.94
474.406	2174.94
474.625	2056.94
474.844	2017.94
475.063	2010.94
475.282	2069.94
475.501	2029.94
475.72	2016.94
475.939	2114.94
476.158	2052.94
476.377	2022.94
476.596	2075.94
476.814	2141.94
477.033	2100.94
477.252	2216.94
477.471	2254.94
477.69	2138.94
477.908	2140.94
478.127	2242.94
478.346	2436.94
478.564	2440.94
478.783	2336.94
479.002	2466.94
479.22	2383.94
479.439	2525.94
479.658	2797.94
479.876	2830.94
480.095	2376.94
480.313	2354.94
480.532	2244.94
480.751	2278.94
480.969	2325.94
481.188	2297.94
481.406	2209.94
481.624	2206.94
481.843	2240.94
482.061	2290.94
482.28	2344.94
482.498	2369.94
482.717	2329.94
482.935	2221.94
483.153	2260.94
483.372	2267.94
483.59	2213.94
483.808	2260.94
484.027	2312.94
484.245	2423.94
484.463	2758.94
484.681	3113.94
484.9	2530.94
485.118	2349.94
485.336	2258.94
485.554	2362.94
485.772	2464.94
485.99	2436.94
486.209	2431.94
486.427	2430.94
486.645	2459.94
486.863	2389.94
487.081	2444.94
487.299	2529.94
487.517	2482.94
