Data from WStandard_LampEnergy8_LIBS07252019.E.O._I.C._HRD10591_15-59-59-929.txt Node
Date: Thu Jul 25 15:59:59 EDT 2019
User: cochatt
Spectrometer: HR+D1059
Trigger mode: 1
Integration Time (sec): 1.000000E-1
Scans to average: 1
Electric dark correction enabled: true
Nonlinearity correction enabled: false
Boxcar width: 0
XAxis mode: Wavelengths
Number of Pixels in Spectrum: 2048
>>>>>Begin Spectral Data<<<<<
223.165	-9.56
223.4	-9.56
223.635	-9.56
223.869	-20.56
224.104	-13.56
224.338	-11.56
224.573	-28.56
224.808	-18.56
225.042	-1.56
225.277	-12.56
225.511	-5.56
225.746	8.44
225.98	8.44
226.215	4.44
226.449	7.44
226.683	24.44
226.918	26.44
227.152	42.44
227.387	48.44
227.621	48.44
227.856	51.44
228.09	43.44
228.324	52.44
228.559	60.44
228.793	109.44
229.027	204.44
229.262	214.44
229.496	208.44
229.73	214.44
229.964	247.44
230.199	243.44
230.433	262.44
230.667	274.44
230.901	293.44
231.136	257.44
231.37	262.44
231.604	266.44
231.838	243.44
232.072	271.44
232.306	270.44
232.541	271.44
232.775	301.44
233.009	307.44
233.243	308.44
233.477	288.44
233.711	297.44
233.945	303.44
234.179	291.44
234.413	320.44
234.647	349.44
234.881	301.44
235.115	280.44
235.349	312.44
235.583	336.44
235.817	300.44
236.051	287.44
236.285	298.44
236.519	315.44
236.753	361.44
236.987	349.44
237.221	357.44
237.455	379.44
237.689	373.44
237.922	366.44
238.156	356.44
238.39	337.44
238.624	377.44
238.858	386.44
239.091	408.44
239.325	425.44
239.559	471.44
239.793	474.44
240.027	514.44
240.26	517.44
240.494	393.44
240.728	365.44
240.961	395.44
241.195	382.44
241.429	395.44
241.662	412.44
241.896	393.44
242.13	413.44
242.363	449.44
242.597	461.44
242.83	430.44
243.064	450.44
243.298	478.44
243.531	471.44
243.765	461.44
243.998	451.44
244.232	398.44
244.465	406.44
244.699	419.44
244.932	438.44
245.166	526.44
245.399	469.44
245.633	450.44
245.866	473.44
246.099	467.44
246.333	497.44
246.566	483.44
246.8	536.44
247.033	550.44
247.266	524.44
247.5	517.44
247.733	536.44
247.966	558.44
248.2	590.44
248.433	596.44
248.666	605.44
248.899	669.44
249.133	717.44
249.366	789.44
249.599	648.44
249.832	599.44
250.066	622.44
250.299	625.44
250.532	583.44
250.765	542.44
250.998	560.44
251.231	579.44
251.465	595.44
251.698	560.44
251.931	588.44
252.164	587.44
252.397	603.44
252.63	612.44
252.863	539.44
253.096	534.44
253.329	565.44
253.562	590.44
253.795	614.44
254.028	604.44
254.261	575.44
254.494	572.44
254.727	570.44
254.96	589.44
255.193	651.44
255.426	704.44
255.659	781.44
255.892	774.44
256.124	646.44
256.357	630.44
256.59	690.44
256.823	676.44
257.056	714.44
257.289	820.44
257.521	883.44
257.754	786.44
257.987	774.44
258.22	864.44
258.452	787.44
258.685	676.44
258.918	677.44
259.151	682.44
259.383	616.44
259.616	587.44
259.849	627.44
260.081	690.44
260.314	754.44
260.547	813.44
260.779	812.44
261.012	738.44
261.244	688.44
261.477	666.44
261.71	685.44
261.942	672.44
262.175	681.44
262.407	697.44
262.64	654.44
262.872	632.44
263.105	614.44
263.337	627.44
263.57	627.44
263.802	648.44
264.035	588.44
264.267	556.44
264.499	568.44
264.732	615.44
264.964	641.44
265.197	666.44
265.429	709.44
265.661	786.44
265.894	829.44
266.126	848.44
266.358	776.44
266.591	805.44
266.823	847.44
267.055	773.44
267.287	783.44
267.52	764.44
267.752	748.44
267.984	762.44
268.216	791.44
268.448	807.44
268.681	794.44
268.913	734.44
269.145	720.44
269.377	702.44
269.609	752.44
269.841	875.44
270.073	986.44
270.306	1072.44
270.538	1113.44
270.77	958.44
271.002	816.44
271.234	804.44
271.466	807.44
271.698	908.44
271.93	1034.44
272.162	1056.44
272.394	954.44
272.626	876.44
272.858	781.44
273.09	713.44
273.322	680.44
273.553	666.44
273.785	675.44
274.017	694.44
274.249	733.44
274.481	746.44
274.713	707.44
274.945	688.44
275.176	680.44
275.408	654.44
275.64	675.44
275.872	668.44
276.104	729.44
276.335	814.44
276.567	917.44
276.799	888.44
277.031	816.44
277.262	808.44
277.494	865.44
277.726	908.44
277.957	896.44
278.189	787.44
278.421	758.44
278.652	714.44
278.884	724.44
279.115	723.44
279.347	746.44
279.579	739.44
279.81	744.44
280.042	810.44
280.273	861.44
280.505	877.44
280.736	874.44
280.968	819.44
281.199	733.44
281.431	686.44
281.662	715.44
281.894	737.44
282.125	747.44
282.356	779.44
282.588	760.44
282.819	785.44
283.051	842.44
283.282	888.44
283.513	840.44
283.745	734.44
283.976	714.44
284.207	744.44
284.439	732.44
284.67	726.44
284.901	749.44
285.132	797.44
285.364	735.44
285.595	777.44
285.826	768.44
286.057	758.44
286.288	773.44
286.52	812.44
286.751	848.44
286.982	873.44
287.213	759.44
287.444	735.44
287.675	738.44
287.906	791.44
288.138	819.44
288.369	778.44
288.6	758.44
288.831	741.44
289.062	743.44
289.293	798.44
289.524	790.44
289.755	804.44
289.986	777.44
290.217	727.44
290.448	726.44
290.679	774.44
290.91	791.44
291.141	799.44
291.371	797.44
291.602	824.44
291.833	816.44
292.064	848.44
292.295	819.44
292.526	845.44
292.757	865.44
292.987	850.44
293.218	812.44
293.449	894.44
293.68	974.44
293.91	1013.44
294.141	939.44
294.372	924.44
294.603	949.44
294.833	987.44
295.064	933.44
295.295	828.44
295.525	812.44
295.756	725.44
295.987	737.44
296.217	755.44
296.448	754.44
296.679	784.44
296.909	777.44
297.14	778.44
297.37	780.44
297.601	837.44
297.831	902.44
298.062	870.44
298.292	829.44
298.523	776.44
298.753	797.44
298.984	819.44
299.214	819.44
299.445	812.44
299.675	838.44
299.905	834.44
300.136	828.44
300.366	777.44
300.597	762.44
300.827	809.44
301.057	821.44
301.288	832.44
301.518	843.44
301.748	865.44
301.979	943.44
302.209	928.44
302.439	983.44
302.669	992.44
302.9	940.44
303.13	830.44
303.36	850.44
303.59	897.44
303.82	828.44
304.051	864.44
304.281	886.44
304.511	898.44
304.741	960.44
304.971	1014.44
305.201	1095.44
305.431	956.44
305.661	828.44
305.891	773.44
306.121	773.44
306.352	811.44
306.582	857.44
306.812	909.44
307.042	972.44
307.272	958.44
307.502	985.44
307.731	1075.44
307.961	1084.44
308.191	1005.44
308.421	901.44
308.651	839.44
308.881	828.44
309.111	840.44
309.341	838.44
309.571	824.44
309.8	846.44
310.03	825.44
310.26	818.44
310.49	832.44
310.72	881.44
310.949	866.44
311.179	873.44
311.409	869.44
311.639	831.44
311.868	836.44
312.098	844.44
312.328	829.44
312.557	857.44
312.787	861.44
313.017	883.44
313.246	873.44
313.476	874.44
313.706	885.44
313.935	873.44
314.165	918.44
314.394	933.44
314.624	949.44
314.853	1013.44
315.083	1049.44
315.312	1044.44
315.542	970.44
315.771	920.44
316.001	935.44
316.23	940.44
316.46	911.44
316.689	948.44
316.919	884.44
317.148	861.44
317.377	877.44
317.607	972.44
317.836	1062.44
318.065	1071.44
318.295	1014.44
318.524	948.44
318.753	948.44
318.983	953.44
319.212	920.44
319.441	893.44
319.67	925.44
319.9	929.44
320.129	990.44
320.358	1037.44
320.587	1033.44
320.816	1003.44
321.046	1016.44
321.275	960.44
321.504	986.44
321.733	1058.44
321.962	1019.44
322.191	932.44
322.42	912.44
322.649	936.44
322.878	917.44
323.108	957.44
323.337	945.44
323.566	956.44
323.795	972.44
324.024	961.44
324.253	925.44
324.482	941.44
324.71	921.44
324.939	888.44
325.168	923.44
325.397	937.44
325.626	958.44
325.855	947.44
326.084	920.44
326.313	908.44
326.542	962.44
326.77	997.44
326.999	972.44
327.228	908.44
327.457	883.44
327.686	890.44
327.914	922.44
328.143	948.44
328.372	936.44
328.6	928.44
328.829	925.44
329.058	906.44
329.287	938.44
329.515	953.44
329.744	990.44
329.972	1018.44
330.201	1022.44
330.43	998.44
330.658	975.44
330.887	978.44
331.115	1017.44
331.344	1013.44
331.572	973.44
331.801	973.44
332.03	973.44
332.258	1039.44
332.486	1023.44
332.715	1038.44
332.943	994.44
333.172	977.44
333.4	1024.44
333.629	1040.44
333.857	1113.44
334.085	1221.44
334.314	1363.44
334.542	1424.44
334.771	1303.44
334.999	1150.44
335.227	1086.44
335.455	1072.44
335.684	1086.44
335.912	1107.44
336.14	1100.44
336.369	1052.44
336.597	1001.44
336.825	986.44
337.053	1055.44
337.281	1133.44
337.51	1143.44
337.738	1156.44
337.966	1102.44
338.194	1017.44
338.422	1013.44
338.65	984.44
338.878	972.44
339.106	967.44
339.334	938.44
339.562	933.44
339.79	969.44
340.018	1001.44
340.246	1043.44
340.474	1033.44
340.702	1028.44
340.93	1048.44
341.158	1028.44
341.386	994.44
341.614	988.44
341.842	994.44
342.07	994.44
342.298	998.44
342.526	995.44
342.754	967.44
342.981	973.44
343.209	977.44
343.437	962.44
343.665	985.44
343.893	1028.44
344.12	1080.44
344.348	1048.44
344.576	1046.44
344.804	992.44
345.031	1017.44
345.259	1003.44
345.487	936.44
345.714	924.44
345.942	891.44
346.17	920.44
346.397	964.44
346.625	931.44
346.853	920.44
347.08	901.44
347.308	893.44
347.535	940.44
347.763	937.44
347.99	907.44
348.218	900.44
348.445	929.44
348.673	964.44
348.9	968.44
349.128	1020.44
349.355	1035.44
349.583	993.44
349.81	963.44
350.037	882.44
350.265	890.44
350.492	884.44
350.72	909.44
350.947	961.44
351.174	956.44
351.402	893.44
351.629	881.44
351.856	849.44
352.083	866.44
352.311	876.44
352.538	911.44
352.765	924.44
352.992	964.44
353.22	906.44
353.447	878.44
353.674	916.44
353.901	931.44
354.128	902.44
354.355	922.44
354.583	937.44
354.81	963.44
355.037	916.44
355.264	937.44
355.491	944.44
355.718	947.44
355.945	903.44
356.172	891.44
356.399	885.44
356.626	897.44
356.853	926.44
357.08	1018.44
357.307	1109.44
357.534	1056.44
357.761	926.44
357.988	900.44
358.215	902.44
358.441	905.44
358.668	909.44
358.895	919.44
359.122	993.44
359.349	1074.44
359.576	1018.44
359.802	940.44
360.029	907.44
360.256	883.44
360.483	927.44
360.709	976.44
360.936	975.44
361.163	1011.44
361.39	1096.44
361.616	1174.44
361.843	1123.44
362.07	1050.44
362.296	940.44
362.523	926.44
362.749	937.44
362.976	967.44
363.203	947.44
363.429	925.44
363.656	888.44
363.882	944.44
364.109	1044.44
364.335	1091.44
364.562	1020.44
364.788	965.44
365.015	938.44
365.241	898.44
365.468	917.44
365.694	967.44
365.92	988.44
366.147	952.44
366.373	899.44
366.599	905.44
366.826	892.44
367.052	901.44
367.278	931.44
367.505	896.44
367.731	972.44
367.957	973.44
368.184	1028.44
368.41	1046.44
368.636	1072.44
368.862	1076.44
369.089	1057.44
369.315	1018.44
369.541	985.44
369.767	946.44
369.993	954.44
370.219	953.44
370.445	972.44
370.672	1026.44
370.898	1087.44
371.124	1048.44
371.35	1014.44
371.576	1053.44
371.802	1057.44
372.028	985.44
372.254	947.44
372.48	942.44
372.706	933.44
372.932	960.44
373.158	950.44
373.384	981.44
373.61	1031.44
373.835	1045.44
374.061	971.44
374.287	1006.44
374.513	1018.44
374.739	1023.44
374.965	1030.44
375.191	1001.44
375.416	1010.44
375.642	1045.44
375.868	1082.44
376.094	1121.44
376.319	1045.44
376.545	1020.44
376.771	1046.44
376.997	1083.44
377.222	1065.44
377.448	1051.44
377.674	1056.44
377.899	1048.44
378.125	1111.44
378.35	1064.44
378.576	988.44
378.802	952.44
379.027	970.44
379.253	994.44
379.478	1004.44
379.704	996.44
379.929	989.44
380.155	1005.44
380.38	1011.44
380.606	998.44
380.831	1008.44
381.057	1053.44
381.282	1084.44
381.507	1060.44
381.733	1133.44
381.958	1149.44
382.184	1061.44
382.409	1039.44
382.634	1058.44
382.86	1038.44
383.085	1051.44
383.31	1075.44
383.535	1189.44
383.761	1219.44
383.986	1184.44
384.211	1129.44
384.436	1156.44
384.662	1184.44
384.887	1208.44
385.112	1122.44
385.337	1162.44
385.562	1130.44
385.787	1113.44
386.013	1171.44
386.238	1160.44
386.463	1168.44
386.688	1283.44
386.913	1313.44
387.138	1264.44
387.363	1190.44
387.588	1188.44
387.813	1172.44
388.038	1203.44
388.263	1246.44
388.488	1156.44
388.713	1048.44
388.938	1099.44
389.163	1099.44
389.387	1103.44
389.612	1142.44
389.837	1158.44
390.062	1163.44
390.287	1120.44
390.512	1141.44
390.736	1104.44
390.961	1087.44
391.186	1077.44
391.411	1088.44
391.636	1114.44
391.86	1152.44
392.085	1115.44
392.31	1105.44
392.534	1152.44
392.759	1156.44
392.984	1106.44
393.208	1168.44
393.433	1163.44
393.658	1236.44
393.882	1218.44
394.107	1163.44
394.331	1144.44
394.556	1154.44
394.78	1156.44
395.005	1173.44
395.229	1237.44
395.454	1303.44
395.678	1307.44
395.903	1222.44
396.127	1192.44
396.352	1225.44
396.576	1274.44
396.801	1266.44
397.025	1255.44
397.249	1235.44
397.474	1225.44
397.698	1202.44
397.922	1296.44
398.147	1310.44
398.371	1393.44
398.595	1362.44
398.82	1307.44
399.044	1321.44
399.268	1408.44
399.492	1466.44
399.717	1499.44
399.941	1499.44
400.165	1496.44
400.389	1426.44
400.613	1482.44
400.837	1648.44
401.062	1814.44
401.286	1531.44
401.51	1452.44
401.734	1476.44
401.958	1397.44
402.182	1362.44
402.406	1312.44
402.63	1303.44
402.854	1292.44
403.078	1348.44
403.302	1325.44
403.526	1373.44
403.75	1332.44
403.974	1386.44
404.198	1364.44
404.422	1423.44
404.645	1518.44
404.869	1448.44
405.093	1352.44
405.317	1347.44
405.541	1326.44
405.765	1370.44
405.988	1359.44
406.212	1402.44
406.436	1402.44
406.66	1460.44
406.883	1507.44
407.107	1686.44
407.331	1817.44
407.555	1964.44
407.778	1695.44
408.002	1406.44
408.226	1422.44
408.449	1403.44
408.673	1341.44
408.896	1412.44
409.12	1412.44
409.344	1372.44
409.567	1340.44
409.791	1338.44
410.014	1407.44
410.238	1483.44
410.461	1549.44
410.685	1401.44
410.908	1324.44
411.132	1346.44
411.355	1358.44
411.578	1340.44
411.802	1337.44
412.025	1362.44
412.249	1315.44
412.472	1312.44
412.695	1305.44
412.919	1290.44
413.142	1298.44
413.365	1305.44
413.589	1373.44
413.812	1451.44
414.035	1415.44
414.258	1361.44
414.482	1316.44
414.705	1316.44
414.928	1303.44
415.151	1298.44
415.374	1317.44
415.597	1351.44
415.821	1338.44
416.044	1371.44
416.267	1328.44
416.49	1267.44
416.713	1303.44
416.936	1355.44
417.159	1404.44
417.382	1376.44
417.605	1288.44
417.828	1350.44
418.051	1357.44
418.274	1302.44
418.497	1271.44
418.72	1294.44
418.943	1300.44
419.166	1318.44
419.389	1353.44
419.611	1310.44
419.834	1280.44
420.057	1324.44
420.28	1283.44
420.503	1281.44
420.726	1316.44
420.948	1318.44
421.171	1302.44
421.394	1305.44
421.617	1351.44
421.839	1346.44
422.062	1302.44
422.285	1272.44
422.507	1286.44
422.73	1245.44
422.953	1243.44
423.175	1253.44
423.398	1270.44
423.621	1291.44
423.843	1304.44
424.066	1313.44
424.288	1410.44
424.511	1408.44
424.733	1373.44
424.956	1256.44
425.178	1265.44
425.401	1232.44
425.623	1282.44
425.846	1280.44
426.068	1358.44
426.291	1365.44
426.513	1372.44
426.735	1330.44
426.958	1449.44
427.18	1492.44
427.402	1404.44
427.625	1425.44
427.847	1406.44
428.069	1272.44
428.292	1245.44
428.514	1228.44
428.736	1200.44
428.958	1268.44
429.181	1304.44
429.403	1481.44
429.625	1792.44
429.847	1491.44
430.069	1302.44
430.292	1426.44
430.514	1449.44
430.736	1357.44
430.958	1405.44
431.18	1335.44
431.402	1243.44
431.624	1206.44
431.846	1160.44
432.068	1165.44
432.29	1170.44
432.512	1196.44
432.734	1266.44
432.956	1302.44
433.178	1337.44
433.4	1318.44
433.622	1321.44
433.844	1245.44
434.066	1253.44
434.287	1181.44
434.509	1206.44
434.731	1266.44
434.953	1384.44
435.175	1332.44
435.397	1293.44
435.618	1251.44
435.84	1236.44
436.062	1237.44
436.284	1266.44
436.505	1328.44
436.727	1314.44
436.949	1264.44
437.17	1229.44
437.392	1260.44
437.614	1199.44
437.835	1195.44
438.057	1219.44
438.278	1241.44
438.5	1217.44
438.721	1257.44
438.943	1201.44
439.165	1221.44
439.386	1221.44
439.608	1275.44
439.829	1218.44
440.05	1214.44
440.272	1245.44
440.493	1243.44
440.715	1287.44
440.936	1342.44
441.158	1443.44
441.379	1396.44
441.6	1388.44
441.822	1367.44
442.043	1340.44
442.264	1310.44
442.486	1264.44
442.707	1263.44
442.928	1247.44
443.149	1316.44
443.371	1408.44
443.592	1372.44
443.813	1408.44
444.034	1360.44
444.255	1380.44
444.476	1388.44
444.698	1413.44
444.919	1406.44
445.14	1432.44
445.361	1432.44
445.582	1435.44
445.803	1424.44
446.024	1383.44
446.245	1389.44
446.466	1365.44
446.687	1331.44
446.908	1376.44
447.129	1305.44
447.35	1303.44
447.571	1291.44
447.792	1236.44
448.013	1255.44
448.234	1306.44
448.455	1316.44
448.675	1347.44
448.896	1212.44
449.117	1179.44
449.338	1228.44
449.559	1288.44
449.779	1336.44
450	1447.44
450.221	1467.44
450.442	1420.44
450.662	1302.44
450.883	1202.44
451.104	1148.44
451.324	1210.44
451.545	1223.44
451.766	1176.44
451.986	1152.44
452.207	1128.44
452.428	1094.44
452.648	1086.44
452.869	1118.44
453.089	1142.44
453.31	1175.44
453.53	1173.44
453.751	1108.44
453.971	1060.44
454.192	1092.44
454.412	1156.44
454.633	1146.44
454.853	1118.44
455.073	1072.44
455.294	1056.44
455.514	1081.44
455.734	1054.44
455.955	1091.44
456.175	1078.44
456.395	1080.44
456.616	1100.44
456.836	1096.44
457.056	1103.44
457.276	1078.44
457.497	1066.44
457.717	1010.44
457.937	1053.44
458.157	1085.44
458.377	1047.44
458.598	1025.44
458.818	1032.44
459.038	1119.44
459.258	1160.44
459.478	1124.44
459.698	1105.44
459.918	1146.44
460.138	1215.44
460.358	1221.44
460.578	1238.44
460.798	1278.44
461.018	1348.44
461.238	1301.44
461.458	1255.44
461.678	1260.44
461.898	1232.44
462.118	1228.44
462.338	1279.44
462.558	1260.44
462.777	1291.44
462.997	1347.44
463.217	1361.44
463.437	1338.44
463.657	1298.44
463.876	1266.44
464.096	1259.44
464.316	1276.44
464.536	1323.44
464.755	1306.44
464.975	1285.44
465.195	1258.44
465.414	1283.44
465.634	1328.44
465.854	1293.44
466.073	1415.44
466.293	1376.44
466.512	1202.44
466.732	1211.44
466.951	1243.44
467.171	1267.44
467.391	1227.44
467.61	1174.44
467.829	1189.44
468.049	1315.44
468.268	1468.44
468.488	1364.44
468.707	1255.44
468.927	1250.44
469.146	1199.44
469.365	1198.44
469.585	1241.44
469.804	1221.44
470.023	1251.44
470.243	1276.44
470.462	1246.44
470.681	1212.44
470.901	1256.44
471.12	1225.44
471.339	1247.44
471.558	1210.44
471.777	1173.44
471.997	1204.44
472.216	1177.44
472.435	1140.44
472.654	1125.44
472.873	1168.44
473.092	1227.44
473.311	1204.44
473.53	1168.44
473.749	1116.44
473.968	1151.44
474.187	1208.44
474.406	1238.44
474.625	1218.44
474.844	1212.44
475.063	1223.44
475.282	1249.44
475.501	1228.44
475.72	1207.44
475.939	1288.44
476.158	1238.44
476.377	1204.44
476.596	1204.44
476.814	1216.44
477.033	1191.44
477.252	1252.44
477.471	1328.44
477.69	1300.44
477.908	1283.44
478.127	1364.44
478.346	1436.44
478.564	1455.44
478.783	1430.44
479.002	1439.44
479.22	1439.44
479.439	1444.44
479.658	1578.44
479.876	1515.44
480.095	1359.44
480.313	1327.44
480.532	1323.44
480.751	1306.44
480.969	1330.44
481.188	1284.44
481.406	1259.44
481.624	1243.44
481.843	1272.44
482.061	1297.44
482.28	1305.44
482.498	1357.44
482.717	1332.44
482.935	1321.44
483.153	1364.44
483.372	1352.44
483.59	1394.44
483.808	1351.44
484.027	1356.44
484.245	1456.44
484.463	1733.44
484.681	1840.44
484.9	1456.44
485.118	1338.44
485.336	1348.44
485.554	1384.44
485.772	1400.44
485.99	1406.44
486.209	1421.44
486.427	1381.44
486.645	1394.44
486.863	1441.44
487.081	1437.44
487.299	1456.44
487.517	1443.44
487.735	1469.44
487.953	1490.44
488.171	1517.44
488.389	1456.44
488.607	1472.44
488.825	1599.44
489.043	1523.44
489.261	1428.44
489.479	1465.44
489.696	1458.44
489.914	1444.44
490.132	1449.44
490.35	1478.44
490.568	1534.44
490.786	1539.44
491.003	1486.44
491.221	1563.44
491.439	1558.44
491.657	1545.44
491.874	1617.44
492.092	1639.44
492.31	1741.44
492.527	1695.44
492.745	1613.44
492.963	1579.44
493.18	1611.44
493.398	1692.44
493.615	1697.44
