Data from WStandard_LampEnergy5.5LIBS07252019.E.O._I.C._HRD10591_16-07-37-920.txt Node
Date: Thu Jul 25 16:07:37 EDT 2019
User: cochatt
Spectrometer: HR+D1059
Trigger mode: 1
Integration Time (sec): 1.000000E-1
Scans to average: 1
Electric dark correction enabled: true
Nonlinearity correction enabled: false
Boxcar width: 0
XAxis mode: Wavelengths
Number of Pixels in Spectrum: 2048
>>>>>Begin Spectral Data<<<<<
223.165	-9.31
223.4	-9.31
223.635	-9.31
223.869	-15.31
224.104	-8.31
224.338	-13.31
224.573	-10.31
224.808	-28.31
225.042	-17.31
225.277	-15.31
225.511	-1.31
225.746	-2.31
225.98	-2.31
226.215	22.69
226.449	16.69
226.683	35.69
226.918	26.69
227.152	21.69
227.387	28.69
227.621	41.69
227.856	40.69
228.09	48.69
228.324	42.69
228.559	45.69
228.793	149.69
229.027	374.69
229.262	388.69
229.496	395.69
229.73	400.69
229.964	460.69
230.199	474.69
230.433	498.69
230.667	514.69
230.901	551.69
231.136	496.69
231.37	501.69
231.604	487.69
231.838	479.69
232.072	490.69
232.306	466.69
232.541	502.69
232.775	585.69
233.009	637.69
233.243	578.69
233.477	550.69
233.711	564.69
233.945	575.69
234.179	579.69
234.413	600.69
234.647	672.69
234.881	617.69
235.115	567.69
235.349	568.69
235.583	571.69
235.817	567.69
236.051	528.69
236.285	580.69
236.519	615.69
236.753	676.69
236.987	710.69
237.221	693.69
237.455	770.69
237.689	771.69
237.922	710.69
238.156	653.69
238.39	707.69
238.624	721.69
238.858	762.69
239.091	792.69
239.325	828.69
239.559	946.69
239.793	992.69
240.027	1058.69
240.26	1061.69
240.494	798.69
240.728	747.69
240.961	778.69
241.195	778.69
241.429	851.69
241.662	850.69
241.896	792.69
242.13	783.69
242.363	869.69
242.597	948.69
242.83	910.69
243.064	947.69
243.298	1005.69
243.531	970.69
243.765	957.69
243.998	949.69
244.232	856.69
244.465	806.69
244.699	803.69
244.932	921.69
245.166	1076.69
245.399	1028.69
245.633	933.69
245.866	918.69
246.099	964.69
246.333	1007.69
246.566	1008.69
246.8	1098.69
247.033	1210.69
247.266	1103.69
247.5	1111.69
247.733	1089.69
247.966	1154.69
248.2	1316.69
248.433	1223.69
248.666	1278.69
248.899	1379.69
249.133	1564.69
249.366	1824.69
249.599	1469.69
249.832	1266.69
250.066	1304.69
250.299	1368.69
250.532	1245.69
250.765	1137.69
250.998	1192.69
251.231	1241.69
251.465	1274.69
251.698	1246.69
251.931	1227.69
252.164	1240.69
252.397	1308.69
252.63	1314.69
252.863	1160.69
253.096	1124.69
253.329	1179.69
253.562	1241.69
253.795	1315.69
254.028	1323.69
254.261	1256.69
254.494	1223.69
254.727	1163.69
254.96	1201.69
255.193	1298.69
255.426	1460.69
255.659	1698.69
255.892	1758.69
256.124	1424.69
256.357	1357.69
256.59	1438.69
256.823	1513.69
257.056	1478.69
257.289	1747.69
257.521	2016.69
257.754	1814.69
257.987	1650.69
258.22	1877.69
258.452	1821.69
258.685	1471.69
258.918	1415.69
259.151	1458.69
259.383	1379.69
259.616	1182.69
259.849	1294.69
260.081	1432.69
260.314	1594.69
260.547	1750.69
260.779	1818.69
261.012	1671.69
261.244	1505.69
261.477	1440.69
261.71	1429.69
261.942	1480.69
262.175	1439.69
262.407	1552.69
262.64	1442.69
262.872	1374.69
263.105	1282.69
263.337	1331.69
263.57	1340.69
263.802	1349.69
264.035	1290.69
264.267	1192.69
264.499	1197.69
264.732	1270.69
264.964	1360.69
265.197	1407.69
265.429	1448.69
265.661	1625.69
265.894	1784.69
266.126	1862.69
266.358	1658.69
266.591	1716.69
266.823	1879.69
267.055	1687.69
267.287	1618.69
267.52	1649.69
267.752	1609.69
267.984	1607.69
268.216	1672.69
268.448	1707.69
268.681	1701.69
268.913	1565.69
269.145	1480.69
269.377	1478.69
269.609	1546.69
269.841	1799.69
270.073	2087.69
270.306	2362.69
270.538	2547.69
270.77	2147.69
271.002	1800.69
271.234	1707.69
271.466	1701.69
271.698	1911.69
271.93	2308.69
272.162	2277.69
272.394	2036.69
272.626	1954.69
272.858	1735.69
273.09	1506.69
273.322	1513.69
273.553	1449.69
273.785	1446.69
274.017	1492.69
274.249	1639.69
274.481	1654.69
274.713	1497.69
274.945	1460.69
275.176	1485.69
275.408	1438.69
275.64	1422.69
275.872	1438.69
276.104	1503.69
276.335	1724.69
276.567	1952.69
276.799	1971.69
277.031	1781.69
277.262	1663.69
277.494	1717.69
277.726	1944.69
277.957	1897.69
278.189	1757.69
278.421	1597.69
278.652	1584.69
278.884	1522.69
279.115	1532.69
279.347	1576.69
279.579	1530.69
279.81	1497.69
280.042	1702.69
280.273	1824.69
280.505	1815.69
280.736	1882.69
280.968	1760.69
281.199	1542.69
281.431	1490.69
281.662	1487.69
281.894	1496.69
282.125	1513.69
282.356	1580.69
282.588	1635.69
282.819	1598.69
283.051	1750.69
283.282	1892.69
283.513	1814.69
283.745	1575.69
283.976	1456.69
284.207	1466.69
284.439	1505.69
284.67	1547.69
284.901	1601.69
285.132	1594.69
285.364	1603.69
285.595	1597.69
285.826	1574.69
286.057	1543.69
286.288	1550.69
286.52	1609.69
286.751	1754.69
286.982	1828.69
287.213	1659.69
287.444	1534.69
287.675	1504.69
287.906	1556.69
288.138	1710.69
288.369	1657.69
288.6	1594.69
288.831	1534.69
289.062	1519.69
289.293	1544.69
289.524	1591.69
289.755	1626.69
289.986	1612.69
290.217	1505.69
290.448	1537.69
290.679	1578.69
290.91	1550.69
291.141	1637.69
291.371	1709.69
291.602	1683.69
291.833	1626.69
292.064	1687.69
292.295	1688.69
292.526	1695.69
292.757	1810.69
292.987	1762.69
293.218	1604.69
293.449	1712.69
293.68	1931.69
293.91	2079.69
294.141	1977.69
294.372	1806.69
294.603	1890.69
294.833	1979.69
295.064	1862.69
295.295	1712.69
295.525	1659.69
295.756	1529.69
295.987	1469.69
296.217	1508.69
296.448	1552.69
296.679	1571.69
296.909	1556.69
297.14	1544.69
297.37	1516.69
297.601	1643.69
297.831	1761.69
298.062	1801.69
298.292	1676.69
298.523	1550.69
298.753	1576.69
298.984	1624.69
299.214	1601.69
299.445	1621.69
299.675	1654.69
299.905	1654.69
300.136	1614.69
300.366	1589.69
300.597	1529.69
300.827	1549.69
301.057	1592.69
301.288	1716.69
301.518	1691.69
301.748	1728.69
301.979	1809.69
302.209	1801.69
302.439	1948.69
302.669	2006.69
302.9	1910.69
303.13	1692.69
303.36	1724.69
303.59	1752.69
303.82	1700.69
304.051	1706.69
304.281	1694.69
304.511	1692.69
304.741	1803.69
304.971	1969.69
305.201	2187.69
305.431	2042.69
305.661	1662.69
305.891	1497.69
306.121	1509.69
306.352	1493.69
306.582	1628.69
306.812	1736.69
307.042	1838.69
307.272	1850.69
307.502	1936.69
307.731	2073.69
307.961	2253.69
308.191	2128.69
308.421	1788.69
308.651	1655.69
308.881	1627.69
309.111	1643.69
309.341	1610.69
309.571	1639.69
309.8	1628.69
310.03	1642.69
310.26	1613.69
310.49	1591.69
310.72	1644.69
310.949	1726.69
311.179	1767.69
311.409	1731.69
311.639	1680.69
311.868	1628.69
312.098	1673.69
312.328	1680.69
312.557	1648.69
312.787	1682.69
313.017	1741.69
313.246	1658.69
313.476	1678.69
313.706	1760.69
313.935	1733.69
314.165	1779.69
314.394	1788.69
314.624	1890.69
314.853	2000.69
315.083	2071.69
315.312	2121.69
315.542	1981.69
315.771	1776.69
316.001	1740.69
316.23	1896.69
316.46	1893.69
316.689	1846.69
316.919	1749.69
317.148	1682.69
317.377	1660.69
317.607	1791.69
317.836	1972.69
318.065	2134.69
318.295	2045.69
318.524	1944.69
318.753	1868.69
318.983	1857.69
319.212	1809.69
319.441	1762.69
319.67	1762.69
319.9	1820.69
320.129	1921.69
320.358	1983.69
320.587	2000.69
320.816	1997.69
321.046	1968.69
321.275	1850.69
321.504	1870.69
321.733	1995.69
321.962	2032.69
322.191	1798.69
322.42	1800.69
322.649	1791.69
322.878	1790.69
323.108	1797.69
323.337	1891.69
323.566	1876.69
323.795	1826.69
324.024	1861.69
324.253	1815.69
324.482	1825.69
324.71	1794.69
324.939	1676.69
325.168	1733.69
325.397	1784.69
325.626	1825.69
325.855	1861.69
326.084	1803.69
326.313	1793.69
326.542	1800.69
326.77	1881.69
326.999	1874.69
327.228	1813.69
327.457	1690.69
327.686	1666.69
327.914	1718.69
328.143	1770.69
328.372	1804.69
328.6	1792.69
328.829	1765.69
329.058	1756.69
329.287	1757.69
329.515	1799.69
329.744	1800.69
329.972	1898.69
330.201	2021.69
330.43	1936.69
330.658	1877.69
330.887	1885.69
331.115	1908.69
331.344	1921.69
331.572	1826.69
331.801	1856.69
332.03	1888.69
332.258	1881.69
332.486	1913.69
332.715	1968.69
332.943	1928.69
333.172	1884.69
333.4	1894.69
333.629	1952.69
333.857	2057.69
334.085	2236.69
334.314	2598.69
334.542	2838.69
334.771	2604.69
334.999	2257.69
335.227	2160.69
335.455	2018.69
335.684	1992.69
335.912	1996.69
336.14	2136.69
336.369	2034.69
336.597	1987.69
336.825	1905.69
337.053	1981.69
337.281	2085.69
337.51	2212.69
337.738	2282.69
337.966	2140.69
338.194	2006.69
338.422	1941.69
338.65	1885.69
338.878	1830.69
339.106	1824.69
339.334	1786.69
339.562	1792.69
339.79	1836.69
340.018	1923.69
340.246	2009.69
340.474	1972.69
340.702	1920.69
340.93	1948.69
341.158	1932.69
341.386	1912.69
341.614	1860.69
341.842	1848.69
342.07	1891.69
342.298	1867.69
342.526	1843.69
342.754	1828.69
342.981	1835.69
343.209	1850.69
343.437	1812.69
343.665	1840.69
343.893	1904.69
344.12	2003.69
344.348	2028.69
344.576	1946.69
344.804	1863.69
345.031	1864.69
345.259	1871.69
345.487	1844.69
345.714	1733.69
345.942	1725.69
346.17	1710.69
346.397	1774.69
346.625	1800.69
346.853	1701.69
347.08	1669.69
347.308	1674.69
347.535	1729.69
347.763	1792.69
347.99	1745.69
348.218	1705.69
348.445	1710.69
348.673	1719.69
348.9	1784.69
349.128	1878.69
349.355	1917.69
349.583	1852.69
349.81	1754.69
350.037	1653.69
350.265	1624.69
350.492	1657.69
350.72	1666.69
350.947	1716.69
351.174	1822.69
351.402	1706.69
351.629	1646.69
351.856	1603.69
352.083	1600.69
352.311	1594.69
352.538	1678.69
352.765	1741.69
352.992	1760.69
353.22	1735.69
353.447	1693.69
353.674	1706.69
353.901	1727.69
354.128	1677.69
354.355	1662.69
354.583	1749.69
354.81	1765.69
355.037	1749.69
355.264	1808.69
355.491	1693.69
355.718	1756.69
355.945	1724.69
356.172	1698.69
356.399	1620.69
356.626	1685.69
356.853	1660.69
357.08	1888.69
357.307	2015.69
357.534	2037.69
357.761	1767.69
357.988	1712.69
358.215	1600.69
358.441	1621.69
358.668	1641.69
358.895	1619.69
359.122	1735.69
359.349	1941.69
359.576	1928.69
359.802	1724.69
360.029	1661.69
360.256	1602.69
360.483	1654.69
360.709	1720.69
360.936	1751.69
361.163	1808.69
361.39	1965.69
361.616	2200.69
361.843	2102.69
362.07	1959.69
362.296	1720.69
362.523	1676.69
362.749	1681.69
362.976	1732.69
363.203	1767.69
363.429	1691.69
363.656	1645.69
363.882	1670.69
364.109	1849.69
364.335	2056.69
364.562	1872.69
364.788	1822.69
365.015	1733.69
365.241	1633.69
365.468	1712.69
365.694	1753.69
365.92	1872.69
366.147	1797.69
366.373	1708.69
366.599	1652.69
366.826	1662.69
367.052	1637.69
367.278	1691.69
367.505	1710.69
367.731	1742.69
367.957	1737.69
368.184	1778.69
368.41	1848.69
368.636	1918.69
368.862	1974.69
369.089	1968.69
369.315	1828.69
369.541	1835.69
369.767	1768.69
369.993	1664.69
370.219	1708.69
370.445	1704.69
370.672	1853.69
370.898	1897.69
371.124	1944.69
371.35	1761.69
371.576	1831.69
371.802	1931.69
372.028	1802.69
372.254	1752.69
372.48	1723.69
372.706	1692.69
372.932	1713.69
373.158	1741.69
373.384	1734.69
373.61	1791.69
373.835	1917.69
374.061	1795.69
374.287	1790.69
374.513	1735.69
374.739	1834.69
374.965	1824.69
375.191	1810.69
375.416	1857.69
375.642	1876.69
375.868	1947.69
376.094	2050.69
376.319	1961.69
376.545	1768.69
376.771	1809.69
376.997	1934.69
377.222	1903.69
377.448	1844.69
377.674	1850.69
377.899	1843.69
378.125	1985.69
378.35	1978.69
378.576	1796.69
378.802	1749.69
379.027	1747.69
379.253	1774.69
379.478	1761.69
379.704	1792.69
379.929	1766.69
380.155	1779.69
380.38	1770.69
380.606	1831.69
380.831	1809.69
381.057	1876.69
381.282	1894.69
381.507	1873.69
381.733	1936.69
381.958	2076.69
382.184	1905.69
382.409	1849.69
382.634	1861.69
382.86	1874.69
383.085	1853.69
383.31	1928.69
383.535	2044.69
383.761	2132.69
383.986	2045.69
384.211	2016.69
384.436	1975.69
384.662	2086.69
384.887	2190.69
385.112	2068.69
385.337	2125.69
385.562	2041.69
385.787	2017.69
386.013	2113.69
386.238	2108.69
386.463	2018.69
386.688	2211.69
386.913	2324.69
387.138	2311.69
387.363	2127.69
387.588	2100.69
387.813	2063.69
388.038	2118.69
388.263	2179.69
388.488	2120.69
388.713	1963.69
388.938	1945.69
389.163	1960.69
389.387	2009.69
389.612	1998.69
389.837	2058.69
390.062	2100.69
390.287	2082.69
390.512	2033.69
390.736	1996.69
390.961	1963.69
391.186	1936.69
391.411	1982.69
391.636	1989.69
391.86	2017.69
392.085	2030.69
392.31	1992.69
392.534	2059.69
392.759	2056.69
392.984	2034.69
393.208	2042.69
393.433	2129.69
393.658	2195.69
393.882	2209.69
394.107	2110.69
394.331	2078.69
394.556	2019.69
394.78	2050.69
395.005	2132.69
395.229	2216.69
395.454	2349.69
395.678	2393.69
395.903	2252.69
396.127	2170.69
396.352	2171.69
396.576	2217.69
396.801	2288.69
397.025	2228.69
397.249	2220.69
397.474	2212.69
397.698	2202.69
397.922	2280.69
398.147	2314.69
398.371	2480.69
398.595	2474.69
398.82	2410.69
399.044	2398.69
399.268	2500.69
399.492	2682.69
399.717	2757.69
399.941	2772.69
400.165	2710.69
400.389	2592.69
400.613	2561.69
400.837	2851.69
401.062	3290.69
401.286	2875.69
401.51	2560.69
401.734	2681.69
401.958	2595.69
402.182	2416.69
402.406	2338.69
402.63	2336.69
402.854	2308.69
403.078	2381.69
403.302	2384.69
403.526	2411.69
403.75	2414.69
403.974	2455.69
404.198	2487.69
404.422	2504.69
404.645	2701.69
404.869	2592.69
405.093	2403.69
405.317	2380.69
405.541	2470.69
405.765	2452.69
405.988	2408.69
406.212	2486.69
406.436	2528.69
406.66	2632.69
406.883	2662.69
407.107	2908.69
407.331	3188.69
407.555	3427.69
407.778	3147.69
408.002	2634.69
408.226	2608.69
408.449	2574.69
408.673	2532.69
408.896	2503.69
409.12	2568.69
409.344	2477.69
409.567	2371.69
409.791	2478.69
410.014	2517.69
410.238	2611.69
410.461	2766.69
410.685	2498.69
410.908	2363.69
411.132	2393.69
411.355	2456.69
411.578	2397.69
411.802	2330.69
412.025	2394.69
412.249	2419.69
412.472	2294.69
412.695	2288.69
412.919	2332.69
413.142	2360.69
413.365	2321.69
413.589	2369.69
413.812	2470.69
414.035	2550.69
414.258	2383.69
414.482	2332.69
414.705	2324.69
414.928	2319.69
415.151	2313.69
415.374	2293.69
415.597	2367.69
415.821	2354.69
416.044	2536.69
416.267	2482.69
416.49	2234.69
416.713	2216.69
416.936	2287.69
417.159	2385.69
417.382	2406.69
417.605	2274.69
417.828	2347.69
418.051	2424.69
418.274	2289.69
418.497	2205.69
418.72	2228.69
418.943	2253.69
419.166	2408.69
419.389	2513.69
419.611	2316.69
419.834	2267.69
420.057	2328.69
420.28	2246.69
420.503	2232.69
420.726	2317.69
420.948	2262.69
421.171	2224.69
421.394	2252.69
421.617	2310.69
421.839	2314.69
422.062	2256.69
422.285	2211.69
422.507	2240.69
422.73	2197.69
422.953	2147.69
423.175	2120.69
423.398	2236.69
423.621	2216.69
423.843	2279.69
424.066	2272.69
424.288	2348.69
424.511	2378.69
424.733	2380.69
424.956	2116.69
425.178	2114.69
425.401	2164.69
425.623	2187.69
425.846	2181.69
426.068	2290.69
426.291	2324.69
426.513	2275.69
426.735	2280.69
426.958	2405.69
427.18	2593.69
427.402	2300.69
427.625	2434.69
427.847	2466.69
428.069	2292.69
428.292	2172.69
428.514	2097.69
428.736	2149.69
428.958	2174.69
429.181	2184.69
429.403	2454.69
429.625	3023.69
429.847	2661.69
430.069	2266.69
430.292	2443.69
430.514	2572.69
430.736	2374.69
430.958	2387.69
431.18	2344.69
431.402	2172.69
431.624	2127.69
431.846	2185.69
432.068	2125.69
432.29	2167.69
432.512	2182.69
432.734	2200.69
432.956	2295.69
433.178	2380.69
433.4	2324.69
433.622	2364.69
433.844	2228.69
434.066	2122.69
434.287	2117.69
434.509	2227.69
434.731	2344.69
434.953	2510.69
435.175	2440.69
435.397	2318.69
435.618	2280.69
435.84	2306.69
436.062	2259.69
436.284	2262.69
436.505	2296.69
436.727	2325.69
436.949	2230.69
437.17	2180.69
437.392	2135.69
437.614	2199.69
437.835	2133.69
438.057	2300.69
438.278	2404.69
438.5	2202.69
438.721	2174.69
438.943	2172.69
439.165	2176.69
439.386	2101.69
439.608	2121.69
439.829	2140.69
440.05	2160.69
440.272	2137.69
440.493	2089.69
440.715	2178.69
440.936	2288.69
441.158	2547.69
441.379	2441.69
441.6	2398.69
441.822	2336.69
442.043	2373.69
442.264	2272.69
442.486	2173.69
442.707	2180.69
442.928	2112.69
443.149	2272.69
443.371	2347.69
443.592	2440.69
443.813	2388.69
444.034	2347.69
444.255	2332.69
444.476	2434.69
444.698	2440.69
444.919	2412.69
445.14	2488.69
445.361	2525.69
445.582	2616.69
445.803	2474.69
446.024	2400.69
446.245	2442.69
446.466	2379.69
446.687	2266.69
446.908	2268.69
447.129	2181.69
447.35	2254.69
447.571	2230.69
447.792	2117.69
448.013	2088.69
448.234	2182.69
448.455	2320.69
448.675	2313.69
448.896	2067.69
449.117	2052.69
449.338	2153.69
449.559	2196.69
449.779	2306.69
450	2572.69
450.221	2775.69
450.442	2626.69
450.662	2358.69
450.883	2081.69
451.104	2040.69
451.324	2059.69
451.545	2148.69
451.766	2090.69
451.986	2010.69
452.207	2008.69
452.428	1976.69
452.648	1938.69
452.869	1988.69
453.089	2126.69
453.31	2143.69
453.53	2206.69
453.751	2090.69
453.971	1957.69
454.192	2015.69
454.412	2136.69
454.633	2070.69
454.853	2035.69
455.073	1913.69
455.294	1883.69
455.514	1908.69
455.734	1890.69
455.955	1956.69
456.175	1948.69
456.395	1948.69
456.616	2010.69
456.836	2030.69
457.056	2009.69
457.276	1975.69
457.497	1916.69
457.717	1890.69
457.937	1911.69
458.157	1970.69
458.377	1953.69
458.598	1925.69
458.818	1944.69
459.038	2057.69
459.258	2184.69
459.478	2200.69
459.698	2091.69
459.918	2175.69
460.138	2307.69
460.358	2328.69
460.578	2299.69
460.798	2402.69
461.018	2571.69
461.238	2440.69
461.458	2337.69
461.678	2326.69
461.898	2248.69
462.118	2199.69
462.338	2277.69
462.558	2293.69
462.777	2317.69
462.997	2421.69
463.217	2605.69
463.437	2536.69
463.657	2417.69
463.876	2324.69
464.096	2300.69
464.316	2355.69
464.536	2377.69
464.755	2432.69
464.975	2489.69
465.195	2371.69
465.414	2446.69
465.634	2496.69
465.854	2326.69
466.073	2434.69
466.293	2422.69
466.512	2160.69
466.732	2124.69
466.951	2216.69
467.171	2209.69
467.391	2147.69
467.61	2033.69
467.829	2081.69
468.049	2256.69
468.268	2519.69
468.488	2381.69
468.707	2255.69
468.927	2171.69
469.146	2149.69
469.365	2056.69
469.585	2125.69
469.804	2033.69
470.023	2105.69
470.243	2146.69
470.462	2133.69
470.681	2092.69
470.901	2096.69
471.12	2121.69
471.339	2129.69
471.558	2016.69
471.777	2003.69
471.997	2047.69
472.216	2092.69
472.435	1991.69
472.654	2051.69
472.873	2132.69
473.092	2271.69
473.311	2178.69
473.53	2007.69
473.749	2038.69
473.968	2069.69
474.187	2183.69
474.406	2296.69
474.625	2166.69
474.844	2136.69
475.063	2152.69
475.282	2176.69
475.501	2119.69
475.72	2178.69
475.939	2241.69
476.158	2183.69
476.377	2096.69
476.596	2160.69
476.814	2224.69
477.033	2220.69
477.252	2283.69
477.471	2359.69
477.69	2248.69
477.908	2211.69
478.127	2354.69
478.346	2545.69
478.564	2565.69
478.783	2536.69
479.002	2566.69
479.22	2520.69
479.439	2640.69
479.658	2939.69
479.876	2994.69
480.095	2575.69
480.313	2452.69
480.532	2348.69
480.751	2425.69
480.969	2461.69
481.188	2381.69
481.406	2372.69
481.624	2314.69
481.843	2353.69
482.061	2382.69
482.28	2424.69
482.498	2453.69
482.717	2455.69
482.935	2352.69
483.153	2314.69
483.372	2363.69
483.59	2324.69
483.808	2352.69
484.027	2425.69
484.245	2522.69
484.463	2919.69
484.681	3396.69
484.9	2649.69
485.118	2450.69
485.336	2366.69
485.554	2524.69
485.772	2666.69
485.99	2539.69
486.209	2562.69
486.427	2530.69
486.645	2518.69
486.863	2476.69
487.081	2549.69
487.299	2626.69
