Data from WStandard_LampEnergy10_LIBS07252019.E.O._I.C._HRD10591_15-55-30-929.txt Node
Date: Thu Jul 25 15:55:30 EDT 2019
User: cochatt
Spectrometer: HR+D1059
Trigger mode: 1
Integration Time (sec): 1.000000E-1
Scans to average: 1
Electric dark correction enabled: true
Nonlinearity correction enabled: false
Boxcar width: 0
XAxis mode: Wavelengths
Number of Pixels in Spectrum: 2048
>>>>>Begin Spectral Data<<<<<
223.165	-21.38
223.4	-21.38
223.635	-21.38
223.869	-8.38
224.104	-31.38
224.338	-10.38
224.573	-8.38
224.808	-9.38
225.042	-33.38
225.277	-3.38
225.511	-8.38
225.746	2.62
225.98	5.62
226.215	2.62
226.449	20.62
226.683	34.62
226.918	35.62
227.152	32.62
227.387	37.62
227.621	44.62
227.856	31.62
228.09	43.62
228.324	56.62
228.559	52.62
228.793	91.62
229.027	131.62
229.262	127.62
229.496	151.62
229.73	153.62
229.964	155.62
230.199	158.62
230.433	159.62
230.667	166.62
230.901	177.62
231.136	192.62
231.37	159.62
231.604	187.62
231.838	168.62
232.072	166.62
232.306	165.62
232.541	172.62
232.775	196.62
233.009	204.62
233.243	211.62
233.477	198.62
233.711	208.62
233.945	199.62
234.179	190.62
234.413	193.62
234.647	196.62
234.881	203.62
235.115	181.62
235.349	200.62
235.583	199.62
235.817	197.62
236.051	201.62
236.285	203.62
236.519	202.62
236.753	214.62
236.987	213.62
237.221	219.62
237.455	243.62
237.689	233.62
237.922	231.62
238.156	204.62
238.39	235.62
238.624	232.62
238.858	239.62
239.091	245.62
239.325	242.62
239.559	288.62
239.793	287.62
240.027	285.62
240.26	293.62
240.494	255.62
240.728	227.62
240.961	225.62
241.195	235.62
241.429	256.62
241.662	247.62
241.896	233.62
242.13	257.62
242.363	246.62
242.597	285.62
242.83	262.62
243.064	272.62
243.298	303.62
243.531	280.62
243.765	263.62
243.998	244.62
244.232	267.62
244.465	258.62
244.699	264.62
244.932	272.62
245.166	297.62
245.399	274.62
245.633	260.62
245.866	281.62
246.099	288.62
246.333	277.62
246.566	272.62
246.8	307.62
247.033	349.62
247.266	299.62
247.5	303.62
247.733	322.62
247.966	328.62
248.2	367.62
248.433	359.62
248.666	366.62
248.899	389.62
249.133	448.62
249.366	440.62
249.599	396.62
249.832	352.62
250.066	368.62
250.299	366.62
250.532	342.62
250.765	312.62
250.998	335.62
251.231	340.62
251.465	331.62
251.698	340.62
251.931	352.62
252.164	325.62
252.397	347.62
252.63	348.62
252.863	327.62
253.096	332.62
253.329	356.62
253.562	330.62
253.795	352.62
254.028	360.62
254.261	344.62
254.494	337.62
254.727	343.62
254.96	361.62
255.193	361.62
255.426	400.62
255.659	450.62
255.892	436.62
256.124	384.62
256.357	370.62
256.59	393.62
256.823	398.62
257.056	421.62
257.289	465.62
257.521	510.62
257.754	456.62
257.987	430.62
258.22	487.62
258.452	457.62
258.685	392.62
258.918	382.62
259.151	369.62
259.383	372.62
259.616	361.62
259.849	355.62
260.081	403.62
260.314	445.62
260.547	465.62
260.779	486.62
261.012	424.62
261.244	426.62
261.477	384.62
261.71	419.62
261.942	391.62
262.175	402.62
262.407	423.62
262.64	376.62
262.872	383.62
263.105	356.62
263.337	376.62
263.57	347.62
263.802	374.62
264.035	378.62
264.267	319.62
264.499	338.62
264.732	378.62
264.964	389.62
265.197	385.62
265.429	403.62
265.661	451.62
265.894	474.62
266.126	474.62
266.358	456.62
266.591	457.62
266.823	483.62
267.055	457.62
267.287	454.62
267.52	444.62
267.752	447.62
267.984	445.62
268.216	455.62
268.448	466.62
268.681	420.62
268.913	424.62
269.145	392.62
269.377	403.62
269.609	436.62
269.841	504.62
270.073	572.62
270.306	615.62
270.538	616.62
270.77	523.62
271.002	482.62
271.234	453.62
271.466	475.62
271.698	526.62
271.93	591.62
272.162	586.62
272.394	533.62
272.626	491.62
272.858	460.62
273.09	407.62
273.322	403.62
273.553	383.62
273.785	404.62
274.017	423.62
274.249	425.62
274.481	428.62
274.713	422.62
274.945	409.62
275.176	399.62
275.408	386.62
275.64	402.62
275.872	378.62
276.104	428.62
276.335	488.62
276.567	524.62
276.799	528.62
277.031	487.62
277.262	472.62
277.494	477.62
277.726	521.62
277.957	517.62
278.189	443.62
278.421	430.62
278.652	421.62
278.884	423.62
279.115	418.62
279.347	420.62
279.579	407.62
279.81	436.62
280.042	454.62
280.273	511.62
280.505	523.62
280.736	514.62
280.968	458.62
281.199	417.62
281.431	405.62
281.662	419.62
281.894	442.62
282.125	435.62
282.356	448.62
282.588	458.62
282.819	440.62
283.051	472.62
283.282	516.62
283.513	487.62
283.745	415.62
283.976	401.62
284.207	408.62
284.439	451.62
284.67	440.62
284.901	448.62
285.132	466.62
285.364	450.62
285.595	470.62
285.826	456.62
286.057	434.62
286.288	446.62
286.52	471.62
286.751	489.62
286.982	470.62
287.213	459.62
287.444	438.62
287.675	421.62
287.906	462.62
288.138	466.62
288.369	456.62
288.6	427.62
288.831	418.62
289.062	454.62
289.293	452.62
289.524	458.62
289.755	461.62
289.986	450.62
290.217	436.62
290.448	428.62
290.679	452.62
290.91	458.62
291.141	480.62
291.371	469.62
291.602	483.62
291.833	486.62
292.064	464.62
292.295	468.62
292.526	519.62
292.757	506.62
292.987	476.62
293.218	471.62
293.449	539.62
293.68	575.62
293.91	566.62
294.141	531.62
294.372	523.62
294.603	554.62
294.833	583.62
295.064	522.62
295.295	474.62
295.525	470.62
295.756	440.62
295.987	436.62
296.217	443.62
296.448	451.62
296.679	461.62
296.909	460.62
297.14	465.62
297.37	474.62
297.601	491.62
297.831	514.62
298.062	497.62
298.292	460.62
298.523	469.62
298.753	456.62
298.984	444.62
299.214	464.62
299.445	466.62
299.675	494.62
299.905	486.62
300.136	494.62
300.366	456.62
300.597	477.62
300.827	457.62
301.057	489.62
301.288	496.62
301.518	497.62
301.748	505.62
301.979	548.62
302.209	560.62
302.439	563.62
302.669	583.62
302.9	555.62
303.13	510.62
303.36	500.62
303.59	526.62
303.82	488.62
304.051	540.62
304.281	511.62
304.511	522.62
304.741	558.62
304.971	597.62
305.201	602.62
305.431	547.62
305.661	508.62
305.891	462.62
306.121	460.62
306.352	477.62
306.582	519.62
306.812	520.62
307.042	561.62
307.272	570.62
307.502	596.62
307.731	642.62
307.961	628.62
308.191	582.62
308.421	502.62
308.651	503.62
308.881	498.62
309.111	499.62
309.341	494.62
309.571	496.62
309.8	498.62
310.03	465.62
310.26	467.62
310.49	502.62
310.72	487.62
310.949	512.62
311.179	525.62
311.409	500.62
311.639	499.62
311.868	505.62
312.098	475.62
312.328	517.62
312.557	501.62
312.787	521.62
313.017	493.62
313.246	496.62
313.476	521.62
313.706	526.62
313.935	544.62
314.165	532.62
314.394	541.62
314.624	579.62
314.853	591.62
315.083	609.62
315.312	627.62
315.542	567.62
315.771	529.62
316.001	549.62
316.23	568.62
316.46	560.62
316.689	540.62
316.919	505.62
317.148	499.62
317.377	532.62
317.607	590.62
317.836	633.62
318.065	630.62
318.295	619.62
318.524	595.62
318.753	548.62
318.983	560.62
319.212	565.62
319.441	539.62
319.67	564.62
319.9	539.62
320.129	563.62
320.358	591.62
320.587	610.62
320.816	616.62
321.046	593.62
321.275	564.62
321.504	590.62
321.733	603.62
321.962	580.62
322.191	556.62
322.42	544.62
322.649	554.62
322.878	560.62
323.108	540.62
323.337	575.62
323.566	556.62
323.795	539.62
324.024	556.62
324.253	566.62
324.482	568.62
324.71	522.62
324.939	530.62
325.168	523.62
325.397	549.62
325.626	554.62
325.855	566.62
326.084	562.62
326.313	559.62
326.542	552.62
326.77	572.62
326.999	558.62
327.228	551.62
327.457	517.62
327.686	516.62
327.914	544.62
328.143	539.62
328.372	556.62
328.6	562.62
328.829	559.62
329.058	530.62
329.287	527.62
329.515	574.62
329.744	576.62
329.972	586.62
330.201	597.62
330.43	614.62
330.658	587.62
330.887	586.62
331.115	581.62
331.344	603.62
331.572	584.62
331.801	577.62
332.03	563.62
332.258	593.62
332.486	601.62
332.715	584.62
332.943	594.62
333.172	545.62
333.4	581.62
333.629	601.62
333.857	673.62
334.085	755.62
334.314	818.62
334.542	804.62
334.771	740.62
334.999	667.62
335.227	626.62
335.455	604.62
335.684	592.62
335.912	647.62
336.14	650.62
336.369	596.62
336.597	599.62
336.825	588.62
337.053	620.62
337.281	649.62
337.51	648.62
337.738	686.62
337.966	641.62
338.194	597.62
338.422	584.62
338.65	572.62
338.878	561.62
339.106	570.62
339.334	554.62
339.562	537.62
339.79	586.62
340.018	615.62
340.246	612.62
340.474	644.62
340.702	622.62
340.93	598.62
341.158	596.62
341.386	584.62
341.614	582.62
341.842	578.62
342.07	585.62
342.298	585.62
342.526	593.62
342.754	588.62
342.981	582.62
343.209	553.62
343.437	549.62
343.665	601.62
343.893	599.62
344.12	635.62
344.348	622.62
344.576	583.62
344.804	594.62
345.031	588.62
345.259	577.62
345.487	573.62
345.714	574.62
345.942	546.62
346.17	551.62
346.397	562.62
346.625	576.62
346.853	544.62
347.08	532.62
347.308	558.62
347.535	540.62
347.763	560.62
347.99	581.62
348.218	565.62
348.445	543.62
348.673	549.62
348.9	589.62
349.128	608.62
349.355	599.62
349.583	576.62
349.81	563.62
350.037	527.62
350.265	490.62
350.492	525.62
350.72	561.62
350.947	584.62
351.174	564.62
351.402	527.62
351.629	542.62
351.856	524.62
352.083	514.62
352.311	543.62
352.538	560.62
352.765	602.62
352.992	567.62
353.22	547.62
353.447	542.62
353.674	561.62
353.901	568.62
354.128	540.62
354.355	554.62
354.583	597.62
354.81	590.62
355.037	573.62
355.264	563.62
355.491	566.62
355.718	562.62
355.945	550.62
356.172	533.62
356.399	537.62
356.626	536.62
356.853	568.62
357.08	634.62
357.307	638.62
357.534	631.62
357.761	560.62
357.988	516.62
358.215	512.62
358.441	543.62
358.668	511.62
358.895	549.62
359.122	596.62
359.349	630.62
359.576	596.62
359.802	572.62
360.029	546.62
360.256	544.62
360.483	567.62
360.709	570.62
360.936	577.62
361.163	619.62
361.39	679.62
361.616	692.62
361.843	670.62
362.07	633.62
362.296	550.62
362.523	551.62
362.749	562.62
362.976	567.62
363.203	555.62
363.429	553.62
363.656	530.62
363.882	599.62
364.109	640.62
364.335	658.62
364.562	585.62
364.788	576.62
365.015	566.62
365.241	545.62
365.468	562.62
365.694	590.62
365.92	594.62
366.147	588.62
366.373	563.62
366.599	554.62
366.826	529.62
367.052	547.62
367.278	580.62
367.505	568.62
367.731	617.62
367.957	600.62
368.184	638.62
368.41	644.62
368.636	661.62
368.862	638.62
369.089	664.62
369.315	610.62
369.541	598.62
369.767	609.62
369.993	578.62
370.219	592.62
370.445	607.62
370.672	650.62
370.898	674.62
371.124	630.62
371.35	600.62
371.576	645.62
371.802	642.62
372.028	625.62
372.254	616.62
372.48	568.62
372.706	601.62
372.932	594.62
373.158	601.62
373.384	614.62
373.61	626.62
373.835	628.62
374.061	609.62
374.287	636.62
374.513	601.62
374.739	621.62
374.965	655.62
375.191	652.62
375.416	622.62
375.642	651.62
375.868	695.62
376.094	706.62
376.319	675.62
376.545	639.62
376.771	631.62
376.997	663.62
377.222	680.62
377.448	644.62
377.674	678.62
377.899	659.62
378.125	693.62
378.35	685.62
378.576	618.62
378.802	619.62
379.027	603.62
379.253	641.62
379.478	622.62
379.704	631.62
379.929	632.62
380.155	626.62
380.38	633.62
380.606	656.62
380.831	671.62
381.057	686.62
381.282	676.62
381.507	688.62
381.733	715.62
381.958	711.62
382.184	669.62
382.409	672.62
382.634	656.62
382.86	661.62
383.085	662.62
383.31	713.62
383.535	770.62
383.761	785.62
383.986	765.62
384.211	704.62
384.436	725.62
384.662	750.62
384.887	754.62
385.112	706.62
385.337	720.62
385.562	709.62
385.787	705.62
386.013	739.62
386.238	744.62
386.463	742.62
386.688	802.62
386.913	807.62
387.138	793.62
387.363	778.62
387.588	751.62
387.813	753.62
388.038	779.62
388.263	793.62
388.488	769.62
388.713	697.62
388.938	756.62
389.163	718.62
389.387	730.62
389.612	703.62
389.837	730.62
390.062	732.62
390.287	727.62
390.512	741.62
390.736	728.62
390.961	708.62
391.186	729.62
391.411	723.62
391.636	730.62
391.86	728.62
392.085	706.62
392.31	753.62
392.534	754.62
392.759	736.62
392.984	752.62
393.208	754.62
393.433	783.62
393.658	818.62
393.882	770.62
394.107	767.62
394.331	738.62
394.556	727.62
394.78	791.62
395.005	783.62
395.229	840.62
395.454	845.62
395.678	865.62
395.903	827.62
396.127	784.62
396.352	802.62
396.576	845.62
396.801	842.62
397.025	835.62
397.249	823.62
397.474	816.62
397.698	811.62
397.922	851.62
398.147	864.62
398.371	886.62
398.595	887.62
398.82	825.62
399.044	872.62
399.268	917.62
399.492	953.62
399.717	950.62
399.941	979.62
400.165	969.62
400.389	942.62
400.613	978.62
400.837	1108.62
401.062	1166.62
401.286	986.62
401.51	939.62
401.734	974.62
401.958	914.62
402.182	895.62
402.406	859.62
402.63	884.62
402.854	862.62
403.078	852.62
403.302	916.62
403.526	900.62
403.75	912.62
403.974	920.62
404.198	915.62
404.422	986.62
404.645	987.62
404.869	912.62
405.093	901.62
405.317	897.62
405.541	912.62
405.765	920.62
405.988	904.62
406.212	933.62
406.436	944.62
406.66	995.62
406.883	997.62
407.107	1109.62
407.331	1185.62
407.555	1270.62
407.778	1105.62
408.002	957.62
408.226	928.62
408.449	949.62
408.673	930.62
408.896	914.62
409.12	950.62
409.344	927.62
409.567	926.62
409.791	920.62
410.014	943.62
410.238	1008.62
410.461	1032.62
410.685	945.62
410.908	917.62
411.132	948.62
411.355	899.62
411.578	912.62
411.802	932.62
412.025	920.62
412.249	922.62
412.472	896.62
412.695	892.62
412.919	896.62
413.142	888.62
413.365	916.62
413.589	956.62
413.812	978.62
414.035	1009.62
414.258	900.62
414.482	894.62
414.705	911.62
414.928	918.62
415.151	910.62
415.374	933.62
415.597	929.62
415.821	932.62
416.044	918.62
416.267	949.62
416.49	899.62
416.713	901.62
416.936	947.62
417.159	969.62
417.382	978.62
417.605	900.62
417.828	940.62
418.051	966.62
418.274	926.62
418.497	909.62
418.72	920.62
418.943	911.62
419.166	966.62
419.389	992.62
419.611	939.62
419.834	915.62
420.057	939.62
420.28	918.62
420.503	932.62
420.726	948.62
420.948	909.62
421.171	907.62
421.394	915.62
421.617	945.62
421.839	972.62
422.062	958.62
422.285	925.62
422.507	901.62
422.73	874.62
422.953	851.62
423.175	871.62
423.398	872.62
423.621	915.62
423.843	934.62
424.066	944.62
424.288	982.62
424.511	1024.62
424.733	966.62
424.956	934.62
425.178	934.62
425.401	936.62
425.623	938.62
425.846	929.62
426.068	946.62
426.291	978.62
426.513	918.62
426.735	954.62
426.958	1009.62
427.18	1036.62
427.402	981.62
427.625	1006.62
427.847	986.62
428.069	914.62
428.292	930.62
428.514	875.62
428.736	870.62
428.958	913.62
429.181	920.62
429.403	1047.62
429.625	1198.62
429.847	1020.62
430.069	950.62
430.292	1012.62
430.514	1022.62
430.736	964.62
430.958	965.62
431.18	902.62
431.402	892.62
431.624	827.62
431.846	804.62
432.068	719.62
432.29	735.62
432.512	779.62
432.734	855.62
432.956	908.62
433.178	956.62
433.4	958.62
433.622	952.62
433.844	896.62
434.066	828.62
434.287	817.62
434.509	766.62
434.731	802.62
434.953	905.62
435.175	906.62
435.397	911.62
435.618	874.62
435.84	850.62
436.062	850.62
436.284	874.62
436.505	921.62
436.727	957.62
436.949	898.62
437.17	875.62
437.392	854.62
437.614	828.62
437.835	791.62
438.057	798.62
438.278	808.62
438.5	833.62
438.721	875.62
438.943	913.62
439.165	911.62
439.386	917.62
439.608	926.62
439.829	953.62
440.05	931.62
440.272	938.62
440.493	949.62
440.715	956.62
440.936	995.62
441.158	1027.62
441.379	1038.62
441.6	1000.62
441.822	1010.62
442.043	970.62
442.264	981.62
442.486	934.62
442.707	957.62
442.928	960.62
443.149	966.62
443.371	985.62
443.592	995.62
443.813	948.62
444.034	992.62
444.255	994.62
444.476	1003.62
444.698	1019.62
444.919	1044.62
445.14	1114.62
445.361	1076.62
445.582	1043.62
445.803	1055.62
446.024	1019.62
446.245	1062.62
446.466	1028.62
446.687	1032.62
446.908	1024.62
447.129	1013.62
447.35	966.62
447.571	977.62
447.792	952.62
448.013	930.62
448.234	922.62
448.455	987.62
448.675	993.62
448.896	907.62
449.117	884.62
449.338	896.62
449.559	964.62
449.779	967.62
450	1015.62
450.221	1011.62
450.442	1011.62
450.662	911.62
450.883	873.62
451.104	866.62
451.324	874.62
451.545	896.62
451.766	865.62
451.986	824.62
452.207	817.62
452.428	789.62
452.648	760.62
452.869	755.62
453.089	789.62
453.31	741.62
453.53	756.62
453.751	720.62
453.971	693.62
454.192	697.62
454.412	747.62
454.633	766.62
454.853	753.62
455.073	739.62
455.294	782.62
455.514	770.62
455.734	728.62
455.955	734.62
456.175	728.62
456.395	732.62
456.616	721.62
456.836	735.62
457.056	712.62
457.276	707.62
457.497	689.62
457.717	689.62
457.937	679.62
458.157	674.62
458.377	678.62
458.598	649.62
458.818	671.62
459.038	708.62
459.258	734.62
459.478	716.62
459.698	689.62
459.918	709.62
460.138	769.62
460.358	802.62
460.578	832.62
460.798	853.62
461.018	864.62
461.238	852.62
461.458	820.62
461.678	806.62
461.898	799.62
462.118	802.62
462.338	824.62
462.558	823.62
462.777	823.62
462.997	855.62
463.217	875.62
463.437	879.62
463.657	829.62
463.876	799.62
464.096	806.62
464.316	810.62
464.536	850.62
464.755	845.62
464.975	852.62
465.195	866.62
465.414	868.62
465.634	883.62
465.854	840.62
466.073	939.62
466.293	906.62
466.512	853.62
466.732	890.62
466.951	880.62
467.171	885.62
467.391	890.62
467.61	867.62
467.829	891.62
468.049	960.62
468.268	1037.62
468.488	926.62
468.707	915.62
468.927	918.62
469.146	892.62
469.365	907.62
469.585	904.62
469.804	896.62
470.023	901.62
470.243	932.62
470.462	939.62
470.681	894.62
470.901	922.62
471.12	924.62
471.339	914.62
471.558	903.62
471.777	906.62
471.997	902.62
472.216	849.62
472.435	766.62
472.654	738.62
472.873	780.62
473.092	821.62
473.311	807.62
473.53	775.62
473.749	807.62
473.968	828.62
474.187	842.62
474.406	837.62
474.625	814.62
474.844	864.62
475.063	851.62
475.282	849.62
475.501	818.62
475.72	826.62
475.939	899.62
476.158	878.62
476.377	862.62
476.596	850.62
476.814	822.62
477.033	786.62
477.252	826.62
477.471	899.62
477.69	904.62
477.908	934.62
478.127	950.62
478.346	1010.62
478.564	987.62
478.783	987.62
479.002	1004.62
479.22	976.62
479.439	984.62
479.658	1029.62
479.876	955.62
480.095	912.62
480.313	894.62
480.532	866.62
480.751	840.62
480.969	840.62
481.188	803.62
481.406	778.62
481.624	795.62
481.843	782.62
482.061	819.62
482.28	855.62
482.498	893.62
482.717	825.62
482.935	868.62
483.153	975.62
483.372	1024.62
483.59	1004.62
483.808	962.62
484.027	943.62
484.245	992.62
484.463	1193.62
484.681	1288.62
484.9	1008.62
485.118	953.62
485.336	908.62
485.554	901.62
485.772	910.62
485.99	883.62
486.209	867.62
486.427	887.62
486.645	934.62
486.863	991.62
487.081	1024.62
487.299	1005.62
487.517	1042.62
487.735	1074.62
487.953	1204.62
488.171	1162.62
488.389	1115.62
488.607	1064.62
488.825	1141.62
489.043	1050.62
489.261	966.62
489.479	1039.62
489.696	1031.62
489.914	1011.62
490.132	1003.62
490.35	1056.62
490.568	1137.62
490.786	1164.62
491.003	1182.62
491.221	1214.62
491.439	1281.62
491.657	1289.62
491.874	1336.62
492.092	1416.62
492.31	1481.62
492.527	1445.62
492.745	1355.62
492.963	1294.62
493.18	1297.62
493.398	1305.62
493.615	1298.62
493.833	1259.62
494.05	1222.62
494.268	1226.62
494.485	1205.62
494.703	1208.62
494.92	1215.62
495.138	1218.62
495.355	1232.62
495.573	1255.62
495.79	1273.62
496.008	1252.62
496.225	1220.62
496.442	1236.62
496.66	1198.62
496.877	1199.62
497.094	1225.62
497.312	1232.62
497.529	1154.62
497.746	1171.62
497.963	1251.62
498.181	1309.62
498.398	1208.62
498.615	1162.62
498.832	1127.62
499.049	1145.62
499.267	1150.62
499.484	1236.62
499.701	1312.62
499.918	1360.62
500.135	1426.62
500.352	1534.62
500.569	1536.62
