Data from WStandard_LampEnergy8_LIBS07252019.E.O._I.C._HRD10591_15-57-49-933.txt Node
Date: Thu Jul 25 15:57:49 EDT 2019
User: cochatt
Spectrometer: HR+D1059
Trigger mode: 1
Integration Time (sec): 1.000000E-1
Scans to average: 1
Electric dark correction enabled: true
Nonlinearity correction enabled: false
Boxcar width: 0
XAxis mode: Wavelengths
Number of Pixels in Spectrum: 2048
>>>>>Begin Spectral Data<<<<<
223.165	2.56
223.4	2.56
223.635	2.56
223.869	-21.44
224.104	-21.44
224.338	-13.44
224.573	-13.44
224.808	-5.44
225.042	2.56
225.277	0.56
225.511	-12.44
225.746	-3.44
225.98	9.56
226.215	-2.44
226.449	12.56
226.683	24.56
226.918	17.56
227.152	23.56
227.387	35.56
227.621	34.56
227.856	43.56
228.09	56.56
228.324	32.56
228.559	64.56
228.793	96.56
229.027	222.56
229.262	204.56
229.496	250.56
229.73	231.56
229.964	262.56
230.199	279.56
230.433	280.56
230.667	309.56
230.901	318.56
231.136	288.56
231.37	249.56
231.604	265.56
231.838	275.56
232.072	266.56
232.306	263.56
232.541	284.56
232.775	310.56
233.009	331.56
233.243	321.56
233.477	294.56
233.711	320.56
233.945	312.56
234.179	301.56
234.413	326.56
234.647	345.56
234.881	346.56
235.115	298.56
235.349	311.56
235.583	316.56
235.817	312.56
236.051	303.56
236.285	305.56
236.519	343.56
236.753	363.56
236.987	369.56
237.221	374.56
237.455	406.56
237.689	378.56
237.922	369.56
238.156	357.56
238.39	370.56
238.624	385.56
238.858	395.56
239.091	412.56
239.325	445.56
239.559	524.56
239.793	499.56
240.027	510.56
240.26	537.56
240.494	427.56
240.728	415.56
240.961	395.56
241.195	423.56
241.429	436.56
241.662	432.56
241.896	396.56
242.13	420.56
242.363	442.56
242.597	459.56
242.83	459.56
243.064	476.56
243.298	521.56
243.531	498.56
243.765	498.56
243.998	491.56
244.232	450.56
244.465	432.56
244.699	434.56
244.932	487.56
245.166	554.56
245.399	519.56
245.633	486.56
245.866	466.56
246.099	510.56
246.333	516.56
246.566	534.56
246.8	558.56
247.033	600.56
247.266	576.56
247.5	567.56
247.733	563.56
247.966	606.56
248.2	638.56
248.433	647.56
248.666	632.56
248.899	691.56
249.133	792.56
249.366	860.56
249.599	711.56
249.832	666.56
250.066	662.56
250.299	651.56
250.532	615.56
250.765	564.56
250.998	590.56
251.231	608.56
251.465	657.56
251.698	604.56
251.931	615.56
252.164	631.56
252.397	674.56
252.63	612.56
252.863	569.56
253.096	588.56
253.329	601.56
253.562	647.56
253.795	656.56
254.028	654.56
254.261	614.56
254.494	582.56
254.727	580.56
254.96	636.56
255.193	680.56
255.426	753.56
255.659	838.56
255.892	832.56
256.124	706.56
256.357	711.56
256.59	736.56
256.823	727.56
257.056	758.56
257.289	876.56
257.521	932.56
257.754	835.56
257.987	814.56
258.22	883.56
258.452	862.56
258.685	726.56
258.918	680.56
259.151	722.56
259.383	711.56
259.616	642.56
259.849	683.56
260.081	738.56
260.314	823.56
260.547	886.56
260.779	867.56
261.012	826.56
261.244	722.56
261.477	711.56
261.71	719.56
261.942	721.56
262.175	709.56
262.407	770.56
262.64	709.56
262.872	641.56
263.105	634.56
263.337	649.56
263.57	682.56
263.802	672.56
264.035	640.56
264.267	622.56
264.499	610.56
264.732	625.56
264.964	672.56
265.197	725.56
265.429	758.56
265.661	839.56
265.894	912.56
266.126	915.56
266.358	833.56
266.591	849.56
266.823	904.56
267.055	810.56
267.287	823.56
267.52	835.56
267.752	836.56
267.984	817.56
268.216	828.56
268.448	878.56
268.681	832.56
268.913	783.56
269.145	737.56
269.377	743.56
269.609	807.56
269.841	954.56
270.073	1078.56
270.306	1176.56
270.538	1181.56
270.77	1017.56
271.002	912.56
271.234	847.56
271.466	870.56
271.698	986.56
271.93	1120.56
272.162	1126.56
272.394	1022.56
272.626	960.56
272.858	818.56
273.09	733.56
273.322	730.56
273.553	706.56
273.785	719.56
274.017	758.56
274.249	805.56
274.481	810.56
274.713	748.56
274.945	726.56
275.176	755.56
275.408	750.56
275.64	753.56
275.872	716.56
276.104	786.56
276.335	885.56
276.567	956.56
276.799	955.56
277.031	855.56
277.262	856.56
277.494	902.56
277.726	955.56
277.957	938.56
278.189	844.56
278.421	794.56
278.652	780.56
278.884	760.56
279.115	778.56
279.347	771.56
279.579	784.56
279.81	779.56
280.042	863.56
280.273	922.56
280.505	948.56
280.736	931.56
280.968	875.56
281.199	770.56
281.431	764.56
281.662	739.56
281.894	757.56
282.125	788.56
282.356	828.56
282.588	802.56
282.819	818.56
283.051	882.56
283.282	929.56
283.513	926.56
283.745	795.56
283.976	738.56
284.207	772.56
284.439	755.56
284.67	801.56
284.901	794.56
285.132	816.56
285.364	802.56
285.595	816.56
285.826	803.56
286.057	808.56
286.288	788.56
286.52	847.56
286.751	894.56
286.982	896.56
287.213	843.56
287.444	782.56
287.675	781.56
287.906	831.56
288.138	862.56
288.369	814.56
288.6	785.56
288.831	778.56
289.062	802.56
289.293	823.56
289.524	809.56
289.755	834.56
289.986	826.56
290.217	758.56
290.448	754.56
290.679	816.56
290.91	809.56
291.141	824.56
291.371	847.56
291.602	874.56
291.833	874.56
292.064	872.56
292.295	874.56
292.526	899.56
292.757	890.56
292.987	865.56
293.218	842.56
293.449	919.56
293.68	1058.56
293.91	1068.56
294.141	1037.56
294.372	950.56
294.603	978.56
294.833	1012.56
295.064	944.56
295.295	879.56
295.525	859.56
295.756	792.56
295.987	758.56
296.217	780.56
296.448	799.56
296.679	814.56
296.909	826.56
297.14	796.56
297.37	842.56
297.601	888.56
297.831	930.56
298.062	931.56
298.292	871.56
298.523	817.56
298.753	842.56
298.984	844.56
299.214	861.56
299.445	866.56
299.675	898.56
299.905	878.56
300.136	843.56
300.366	811.56
300.597	811.56
300.827	841.56
301.057	855.56
301.288	920.56
301.518	909.56
301.748	899.56
301.979	978.56
302.209	1001.56
302.439	1054.56
302.669	1079.56
302.9	975.56
303.13	889.56
303.36	890.56
303.59	919.56
303.82	909.56
304.051	880.56
304.281	910.56
304.511	928.56
304.741	979.56
304.971	1066.56
305.201	1130.56
305.431	1006.56
305.661	842.56
305.891	791.56
306.121	791.56
306.352	835.56
306.582	894.56
306.812	946.56
307.042	987.56
307.272	1011.56
307.502	1024.56
307.731	1098.56
307.961	1120.56
308.191	1046.56
308.421	922.56
308.651	864.56
308.881	853.56
309.111	848.56
309.341	853.56
309.571	885.56
309.8	870.56
310.03	864.56
310.26	844.56
310.49	838.56
310.72	891.56
310.949	900.56
311.179	907.56
311.409	921.56
311.639	897.56
311.868	895.56
312.098	912.56
312.328	884.56
312.557	852.56
312.787	887.56
313.017	922.56
313.246	909.56
313.476	932.56
313.706	917.56
313.935	948.56
314.165	950.56
314.394	980.56
314.624	1040.56
314.853	1090.56
315.083	1131.56
315.312	1121.56
315.542	1038.56
315.771	942.56
316.001	956.56
316.23	1027.56
316.46	999.56
316.689	964.56
316.919	930.56
317.148	918.56
317.377	943.56
317.607	1028.56
317.836	1109.56
318.065	1118.56
318.295	1078.56
318.524	1034.56
318.753	986.56
318.983	995.56
319.212	956.56
319.441	938.56
319.67	952.56
319.9	999.56
320.129	1026.56
320.358	1090.56
320.587	1103.56
320.816	1118.56
321.046	1062.56
321.275	994.56
321.504	1048.56
321.733	1103.56
321.962	1034.56
322.191	951.56
322.42	952.56
322.649	962.56
322.878	966.56
323.108	974.56
323.337	1018.56
323.566	990.56
323.795	990.56
324.024	1004.56
324.253	986.56
324.482	965.56
324.71	934.56
324.939	892.56
325.168	972.56
325.397	970.56
325.626	1001.56
325.855	970.56
326.084	959.56
326.313	974.56
326.542	987.56
326.77	1011.56
326.999	998.56
327.228	962.56
327.457	908.56
327.686	918.56
327.914	920.56
328.143	970.56
328.372	945.56
328.6	961.56
328.829	938.56
329.058	932.56
329.287	968.56
329.515	982.56
329.744	1030.56
329.972	1037.56
330.201	1070.56
330.43	1051.56
330.658	1013.56
330.887	1018.56
331.115	1013.56
331.344	1035.56
331.572	1017.56
331.801	1012.56
332.03	1007.56
332.258	1003.56
332.486	1072.56
332.715	1042.56
332.943	1060.56
333.172	1003.56
333.4	1080.56
333.629	1078.56
333.857	1144.56
334.085	1300.56
334.314	1428.56
334.542	1511.56
334.771	1375.56
334.999	1218.56
335.227	1142.56
335.455	1112.56
335.684	1106.56
335.912	1151.56
336.14	1140.56
336.369	1092.56
336.597	1057.56
336.825	1040.56
337.053	1113.56
337.281	1166.56
337.51	1196.56
337.738	1219.56
337.966	1126.56
338.194	1074.56
338.422	1024.56
338.65	1013.56
338.878	1030.56
339.106	978.56
339.334	967.56
339.562	977.56
339.79	993.56
340.018	1057.56
340.246	1098.56
340.474	1094.56
340.702	1054.56
340.93	1067.56
341.158	1032.56
341.386	1056.56
341.614	1042.56
341.842	1016.56
342.07	1014.56
342.298	1030.56
342.526	1011.56
342.754	981.56
342.981	1022.56
343.209	1010.56
343.437	986.56
343.665	1002.56
343.893	1054.56
344.12	1118.56
344.348	1080.56
344.576	1038.56
344.804	1017.56
345.031	1015.56
345.259	1029.56
345.487	969.56
345.714	937.56
345.942	943.56
346.17	953.56
346.397	1008.56
346.625	981.56
346.853	956.56
347.08	942.56
347.308	938.56
347.535	936.56
347.763	992.56
347.99	975.56
348.218	942.56
348.445	942.56
348.673	959.56
348.9	964.56
349.128	1035.56
349.355	1070.56
349.583	1012.56
349.81	971.56
350.037	880.56
350.265	882.56
350.492	912.56
350.72	942.56
350.947	968.56
351.174	992.56
351.402	950.56
351.629	896.56
351.856	884.56
352.083	891.56
352.311	907.56
352.538	950.56
352.765	965.56
352.992	992.56
353.22	951.56
353.447	913.56
353.674	951.56
353.901	938.56
354.128	907.56
354.355	921.56
354.583	991.56
354.81	977.56
355.037	997.56
355.264	975.56
355.491	962.56
355.718	967.56
355.945	948.56
356.172	946.56
356.399	910.56
356.626	952.56
356.853	986.56
357.08	1059.56
357.307	1157.56
357.534	1119.56
357.761	992.56
357.988	916.56
358.215	890.56
358.441	912.56
358.668	930.56
358.895	939.56
359.122	1010.56
359.349	1083.56
359.576	1048.56
359.802	920.56
360.029	913.56
360.256	939.56
360.483	975.56
360.709	976.56
360.936	1004.56
361.163	1042.56
361.39	1172.56
361.616	1233.56
361.843	1193.56
362.07	1105.56
362.296	954.56
362.523	936.56
362.749	949.56
362.976	988.56
363.203	962.56
363.429	919.56
363.656	930.56
363.882	992.56
364.109	1128.56
364.335	1162.56
364.562	1069.56
364.788	995.56
365.015	981.56
365.241	929.56
365.468	971.56
365.694	1008.56
365.92	1016.56
366.147	980.56
366.373	937.56
366.599	935.56
366.826	921.56
367.052	923.56
367.278	962.56
367.505	976.56
367.731	998.56
367.957	984.56
368.184	1038.56
368.41	1096.56
368.636	1106.56
368.862	1120.56
369.089	1117.56
369.315	1029.56
369.541	1007.56
369.767	934.56
369.993	977.56
370.219	973.56
370.445	991.56
370.672	1054.56
370.898	1118.56
371.124	1053.56
371.35	1042.56
371.576	1074.56
371.802	1080.56
372.028	1052.56
372.254	993.56
372.48	974.56
372.706	965.56
372.932	954.56
373.158	985.56
373.384	1015.56
373.61	1044.56
373.835	1084.56
374.061	1048.56
374.287	999.56
374.513	1020.56
374.739	1025.56
374.965	1031.56
375.191	1011.56
375.416	1046.56
375.642	1076.56
375.868	1137.56
376.094	1183.56
376.319	1108.56
376.545	1034.56
376.771	1077.56
376.997	1120.56
377.222	1092.56
377.448	1059.56
377.674	1076.56
377.899	1108.56
378.125	1140.56
378.35	1099.56
378.576	995.56
378.802	999.56
379.027	997.56
379.253	1002.56
379.478	1029.56
379.704	1022.56
379.929	1017.56
380.155	1025.56
380.38	1041.56
380.606	1008.56
380.831	1057.56
381.057	1075.56
381.282	1103.56
381.507	1068.56
381.733	1162.56
381.958	1150.56
382.184	1082.56
382.409	1076.56
382.634	1083.56
382.86	1102.56
383.085	1093.56
383.31	1138.56
383.535	1202.56
383.761	1248.56
383.986	1212.56
384.211	1174.56
384.436	1139.56
384.662	1218.56
384.887	1267.56
385.112	1167.56
385.337	1198.56
385.562	1162.56
385.787	1164.56
386.013	1206.56
386.238	1188.56
386.463	1179.56
386.688	1301.56
386.913	1352.56
387.138	1290.56
387.363	1202.56
387.588	1217.56
387.813	1174.56
388.038	1192.56
388.263	1279.56
388.488	1238.56
388.713	1117.56
388.938	1113.56
389.163	1155.56
389.387	1166.56
389.612	1163.56
389.837	1181.56
390.062	1155.56
390.287	1195.56
390.512	1141.56
390.736	1156.56
390.961	1094.56
391.186	1101.56
391.411	1124.56
391.636	1147.56
391.86	1114.56
392.085	1150.56
392.31	1139.56
392.534	1134.56
392.759	1180.56
392.984	1186.56
393.208	1179.56
393.433	1228.56
393.658	1292.56
393.882	1247.56
394.107	1178.56
394.331	1146.56
394.556	1153.56
394.78	1178.56
395.005	1246.56
395.229	1256.56
395.454	1372.56
395.678	1319.56
395.903	1269.56
396.127	1234.56
396.352	1285.56
396.576	1268.56
396.801	1295.56
397.025	1323.56
397.249	1310.56
397.474	1235.56
397.698	1280.56
397.922	1298.56
398.147	1355.56
398.371	1415.56
398.595	1383.56
398.82	1324.56
399.044	1391.56
399.268	1418.56
399.492	1455.56
399.717	1542.56
399.941	1549.56
400.165	1544.56
400.389	1474.56
400.613	1482.56
400.837	1688.56
401.062	1871.56
401.286	1575.56
401.51	1482.56
401.734	1542.56
401.958	1480.56
402.182	1364.56
402.406	1311.56
402.63	1280.56
402.854	1346.56
403.078	1366.56
403.302	1345.56
403.526	1385.56
403.75	1402.56
403.974	1405.56
404.198	1382.56
404.422	1460.56
404.645	1579.56
404.869	1508.56
405.093	1353.56
405.317	1343.56
405.541	1362.56
405.765	1392.56
405.988	1356.56
406.212	1377.56
406.436	1464.56
406.66	1478.56
406.883	1541.56
407.107	1706.56
407.331	1907.56
407.555	1986.56
407.778	1770.56
408.002	1467.56
408.226	1447.56
408.449	1434.56
408.673	1435.56
408.896	1411.56
409.12	1411.56
409.344	1406.56
409.567	1382.56
409.791	1405.56
410.014	1420.56
410.238	1514.56
410.461	1602.56
410.685	1426.56
410.908	1376.56
411.132	1378.56
411.355	1379.56
411.578	1336.56
411.802	1330.56
412.025	1408.56
412.249	1387.56
412.472	1326.56
412.695	1345.56
412.919	1299.56
413.142	1331.56
413.365	1374.56
413.589	1417.56
413.812	1446.56
414.035	1537.56
414.258	1368.56
414.482	1362.56
414.705	1364.56
414.928	1314.56
415.151	1336.56
415.374	1367.56
415.597	1363.56
415.821	1343.56
416.044	1379.56
416.267	1392.56
416.49	1307.56
416.713	1284.56
416.936	1385.56
417.159	1420.56
417.382	1387.56
417.605	1290.56
417.828	1362.56
418.051	1355.56
418.274	1337.56
418.497	1329.56
418.72	1319.56
418.943	1284.56
419.166	1344.56
419.389	1383.56
419.611	1328.56
419.834	1340.56
420.057	1353.56
420.28	1324.56
420.503	1352.56
420.726	1370.56
420.948	1353.56
421.171	1313.56
421.394	1327.56
421.617	1334.56
421.839	1359.56
422.062	1368.56
422.285	1282.56
422.507	1321.56
422.73	1257.56
422.953	1214.56
423.175	1262.56
423.398	1326.56
423.621	1307.56
423.843	1306.56
424.066	1348.56
424.288	1414.56
424.511	1435.56
424.733	1379.56
424.956	1254.56
425.178	1267.56
425.401	1299.56
425.623	1318.56
425.846	1313.56
426.068	1366.56
426.291	1393.56
426.513	1370.56
426.735	1372.56
426.958	1489.56
427.18	1511.56
427.402	1414.56
427.625	1497.56
427.847	1443.56
428.069	1363.56
428.292	1306.56
428.514	1286.56
428.736	1237.56
428.958	1237.56
429.181	1294.56
429.403	1523.56
429.625	1842.56
429.847	1542.56
430.069	1323.56
430.292	1481.56
430.514	1498.56
430.736	1394.56
430.958	1422.56
431.18	1345.56
431.402	1224.56
431.624	1216.56
431.846	1228.56
432.068	1154.56
432.29	1211.56
432.512	1208.56
432.734	1277.56
432.956	1323.56
433.178	1382.56
433.4	1338.56
433.622	1327.56
433.844	1273.56
434.066	1239.56
434.287	1224.56
434.509	1225.56
434.731	1300.56
434.953	1414.56
435.175	1432.56
435.397	1291.56
435.618	1324.56
435.84	1291.56
436.062	1269.56
436.284	1326.56
436.505	1314.56
436.727	1358.56
436.949	1290.56
437.17	1259.56
437.392	1222.56
437.614	1238.56
437.835	1224.56
438.057	1274.56
438.278	1303.56
438.5	1281.56
438.721	1246.56
438.943	1303.56
439.165	1263.56
439.386	1253.56
439.608	1268.56
439.829	1318.56
440.05	1290.56
440.272	1266.56
440.493	1234.56
440.715	1331.56
440.936	1423.56
441.158	1470.56
441.379	1460.56
441.6	1416.56
441.822	1370.56
442.043	1379.56
442.264	1340.56
442.486	1306.56
442.707	1270.56
442.928	1271.56
443.149	1326.56
443.371	1383.56
443.592	1406.56
443.813	1426.56
444.034	1421.56
444.255	1396.56
444.476	1431.56
444.698	1427.56
444.919	1462.56
445.14	1523.56
445.361	1449.56
445.582	1520.56
445.803	1459.56
446.024	1397.56
446.245	1452.56
446.466	1392.56
446.687	1360.56
446.908	1379.56
447.129	1347.56
447.35	1341.56
447.571	1341.56
447.792	1260.56
448.013	1249.56
448.234	1319.56
448.455	1394.56
448.675	1350.56
448.896	1262.56
449.117	1241.56
449.338	1243.56
449.559	1324.56
449.779	1402.56
450	1479.56
450.221	1534.56
450.442	1442.56
450.662	1332.56
450.883	1259.56
451.104	1213.56
451.324	1251.56
451.545	1219.56
451.766	1246.56
451.986	1156.56
452.207	1127.56
452.428	1142.56
452.648	1088.56
452.869	1153.56
453.089	1206.56
453.31	1194.56
453.53	1190.56
453.751	1157.56
453.971	1091.56
454.192	1162.56
454.412	1226.56
454.633	1199.56
454.853	1153.56
455.073	1054.56
455.294	1101.56
455.514	1088.56
455.734	1116.56
455.955	1113.56
456.175	1092.56
456.395	1104.56
456.616	1114.56
456.836	1120.56
457.056	1150.56
457.276	1103.56
457.497	1106.56
457.717	1051.56
457.937	1075.56
458.157	1111.56
458.377	1052.56
458.598	1061.56
458.818	1068.56
459.038	1154.56
459.258	1178.56
459.478	1190.56
459.698	1143.56
459.918	1178.56
460.138	1243.56
460.358	1276.56
460.578	1284.56
460.798	1344.56
461.018	1369.56
461.238	1350.56
461.458	1338.56
461.678	1282.56
461.898	1262.56
462.118	1219.56
462.338	1301.56
462.558	1302.56
462.777	1328.56
462.997	1356.56
463.217	1404.56
463.437	1351.56
463.657	1298.56
463.876	1305.56
464.096	1252.56
464.316	1298.56
464.536	1321.56
464.755	1315.56
464.975	1323.56
465.195	1323.56
465.414	1370.56
465.634	1344.56
465.854	1335.56
466.073	1492.56
466.293	1400.56
466.512	1263.56
466.732	1218.56
466.951	1262.56
467.171	1259.56
467.391	1231.56
467.61	1211.56
467.829	1238.56
468.049	1359.56
468.268	1526.56
468.488	1376.56
468.707	1290.56
468.927	1271.56
469.146	1251.56
469.365	1275.56
469.585	1268.56
469.804	1283.56
470.023	1288.56
470.243	1293.56
470.462	1247.56
470.681	1218.56
470.901	1252.56
471.12	1286.56
471.339	1304.56
471.558	1241.56
471.777	1224.56
471.997	1251.56
472.216	1238.56
472.435	1164.56
472.654	1156.56
472.873	1218.56
473.092	1276.56
473.311	1192.56
473.53	1182.56
473.749	1171.56
473.968	1212.56
474.187	1243.56
474.406	1249.56
474.625	1235.56
474.844	1217.56
475.063	1222.56
475.282	1258.56
475.501	1248.56
475.72	1235.56
475.939	1351.56
476.158	1296.56
476.377	1282.56
476.596	1237.56
476.814	1254.56
477.033	1277.56
477.252	1298.56
477.471	1329.56
477.69	1313.56
477.908	1302.56
478.127	1399.56
478.346	1456.56
478.564	1467.56
478.783	1456.56
479.002	1485.56
479.22	1495.56
479.439	1498.56
479.658	1639.56
479.876	1550.56
480.095	1412.56
480.313	1368.56
480.532	1327.56
480.751	1336.56
480.969	1308.56
481.188	1321.56
481.406	1304.56
481.624	1274.56
481.843	1304.56
482.061	1323.56
482.28	1349.56
482.498	1350.56
482.717	1330.56
482.935	1337.56
483.153	1431.56
483.372	1414.56
483.59	1414.56
483.808	1395.56
484.027	1396.56
484.245	1490.56
484.463	1774.56
484.681	1970.56
484.9	1525.56
485.118	1401.56
485.336	1381.56
485.554	1394.56
485.772	1456.56
485.99	1411.56
486.209	1384.56
486.427	1435.56
486.645	1438.56
486.863	1434.56
487.081	1474.56
487.299	1513.56
487.517	1483.56
487.735	1512.56
487.953	1560.56
488.171	1541.56
488.389	1528.56
488.607	1515.56
488.825	1684.56
489.043	1607.56
489.261	1432.56
489.479	1515.56
489.696	1506.56
489.914	1535.56
490.132	1474.56
490.35	1502.56
490.568	1548.56
490.786	1529.56
491.003	1494.56
491.221	1583.56
491.439	1644.56
491.657	1608.56
491.874	1660.56
492.092	1676.56
492.31	1730.56
492.527	1683.56
492.745	1653.56
