Data from WStandard_LampEnergy5.5LIBS07252019.E.O._I.C._HRD10591_16-06-40-920.txt Node
Date: Thu Jul 25 16:06:40 EDT 2019
User: cochatt
Spectrometer: HR+D1059
Trigger mode: 1
Integration Time (sec): 1.000000E-1
Scans to average: 1
Electric dark correction enabled: true
Nonlinearity correction enabled: false
Boxcar width: 0
XAxis mode: Wavelengths
Number of Pixels in Spectrum: 2048
>>>>>Begin Spectral Data<<<<<
223.165	-22.38
223.4	-22.38
223.635	-22.38
223.869	-25.38
224.104	-24.38
224.338	-8.38
224.573	-21.38
224.808	-19.38
225.042	-0.38
225.277	-9.38
225.511	4.62
225.746	-3.38
225.98	22.62
226.215	5.62
226.449	8.62
226.683	39.62
226.918	31.62
227.152	21.62
227.387	28.62
227.621	33.62
227.856	35.62
228.09	49.62
228.324	52.62
228.559	51.62
228.793	143.62
229.027	360.62
229.262	375.62
229.496	393.62
229.73	390.62
229.964	457.62
230.199	437.62
230.433	478.62
230.667	493.62
230.901	524.62
231.136	490.62
231.37	463.62
231.604	467.62
231.838	453.62
232.072	466.62
232.306	451.62
232.541	467.62
232.775	547.62
233.009	604.62
233.243	558.62
233.477	531.62
233.711	542.62
233.945	567.62
234.179	548.62
234.413	588.62
234.647	627.62
234.881	611.62
235.115	551.62
235.349	538.62
235.583	558.62
235.817	548.62
236.051	546.62
236.285	533.62
236.519	617.62
236.753	671.62
236.987	699.62
237.221	694.62
237.455	729.62
237.689	726.62
237.922	693.62
238.156	656.62
238.39	681.62
238.624	712.62
238.858	771.62
239.091	786.62
239.325	812.62
239.559	901.62
239.793	975.62
240.027	1073.62
240.26	1052.62
240.494	767.62
240.728	701.62
240.961	734.62
241.195	723.62
241.429	814.62
241.662	829.62
241.896	751.62
242.13	770.62
242.363	848.62
242.597	927.62
242.83	885.62
243.064	894.62
243.298	960.62
243.531	916.62
243.765	933.62
243.998	942.62
244.232	814.62
244.465	781.62
244.699	785.62
244.932	912.62
245.166	1031.62
245.399	1017.62
245.633	895.62
245.866	892.62
246.099	928.62
246.333	952.62
246.566	957.62
246.8	1079.62
247.033	1176.62
247.266	1085.62
247.5	1064.62
247.733	1091.62
247.966	1115.62
248.2	1215.62
248.433	1168.62
248.666	1194.62
248.899	1313.62
249.133	1515.62
249.366	1724.62
249.599	1420.62
249.832	1213.62
250.066	1279.62
250.299	1298.62
250.532	1213.62
250.765	1101.62
250.998	1146.62
251.231	1214.62
251.465	1255.62
251.698	1180.62
251.931	1145.62
252.164	1214.62
252.397	1237.62
252.63	1267.62
252.863	1094.62
253.096	1073.62
253.329	1149.62
253.562	1168.62
253.795	1257.62
254.028	1213.62
254.261	1157.62
254.494	1164.62
254.727	1069.62
254.96	1139.62
255.193	1283.62
255.426	1409.62
255.659	1636.62
255.892	1684.62
256.124	1398.62
256.357	1329.62
256.59	1446.62
256.823	1442.62
257.056	1441.62
257.289	1693.62
257.521	1921.62
257.754	1704.62
257.987	1583.62
258.22	1813.62
258.452	1720.62
258.685	1420.62
258.918	1361.62
259.151	1400.62
259.383	1332.62
259.616	1175.62
259.849	1217.62
260.081	1369.62
260.314	1553.62
260.547	1733.62
260.779	1754.62
261.012	1569.62
261.244	1438.62
261.477	1353.62
261.71	1419.62
261.942	1388.62
262.175	1371.62
262.407	1461.62
262.64	1361.62
262.872	1250.62
263.105	1209.62
263.337	1257.62
263.57	1292.62
263.802	1289.62
264.035	1222.62
264.267	1133.62
264.499	1131.62
264.732	1196.62
264.964	1309.62
265.197	1345.62
265.429	1383.62
265.661	1557.62
265.894	1721.62
266.126	1787.62
266.358	1588.62
266.591	1683.62
266.823	1831.62
267.055	1615.62
267.287	1579.62
267.52	1580.62
267.752	1538.62
267.984	1559.62
268.216	1575.62
268.448	1634.62
268.681	1647.62
268.913	1507.62
269.145	1401.62
269.377	1419.62
269.609	1495.62
269.841	1733.62
270.073	2034.62
270.306	2274.62
270.538	2449.62
270.77	2059.62
271.002	1729.62
271.234	1620.62
271.466	1611.62
271.698	1832.62
271.93	2213.62
272.162	2184.62
272.394	2005.62
272.626	1883.62
272.858	1670.62
273.09	1433.62
273.322	1446.62
273.553	1358.62
273.785	1361.62
274.017	1448.62
274.249	1557.62
274.481	1598.62
274.713	1433.62
274.945	1384.62
275.176	1421.62
275.408	1410.62
275.64	1382.62
275.872	1344.62
276.104	1453.62
276.335	1633.62
276.567	1843.62
276.799	1906.62
277.031	1721.62
277.262	1595.62
277.494	1637.62
277.726	1816.62
277.957	1811.62
278.189	1637.62
278.421	1539.62
278.652	1495.62
278.884	1439.62
279.115	1443.62
279.347	1509.62
279.579	1463.62
279.81	1461.62
280.042	1599.62
280.273	1774.62
280.505	1784.62
280.736	1797.62
280.968	1706.62
281.199	1467.62
281.431	1430.62
281.662	1434.62
281.894	1417.62
282.125	1467.62
282.356	1515.62
282.588	1564.62
282.819	1499.62
283.051	1662.62
283.282	1781.62
283.513	1716.62
283.745	1517.62
283.976	1392.62
284.207	1405.62
284.439	1490.62
284.67	1488.62
284.901	1502.62
285.132	1534.62
285.364	1527.62
285.595	1530.62
285.826	1505.62
286.057	1458.62
286.288	1463.62
286.52	1568.62
286.751	1657.62
286.982	1723.62
287.213	1579.62
287.444	1443.62
287.675	1395.62
287.906	1475.62
288.138	1666.62
288.369	1573.62
288.6	1474.62
288.831	1438.62
289.062	1463.62
289.293	1495.62
289.524	1490.62
289.755	1516.62
289.986	1558.62
290.217	1431.62
290.448	1470.62
290.679	1535.62
290.91	1521.62
291.141	1573.62
291.371	1634.62
291.602	1588.62
291.833	1553.62
292.064	1610.62
292.295	1627.62
292.526	1642.62
292.757	1721.62
292.987	1663.62
293.218	1537.62
293.449	1667.62
293.68	1855.62
293.91	2059.62
294.141	1894.62
294.372	1754.62
294.603	1763.62
294.833	1887.62
295.064	1776.62
295.295	1594.62
295.525	1607.62
295.756	1481.62
295.987	1404.62
296.217	1450.62
296.448	1447.62
296.679	1479.62
296.909	1486.62
297.14	1465.62
297.37	1499.62
297.601	1558.62
297.831	1678.62
298.062	1719.62
298.292	1577.62
298.523	1475.62
298.753	1486.62
298.984	1551.62
299.214	1509.62
299.445	1525.62
299.675	1628.62
299.905	1635.62
300.136	1555.62
300.366	1526.62
300.597	1502.62
300.827	1485.62
301.057	1553.62
301.288	1605.62
301.518	1617.62
301.748	1634.62
301.979	1715.62
302.209	1732.62
302.439	1845.62
302.669	1944.62
302.9	1811.62
303.13	1621.62
303.36	1640.62
303.59	1668.62
303.82	1629.62
304.051	1605.62
304.281	1589.62
304.511	1605.62
304.741	1686.62
304.971	1877.62
305.201	2081.62
305.431	1955.62
305.661	1604.62
305.891	1413.62
306.121	1441.62
306.352	1498.62
306.582	1558.62
306.812	1669.62
307.042	1834.62
307.272	1803.62
307.502	1859.62
307.731	1960.62
307.961	2157.62
308.191	1949.62
308.421	1706.62
308.651	1573.62
308.881	1563.62
309.111	1551.62
309.341	1563.62
309.571	1562.62
309.8	1561.62
310.03	1568.62
310.26	1544.62
310.49	1553.62
310.72	1603.62
310.949	1672.62
311.179	1669.62
311.409	1652.62
311.639	1650.62
311.868	1550.62
312.098	1539.62
312.328	1600.62
312.557	1554.62
312.787	1601.62
313.017	1645.62
313.246	1628.62
313.476	1638.62
313.706	1706.62
313.935	1698.62
314.165	1661.62
314.394	1717.62
314.624	1801.62
314.853	1907.62
315.083	1955.62
315.312	2059.62
315.542	1916.62
315.771	1701.62
316.001	1697.62
316.23	1815.62
316.46	1798.62
316.689	1757.62
316.919	1653.62
317.148	1576.62
317.377	1596.62
317.607	1729.62
317.836	1958.62
318.065	2015.62
318.295	1957.62
318.524	1860.62
318.753	1786.62
318.983	1799.62
319.212	1745.62
319.441	1717.62
319.67	1717.62
319.9	1722.62
320.129	1811.62
320.358	1892.62
320.587	1940.62
320.816	1939.62
321.046	1894.62
321.275	1781.62
321.504	1780.62
321.733	1917.62
321.962	1860.62
322.191	1741.62
322.42	1742.62
322.649	1707.62
322.878	1717.62
323.108	1707.62
323.337	1761.62
323.566	1796.62
323.795	1777.62
324.024	1784.62
324.253	1697.62
324.482	1787.62
324.71	1690.62
324.939	1604.62
325.168	1656.62
325.397	1693.62
325.626	1764.62
325.855	1766.62
326.084	1720.62
326.313	1726.62
326.542	1754.62
326.77	1815.62
326.999	1849.62
327.228	1741.62
327.457	1642.62
327.686	1619.62
327.914	1695.62
328.143	1703.62
328.372	1725.62
328.6	1720.62
328.829	1719.62
329.058	1685.62
329.287	1682.62
329.515	1710.62
329.744	1785.62
329.972	1845.62
330.201	1943.62
330.43	1896.62
330.658	1799.62
330.887	1826.62
331.115	1817.62
331.344	1865.62
331.572	1822.62
331.801	1787.62
332.03	1807.62
332.258	1799.62
332.486	1868.62
332.715	1883.62
332.943	1837.62
333.172	1814.62
333.4	1849.62
333.629	1904.62
333.857	1999.62
334.085	2212.62
334.314	2422.62
334.542	2774.62
334.771	2540.62
334.999	2225.62
335.227	2092.62
335.455	1973.62
335.684	1916.62
335.912	2002.62
336.14	2064.62
336.369	2028.62
336.597	1892.62
336.825	1836.62
337.053	1864.62
337.281	1965.62
337.51	2093.62
337.738	2205.62
337.966	2125.62
338.194	1933.62
338.422	1819.62
338.65	1823.62
338.878	1814.62
339.106	1776.62
339.334	1723.62
339.562	1690.62
339.79	1756.62
340.018	1865.62
340.246	1913.62
340.474	1959.62
340.702	1857.62
340.93	1883.62
341.158	1849.62
341.386	1832.62
341.614	1797.62
341.842	1808.62
342.07	1815.62
342.298	1831.62
342.526	1804.62
342.754	1811.62
342.981	1773.62
343.209	1742.62
343.437	1746.62
343.665	1742.62
343.893	1846.62
344.12	1923.62
344.348	1969.62
344.576	1830.62
344.804	1805.62
345.031	1777.62
345.259	1804.62
345.487	1739.62
345.714	1664.62
345.942	1640.62
346.17	1689.62
346.397	1730.62
346.625	1731.62
346.853	1636.62
347.08	1596.62
347.308	1632.62
347.535	1631.62
347.763	1727.62
347.99	1688.62
348.218	1630.62
348.445	1612.62
348.673	1672.62
348.9	1715.62
349.128	1713.62
349.355	1842.62
349.583	1715.62
349.81	1675.62
350.037	1565.62
350.265	1578.62
350.492	1589.62
350.72	1644.62
350.947	1692.62
351.174	1713.62
351.402	1660.62
351.629	1608.62
351.856	1547.62
352.083	1542.62
352.311	1554.62
352.538	1614.62
352.765	1693.62
352.992	1758.62
353.22	1646.62
353.447	1591.62
353.674	1591.62
353.901	1677.62
354.128	1597.62
354.355	1622.62
354.583	1648.62
354.81	1753.62
355.037	1704.62
355.264	1711.62
355.491	1630.62
355.718	1678.62
355.945	1658.62
356.172	1606.62
356.399	1549.62
356.626	1601.62
356.853	1647.62
357.08	1769.62
357.307	1981.62
357.534	1947.62
357.761	1693.62
357.988	1614.62
358.215	1559.62
358.441	1598.62
358.668	1581.62
358.895	1567.62
359.122	1644.62
359.349	1857.62
359.576	1834.62
359.802	1688.62
360.029	1590.62
360.256	1566.62
360.483	1592.62
360.709	1628.62
360.936	1698.62
361.163	1775.62
361.39	1923.62
361.616	2091.62
361.843	2013.62
362.07	1925.62
362.296	1669.62
362.523	1613.62
362.749	1601.62
362.976	1680.62
363.203	1737.62
363.429	1653.62
363.656	1568.62
363.882	1645.62
364.109	1788.62
364.335	1989.62
364.562	1845.62
364.788	1753.62
365.015	1645.62
365.241	1577.62
365.468	1653.62
365.694	1718.62
365.92	1820.62
366.147	1719.62
366.373	1628.62
366.599	1583.62
366.826	1571.62
367.052	1597.62
367.278	1625.62
367.505	1635.62
367.731	1662.62
367.957	1638.62
368.184	1708.62
368.41	1803.62
368.636	1846.62
368.862	1828.62
369.089	1879.62
369.315	1779.62
369.541	1751.62
369.767	1657.62
369.993	1594.62
370.219	1633.62
370.445	1643.62
370.672	1720.62
370.898	1827.62
371.124	1861.62
371.35	1699.62
371.576	1791.62
371.802	1870.62
372.028	1775.62
372.254	1707.62
372.48	1646.62
372.706	1648.62
372.932	1622.62
373.158	1645.62
373.384	1701.62
373.61	1717.62
373.835	1809.62
374.061	1766.62
374.287	1721.62
374.513	1734.62
374.739	1709.62
374.965	1785.62
375.191	1740.62
375.416	1785.62
375.642	1766.62
375.868	1875.62
376.094	1931.62
376.319	1837.62
376.545	1719.62
376.771	1762.62
376.997	1841.62
377.222	1833.62
377.448	1748.62
377.674	1802.62
377.899	1753.62
378.125	1905.62
378.35	1923.62
378.576	1702.62
378.802	1689.62
379.027	1638.62
379.253	1691.62
379.478	1724.62
379.704	1713.62
379.929	1729.62
380.155	1677.62
380.38	1749.62
380.606	1753.62
380.831	1734.62
381.057	1820.62
381.282	1843.62
381.507	1845.62
381.733	1861.62
381.958	2049.62
382.184	1826.62
382.409	1802.62
382.634	1838.62
382.86	1800.62
383.085	1810.62
383.31	1828.62
383.535	1970.62
383.761	2117.62
383.986	1993.62
384.211	1932.62
384.436	1913.62
384.662	1989.62
384.887	2066.62
385.112	1994.62
385.337	2035.62
385.562	1969.62
385.787	1972.62
386.013	1999.62
386.238	2059.62
386.463	1982.62
386.688	2103.62
386.913	2210.62
387.138	2204.62
387.363	2024.62
387.588	2095.62
387.813	2007.62
388.038	2015.62
388.263	2072.62
388.488	2049.62
388.713	1875.62
388.938	1861.62
389.163	1880.62
389.387	1946.62
389.612	1937.62
389.837	1976.62
390.062	1992.62
390.287	1958.62
390.512	1947.62
390.736	1922.62
390.961	1889.62
391.186	1834.62
391.411	1917.62
391.636	1937.62
391.86	1987.62
392.085	1977.62
392.31	1994.62
392.534	1976.62
392.759	1989.62
392.984	1950.62
393.208	2049.62
393.433	2114.62
393.658	2157.62
393.882	2123.62
394.107	2041.62
394.331	1939.62
394.556	1963.62
394.78	1991.62
395.005	2023.62
395.229	2137.62
395.454	2254.62
395.678	2335.62
395.903	2148.62
396.127	2071.62
396.352	2101.62
396.576	2149.62
396.801	2189.62
397.025	2215.62
397.249	2176.62
397.474	2129.62
397.698	2110.62
397.922	2153.62
398.147	2259.62
398.371	2346.62
398.595	2346.62
398.82	2256.62
399.044	2337.62
399.268	2352.62
399.492	2567.62
399.717	2641.62
399.941	2710.62
400.165	2589.62
400.389	2517.62
400.613	2525.62
400.837	2700.62
401.062	3123.62
401.286	2694.62
401.51	2489.62
401.734	2569.62
401.958	2461.62
402.182	2365.62
402.406	2241.62
402.63	2196.62
402.854	2213.62
403.078	2230.62
403.302	2371.62
403.526	2345.62
403.75	2388.62
403.974	2364.62
404.198	2335.62
404.422	2407.62
404.645	2516.62
404.869	2504.62
405.093	2304.62
405.317	2278.62
405.541	2337.62
405.765	2377.62
405.988	2348.62
406.212	2403.62
406.436	2435.62
406.66	2503.62
406.883	2487.62
407.107	2793.62
407.331	3013.62
407.555	3241.62
407.778	3041.62
408.002	2518.62
408.226	2447.62
408.449	2475.62
408.673	2405.62
408.896	2391.62
409.12	2481.62
409.344	2385.62
409.567	2311.62
409.791	2354.62
410.014	2402.62
410.238	2461.62
410.461	2644.62
410.685	2408.62
410.908	2300.62
411.132	2307.62
411.355	2353.62
411.578	2324.62
411.802	2268.62
412.025	2357.62
412.249	2269.62
412.472	2214.62
412.695	2241.62
412.919	2206.62
413.142	2211.62
413.365	2254.62
413.589	2295.62
413.812	2419.62
414.035	2473.62
414.258	2317.62
414.482	2210.62
414.705	2250.62
414.928	2181.62
415.151	2204.62
415.374	2251.62
415.597	2305.62
415.821	2294.62
416.044	2395.62
416.267	2355.62
416.49	2150.62
416.713	2156.62
416.936	2213.62
417.159	2264.62
417.382	2316.62
417.605	2144.62
417.828	2277.62
418.051	2309.62
418.274	2236.62
418.497	2198.62
418.72	2177.62
418.943	2123.62
419.166	2300.62
419.389	2384.62
419.611	2276.62
419.834	2211.62
420.057	2252.62
420.28	2161.62
420.503	2151.62
420.726	2222.62
420.948	2215.62
421.171	2135.62
421.394	2149.62
421.617	2255.62
421.839	2215.62
422.062	2174.62
422.285	2078.62
422.507	2108.62
422.73	2092.62
422.953	2049.62
423.175	2063.62
423.398	2129.62
423.621	2115.62
423.843	2158.62
424.066	2225.62
424.288	2240.62
424.511	2307.62
424.733	2233.62
424.956	2061.62
425.178	2028.62
425.401	2059.62
425.623	2104.62
425.846	2086.62
426.068	2193.62
426.291	2277.62
426.513	2197.62
426.735	2207.62
426.958	2284.62
427.18	2439.62
427.402	2252.62
427.625	2317.62
427.847	2386.62
428.069	2174.62
428.292	2165.62
428.514	2036.62
428.736	2054.62
428.958	2077.62
429.181	2112.62
429.403	2349.62
429.625	2875.62
429.847	2549.62
430.069	2122.62
430.292	2350.62
430.514	2455.62
430.736	2241.62
430.958	2354.62
431.18	2285.62
431.402	2131.62
431.624	2050.62
431.846	2099.62
432.068	2015.62
432.29	2041.62
432.512	2094.62
432.734	2109.62
432.956	2175.62
433.178	2247.62
433.4	2226.62
433.622	2247.62
433.844	2118.62
434.066	2026.62
434.287	2041.62
434.509	2121.62
434.731	2284.62
434.953	2396.62
435.175	2335.62
435.397	2196.62
435.618	2230.62
435.84	2238.62
436.062	2174.62
436.284	2178.62
436.505	2235.62
436.727	2229.62
436.949	2153.62
437.17	2081.62
437.392	2053.62
437.614	2115.62
437.835	2012.62
438.057	2190.62
438.278	2289.62
438.5	2131.62
438.721	2066.62
438.943	2123.62
439.165	2049.62
439.386	2078.62
439.608	2029.62
439.829	2085.62
440.05	2127.62
440.272	2063.62
440.493	2044.62
440.715	2109.62
440.936	2213.62
441.158	2420.62
441.379	2406.62
441.6	2273.62
441.822	2251.62
442.043	2200.62
442.264	2150.62
442.486	2062.62
442.707	2081.62
442.928	2079.62
443.149	2186.62
443.371	2270.62
443.592	2369.62
443.813	2267.62
444.034	2280.62
444.255	2283.62
444.476	2328.62
444.698	2406.62
444.919	2343.62
445.14	2437.62
445.361	2444.62
445.582	2521.62
445.803	2390.62
446.024	2276.62
446.245	2401.62
446.466	2304.62
446.687	2138.62
446.908	2203.62
447.129	2101.62
447.35	2128.62
447.571	2141.62
447.792	2002.62
448.013	2042.62
448.234	2113.62
448.455	2170.62
448.675	2249.62
448.896	2007.62
449.117	1974.62
449.338	2008.62
449.559	2114.62
449.779	2215.62
450	2440.62
450.221	2662.62
450.442	2593.62
450.662	2237.62
450.883	2005.62
451.104	1951.62
451.324	1985.62
451.545	2081.62
451.766	2049.62
451.986	1932.62
452.207	1927.62
452.428	1861.62
452.648	1837.62
452.869	1898.62
453.089	2042.62
453.31	2071.62
453.53	2072.62
453.751	2014.62
453.971	1856.62
454.192	1935.62
454.412	2070.62
454.633	1942.62
454.853	1940.62
455.073	1812.62
455.294	1802.62
455.514	1795.62
455.734	1851.62
455.955	1849.62
456.175	1869.62
456.395	1855.62
456.616	1899.62
456.836	1969.62
457.056	1867.62
457.276	1894.62
457.497	1875.62
457.717	1809.62
457.937	1867.62
458.157	1856.62
458.377	1828.62
458.598	1827.62
458.818	1886.62
459.038	1978.62
459.258	2145.62
459.478	2152.62
459.698	2063.62
459.918	2086.62
460.138	2215.62
460.358	2218.62
460.578	2246.62
460.798	2323.62
461.018	2425.62
461.238	2312.62
461.458	2205.62
461.678	2232.62
461.898	2192.62
462.118	2122.62
462.338	2264.62
462.558	2237.62
462.777	2246.62
462.997	2325.62
463.217	2465.62
463.437	2454.62
463.657	2295.62
463.876	2189.62
464.096	2243.62
464.316	2215.62
464.536	2302.62
464.755	2325.62
464.975	2353.62
465.195	2253.62
465.414	2354.62
465.634	2331.62
465.854	2211.62
466.073	2366.62
466.293	2284.62
466.512	2006.62
466.732	2006.62
466.951	2124.62
467.171	2095.62
467.391	2021.62
467.61	1967.62
467.829	1978.62
468.049	2143.62
468.268	2434.62
468.488	2273.62
468.707	2172.62
468.927	2116.62
469.146	2010.62
469.365	2005.62
469.585	2019.62
469.804	2005.62
470.023	2014.62
470.243	2058.62
470.462	2046.62
470.681	1999.62
470.901	2050.62
471.12	2057.62
471.339	2007.62
471.558	1939.62
471.777	1931.62
471.997	1981.62
472.216	2022.62
472.435	1951.62
472.654	1965.62
472.873	2047.62
473.092	2193.62
473.311	2043.62
473.53	1923.62
473.749	1933.62
473.968	1994.62
474.187	2146.62
474.406	2224.62
474.625	2105.62
474.844	2048.62
475.063	2022.62
475.282	2125.62
475.501	2045.62
475.72	2085.62
475.939	2193.62
476.158	2117.62
476.377	2070.62
476.596	2064.62
476.814	2137.62
477.033	2169.62
477.252	2249.62
477.471	2300.62
477.69	2186.62
477.908	2121.62
478.127	2241.62
478.346	2457.62
478.564	2499.62
478.783	2462.62
479.002	2469.62
479.22	2401.62
479.439	2545.62
479.658	2877.62
479.876	2841.62
480.095	2474.62
480.313	2382.62
480.532	2269.62
480.751	2281.62
480.969	2315.62
481.188	2317.62
481.406	2263.62
481.624	2235.62
481.843	2274.62
482.061	2331.62
482.28	2340.62
482.498	2396.62
482.717	2366.62
482.935	2273.62
483.153	2247.62
483.372	2251.62
483.59	2204.62
483.808	2259.62
484.027	2317.62
484.245	2458.62
484.463	2806.62
484.681	3197.62
484.9	2497.62
485.118	2301.62
485.336	2319.62
485.554	2393.62
485.772	2532.62
485.99	2433.62
486.209	2491.62
486.427	2476.62
486.645	2435.62
486.863	2392.62
487.081	2477.62
487.299	2506.62
