Data from WStandard_LampEnergy10_LIBS07252019.E.O._I.C._HRD10591_15-54-08-927.txt Node
Date: Thu Jul 25 15:54:08 EDT 2019
User: cochatt
Spectrometer: HR+D1059
Trigger mode: 1
Integration Time (sec): 1.000000E-1
Scans to average: 1
Electric dark correction enabled: true
Nonlinearity correction enabled: false
Boxcar width: 0
XAxis mode: Wavelengths
Number of Pixels in Spectrum: 2048
>>>>>Begin Spectral Data<<<<<
223.165	-26.81
223.4	-26.81
223.635	-26.81
223.869	-16.81
224.104	-22.81
224.338	-12.81
224.573	-11.81
224.808	-15.81
225.042	2.19
225.277	-13.81
225.511	2.19
225.746	6.19
225.98	14.19
226.215	21.19
226.449	4.19
226.683	22.19
226.918	15.19
227.152	33.19
227.387	31.19
227.621	25.19
227.856	45.19
228.09	55.19
228.324	54.19
228.559	54.19
228.793	80.19
229.027	139.19
229.262	142.19
229.496	149.19
229.73	151.19
229.964	175.19
230.199	162.19
230.433	192.19
230.667	193.19
230.901	190.19
231.136	162.19
231.37	172.19
231.604	184.19
231.838	180.19
232.072	171.19
232.306	163.19
232.541	184.19
232.775	209.19
233.009	203.19
233.243	197.19
233.477	203.19
233.711	195.19
233.945	199.19
234.179	196.19
234.413	195.19
234.647	203.19
234.881	209.19
235.115	182.19
235.349	191.19
235.583	191.19
235.817	202.19
236.051	197.19
236.285	200.19
236.519	207.19
236.753	245.19
236.987	235.19
237.221	234.19
237.455	234.19
237.689	241.19
237.922	222.19
238.156	223.19
238.39	241.19
238.624	244.19
238.858	268.19
239.091	260.19
239.325	269.19
239.559	297.19
239.793	288.19
240.027	315.19
240.26	307.19
240.494	235.19
240.728	224.19
240.961	249.19
241.195	249.19
241.429	266.19
241.662	282.19
241.896	256.19
242.13	256.19
242.363	278.19
242.597	290.19
242.83	284.19
243.064	299.19
243.298	306.19
243.531	292.19
243.765	291.19
243.998	281.19
244.232	254.19
244.465	257.19
244.699	273.19
244.932	300.19
245.166	305.19
245.399	312.19
245.633	285.19
245.866	299.19
246.099	297.19
246.333	298.19
246.566	325.19
246.8	339.19
247.033	339.19
247.266	309.19
247.5	332.19
247.733	335.19
247.966	326.19
248.2	363.19
248.433	377.19
248.666	385.19
248.899	403.19
249.133	454.19
249.366	443.19
249.599	404.19
249.832	356.19
250.066	363.19
250.299	403.19
250.532	359.19
250.765	325.19
250.998	336.19
251.231	343.19
251.465	357.19
251.698	355.19
251.931	349.19
252.164	357.19
252.397	366.19
252.63	370.19
252.863	332.19
253.096	342.19
253.329	355.19
253.562	348.19
253.795	363.19
254.028	357.19
254.261	369.19
254.494	355.19
254.727	336.19
254.96	341.19
255.193	387.19
255.426	425.19
255.659	471.19
255.892	486.19
256.124	399.19
256.357	417.19
256.59	404.19
256.823	426.19
257.056	425.19
257.289	509.19
257.521	521.19
257.754	462.19
257.987	465.19
258.22	483.19
258.452	488.19
258.685	411.19
258.918	392.19
259.151	405.19
259.383	378.19
259.616	351.19
259.849	364.19
260.081	409.19
260.314	461.19
260.547	471.19
260.779	488.19
261.012	457.19
261.244	428.19
261.477	402.19
261.71	411.19
261.942	414.19
262.175	400.19
262.407	428.19
262.64	399.19
262.872	384.19
263.105	383.19
263.337	388.19
263.57	371.19
263.802	373.19
264.035	360.19
264.267	343.19
264.499	345.19
264.732	380.19
264.964	398.19
265.197	413.19
265.429	424.19
265.661	465.19
265.894	517.19
266.126	503.19
266.358	474.19
266.591	475.19
266.823	496.19
267.055	460.19
267.287	456.19
267.52	460.19
267.752	439.19
267.984	448.19
268.216	459.19
268.448	466.19
268.681	475.19
268.913	433.19
269.145	415.19
269.377	409.19
269.609	457.19
269.841	520.19
270.073	602.19
270.306	651.19
270.538	643.19
270.77	557.19
271.002	496.19
271.234	477.19
271.466	482.19
271.698	552.19
271.93	609.19
272.162	610.19
272.394	557.19
272.626	531.19
272.858	472.19
273.09	405.19
273.322	428.19
273.553	412.19
273.785	416.19
274.017	425.19
274.249	473.19
274.481	451.19
274.713	427.19
274.945	412.19
275.176	435.19
275.408	413.19
275.64	409.19
275.872	412.19
276.104	443.19
276.335	511.19
276.567	553.19
276.799	535.19
277.031	511.19
277.262	499.19
277.494	490.19
277.726	531.19
277.957	511.19
278.189	472.19
278.421	459.19
278.652	434.19
278.884	440.19
279.115	417.19
279.347	438.19
279.579	435.19
279.81	443.19
280.042	481.19
280.273	514.19
280.505	529.19
280.736	508.19
280.968	490.19
281.199	441.19
281.431	428.19
281.662	429.19
281.894	456.19
282.125	459.19
282.356	481.19
282.588	467.19
282.819	459.19
283.051	527.19
283.282	540.19
283.513	484.19
283.745	467.19
283.976	439.19
284.207	448.19
284.439	451.19
284.67	442.19
284.901	465.19
285.132	468.19
285.364	460.19
285.595	466.19
285.826	445.19
286.057	460.19
286.288	451.19
286.52	474.19
286.751	511.19
286.982	490.19
287.213	458.19
287.444	424.19
287.675	451.19
287.906	490.19
288.138	511.19
288.369	484.19
288.6	445.19
288.831	442.19
289.062	445.19
289.293	449.19
289.524	448.19
289.755	466.19
289.986	470.19
290.217	455.19
290.448	455.19
290.679	469.19
290.91	477.19
291.141	488.19
291.371	483.19
291.602	502.19
291.833	466.19
292.064	493.19
292.295	510.19
292.526	480.19
292.757	534.19
292.987	520.19
293.218	500.19
293.449	546.19
293.68	588.19
293.91	609.19
294.141	582.19
294.372	541.19
294.603	565.19
294.833	585.19
295.064	554.19
295.295	513.19
295.525	453.19
295.756	448.19
295.987	441.19
296.217	464.19
296.448	469.19
296.679	490.19
296.909	474.19
297.14	461.19
297.37	482.19
297.601	519.19
297.831	547.19
298.062	516.19
298.292	488.19
298.523	482.19
298.753	477.19
298.984	493.19
299.214	499.19
299.445	506.19
299.675	518.19
299.905	517.19
300.136	477.19
300.366	463.19
300.597	475.19
300.827	487.19
301.057	485.19
301.288	541.19
301.518	516.19
301.748	541.19
301.979	559.19
302.209	578.19
302.439	584.19
302.669	587.19
302.9	560.19
303.13	519.19
303.36	527.19
303.59	497.19
303.82	512.19
304.051	523.19
304.281	529.19
304.511	541.19
304.741	592.19
304.971	620.19
305.201	648.19
305.431	562.19
305.661	494.19
305.891	468.19
306.121	475.19
306.352	479.19
306.582	530.19
306.812	583.19
307.042	584.19
307.272	582.19
307.502	622.19
307.731	640.19
307.961	642.19
308.191	609.19
308.421	519.19
308.651	531.19
308.881	483.19
309.111	504.19
309.341	509.19
309.571	513.19
309.8	513.19
310.03	502.19
310.26	489.19
310.49	521.19
310.72	529.19
310.949	556.19
311.179	565.19
311.409	525.19
311.639	495.19
311.868	501.19
312.098	522.19
312.328	505.19
312.557	529.19
312.787	515.19
313.017	521.19
313.246	524.19
313.476	543.19
313.706	568.19
313.935	529.19
314.165	534.19
314.394	588.19
314.624	596.19
314.853	604.19
315.083	636.19
315.312	635.19
315.542	569.19
315.771	557.19
316.001	565.19
316.23	579.19
316.46	576.19
316.689	573.19
316.919	531.19
317.148	537.19
317.377	572.19
317.607	604.19
317.836	645.19
318.065	669.19
318.295	643.19
318.524	618.19
318.753	588.19
318.983	578.19
319.212	580.19
319.441	564.19
319.67	550.19
319.9	565.19
320.129	598.19
320.358	619.19
320.587	628.19
320.816	643.19
321.046	612.19
321.275	586.19
321.504	597.19
321.733	633.19
321.962	625.19
322.191	577.19
322.42	547.19
322.649	559.19
322.878	565.19
323.108	578.19
323.337	587.19
323.566	568.19
323.795	594.19
324.024	589.19
324.253	543.19
324.482	561.19
324.71	546.19
324.939	545.19
325.168	558.19
325.397	581.19
325.626	585.19
325.855	580.19
326.084	569.19
326.313	561.19
326.542	589.19
326.77	601.19
326.999	587.19
327.228	559.19
327.457	549.19
327.686	539.19
327.914	541.19
328.143	579.19
328.372	579.19
328.6	565.19
328.829	571.19
329.058	565.19
329.287	585.19
329.515	594.19
329.744	581.19
329.972	628.19
330.201	637.19
330.43	626.19
330.658	587.19
330.887	602.19
331.115	609.19
331.344	610.19
331.572	609.19
331.801	576.19
332.03	607.19
332.258	606.19
332.486	592.19
332.715	607.19
332.943	599.19
333.172	619.19
333.4	600.19
333.629	642.19
333.857	669.19
334.085	752.19
334.314	846.19
334.542	872.19
334.771	781.19
334.999	711.19
335.227	679.19
335.455	636.19
335.684	659.19
335.912	638.19
336.14	671.19
336.369	635.19
336.597	595.19
336.825	607.19
337.053	657.19
337.281	691.19
337.51	716.19
337.738	721.19
337.966	666.19
338.194	609.19
338.422	600.19
338.65	592.19
338.878	599.19
339.106	573.19
339.334	570.19
339.562	576.19
339.79	587.19
340.018	619.19
340.246	655.19
340.474	669.19
340.702	646.19
340.93	641.19
341.158	632.19
341.386	609.19
341.614	605.19
341.842	610.19
342.07	636.19
342.298	610.19
342.526	615.19
342.754	603.19
342.981	612.19
343.209	577.19
343.437	571.19
343.665	575.19
343.893	604.19
344.12	635.19
344.348	633.19
344.576	613.19
344.804	593.19
345.031	588.19
345.259	594.19
345.487	561.19
345.714	557.19
345.942	560.19
346.17	580.19
346.397	598.19
346.625	570.19
346.853	561.19
347.08	545.19
347.308	563.19
347.535	575.19
347.763	586.19
347.99	568.19
348.218	566.19
348.445	564.19
348.673	568.19
348.9	595.19
349.128	599.19
349.355	589.19
349.583	598.19
349.81	557.19
350.037	533.19
350.265	549.19
350.492	565.19
350.72	571.19
350.947	595.19
351.174	572.19
351.402	583.19
351.629	529.19
351.856	502.19
352.083	529.19
352.311	535.19
352.538	569.19
352.765	600.19
352.992	589.19
353.22	559.19
353.447	543.19
353.674	558.19
353.901	561.19
354.128	561.19
354.355	582.19
354.583	598.19
354.81	606.19
355.037	603.19
355.264	585.19
355.491	578.19
355.718	599.19
355.945	596.19
356.172	559.19
356.399	542.19
356.626	561.19
356.853	600.19
357.08	639.19
357.307	721.19
357.534	649.19
357.761	589.19
357.988	581.19
358.215	550.19
358.441	552.19
358.668	552.19
358.895	561.19
359.122	619.19
359.349	665.19
359.576	629.19
359.802	580.19
360.029	564.19
360.256	550.19
360.483	565.19
360.709	599.19
360.936	619.19
361.163	654.19
361.39	709.19
361.616	749.19
361.843	714.19
362.07	637.19
362.296	610.19
362.523	579.19
362.749	589.19
362.976	589.19
363.203	601.19
363.429	575.19
363.656	582.19
363.882	613.19
364.109	640.19
364.335	650.19
364.562	633.19
364.788	598.19
365.015	580.19
365.241	597.19
365.468	576.19
365.694	617.19
365.92	631.19
366.147	580.19
366.373	589.19
366.599	572.19
366.826	592.19
367.052	583.19
367.278	584.19
367.505	580.19
367.731	625.19
367.957	625.19
368.184	648.19
368.41	689.19
368.636	693.19
368.862	668.19
369.089	677.19
369.315	651.19
369.541	629.19
369.767	632.19
369.993	603.19
370.219	602.19
370.445	624.19
370.672	664.19
370.898	694.19
371.124	696.19
371.35	666.19
371.576	671.19
371.802	658.19
372.028	633.19
372.254	619.19
372.48	617.19
372.706	603.19
372.932	613.19
373.158	612.19
373.384	636.19
373.61	667.19
373.835	677.19
374.061	631.19
374.287	645.19
374.513	650.19
374.739	647.19
374.965	652.19
375.191	661.19
375.416	691.19
375.642	700.19
375.868	717.19
376.094	724.19
376.319	669.19
376.545	643.19
376.771	673.19
376.997	697.19
377.222	715.19
377.448	671.19
377.674	697.19
377.899	697.19
378.125	699.19
378.35	722.19
378.576	659.19
378.802	619.19
379.027	625.19
379.253	642.19
379.478	654.19
379.704	651.19
379.929	669.19
380.155	680.19
380.38	677.19
380.606	670.19
380.831	689.19
381.057	722.19
381.282	715.19
381.507	723.19
381.733	733.19
381.958	742.19
382.184	696.19
382.409	689.19
382.634	716.19
382.86	673.19
383.085	714.19
383.31	707.19
383.535	792.19
383.761	815.19
383.986	759.19
384.211	721.19
384.436	755.19
384.662	798.19
384.887	795.19
385.112	741.19
385.337	761.19
385.562	747.19
385.787	739.19
386.013	767.19
386.238	771.19
386.463	776.19
386.688	844.19
386.913	877.19
387.138	836.19
387.363	792.19
387.588	741.19
387.813	785.19
388.038	800.19
388.263	843.19
388.488	757.19
388.713	719.19
388.938	724.19
389.163	727.19
389.387	755.19
389.612	751.19
389.837	767.19
390.062	757.19
390.287	763.19
390.512	742.19
390.736	762.19
390.961	729.19
391.186	723.19
391.411	758.19
391.636	756.19
391.86	774.19
392.085	757.19
392.31	771.19
392.534	777.19
392.759	784.19
392.984	778.19
393.208	801.19
393.433	821.19
393.658	847.19
393.882	802.19
394.107	801.19
394.331	768.19
394.556	776.19
394.78	787.19
395.005	813.19
395.229	835.19
395.454	907.19
395.678	863.19
395.903	853.19
396.127	849.19
396.352	843.19
396.576	857.19
396.801	856.19
397.025	840.19
397.249	849.19
397.474	829.19
397.698	830.19
397.922	837.19
398.147	880.19
398.371	895.19
398.595	929.19
398.82	897.19
399.044	920.19
399.268	938.19
399.492	973.19
399.717	1032.19
399.941	1007.19
400.165	995.19
400.389	966.19
400.613	985.19
400.837	1147.19
401.062	1222.19
401.286	1049.19
401.51	1013.19
401.734	987.19
401.958	943.19
402.182	939.19
402.406	850.19
402.63	875.19
402.854	889.19
403.078	900.19
403.302	888.19
403.526	940.19
403.75	948.19
403.974	949.19
404.198	944.19
404.422	968.19
404.645	1052.19
404.869	992.19
405.093	915.19
405.317	901.19
405.541	929.19
405.765	924.19
405.988	953.19
406.212	976.19
406.436	1001.19
406.66	1025.19
406.883	1076.19
407.107	1153.19
407.331	1256.19
407.555	1296.19
407.778	1147.19
408.002	992.19
408.226	978.19
408.449	965.19
408.673	959.19
408.896	965.19
409.12	991.19
409.344	988.19
409.567	960.19
409.791	959.19
410.014	1005.19
410.238	1050.19
410.461	1067.19
410.685	972.19
410.908	927.19
411.132	968.19
411.355	933.19
411.578	976.19
411.802	925.19
412.025	977.19
412.249	966.19
412.472	918.19
412.695	920.19
412.919	941.19
413.142	928.19
413.365	931.19
413.589	951.19
413.812	1020.19
414.035	1016.19
414.258	945.19
414.482	925.19
414.705	959.19
414.928	940.19
415.151	926.19
415.374	947.19
415.597	930.19
415.821	962.19
416.044	949.19
416.267	962.19
416.49	923.19
416.713	914.19
416.936	975.19
417.159	985.19
417.382	996.19
417.605	944.19
417.828	935.19
418.051	970.19
418.274	955.19
418.497	952.19
418.72	922.19
418.943	936.19
419.166	959.19
419.389	1010.19
419.611	953.19
419.834	952.19
420.057	952.19
420.28	924.19
420.503	949.19
420.726	964.19
420.948	967.19
421.171	944.19
421.394	945.19
421.617	992.19
421.839	987.19
422.062	1019.19
422.285	939.19
422.507	926.19
422.73	927.19
422.953	906.19
423.175	890.19
423.398	944.19
423.621	937.19
423.843	953.19
424.066	969.19
424.288	1042.19
424.511	1049.19
424.733	993.19
424.956	917.19
425.178	923.19
425.401	951.19
425.623	957.19
425.846	952.19
426.068	1027.19
426.291	987.19
426.513	980.19
426.735	995.19
426.958	1037.19
427.18	1100.19
427.402	1011.19
427.625	1021.19
427.847	1006.19
428.069	944.19
428.292	903.19
428.514	945.19
428.736	902.19
428.958	901.19
429.181	927.19
429.403	1112.19
429.625	1257.19
429.847	1073.19
430.069	969.19
430.292	1088.19
430.514	1013.19
430.736	981.19
430.958	1016.19
431.18	915.19
431.402	903.19
431.624	892.19
431.846	820.19
432.068	751.19
432.29	769.19
432.512	796.19
432.734	889.19
432.956	935.19
433.178	978.19
433.4	986.19
433.622	954.19
433.844	934.19
434.066	863.19
434.287	805.19
434.509	768.19
434.731	850.19
434.953	941.19
435.175	921.19
435.397	919.19
435.618	891.19
435.84	848.19
436.062	811.19
436.284	905.19
436.505	967.19
436.727	966.19
436.949	934.19
437.17	908.19
437.392	896.19
437.614	870.19
437.835	831.19
438.057	840.19
438.278	872.19
438.5	904.19
438.721	899.19
438.943	924.19
439.165	953.19
439.386	944.19
439.608	986.19
439.829	940.19
440.05	973.19
440.272	959.19
440.493	961.19
440.715	971.19
440.936	1043.19
441.158	1082.19
441.379	1047.19
441.6	1075.19
441.822	1041.19
442.043	1061.19
442.264	1008.19
442.486	972.19
442.707	963.19
442.928	940.19
443.149	974.19
443.371	1036.19
443.592	1040.19
443.813	1029.19
444.034	1065.19
444.255	1049.19
444.476	1025.19
444.698	1040.19
444.919	1045.19
445.14	1120.19
445.361	1116.19
445.582	1094.19
445.803	1086.19
446.024	1049.19
446.245	1107.19
446.466	1069.19
446.687	1083.19
446.908	1088.19
447.129	1055.19
447.35	1021.19
447.571	1000.19
447.792	970.19
448.013	967.19
448.234	970.19
448.455	993.19
448.675	1006.19
448.896	943.19
449.117	944.19
449.338	959.19
449.559	983.19
449.779	986.19
450	1050.19
450.221	1064.19
450.442	1082.19
450.662	951.19
450.883	897.19
451.104	871.19
451.324	889.19
451.545	907.19
451.766	895.19
451.986	857.19
452.207	824.19
452.428	817.19
452.648	795.19
452.869	802.19
453.089	830.19
453.31	807.19
453.53	800.19
453.751	759.19
453.971	727.19
454.192	728.19
454.412	817.19
454.633	799.19
454.853	787.19
455.073	791.19
455.294	796.19
455.514	767.19
455.734	786.19
455.955	785.19
456.175	753.19
456.395	751.19
456.616	788.19
456.836	746.19
457.056	785.19
457.276	725.19
457.497	740.19
457.717	720.19
457.937	758.19
458.157	748.19
458.377	713.19
458.598	682.19
458.818	697.19
459.038	718.19
459.258	736.19
459.478	727.19
459.698	730.19
459.918	752.19
460.138	807.19
460.358	847.19
460.578	868.19
460.798	888.19
461.018	885.19
461.238	906.19
461.458	845.19
461.678	847.19
461.898	842.19
462.118	807.19
462.338	835.19
462.558	865.19
462.777	850.19
462.997	895.19
463.217	902.19
463.437	920.19
463.657	869.19
463.876	833.19
464.096	840.19
464.316	868.19
464.536	892.19
464.755	873.19
464.975	905.19
465.195	866.19
465.414	895.19
465.634	895.19
465.854	858.19
466.073	999.19
466.293	961.19
466.512	876.19
466.732	880.19
466.951	925.19
467.171	909.19
467.391	899.19
467.61	879.19
467.829	898.19
468.049	992.19
468.268	1067.19
468.488	991.19
468.707	959.19
468.927	929.19
469.146	937.19
469.365	947.19
469.585	951.19
469.804	938.19
470.023	971.19
470.243	940.19
470.462	945.19
470.681	946.19
470.901	935.19
471.12	951.19
471.339	944.19
471.558	928.19
471.777	912.19
471.997	914.19
472.216	891.19
472.435	780.19
472.654	767.19
472.873	798.19
473.092	870.19
473.311	855.19
473.53	854.19
473.749	834.19
473.968	862.19
474.187	866.19
474.406	848.19
474.625	874.19
474.844	888.19
475.063	893.19
475.282	895.19
475.501	857.19
475.72	862.19
475.939	929.19
476.158	899.19
476.377	881.19
476.596	852.19
476.814	848.19
477.033	789.19
477.252	874.19
477.471	910.19
477.69	940.19
477.908	941.19
478.127	1000.19
478.346	1049.19
478.564	1016.19
478.783	1007.19
479.002	1047.19
479.22	1028.19
479.439	1052.19
479.658	1032.19
479.876	1026.19
480.095	932.19
480.313	900.19
480.532	876.19
480.751	906.19
480.969	858.19
481.188	821.19
481.406	790.19
481.624	789.19
481.843	822.19
482.061	842.19
482.28	893.19
482.498	906.19
482.717	907.19
482.935	907.19
483.153	994.19
483.372	1052.19
483.59	1017.19
483.808	984.19
484.027	975.19
484.245	1013.19
484.463	1252.19
484.681	1341.19
484.9	1045.19
485.118	969.19
485.336	969.19
485.554	935.19
485.772	931.19
485.99	895.19
486.209	930.19
486.427	927.19
486.645	928.19
486.863	974.19
487.081	1047.19
487.299	1050.19
487.517	1048.19
487.735	1123.19
487.953	1221.19
488.171	1211.19
488.389	1157.19
488.607	1114.19
488.825	1175.19
489.043	1089.19
489.261	1013.19
489.479	1049.19
489.696	1106.19
489.914	1057.19
490.132	1035.19
490.35	1116.19
490.568	1158.19
490.786	1188.19
491.003	1201.19
491.221	1258.19
491.439	1307.19
491.657	1337.19
491.874	1395.19
492.092	1457.19
492.31	1500.19
492.527	1501.19
492.745	1402.19
492.963	1366.19
493.18	1325.19
493.398	1351.19
493.615	1323.19
493.833	1306.19
494.05	1258.19
494.268	1272.19
494.485	1259.19
494.703	1224.19
494.92	1230.19
495.138	1252.19
495.355	1269.19
495.573	1279.19
495.79	1320.19
496.008	1314.19
496.225	1249.19
496.442	1255.19
496.66	1256.19
496.877	1226.19
497.094	1261.19
497.312	1264.19
497.529	1221.19
497.746	1232.19
497.963	1276.19
498.181	1335.19
498.398	1307.19
498.615	1218.19
498.832	1181.19
499.049	1149.19
499.267	1145.19
499.484	1225.19
499.701	1389.19
499.918	1401.19
500.135	1503.19
