Data from WStandard_LampEnergy8_LIBS07252019.E.O._I.C._HRD10591_15-57-43-929.txt Node
Date: Thu Jul 25 15:57:43 EDT 2019
User: cochatt
Spectrometer: HR+D1059
Trigger mode: 1
Integration Time (sec): 1.000000E-1
Scans to average: 1
Electric dark correction enabled: true
Nonlinearity correction enabled: false
Boxcar width: 0
XAxis mode: Wavelengths
Number of Pixels in Spectrum: 2048
>>>>>Begin Spectral Data<<<<<
223.165	-21.38
223.4	-21.38
223.635	-21.38
223.869	-20.38
224.104	-19.38
224.338	-20.38
224.573	-21.38
224.808	-7.38
225.042	-2.38
225.277	0.62
225.511	2.62
225.746	-10.38
225.98	-5.38
226.215	21.62
226.449	24.62
226.683	32.62
226.918	13.62
227.152	32.62
227.387	36.62
227.621	38.62
227.856	45.62
228.09	59.62
228.324	57.62
228.559	71.62
228.793	108.62
229.027	208.62
229.262	219.62
229.496	226.62
229.73	244.62
229.964	248.62
230.199	255.62
230.433	288.62
230.667	283.62
230.901	309.62
231.136	279.62
231.37	262.62
231.604	291.62
231.838	279.62
232.072	298.62
232.306	284.62
232.541	281.62
232.775	313.62
233.009	331.62
233.243	334.62
233.477	317.62
233.711	304.62
233.945	318.62
234.179	313.62
234.413	320.62
234.647	379.62
234.881	337.62
235.115	312.62
235.349	313.62
235.583	309.62
235.817	312.62
236.051	314.62
236.285	333.62
236.519	355.62
236.753	382.62
236.987	382.62
237.221	386.62
237.455	411.62
237.689	384.62
237.922	385.62
238.156	363.62
238.39	379.62
238.624	392.62
238.858	421.62
239.091	406.62
239.325	458.62
239.559	514.62
239.793	524.62
240.027	552.62
240.26	520.62
240.494	434.62
240.728	381.62
240.961	408.62
241.195	399.62
241.429	424.62
241.662	438.62
241.896	441.62
242.13	424.62
242.363	480.62
242.597	506.62
242.83	481.62
243.064	498.62
243.298	516.62
243.531	470.62
243.765	497.62
243.998	493.62
244.232	447.62
244.465	433.62
244.699	444.62
244.932	482.62
245.166	552.62
245.399	521.62
245.633	478.62
245.866	474.62
246.099	519.62
246.333	505.62
246.566	527.62
246.8	573.62
247.033	600.62
247.266	586.62
247.5	564.62
247.733	567.62
247.966	597.62
248.2	668.62
248.433	646.62
248.666	651.62
248.899	725.62
249.133	792.62
249.366	852.62
249.599	743.62
249.832	633.62
250.066	667.62
250.299	686.62
250.532	669.62
250.765	570.62
250.998	619.62
251.231	660.62
251.465	652.62
251.698	622.62
251.931	639.62
252.164	620.62
252.397	664.62
252.63	671.62
252.863	598.62
253.096	601.62
253.329	627.62
253.562	630.62
253.795	650.62
254.028	649.62
254.261	611.62
254.494	609.62
254.727	582.62
254.96	626.62
255.193	672.62
255.426	770.62
255.659	851.62
255.892	836.62
256.124	711.62
256.357	693.62
256.59	741.62
256.823	772.62
257.056	782.62
257.289	889.62
257.521	992.62
257.754	873.62
257.987	831.62
258.22	901.62
258.452	875.62
258.685	725.62
258.918	718.62
259.151	711.62
259.383	685.62
259.616	631.62
259.849	657.62
260.081	757.62
260.314	816.62
260.547	865.62
260.779	862.62
261.012	825.62
261.244	747.62
261.477	705.62
261.71	760.62
261.942	727.62
262.175	726.62
262.407	753.62
262.64	730.62
262.872	676.62
263.105	666.62
263.337	674.62
263.57	682.62
263.802	689.62
264.035	640.62
264.267	623.62
264.499	603.62
264.732	643.62
264.964	699.62
265.197	723.62
265.429	747.62
265.661	820.62
265.894	924.62
266.126	924.62
266.358	859.62
266.591	888.62
266.823	937.62
267.055	843.62
267.287	830.62
267.52	818.62
267.752	791.62
267.984	823.62
268.216	871.62
268.448	864.62
268.681	841.62
268.913	786.62
269.145	721.62
269.377	748.62
269.609	812.62
269.841	923.62
270.073	1088.62
270.306	1188.62
270.538	1221.62
270.77	1031.62
271.002	901.62
271.234	871.62
271.466	890.62
271.698	986.62
271.93	1126.62
272.162	1145.62
272.394	1038.62
272.626	964.62
272.858	895.62
273.09	769.62
273.322	749.62
273.553	705.62
273.785	725.62
274.017	768.62
274.249	824.62
274.481	846.62
274.713	759.62
274.945	742.62
275.176	746.62
275.408	722.62
275.64	729.62
275.872	732.62
276.104	791.62
276.335	898.62
276.567	1026.62
276.799	977.62
277.031	869.62
277.262	872.62
277.494	903.62
277.726	966.62
277.957	934.62
278.189	863.62
278.421	785.62
278.652	794.62
278.884	803.62
279.115	788.62
279.347	802.62
279.579	800.62
279.81	773.62
280.042	884.62
280.273	952.62
280.505	922.62
280.736	961.62
280.968	850.62
281.199	761.62
281.431	758.62
281.662	759.62
281.894	798.62
282.125	814.62
282.356	832.62
282.588	835.62
282.819	811.62
283.051	894.62
283.282	944.62
283.513	910.62
283.745	804.62
283.976	762.62
284.207	752.62
284.439	800.62
284.67	825.62
284.901	835.62
285.132	837.62
285.364	813.62
285.595	816.62
285.826	816.62
286.057	791.62
286.288	824.62
286.52	856.62
286.751	881.62
286.982	916.62
287.213	829.62
287.444	784.62
287.675	800.62
287.906	854.62
288.138	886.62
288.369	862.62
288.6	813.62
288.831	781.62
289.062	797.62
289.293	789.62
289.524	776.62
289.755	819.62
289.986	811.62
290.217	761.62
290.448	791.62
290.679	840.62
290.91	828.62
291.141	834.62
291.371	866.62
291.602	874.62
291.833	864.62
292.064	898.62
292.295	883.62
292.526	900.62
292.757	919.62
292.987	889.62
293.218	876.62
293.449	961.62
293.68	1040.62
293.91	1080.62
294.141	980.62
294.372	978.62
294.603	1031.62
294.833	1045.62
295.064	969.62
295.295	874.62
295.525	866.62
295.756	796.62
295.987	763.62
296.217	804.62
296.448	814.62
296.679	824.62
296.909	831.62
297.14	802.62
297.37	842.62
297.601	889.62
297.831	944.62
298.062	910.62
298.292	882.62
298.523	834.62
298.753	855.62
298.984	861.62
299.214	847.62
299.445	892.62
299.675	882.62
299.905	860.62
300.136	856.62
300.366	854.62
300.597	811.62
300.827	816.62
301.057	842.62
301.288	877.62
301.518	916.62
301.748	916.62
301.979	961.62
302.209	977.62
302.439	1043.62
302.669	1079.62
302.9	988.62
303.13	914.62
303.36	910.62
303.59	947.62
303.82	902.62
304.051	924.62
304.281	889.62
304.511	932.62
304.741	1000.62
304.971	1080.62
305.201	1160.62
305.431	1036.62
305.661	860.62
305.891	786.62
306.121	791.62
306.352	873.62
306.582	890.62
306.812	944.62
307.042	1015.62
307.272	1013.62
307.502	1048.62
307.731	1128.62
307.961	1139.62
308.191	1021.62
308.421	932.62
308.651	855.62
308.881	870.62
309.111	885.62
309.341	844.62
309.571	875.62
309.8	886.62
310.03	862.62
310.26	861.62
310.49	887.62
310.72	886.62
310.949	931.62
311.179	940.62
311.409	906.62
311.639	888.62
311.868	912.62
312.098	904.62
312.328	884.62
312.557	894.62
312.787	882.62
313.017	915.62
313.246	961.62
313.476	893.62
313.706	931.62
313.935	933.62
314.165	945.62
314.394	998.62
314.624	1034.62
314.853	1104.62
315.083	1134.62
315.312	1145.62
315.542	1032.62
315.771	978.62
316.001	989.62
316.23	1036.62
316.46	1000.62
316.689	1003.62
316.919	902.62
317.148	895.62
317.377	918.62
317.607	1024.62
317.836	1138.62
318.065	1140.62
318.295	1084.62
318.524	1049.62
318.753	977.62
318.983	993.62
319.212	969.62
319.441	941.62
319.67	970.62
319.9	996.62
320.129	1047.62
320.358	1078.62
320.587	1130.62
320.816	1124.62
321.046	1090.62
321.275	1039.62
321.504	1058.62
321.733	1091.62
321.962	1054.62
322.191	992.62
322.42	998.62
322.649	966.62
322.878	978.62
323.108	974.62
323.337	1010.62
323.566	980.62
323.795	1006.62
324.024	1014.62
324.253	980.62
324.482	981.62
324.71	956.62
324.939	896.62
325.168	930.62
325.397	1004.62
325.626	991.62
325.855	1026.62
326.084	966.62
326.313	1003.62
326.542	1016.62
326.77	1010.62
326.999	1019.62
327.228	958.62
327.457	939.62
327.686	894.62
327.914	962.62
328.143	971.62
328.372	999.62
328.6	966.62
328.829	942.62
329.058	936.62
329.287	962.62
329.515	986.62
329.744	980.62
329.972	1049.62
330.201	1089.62
330.43	1046.62
330.658	1059.62
330.887	1033.62
331.115	1046.62
331.344	1084.62
331.572	1003.62
331.801	1022.62
332.03	984.62
332.258	1038.62
332.486	1038.62
332.715	1060.62
332.943	1043.62
333.172	1036.62
333.4	1047.62
333.629	1093.62
333.857	1136.62
334.085	1306.62
334.314	1473.62
334.542	1513.62
334.771	1406.62
334.999	1258.62
335.227	1160.62
335.455	1121.62
335.684	1089.62
335.912	1124.62
336.14	1173.62
336.369	1100.62
336.597	1047.62
336.825	1044.62
337.053	1090.62
337.281	1138.62
337.51	1210.62
337.738	1219.62
337.966	1189.62
338.194	1065.62
338.422	1024.62
338.65	1005.62
338.878	1038.62
339.106	983.62
339.334	980.62
339.562	954.62
339.79	992.62
340.018	1074.62
340.246	1104.62
340.474	1051.62
340.702	1074.62
340.93	1055.62
341.158	1069.62
341.386	1042.62
341.614	1037.62
341.842	1012.62
342.07	1044.62
342.298	1048.62
342.526	1030.62
342.754	1028.62
342.981	1031.62
343.209	1012.62
343.437	1015.62
343.665	1026.62
343.893	1042.62
344.12	1100.62
344.348	1097.62
344.576	1041.62
344.804	1038.62
345.031	1024.62
345.259	1026.62
345.487	1009.62
345.714	954.62
345.942	944.62
346.17	964.62
346.397	981.62
346.625	987.62
346.853	925.62
347.08	943.62
347.308	937.62
347.535	993.62
347.763	979.62
347.99	986.62
348.218	926.62
348.445	972.62
348.673	971.62
348.9	1019.62
349.128	1022.62
349.355	1079.62
349.583	1047.62
349.81	956.62
350.037	910.62
350.265	919.62
350.492	917.62
350.72	926.62
350.947	969.62
351.174	1003.62
351.402	943.62
351.629	920.62
351.856	867.62
352.083	900.62
352.311	898.62
352.538	923.62
352.765	1009.62
352.992	993.62
353.22	951.62
353.447	932.62
353.674	949.62
353.901	964.62
354.128	937.62
354.355	930.62
354.583	1002.62
354.81	1013.62
355.037	1008.62
355.264	988.62
355.491	966.62
355.718	980.62
355.945	946.62
356.172	929.62
356.399	920.62
356.626	929.62
356.853	994.62
357.08	1080.62
357.307	1146.62
357.534	1117.62
357.761	995.62
357.988	923.62
358.215	920.62
358.441	922.62
358.668	928.62
358.895	938.62
359.122	1006.62
359.349	1127.62
359.576	1051.62
359.802	972.62
360.029	908.62
360.256	934.62
360.483	950.62
360.709	971.62
360.936	1018.62
361.163	1070.62
361.39	1179.62
361.616	1245.62
361.843	1177.62
362.07	1091.62
362.296	956.62
362.523	931.62
362.749	964.62
362.976	978.62
363.203	994.62
363.429	947.62
363.656	925.62
363.882	973.62
364.109	1114.62
364.335	1154.62
364.562	1068.62
364.788	1001.62
365.015	962.62
365.241	928.62
365.468	968.62
365.694	1011.62
365.92	1039.62
366.147	992.62
366.373	946.62
366.599	900.62
366.826	937.62
367.052	928.62
367.278	979.62
367.505	983.62
367.731	1000.62
367.957	1022.62
368.184	1032.62
368.41	1119.62
368.636	1154.62
368.862	1114.62
369.089	1092.62
369.315	1051.62
369.541	996.62
369.767	978.62
369.993	974.62
370.219	984.62
370.445	1044.62
370.672	1058.62
370.898	1108.62
371.124	1064.62
371.35	1036.62
371.576	1089.62
371.802	1093.62
372.028	1052.62
372.254	1002.62
372.48	983.62
372.706	972.62
372.932	962.62
373.158	980.62
373.384	991.62
373.61	1050.62
373.835	1085.62
374.061	1004.62
374.287	1046.62
374.513	1030.62
374.739	1032.62
374.965	1033.62
375.191	1049.62
375.416	1044.62
375.642	1074.62
375.868	1156.62
376.094	1184.62
376.319	1110.62
376.545	1060.62
376.771	1078.62
376.997	1128.62
377.222	1096.62
377.448	1090.62
377.674	1075.62
377.899	1109.62
378.125	1158.62
378.35	1133.62
378.576	1022.62
378.802	996.62
379.027	989.62
379.253	1023.62
379.478	1015.62
379.704	1012.62
379.929	1028.62
380.155	1032.62
380.38	1032.62
380.606	1075.62
380.831	1028.62
381.057	1118.62
381.282	1099.62
381.507	1090.62
381.733	1152.62
381.958	1204.62
382.184	1064.62
382.409	1077.62
382.634	1089.62
382.86	1052.62
383.085	1064.62
383.31	1120.62
383.535	1240.62
383.761	1309.62
383.986	1225.62
384.211	1194.62
384.436	1179.62
384.662	1204.62
384.887	1241.62
385.112	1174.62
385.337	1169.62
385.562	1172.62
385.787	1164.62
386.013	1204.62
386.238	1190.62
386.463	1191.62
386.688	1322.62
386.913	1372.62
387.138	1303.62
387.363	1236.62
387.588	1202.62
387.813	1213.62
388.038	1239.62
388.263	1241.62
388.488	1207.62
388.713	1105.62
388.938	1075.62
389.163	1132.62
389.387	1149.62
389.612	1160.62
389.837	1168.62
390.062	1192.62
390.287	1167.62
390.512	1152.62
390.736	1154.62
390.961	1122.62
391.186	1092.62
391.411	1116.62
391.636	1170.62
391.86	1152.62
392.085	1166.62
392.31	1156.62
392.534	1159.62
392.759	1204.62
392.984	1185.62
393.208	1187.62
393.433	1220.62
393.658	1260.62
393.882	1245.62
394.107	1167.62
394.331	1198.62
394.556	1166.62
394.78	1194.62
395.005	1225.62
395.229	1272.62
395.454	1348.62
395.678	1325.62
395.903	1268.62
396.127	1266.62
396.352	1230.62
396.576	1300.62
396.801	1303.62
397.025	1328.62
397.249	1280.62
397.474	1273.62
397.698	1251.62
397.922	1312.62
398.147	1340.62
398.371	1404.62
398.595	1381.62
398.82	1339.62
399.044	1390.62
399.268	1405.62
399.492	1482.62
399.717	1556.62
399.941	1564.62
400.165	1511.62
400.389	1458.62
400.613	1508.62
400.837	1757.62
401.062	1884.62
401.286	1600.62
401.51	1511.62
401.734	1536.62
401.958	1440.62
402.182	1378.62
402.406	1330.62
402.63	1270.62
402.854	1314.62
403.078	1335.62
403.302	1336.62
403.526	1411.62
403.75	1354.62
403.974	1426.62
404.198	1408.62
404.422	1477.62
404.645	1562.62
404.869	1458.62
405.093	1376.62
405.317	1352.62
405.541	1371.62
405.765	1393.62
405.988	1390.62
406.212	1433.62
406.436	1470.62
406.66	1493.62
406.883	1564.62
407.107	1747.62
407.331	1866.62
407.555	2005.62
407.778	1752.62
408.002	1491.62
408.226	1464.62
408.449	1444.62
408.673	1414.62
408.896	1403.62
409.12	1442.62
409.344	1426.62
409.567	1379.62
409.791	1402.62
410.014	1419.62
410.238	1514.62
410.461	1586.62
410.685	1443.62
410.908	1374.62
411.132	1409.62
411.355	1385.62
411.578	1330.62
411.802	1380.62
412.025	1385.62
412.249	1381.62
412.472	1325.62
412.695	1343.62
412.919	1361.62
413.142	1325.62
413.365	1353.62
413.589	1394.62
413.812	1480.62
414.035	1506.62
414.258	1383.62
414.482	1315.62
414.705	1377.62
414.928	1329.62
415.151	1336.62
415.374	1329.62
415.597	1380.62
415.821	1384.62
416.044	1367.62
416.267	1381.62
416.49	1336.62
416.713	1317.62
416.936	1360.62
417.159	1433.62
417.382	1420.62
417.605	1339.62
417.828	1376.62
418.051	1349.62
418.274	1313.62
418.497	1312.62
418.72	1314.62
418.943	1308.62
419.166	1383.62
419.389	1381.62
419.611	1334.62
419.834	1343.62
420.057	1323.62
420.28	1329.62
420.503	1366.62
420.726	1390.62
420.948	1334.62
421.171	1287.62
421.394	1319.62
421.617	1363.62
421.839	1351.62
422.062	1368.62
422.285	1352.62
422.507	1317.62
422.73	1271.62
422.953	1238.62
423.175	1266.62
423.398	1319.62
423.621	1292.62
423.843	1336.62
424.066	1381.62
424.288	1460.62
424.511	1498.62
424.733	1424.62
424.956	1274.62
425.178	1264.62
425.401	1267.62
425.623	1288.62
425.846	1312.62
426.068	1364.62
426.291	1400.62
426.513	1378.62
426.735	1359.62
426.958	1473.62
427.18	1522.62
427.402	1383.62
427.625	1479.62
427.847	1437.62
428.069	1323.62
428.292	1298.62
428.514	1260.62
428.736	1260.62
428.958	1277.62
429.181	1312.62
429.403	1542.62
429.625	1825.62
429.847	1524.62
430.069	1338.62
430.292	1494.62
430.514	1479.62
430.736	1431.62
430.958	1436.62
431.18	1370.62
431.402	1284.62
431.624	1226.62
431.846	1214.62
432.068	1192.62
432.29	1181.62
432.512	1232.62
432.734	1294.62
432.956	1317.62
433.178	1371.62
433.4	1379.62
433.622	1307.62
433.844	1326.62
434.066	1221.62
434.287	1188.62
434.509	1237.62
434.731	1302.62
434.953	1435.62
435.175	1366.62
435.397	1316.62
435.618	1311.62
435.84	1264.62
436.062	1283.62
436.284	1295.62
436.505	1328.62
436.727	1347.62
436.949	1285.62
437.17	1268.62
437.392	1267.62
437.614	1246.62
437.835	1188.62
438.057	1265.62
438.278	1317.62
438.5	1244.62
438.721	1244.62
438.943	1254.62
439.165	1270.62
439.386	1276.62
439.608	1287.62
439.829	1267.62
440.05	1297.62
440.272	1268.62
440.493	1291.62
440.715	1297.62
440.936	1385.62
441.158	1497.62
441.379	1433.62
441.6	1463.62
441.822	1392.62
442.043	1339.62
442.264	1349.62
442.486	1285.62
442.707	1305.62
442.928	1317.62
443.149	1345.62
443.371	1376.62
443.592	1422.62
443.813	1445.62
444.034	1432.62
444.255	1413.62
444.476	1383.62
444.698	1452.62
444.919	1440.62
445.14	1512.62
445.361	1505.62
445.582	1461.62
445.803	1434.62
446.024	1433.62
446.245	1451.62
446.466	1473.62
446.687	1387.62
446.908	1402.62
447.129	1368.62
447.35	1380.62
447.571	1338.62
447.792	1317.62
448.013	1274.62
448.234	1340.62
448.455	1366.62
448.675	1355.62
448.896	1286.62
449.117	1240.62
449.338	1276.62
449.559	1302.62
449.779	1354.62
450	1493.62
450.221	1553.62
450.442	1493.62
450.662	1323.62
450.883	1220.62
451.104	1188.62
451.324	1225.62
451.545	1242.62
451.766	1195.62
451.986	1142.62
452.207	1173.62
452.428	1144.62
452.648	1113.62
452.869	1164.62
453.089	1212.62
453.31	1209.62
453.53	1201.62
453.751	1163.62
453.971	1094.62
454.192	1129.62
454.412	1195.62
454.633	1146.62
454.853	1165.62
455.073	1090.62
455.294	1108.62
455.514	1116.62
455.734	1114.62
455.955	1101.62
456.175	1139.62
456.395	1108.62
456.616	1129.62
456.836	1138.62
457.056	1113.62
457.276	1118.62
457.497	1103.62
457.717	1051.62
457.937	1077.62
458.157	1103.62
458.377	1098.62
458.598	1090.62
458.818	1079.62
459.038	1176.62
459.258	1188.62
459.478	1216.62
459.698	1157.62
459.918	1204.62
460.138	1260.62
460.358	1283.62
460.578	1284.62
460.798	1304.62
461.018	1372.62
461.238	1370.62
461.458	1308.62
461.678	1317.62
461.898	1234.62
462.118	1242.62
462.338	1294.62
462.558	1325.62
462.777	1326.62
462.997	1387.62
463.217	1388.62
463.437	1399.62
463.657	1317.62
463.876	1299.62
464.096	1278.62
464.316	1321.62
464.536	1348.62
464.755	1313.62
464.975	1337.62
465.195	1344.62
465.414	1379.62
465.634	1311.62
465.854	1344.62
466.073	1468.62
466.293	1410.62
466.512	1222.62
466.732	1224.62
466.951	1283.62
467.171	1259.62
467.391	1223.62
467.61	1214.62
467.829	1243.62
468.049	1393.62
468.268	1513.62
468.488	1386.62
468.707	1313.62
468.927	1278.62
469.146	1250.62
469.365	1256.62
469.585	1278.62
469.804	1272.62
470.023	1256.62
470.243	1302.62
470.462	1292.62
470.681	1233.62
470.901	1266.62
471.12	1260.62
471.339	1269.62
471.558	1243.62
471.777	1196.62
471.997	1196.62
472.216	1225.62
472.435	1169.62
472.654	1189.62
472.873	1203.62
473.092	1299.62
473.311	1213.62
473.53	1173.62
473.749	1179.62
473.968	1180.62
474.187	1259.62
474.406	1301.62
474.625	1265.62
474.844	1230.62
475.063	1246.62
475.282	1261.62
475.501	1259.62
475.72	1236.62
475.939	1324.62
476.158	1270.62
476.377	1244.62
476.596	1237.62
476.814	1245.62
477.033	1264.62
477.252	1325.62
477.471	1354.62
477.69	1332.62
477.908	1335.62
478.127	1399.62
478.346	1448.62
478.564	1472.62
478.783	1488.62
479.002	1489.62
479.22	1433.62
479.439	1525.62
479.658	1620.62
479.876	1589.62
480.095	1422.62
480.313	1396.62
480.532	1298.62
480.751	1357.62
480.969	1340.62
481.188	1302.62
481.406	1267.62
481.624	1261.62
481.843	1284.62
482.061	1323.62
482.28	1376.62
482.498	1397.62
482.717	1332.62
482.935	1338.62
483.153	1425.62
483.372	1434.62
483.59	1395.62
483.808	1400.62
484.027	1405.62
484.245	1492.62
484.463	1807.62
484.681	2015.62
484.9	1517.62
485.118	1412.62
485.336	1320.62
485.554	1414.62
485.772	1431.62
485.99	1400.62
486.209	1428.62
486.427	1363.62
486.645	1453.62
486.863	1482.62
487.081	1500.62
487.299	1477.62
487.517	1502.62
487.735	1493.62
487.953	1507.62
488.171	1515.62
488.389	1522.62
488.607	1479.62
488.825	1657.62
489.043	1634.62
489.261	1429.62
489.479	1528.62
489.696	1534.62
489.914	1523.62
490.132	1489.62
490.35	1488.62
490.568	1580.62
490.786	1504.62
491.003	1542.62
491.221	1561.62
491.439	1613.62
491.657	1630.62
491.874	1673.62
492.092	1705.62
492.31	1757.62
492.527	1700.62
