Data from WStandard_LampEnergy8_LIBS07252019.E.O._I.C._HRD10591_16-00-09-929.txt Node
Date: Thu Jul 25 16:00:09 EDT 2019
User: cochatt
Spectrometer: HR+D1059
Trigger mode: 1
Integration Time (sec): 1.000000E-1
Scans to average: 1
Electric dark correction enabled: true
Nonlinearity correction enabled: false
Boxcar width: 0
XAxis mode: Wavelengths
Number of Pixels in Spectrum: 2048
>>>>>Begin Spectral Data<<<<<
223.165	-21.44
223.4	-21.44
223.635	-21.44
223.869	-13.44
224.104	-24.44
224.338	-18.44
224.573	-26.44
224.808	-22.44
225.042	-3.44
225.277	10.56
225.511	-0.44
225.746	4.56
225.98	9.56
226.215	20.56
226.449	14.56
226.683	21.56
226.918	22.56
227.152	26.56
227.387	28.56
227.621	56.56
227.856	47.56
228.09	56.56
228.324	47.56
228.559	54.56
228.793	78.56
229.027	203.56
229.262	218.56
229.496	223.56
229.73	226.56
229.964	234.56
230.199	262.56
230.433	275.56
230.667	272.56
230.901	281.56
231.136	276.56
231.37	256.56
231.604	260.56
231.838	256.56
232.072	259.56
232.306	262.56
232.541	272.56
232.775	320.56
233.009	326.56
233.243	325.56
233.477	282.56
233.711	306.56
233.945	313.56
234.179	316.56
234.413	315.56
234.647	333.56
234.881	308.56
235.115	308.56
235.349	289.56
235.583	310.56
235.817	307.56
236.051	320.56
236.285	309.56
236.519	328.56
236.753	357.56
236.987	357.56
237.221	364.56
237.455	367.56
237.689	365.56
237.922	350.56
238.156	343.56
238.39	344.56
238.624	375.56
238.858	369.56
239.091	412.56
239.325	428.56
239.559	453.56
239.793	502.56
240.027	514.56
240.26	505.56
240.494	389.56
240.728	373.56
240.961	382.56
241.195	383.56
241.429	445.56
241.662	414.56
241.896	376.56
242.13	397.56
242.363	437.56
242.597	477.56
242.83	460.56
243.064	457.56
243.298	478.56
243.531	470.56
243.765	454.56
243.998	447.56
244.232	420.56
244.465	414.56
244.699	408.56
244.932	460.56
245.166	518.56
245.399	476.56
245.633	469.56
245.866	451.56
246.099	473.56
246.333	500.56
246.566	496.56
246.8	542.56
247.033	588.56
247.266	563.56
247.5	528.56
247.733	541.56
247.966	580.56
248.2	621.56
248.433	600.56
248.666	631.56
248.899	670.56
249.133	764.56
249.366	838.56
249.599	689.56
249.832	635.56
250.066	610.56
250.299	621.56
250.532	597.56
250.765	549.56
250.998	572.56
251.231	572.56
251.465	603.56
251.698	599.56
251.931	599.56
252.164	604.56
252.397	618.56
252.63	630.56
252.863	560.56
253.096	536.56
253.329	576.56
253.562	586.56
253.795	628.56
254.028	624.56
254.261	588.56
254.494	562.56
254.727	559.56
254.96	598.56
255.193	646.56
255.426	720.56
255.659	794.56
255.892	788.56
256.124	660.56
256.357	669.56
256.59	725.56
256.823	706.56
257.056	718.56
257.289	831.56
257.521	896.56
257.754	808.56
257.987	783.56
258.22	859.56
258.452	812.56
258.685	687.56
258.918	683.56
259.151	677.56
259.383	644.56
259.616	592.56
259.849	636.56
260.081	702.56
260.314	786.56
260.547	836.56
260.779	827.56
261.012	784.56
261.244	710.56
261.477	668.56
261.71	679.56
261.942	693.56
262.175	667.56
262.407	674.56
262.64	655.56
262.872	615.56
263.105	613.56
263.337	645.56
263.57	636.56
263.802	639.56
264.035	616.56
264.267	575.56
264.499	572.56
264.732	641.56
264.964	654.56
265.197	666.56
265.429	709.56
265.661	795.56
265.894	843.56
266.126	850.56
266.358	801.56
266.591	808.56
266.823	865.56
267.055	788.56
267.287	760.56
267.52	762.56
267.752	765.56
267.984	770.56
268.216	783.56
268.448	824.56
268.681	790.56
268.913	730.56
269.145	725.56
269.377	703.56
269.609	755.56
269.841	906.56
270.073	1007.56
270.306	1098.56
270.538	1144.56
270.77	980.56
271.002	824.56
271.234	846.56
271.466	842.56
271.698	933.56
271.93	1086.56
272.162	1020.56
272.394	941.56
272.626	910.56
272.858	789.56
273.09	700.56
273.322	715.56
273.553	679.56
273.785	733.56
274.017	704.56
274.249	738.56
274.481	748.56
274.713	715.56
274.945	705.56
275.176	728.56
275.408	694.56
275.64	698.56
275.872	690.56
276.104	739.56
276.335	843.56
276.567	905.56
276.799	894.56
277.031	845.56
277.262	825.56
277.494	833.56
277.726	901.56
277.957	894.56
278.189	812.56
278.421	766.56
278.652	758.56
278.884	744.56
279.115	734.56
279.347	746.56
279.579	741.56
279.81	771.56
280.042	820.56
280.273	875.56
280.505	867.56
280.736	891.56
280.968	830.56
281.199	749.56
281.431	712.56
281.662	693.56
281.894	700.56
282.125	729.56
282.356	755.56
282.588	781.56
282.819	796.56
283.051	861.56
283.282	912.56
283.513	862.56
283.745	768.56
283.976	724.56
284.207	724.56
284.439	730.56
284.67	742.56
284.901	800.56
285.132	806.56
285.364	780.56
285.595	804.56
285.826	790.56
286.057	760.56
286.288	733.56
286.52	805.56
286.751	873.56
286.982	837.56
287.213	784.56
287.444	726.56
287.675	752.56
287.906	800.56
288.138	826.56
288.369	792.56
288.6	758.56
288.831	750.56
289.062	738.56
289.293	776.56
289.524	796.56
289.755	799.56
289.986	796.56
290.217	752.56
290.448	769.56
290.679	796.56
290.91	799.56
291.141	795.56
291.371	822.56
291.602	805.56
291.833	842.56
292.064	852.56
292.295	835.56
292.526	850.56
292.757	871.56
292.987	822.56
293.218	825.56
293.449	876.56
293.68	1008.56
293.91	1041.56
294.141	986.56
294.372	899.56
294.603	935.56
294.833	979.56
295.064	936.56
295.295	814.56
295.525	809.56
295.756	758.56
295.987	751.56
296.217	769.56
296.448	789.56
296.679	792.56
296.909	785.56
297.14	774.56
297.37	798.56
297.601	873.56
297.831	907.56
298.062	883.56
298.292	825.56
298.523	822.56
298.753	803.56
298.984	802.56
299.214	830.56
299.445	858.56
299.675	864.56
299.905	838.56
300.136	810.56
300.366	786.56
300.597	776.56
300.827	775.56
301.057	809.56
301.288	847.56
301.518	872.56
301.748	852.56
301.979	925.56
302.209	936.56
302.439	1001.56
302.669	1052.56
302.9	928.56
303.13	871.56
303.36	849.56
303.59	885.56
303.82	871.56
304.051	868.56
304.281	852.56
304.511	909.56
304.741	938.56
304.971	1056.56
305.201	1079.56
305.431	959.56
305.661	820.56
305.891	759.56
306.121	783.56
306.352	793.56
306.582	859.56
306.812	905.56
307.042	971.56
307.272	950.56
307.502	989.56
307.731	1063.56
307.961	1091.56
308.191	1000.56
308.421	892.56
308.651	841.56
308.881	852.56
309.111	839.56
309.341	875.56
309.571	828.56
309.8	855.56
310.03	807.56
310.26	863.56
310.49	855.56
310.72	867.56
310.949	888.56
311.179	877.56
311.409	884.56
311.639	846.56
311.868	846.56
312.098	863.56
312.328	884.56
312.557	850.56
312.787	843.56
313.017	860.56
313.246	872.56
313.476	873.56
313.706	949.56
313.935	906.56
314.165	910.56
314.394	963.56
314.624	1007.56
314.853	1047.56
315.083	1019.56
315.312	1080.56
315.542	980.56
315.771	902.56
316.001	930.56
316.23	984.56
316.46	962.56
316.689	934.56
316.919	896.56
317.148	866.56
317.377	902.56
317.607	982.56
317.836	1061.56
318.065	1077.56
318.295	1028.56
318.524	983.56
318.753	950.56
318.983	936.56
319.212	917.56
319.441	922.56
319.67	934.56
319.9	942.56
320.129	1015.56
320.358	1020.56
320.587	1046.56
320.816	1028.56
321.046	1020.56
321.275	967.56
321.504	1006.56
321.733	1028.56
321.962	1005.56
322.191	954.56
322.42	957.56
322.649	932.56
322.878	904.56
323.108	938.56
323.337	994.56
323.566	968.56
323.795	933.56
324.024	970.56
324.253	944.56
324.482	935.56
324.71	909.56
324.939	867.56
325.168	906.56
325.397	948.56
325.626	1004.56
325.855	950.56
326.084	954.56
326.313	939.56
326.542	981.56
326.77	980.56
326.999	950.56
327.228	907.56
327.457	873.56
327.686	886.56
327.914	937.56
328.143	938.56
328.372	951.56
328.6	958.56
328.829	909.56
329.058	893.56
329.287	898.56
329.515	942.56
329.744	974.56
329.972	1006.56
330.201	1047.56
330.43	1023.56
330.658	996.56
330.887	1015.56
331.115	1008.56
331.344	998.56
331.572	980.56
331.801	976.56
332.03	982.56
332.258	982.56
332.486	990.56
332.715	1018.56
332.943	1036.56
333.172	981.56
333.4	993.56
333.629	1036.56
333.857	1098.56
334.085	1237.56
334.314	1414.56
334.542	1444.56
334.771	1300.56
334.999	1186.56
335.227	1106.56
335.455	1085.56
335.684	1062.56
335.912	1146.56
336.14	1131.56
336.369	1091.56
336.597	1054.56
336.825	1030.56
337.053	1061.56
337.281	1093.56
337.51	1147.56
337.738	1208.56
337.966	1104.56
338.194	1031.56
338.422	996.56
338.65	1003.56
338.878	988.56
339.106	952.56
339.334	969.56
339.562	941.56
339.79	956.56
340.018	1032.56
340.246	1037.56
340.474	1062.56
340.702	1008.56
340.93	1056.56
341.158	1032.56
341.386	1002.56
341.614	985.56
341.842	974.56
342.07	996.56
342.298	999.56
342.526	972.56
342.754	980.56
342.981	984.56
343.209	983.56
343.437	964.56
343.665	961.56
343.893	1041.56
344.12	1068.56
344.348	1068.56
344.576	998.56
344.804	958.56
345.031	1012.56
345.259	994.56
345.487	936.56
345.714	931.56
345.942	920.56
346.17	902.56
346.397	969.56
346.625	962.56
346.853	914.56
347.08	887.56
347.308	882.56
347.535	933.56
347.763	961.56
347.99	956.56
348.218	918.56
348.445	927.56
348.673	926.56
348.9	990.56
349.128	1002.56
349.355	1006.56
349.583	983.56
349.81	934.56
350.037	855.56
350.265	875.56
350.492	879.56
350.72	899.56
350.947	938.56
351.174	956.56
351.402	918.56
351.629	880.56
351.856	892.56
352.083	865.56
352.311	866.56
352.538	909.56
352.765	991.56
352.992	954.56
353.22	936.56
353.447	917.56
353.674	937.56
353.901	904.56
354.128	915.56
354.355	963.56
354.583	950.56
354.81	974.56
355.037	967.56
355.264	965.56
355.491	936.56
355.718	964.56
355.945	957.56
356.172	893.56
356.399	893.56
356.626	907.56
356.853	962.56
357.08	1081.56
357.307	1146.56
357.534	1077.56
357.761	946.56
357.988	903.56
358.215	884.56
358.441	898.56
358.668	867.56
358.895	898.56
359.122	978.56
359.349	1039.56
359.576	1000.56
359.802	936.56
360.029	913.56
360.256	910.56
360.483	912.56
360.709	960.56
360.936	985.56
361.163	1062.56
361.39	1112.56
361.616	1182.56
361.843	1164.56
362.07	1080.56
362.296	968.56
362.523	907.56
362.749	936.56
362.976	949.56
363.203	954.56
363.429	918.56
363.656	915.56
363.882	955.56
364.109	1084.56
364.335	1103.56
364.562	1046.56
364.788	962.56
365.015	940.56
365.241	908.56
365.468	946.56
365.694	991.56
365.92	1010.56
366.147	960.56
366.373	908.56
366.599	879.56
366.826	900.56
367.052	917.56
367.278	925.56
367.505	963.56
367.731	981.56
367.957	974.56
368.184	1005.56
368.41	1059.56
368.636	1063.56
368.862	1058.56
369.089	1054.56
369.315	1026.56
369.541	1000.56
369.767	955.56
369.993	935.56
370.219	945.56
370.445	963.56
370.672	1045.56
370.898	1088.56
371.124	1039.56
371.35	998.56
371.576	1046.56
371.802	1050.56
372.028	1020.56
372.254	968.56
372.48	927.56
372.706	959.56
372.932	944.56
373.158	980.56
373.384	969.56
373.61	1028.56
373.835	1042.56
374.061	988.56
374.287	1011.56
374.513	980.56
374.739	998.56
374.965	988.56
375.191	991.56
375.416	997.56
375.642	1031.56
375.868	1085.56
376.094	1102.56
376.319	1050.56
376.545	979.56
376.771	1026.56
376.997	1095.56
377.222	1058.56
377.448	1047.56
377.674	1034.56
377.899	1074.56
378.125	1107.56
378.35	1111.56
378.576	1016.56
378.802	971.56
379.027	980.56
379.253	972.56
379.478	1000.56
379.704	1008.56
379.929	990.56
380.155	998.56
380.38	1027.56
380.606	992.56
380.831	1017.56
381.057	1080.56
381.282	1082.56
381.507	1048.56
381.733	1148.56
381.958	1182.56
382.184	1074.56
382.409	1024.56
382.634	1034.56
382.86	1056.56
383.085	1036.56
383.31	1076.56
383.535	1199.56
383.761	1233.56
383.986	1175.56
384.211	1148.56
384.436	1149.56
384.662	1167.56
384.887	1190.56
385.112	1159.56
385.337	1172.56
385.562	1150.56
385.787	1148.56
386.013	1193.56
386.238	1152.56
386.463	1181.56
386.688	1261.56
386.913	1299.56
387.138	1244.56
387.363	1198.56
387.588	1199.56
387.813	1135.56
388.038	1174.56
388.263	1212.56
388.488	1152.56
388.713	1088.56
388.938	1087.56
389.163	1093.56
389.387	1110.56
389.612	1131.56
389.837	1113.56
390.062	1143.56
390.287	1150.56
390.512	1158.56
390.736	1088.56
390.961	1110.56
391.186	1084.56
391.411	1111.56
391.636	1152.56
391.86	1106.56
392.085	1143.56
392.31	1132.56
392.534	1136.56
392.759	1178.56
392.984	1151.56
393.208	1159.56
393.433	1190.56
393.658	1226.56
393.882	1268.56
394.107	1142.56
394.331	1150.56
394.556	1134.56
394.78	1150.56
395.005	1206.56
395.229	1231.56
395.454	1314.56
395.678	1294.56
395.903	1251.56
396.127	1210.56
396.352	1241.56
396.576	1266.56
396.801	1229.56
397.025	1217.56
397.249	1243.56
397.474	1236.56
397.698	1218.56
397.922	1269.56
398.147	1347.56
398.371	1388.56
398.595	1312.56
398.82	1300.56
399.044	1323.56
399.268	1423.56
399.492	1492.56
399.717	1504.56
399.941	1515.56
400.165	1501.56
400.389	1448.56
400.613	1488.56
400.837	1664.56
401.062	1809.56
401.286	1534.56
401.51	1440.56
401.734	1459.56
401.958	1424.56
402.182	1352.56
402.406	1275.56
402.63	1294.56
402.854	1303.56
403.078	1323.56
403.302	1321.56
403.526	1345.56
403.75	1376.56
403.974	1356.56
404.198	1366.56
404.422	1433.56
404.645	1467.56
404.869	1423.56
405.093	1332.56
405.317	1305.56
405.541	1354.56
405.765	1375.56
405.988	1387.56
406.212	1406.56
406.436	1432.56
406.66	1491.56
406.883	1516.56
407.107	1670.56
407.331	1827.56
407.555	1868.56
407.778	1690.56
408.002	1464.56
408.226	1455.56
408.449	1423.56
408.673	1360.56
408.896	1426.56
409.12	1416.56
409.344	1370.56
409.567	1340.56
409.791	1383.56
410.014	1398.56
410.238	1513.56
410.461	1490.56
410.685	1399.56
410.908	1332.56
411.132	1366.56
411.355	1345.56
411.578	1372.56
411.802	1324.56
412.025	1375.56
412.249	1334.56
412.472	1308.56
412.695	1275.56
412.919	1314.56
413.142	1302.56
413.365	1329.56
413.589	1354.56
413.812	1412.56
414.035	1437.56
414.258	1343.56
414.482	1294.56
414.705	1324.56
414.928	1302.56
415.151	1312.56
415.374	1367.56
415.597	1332.56
415.821	1364.56
416.044	1334.56
416.267	1375.56
416.49	1288.56
416.713	1250.56
416.936	1349.56
417.159	1368.56
417.382	1373.56
417.605	1293.56
417.828	1338.56
418.051	1387.56
418.274	1285.56
418.497	1259.56
418.72	1286.56
418.943	1303.56
419.166	1342.56
419.389	1356.56
419.611	1314.56
419.834	1294.56
420.057	1324.56
420.28	1288.56
420.503	1275.56
420.726	1339.56
420.948	1307.56
421.171	1272.56
421.394	1306.56
421.617	1342.56
421.839	1357.56
422.062	1310.56
422.285	1276.56
422.507	1280.56
422.73	1279.56
422.953	1243.56
423.175	1248.56
423.398	1272.56
423.621	1273.56
423.843	1312.56
424.066	1360.56
424.288	1374.56
424.511	1412.56
424.733	1364.56
424.956	1277.56
425.178	1253.56
425.401	1259.56
425.623	1262.56
425.846	1247.56
426.068	1364.56
426.291	1384.56
426.513	1316.56
426.735	1336.56
426.958	1446.56
427.18	1500.56
427.402	1392.56
427.625	1446.56
427.847	1389.56
428.069	1317.56
428.292	1260.56
428.514	1241.56
428.736	1244.56
428.958	1288.56
429.181	1280.56
429.403	1451.56
429.625	1771.56
429.847	1462.56
430.069	1327.56
430.292	1444.56
430.514	1458.56
430.736	1351.56
430.958	1392.56
431.18	1295.56
431.402	1270.56
431.624	1224.56
431.846	1175.56
432.068	1151.56
432.29	1154.56
432.512	1185.56
432.734	1263.56
432.956	1260.56
433.178	1340.56
433.4	1336.56
433.622	1342.56
433.844	1271.56
434.066	1200.56
434.287	1210.56
434.509	1208.56
434.731	1340.56
434.953	1360.56
435.175	1356.56
435.397	1286.56
435.618	1298.56
435.84	1248.56
436.062	1242.56
436.284	1299.56
436.505	1320.56
436.727	1338.56
436.949	1298.56
437.17	1246.56
437.392	1255.56
437.614	1204.56
437.835	1180.56
438.057	1253.56
438.278	1266.56
438.5	1225.56
438.721	1216.56
438.943	1276.56
439.165	1259.56
439.386	1246.56
439.608	1263.56
439.829	1309.56
440.05	1293.56
440.272	1231.56
440.493	1252.56
440.715	1278.56
440.936	1352.56
441.158	1443.56
441.379	1370.56
441.6	1392.56
441.822	1366.56
442.043	1363.56
442.264	1354.56
442.486	1265.56
442.707	1270.56
442.928	1288.56
443.149	1314.56
443.371	1356.56
443.592	1400.56
443.813	1357.56
444.034	1352.56
444.255	1354.56
444.476	1391.56
444.698	1423.56
444.919	1438.56
445.14	1524.56
445.361	1445.56
445.582	1478.56
445.803	1429.56
446.024	1401.56
446.245	1417.56
446.466	1378.56
446.687	1370.56
446.908	1368.56
447.129	1356.56
447.35	1324.56
447.571	1330.56
447.792	1222.56
448.013	1251.56
448.234	1250.56
448.455	1309.56
448.675	1343.56
448.896	1225.56
449.117	1198.56
449.338	1217.56
449.559	1302.56
449.779	1312.56
450	1466.56
450.221	1493.56
450.442	1426.56
450.662	1326.56
450.883	1207.56
451.104	1179.56
451.324	1199.56
451.545	1212.56
451.766	1179.56
451.986	1127.56
452.207	1144.56
452.428	1116.56
452.648	1104.56
452.869	1132.56
453.089	1147.56
453.31	1151.56
453.53	1173.56
453.751	1127.56
453.971	1063.56
454.192	1120.56
454.412	1158.56
454.633	1128.56
454.853	1122.56
455.073	1064.56
455.294	1078.56
455.514	1072.56
455.734	1100.56
455.955	1090.56
456.175	1063.56
456.395	1069.56
456.616	1105.56
456.836	1076.56
457.056	1114.56
457.276	1089.56
457.497	1068.56
457.717	1013.56
457.937	1042.56
458.157	1063.56
458.377	1071.56
458.598	1052.56
458.818	1046.56
459.038	1121.56
459.258	1155.56
459.478	1138.56
459.698	1113.56
459.918	1156.56
460.138	1225.56
460.358	1253.56
460.578	1268.56
460.798	1300.56
461.018	1356.56
461.238	1314.56
461.458	1277.56
461.678	1238.56
461.898	1226.56
462.118	1215.56
462.338	1273.56
462.558	1263.56
462.777	1282.56
462.997	1338.56
463.217	1381.56
463.437	1324.56
463.657	1296.56
463.876	1260.56
464.096	1253.56
464.316	1268.56
464.536	1322.56
464.755	1335.56
464.975	1332.56
465.195	1305.56
465.414	1336.56
465.634	1328.56
465.854	1304.56
466.073	1375.56
466.293	1342.56
466.512	1217.56
466.732	1240.56
466.951	1238.56
467.171	1238.56
467.391	1191.56
467.61	1188.56
467.829	1205.56
468.049	1332.56
468.268	1471.56
468.488	1320.56
468.707	1265.56
468.927	1236.56
469.146	1219.56
469.365	1219.56
469.585	1242.56
469.804	1209.56
470.023	1268.56
470.243	1239.56
470.462	1266.56
470.681	1239.56
470.901	1243.56
471.12	1268.56
471.339	1271.56
471.558	1192.56
471.777	1200.56
471.997	1208.56
472.216	1177.56
472.435	1154.56
472.654	1154.56
472.873	1195.56
473.092	1246.56
473.311	1172.56
473.53	1149.56
473.749	1151.56
473.968	1198.56
474.187	1258.56
474.406	1279.56
474.625	1230.56
474.844	1215.56
475.063	1209.56
475.282	1210.56
475.501	1210.56
475.72	1223.56
475.939	1315.56
476.158	1221.56
476.377	1256.56
476.596	1266.56
476.814	1226.56
477.033	1222.56
477.252	1284.56
477.471	1334.56
477.69	1303.56
477.908	1275.56
478.127	1356.56
478.346	1415.56
478.564	1436.56
478.783	1428.56
479.002	1468.56
479.22	1459.56
479.439	1478.56
479.658	1598.56
479.876	1527.56
480.095	1394.56
480.313	1376.56
480.532	1290.56
480.751	1332.56
480.969	1339.56
481.188	1293.56
481.406	1245.56
481.624	1228.56
481.843	1265.56
482.061	1282.56
482.28	1338.56
482.498	1348.56
482.717	1335.56
482.935	1309.56
483.153	1372.56
483.372	1405.56
483.59	1390.56
483.808	1346.56
484.027	1395.56
484.245	1460.56
484.463	1736.56
484.681	1906.56
484.9	1460.56
485.118	1364.56
485.336	1345.56
485.554	1415.56
485.772	1386.56
485.99	1360.56
486.209	1396.56
486.427	1406.56
486.645	1413.56
486.863	1415.56
487.081	1501.56
487.299	1480.56
487.517	1498.56
487.735	1496.56
487.953	1529.56
488.171	1509.56
488.389	1462.56
488.607	1468.56
488.825	1580.56
489.043	1574.56
489.261	1447.56
489.479	1467.56
489.696	1451.56
489.914	1486.56
490.132	1465.56
490.35	1483.56
490.568	1523.56
490.786	1510.56
491.003	1464.56
491.221	1566.56
491.439	1601.56
491.657	1606.56
491.874	1618.56
492.092	1673.56
492.31	1743.56
492.527	1671.56
492.745	1645.56
492.963	1606.56
493.18	1613.56
493.398	1696.56
