Data from WStandard_LampEnergy8_LIBS07252019.E.O._I.C._HRD10591_15-58-50-929.txt Node
Date: Thu Jul 25 15:58:50 EDT 2019
User: cochatt
Spectrometer: HR+D1059
Trigger mode: 1
Integration Time (sec): 1.000000E-1
Scans to average: 1
Electric dark correction enabled: true
Nonlinearity correction enabled: false
Boxcar width: 0
XAxis mode: Wavelengths
Number of Pixels in Spectrum: 2048
>>>>>Begin Spectral Data<<<<<
223.165	-15.38
223.4	-15.38
223.635	-15.38
223.869	-14.38
224.104	-20.38
224.338	-11.38
224.573	-8.38
224.808	-16.38
225.042	9.62
225.277	-9.38
225.511	-7.38
225.746	0.62
225.98	4.62
226.215	6.62
226.449	24.62
226.683	14.62
226.918	19.62
227.152	22.62
227.387	40.62
227.621	51.62
227.856	40.62
228.09	41.62
228.324	37.62
228.559	42.62
228.793	102.62
229.027	202.62
229.262	193.62
229.496	221.62
229.73	224.62
229.964	267.62
230.199	263.62
230.433	248.62
230.667	271.62
230.901	283.62
231.136	255.62
231.37	272.62
231.604	253.62
231.838	260.62
232.072	249.62
232.306	259.62
232.541	285.62
232.775	299.62
233.009	332.62
233.243	313.62
233.477	304.62
233.711	323.62
233.945	313.62
234.179	307.62
234.413	324.62
234.647	331.62
234.881	327.62
235.115	316.62
235.349	314.62
235.583	307.62
235.817	317.62
236.051	295.62
236.285	319.62
236.519	320.62
236.753	343.62
236.987	367.62
237.221	355.62
237.455	386.62
237.689	373.62
237.922	373.62
238.156	353.62
238.39	368.62
238.624	389.62
238.858	411.62
239.091	428.62
239.325	439.62
239.559	506.62
239.793	493.62
240.027	522.62
240.26	504.62
240.494	405.62
240.728	390.62
240.961	381.62
241.195	382.62
241.429	433.62
241.662	432.62
241.896	403.62
242.13	406.62
242.363	418.62
242.597	459.62
242.83	466.62
243.064	460.62
243.298	502.62
243.531	475.62
243.765	479.62
243.998	463.62
244.232	402.62
244.465	418.62
244.699	419.62
244.932	482.62
245.166	529.62
245.399	497.62
245.633	469.62
245.866	466.62
246.099	502.62
246.333	505.62
246.566	531.62
246.8	552.62
247.033	615.62
247.266	549.62
247.5	554.62
247.733	559.62
247.966	577.62
248.2	614.62
248.433	611.62
248.666	624.62
248.899	704.62
249.133	781.62
249.366	839.62
249.599	699.62
249.832	641.62
250.066	625.62
250.299	656.62
250.532	589.62
250.765	549.62
250.998	579.62
251.231	610.62
251.465	610.62
251.698	592.62
251.931	584.62
252.164	611.62
252.397	631.62
252.63	599.62
252.863	577.62
253.096	543.62
253.329	576.62
253.562	588.62
253.795	634.62
254.028	619.62
254.261	601.62
254.494	588.62
254.727	568.62
254.96	547.62
255.193	653.62
255.426	722.62
255.659	819.62
255.892	832.62
256.124	683.62
256.357	673.62
256.59	739.62
256.823	724.62
257.056	717.62
257.289	855.62
257.521	904.62
257.754	845.62
257.987	807.62
258.22	836.62
258.452	825.62
258.685	691.62
258.918	699.62
259.151	700.62
259.383	661.62
259.616	588.62
259.849	638.62
260.081	695.62
260.314	820.62
260.547	827.62
260.779	815.62
261.012	778.62
261.244	714.62
261.477	698.62
261.71	717.62
261.942	713.62
262.175	688.62
262.407	721.62
262.64	685.62
262.872	644.62
263.105	641.62
263.337	634.62
263.57	643.62
263.802	652.62
264.035	625.62
264.267	579.62
264.499	588.62
264.732	629.62
264.964	677.62
265.197	689.62
265.429	719.62
265.661	799.62
265.894	867.62
266.126	894.62
266.358	817.62
266.591	807.62
266.823	876.62
267.055	813.62
267.287	809.62
267.52	775.62
267.752	771.62
267.984	804.62
268.216	803.62
268.448	835.62
268.681	811.62
268.913	724.62
269.145	705.62
269.377	705.62
269.609	772.62
269.841	902.62
270.073	1027.62
270.306	1119.62
270.538	1161.62
270.77	978.62
271.002	855.62
271.234	879.62
271.466	836.62
271.698	976.62
271.93	1115.62
272.162	1082.62
272.394	984.62
272.626	922.62
272.858	836.62
273.09	731.62
273.322	689.62
273.553	687.62
273.785	695.62
274.017	744.62
274.249	788.62
274.481	797.62
274.713	723.62
274.945	694.62
275.176	701.62
275.408	718.62
275.64	697.62
275.872	691.62
276.104	787.62
276.335	874.62
276.567	939.62
276.799	909.62
277.031	855.62
277.262	818.62
277.494	836.62
277.726	919.62
277.957	897.62
278.189	833.62
278.421	783.62
278.652	748.62
278.884	756.62
279.115	746.62
279.347	748.62
279.579	743.62
279.81	752.62
280.042	839.62
280.273	909.62
280.505	897.62
280.736	905.62
280.968	839.62
281.199	756.62
281.431	723.62
281.662	717.62
281.894	756.62
282.125	767.62
282.356	796.62
282.588	779.62
282.819	820.62
283.051	867.62
283.282	936.62
283.513	879.62
283.745	744.62
283.976	715.62
284.207	752.62
284.439	755.62
284.67	762.62
284.901	801.62
285.132	822.62
285.364	795.62
285.595	807.62
285.826	779.62
286.057	779.62
286.288	787.62
286.52	803.62
286.751	864.62
286.982	867.62
287.213	791.62
287.444	751.62
287.675	739.62
287.906	792.62
288.138	859.62
288.369	828.62
288.6	779.62
288.831	752.62
289.062	734.62
289.293	787.62
289.524	790.62
289.755	803.62
289.986	795.62
290.217	752.62
290.448	765.62
290.679	790.62
290.91	781.62
291.141	836.62
291.371	861.62
291.602	860.62
291.833	844.62
292.064	866.62
292.295	844.62
292.526	888.62
292.757	905.62
292.987	855.62
293.218	831.62
293.449	901.62
293.68	1004.62
293.91	1042.62
294.141	970.62
294.372	916.62
294.603	973.62
294.833	1029.62
295.064	939.62
295.295	845.62
295.525	803.62
295.756	779.62
295.987	730.62
296.217	780.62
296.448	805.62
296.679	796.62
296.909	785.62
297.14	799.62
297.37	820.62
297.601	860.62
297.831	889.62
298.062	890.62
298.292	835.62
298.523	779.62
298.753	786.62
298.984	817.62
299.214	832.62
299.445	863.62
299.675	872.62
299.905	826.62
300.136	830.62
300.366	804.62
300.597	780.62
300.827	807.62
301.057	838.62
301.288	871.62
301.518	869.62
301.748	901.62
301.979	908.62
302.209	942.62
302.439	1012.62
302.669	1040.62
302.9	978.62
303.13	884.62
303.36	877.62
303.59	895.62
303.82	871.62
304.051	881.62
304.281	873.62
304.511	897.62
304.741	985.62
304.971	1054.62
305.201	1061.62
305.431	1012.62
305.661	845.62
305.891	774.62
306.121	787.62
306.352	810.62
306.582	860.62
306.812	915.62
307.042	967.62
307.272	949.62
307.502	1012.62
307.731	1085.62
307.961	1121.62
308.191	1028.62
308.421	885.62
308.651	873.62
308.881	841.62
309.111	849.62
309.341	843.62
309.571	823.62
309.8	835.62
310.03	851.62
310.26	859.62
310.49	831.62
310.72	869.62
310.949	956.62
311.179	917.62
311.409	872.62
311.639	859.62
311.868	836.62
312.098	857.62
312.328	874.62
312.557	860.62
312.787	893.62
313.017	906.62
313.246	902.62
313.476	882.62
313.706	903.62
313.935	907.62
314.165	921.62
314.394	950.62
314.624	1008.62
314.853	1056.62
315.083	1092.62
315.312	1066.62
315.542	1007.62
315.771	933.62
316.001	949.62
316.23	974.62
316.46	967.62
316.689	947.62
316.919	918.62
317.148	871.62
317.377	897.62
317.607	994.62
317.836	1081.62
318.065	1095.62
318.295	1043.62
318.524	1025.62
318.753	987.62
318.983	972.62
319.212	934.62
319.441	943.62
319.67	954.62
319.9	972.62
320.129	977.62
320.358	1048.62
320.587	1075.62
320.816	1100.62
321.046	1050.62
321.275	987.62
321.504	1003.62
321.733	1066.62
321.962	1027.62
322.191	958.62
322.42	929.62
322.649	913.62
322.878	930.62
323.108	946.62
323.337	974.62
323.566	1018.62
323.795	953.62
324.024	973.62
324.253	965.62
324.482	961.62
324.71	894.62
324.939	903.62
325.168	934.62
325.397	964.62
325.626	981.62
325.855	969.62
326.084	959.62
326.313	953.62
326.542	963.62
326.77	967.62
326.999	986.62
327.228	927.62
327.457	911.62
327.686	910.62
327.914	917.62
328.143	942.62
328.372	938.62
328.6	979.62
328.829	941.62
329.058	932.62
329.287	960.62
329.515	960.62
329.744	976.62
329.972	1043.62
330.201	1035.62
330.43	1026.62
330.658	1009.62
330.887	1025.62
331.115	1018.62
331.344	1023.62
331.572	1014.62
331.801	1001.62
332.03	1013.62
332.258	1020.62
332.486	1013.62
332.715	1037.62
332.943	1021.62
333.172	1023.62
333.4	1023.62
333.629	1060.62
333.857	1150.62
334.085	1257.62
334.314	1409.62
334.542	1484.62
334.771	1356.62
334.999	1194.62
335.227	1127.62
335.455	1095.62
335.684	1093.62
335.912	1119.62
336.14	1130.62
336.369	1087.62
336.597	1028.62
336.825	1031.62
337.053	1082.62
337.281	1131.62
337.51	1208.62
337.738	1235.62
337.966	1109.62
338.194	1019.62
338.422	1000.62
338.65	999.62
338.878	987.62
339.106	987.62
339.334	937.62
339.562	940.62
339.79	964.62
340.018	1039.62
340.246	1073.62
340.474	1072.62
340.702	1030.62
340.93	1074.62
341.158	1054.62
341.386	1016.62
341.614	1000.62
341.842	1004.62
342.07	1035.62
342.298	1033.62
342.526	1007.62
342.754	979.62
342.981	1004.62
343.209	972.62
343.437	977.62
343.665	1021.62
343.893	1045.62
344.12	1084.62
344.348	1079.62
344.576	1012.62
344.804	990.62
345.031	1000.62
345.259	1004.62
345.487	960.62
345.714	947.62
345.942	936.62
346.17	964.62
346.397	927.62
346.625	963.62
346.853	897.62
347.08	876.62
347.308	899.62
347.535	959.62
347.763	971.62
347.99	950.62
348.218	908.62
348.445	937.62
348.673	974.62
348.9	977.62
349.128	1009.62
349.355	1024.62
349.583	995.62
349.81	936.62
350.037	866.62
350.265	883.62
350.492	885.62
350.72	912.62
350.947	947.62
351.174	965.62
351.402	939.62
351.629	894.62
351.856	883.62
352.083	896.62
352.311	893.62
352.538	914.62
352.765	955.62
352.992	963.62
353.22	906.62
353.447	901.62
353.674	936.62
353.901	910.62
354.128	885.62
354.355	899.62
354.583	971.62
354.81	970.62
355.037	992.62
355.264	965.62
355.491	945.62
355.718	948.62
355.945	960.62
356.172	926.62
356.399	945.62
356.626	880.62
356.853	955.62
357.08	1063.62
357.307	1157.62
357.534	1105.62
357.761	973.62
357.988	893.62
358.215	889.62
358.441	879.62
358.668	900.62
358.895	914.62
359.122	991.62
359.349	1062.62
359.576	1037.62
359.802	955.62
360.029	908.62
360.256	913.62
360.483	927.62
360.709	980.62
360.936	986.62
361.163	1059.62
361.39	1142.62
361.616	1203.62
361.843	1161.62
362.07	1067.62
362.296	975.62
362.523	927.62
362.749	909.62
362.976	978.62
363.203	987.62
363.429	936.62
363.656	899.62
363.882	965.62
364.109	1085.62
364.335	1127.62
364.562	1057.62
364.788	1019.62
365.015	939.62
365.241	953.62
365.468	930.62
365.694	1013.62
365.92	1039.62
366.147	980.62
366.373	936.62
366.599	905.62
366.826	915.62
367.052	937.62
367.278	967.62
367.505	996.62
367.731	953.62
367.957	978.62
368.184	1026.62
368.41	1075.62
368.636	1071.62
368.862	1116.62
369.089	1073.62
369.315	1033.62
369.541	978.62
369.767	974.62
369.993	947.62
370.219	944.62
370.445	986.62
370.672	1033.62
370.898	1108.62
371.124	1037.62
371.35	1007.62
371.576	1066.62
371.802	1077.62
372.028	1003.62
372.254	973.62
372.48	945.62
372.706	958.62
372.932	955.62
373.158	974.62
373.384	1025.62
373.61	1039.62
373.835	1090.62
374.061	1001.62
374.287	993.62
374.513	1010.62
374.739	1020.62
374.965	1019.62
375.191	1045.62
375.416	1024.62
375.642	1043.62
375.868	1100.62
376.094	1170.62
376.319	1079.62
376.545	1004.62
376.771	1041.62
376.997	1128.62
377.222	1086.62
377.448	1063.62
377.674	1041.62
377.899	1073.62
378.125	1116.62
378.35	1094.62
378.576	1000.62
378.802	976.62
379.027	962.62
379.253	973.62
379.478	1002.62
379.704	990.62
379.929	982.62
380.155	1020.62
380.38	1030.62
380.606	1027.62
380.831	1018.62
381.057	1083.62
381.282	1101.62
381.507	1054.62
381.733	1129.62
381.958	1155.62
382.184	1079.62
382.409	1035.62
382.634	1064.62
382.86	1081.62
383.085	1071.62
383.31	1126.62
383.535	1235.62
383.761	1219.62
383.986	1178.62
384.211	1144.62
384.436	1124.62
384.662	1191.62
384.887	1210.62
385.112	1159.62
385.337	1169.62
385.562	1152.62
385.787	1123.62
386.013	1177.62
386.238	1144.62
386.463	1162.62
386.688	1306.62
386.913	1344.62
387.138	1304.62
387.363	1216.62
387.588	1187.62
387.813	1151.62
388.038	1186.62
388.263	1234.62
388.488	1193.62
388.713	1113.62
388.938	1116.62
389.163	1119.62
389.387	1144.62
389.612	1139.62
389.837	1161.62
390.062	1177.62
390.287	1169.62
390.512	1137.62
390.736	1097.62
390.961	1104.62
391.186	1103.62
391.411	1089.62
391.636	1109.62
391.86	1149.62
392.085	1135.62
392.31	1127.62
392.534	1154.62
392.759	1153.62
392.984	1154.62
393.208	1172.62
393.433	1194.62
393.658	1242.62
393.882	1242.62
394.107	1166.62
394.331	1147.62
394.556	1149.62
394.78	1156.62
395.005	1223.62
395.229	1283.62
395.454	1343.62
395.678	1335.62
395.903	1247.62
396.127	1205.62
396.352	1233.62
396.576	1263.62
396.801	1289.62
397.025	1253.62
397.249	1244.62
397.474	1263.62
397.698	1252.62
397.922	1247.62
398.147	1369.62
398.371	1372.62
398.595	1388.62
398.82	1301.62
399.044	1321.62
399.268	1394.62
399.492	1489.62
399.717	1554.62
399.941	1529.62
400.165	1491.62
400.389	1447.62
400.613	1479.62
400.837	1671.62
401.062	1834.62
401.286	1551.62
401.51	1433.62
401.734	1539.62
401.958	1445.62
402.182	1340.62
402.406	1301.62
402.63	1285.62
402.854	1344.62
403.078	1352.62
403.302	1313.62
403.526	1349.62
403.75	1345.62
403.974	1401.62
404.198	1370.62
404.422	1469.62
404.645	1552.62
404.869	1467.62
405.093	1360.62
405.317	1338.62
405.541	1354.62
405.765	1365.62
405.988	1387.62
406.212	1397.62
406.436	1437.62
406.66	1466.62
406.883	1508.62
407.107	1704.62
407.331	1851.62
407.555	1964.62
407.778	1754.62
408.002	1474.62
408.226	1433.62
408.449	1439.62
408.673	1408.62
408.896	1404.62
409.12	1426.62
409.344	1375.62
409.567	1368.62
409.791	1364.62
410.014	1392.62
410.238	1505.62
410.461	1555.62
410.685	1421.62
410.908	1379.62
411.132	1391.62
411.355	1379.62
411.578	1347.62
411.802	1344.62
412.025	1367.62
412.249	1357.62
412.472	1319.62
412.695	1307.62
412.919	1333.62
413.142	1280.62
413.365	1329.62
413.589	1375.62
413.812	1448.62
414.035	1467.62
414.258	1350.62
414.482	1309.62
414.705	1308.62
414.928	1330.62
415.151	1315.62
415.374	1341.62
415.597	1356.62
415.821	1356.62
416.044	1399.62
416.267	1368.62
416.49	1283.62
416.713	1288.62
416.936	1344.62
417.159	1377.62
417.382	1382.62
417.605	1313.62
417.828	1350.62
418.051	1349.62
418.274	1327.62
418.497	1295.62
418.72	1309.62
418.943	1289.62
419.166	1363.62
419.389	1380.62
419.611	1336.62
419.834	1284.62
420.057	1333.62
420.28	1339.62
420.503	1317.62
420.726	1346.62
420.948	1313.62
421.171	1309.62
421.394	1304.62
421.617	1411.62
421.839	1343.62
422.062	1361.62
422.285	1271.62
422.507	1275.62
422.73	1238.62
422.953	1255.62
423.175	1242.62
423.398	1310.62
423.621	1299.62
423.843	1291.62
424.066	1312.62
424.288	1367.62
424.511	1414.62
424.733	1397.62
424.956	1252.62
425.178	1269.62
425.401	1261.62
425.623	1267.62
425.846	1273.62
426.068	1364.62
426.291	1375.62
426.513	1343.62
426.735	1336.62
426.958	1463.62
427.18	1510.62
427.402	1411.62
427.625	1448.62
427.847	1420.62
428.069	1304.62
428.292	1283.62
428.514	1249.62
428.736	1239.62
428.958	1269.62
429.181	1306.62
429.403	1490.62
429.625	1777.62
429.847	1460.62
430.069	1336.62
430.292	1457.62
430.514	1466.62
430.736	1391.62
430.958	1415.62
431.18	1325.62
431.402	1252.62
431.624	1217.62
431.846	1223.62
432.068	1164.62
432.29	1170.62
432.512	1190.62
432.734	1252.62
432.956	1292.62
433.178	1353.62
433.4	1339.62
433.622	1308.62
433.844	1287.62
434.066	1221.62
434.287	1207.62
434.509	1249.62
434.731	1307.62
434.953	1371.62
435.175	1373.62
435.397	1289.62
435.618	1306.62
435.84	1276.62
436.062	1233.62
436.284	1273.62
436.505	1318.62
436.727	1334.62
436.949	1290.62
437.17	1293.62
437.392	1265.62
437.614	1226.62
437.835	1205.62
438.057	1244.62
438.278	1254.62
438.5	1265.62
438.721	1255.62
438.943	1235.62
439.165	1236.62
439.386	1275.62
439.608	1246.62
439.829	1288.62
440.05	1291.62
440.272	1305.62
440.493	1283.62
440.715	1313.62
440.936	1376.62
441.158	1477.62
441.379	1388.62
441.6	1409.62
441.822	1367.62
442.043	1351.62
442.264	1368.62
442.486	1295.62
442.707	1267.62
442.928	1274.62
443.149	1310.62
443.371	1370.62
443.592	1395.62
443.813	1401.62
444.034	1353.62
444.255	1376.62
444.476	1434.62
444.698	1447.62
444.919	1405.62
445.14	1500.62
445.361	1488.62
445.582	1503.62
445.803	1433.62
446.024	1376.62
446.245	1441.62
446.466	1424.62
446.687	1368.62
446.908	1388.62
447.129	1331.62
447.35	1315.62
447.571	1348.62
447.792	1252.62
448.013	1303.62
448.234	1297.62
448.455	1361.62
448.675	1340.62
448.896	1258.62
449.117	1207.62
449.338	1232.62
449.559	1284.62
449.779	1327.62
450	1456.62
450.221	1534.62
450.442	1465.62
450.662	1303.62
450.883	1215.62
451.104	1205.62
451.324	1198.62
451.545	1242.62
451.766	1192.62
451.986	1151.62
452.207	1143.62
452.428	1132.62
452.648	1103.62
452.869	1151.62
453.089	1163.62
453.31	1170.62
453.53	1161.62
453.751	1120.62
453.971	1079.62
454.192	1080.62
454.412	1146.62
454.633	1163.62
454.853	1134.62
455.073	1106.62
455.294	1096.62
455.514	1074.62
455.734	1068.62
455.955	1097.62
456.175	1070.62
456.395	1109.62
456.616	1129.62
456.836	1097.62
457.056	1099.62
457.276	1105.62
457.497	1081.62
457.717	1040.62
457.937	1057.62
458.157	1049.62
458.377	1058.62
458.598	1091.62
458.818	1050.62
459.038	1124.62
459.258	1184.62
459.478	1177.62
459.698	1147.62
459.918	1184.62
460.138	1236.62
460.358	1267.62
460.578	1281.62
460.798	1339.62
461.018	1359.62
461.238	1330.62
461.458	1283.62
461.678	1280.62
461.898	1247.62
462.118	1221.62
462.338	1265.62
462.558	1271.62
462.777	1268.62
462.997	1323.62
463.217	1383.62
463.437	1367.62
463.657	1322.62
463.876	1264.62
464.096	1257.62
464.316	1259.62
464.536	1327.62
464.755	1339.62
464.975	1331.62
465.195	1287.62
465.414	1334.62
465.634	1307.62
465.854	1299.62
466.073	1450.62
466.293	1367.62
466.512	1231.62
466.732	1221.62
466.951	1265.62
467.171	1249.62
467.391	1212.62
467.61	1212.62
467.829	1239.62
468.049	1333.62
468.268	1485.62
468.488	1381.62
468.707	1274.62
468.927	1242.62
469.146	1213.62
469.365	1247.62
469.585	1270.62
469.804	1247.62
470.023	1283.62
470.243	1278.62
470.462	1237.62
470.681	1222.62
470.901	1251.62
471.12	1253.62
471.339	1259.62
471.558	1209.62
471.777	1233.62
471.997	1240.62
472.216	1206.62
472.435	1154.62
472.654	1105.62
472.873	1179.62
473.092	1235.62
473.311	1193.62
473.53	1163.62
473.749	1140.62
473.968	1176.62
474.187	1207.62
474.406	1250.62
474.625	1207.62
474.844	1228.62
475.063	1194.62
475.282	1233.62
475.501	1209.62
475.72	1221.62
475.939	1345.62
476.158	1276.62
476.377	1257.62
476.596	1223.62
476.814	1248.62
477.033	1256.62
477.252	1312.62
477.471	1309.62
477.69	1272.62
477.908	1308.62
478.127	1361.62
478.346	1429.62
478.564	1439.62
478.783	1427.62
479.002	1465.62
479.22	1459.62
479.439	1468.62
479.658	1599.62
479.876	1528.62
480.095	1383.62
480.313	1385.62
480.532	1298.62
480.751	1325.62
480.969	1336.62
481.188	1282.62
481.406	1305.62
481.624	1239.62
481.843	1293.62
482.061	1307.62
482.28	1301.62
482.498	1385.62
482.717	1330.62
482.935	1299.62
483.153	1345.62
483.372	1375.62
483.59	1368.62
483.808	1377.62
484.027	1393.62
484.245	1471.62
484.463	1759.62
484.681	1924.62
484.9	1505.62
485.118	1406.62
485.336	1384.62
485.554	1376.62
485.772	1414.62
485.99	1374.62
486.209	1409.62
486.427	1395.62
486.645	1421.62
486.863	1443.62
487.081	1498.62
487.299	1485.62
487.517	1439.62
487.735	1466.62
487.953	1534.62
488.171	1492.62
488.389	1462.62
488.607	1462.62
488.825	1648.62
489.043	1557.62
489.261	1433.62
489.479	1483.62
489.696	1522.62
489.914	1502.62
490.132	1480.62
490.35	1464.62
490.568	1536.62
490.786	1562.62
491.003	1491.62
491.221	1563.62
491.439	1619.62
491.657	1608.62
491.874	1633.62
492.092	1712.62
492.31	1695.62
492.527	1676.62
492.745	1625.62
492.963	1589.62
493.18	1645.62
