Data from WStandard_LampEnergy5.5LIBS07252019.E.O._I.C._HRD10591_16-07-14-920.txt Node
Date: Thu Jul 25 16:07:14 EDT 2019
User: cochatt
Spectrometer: HR+D1059
Trigger mode: 1
Integration Time (sec): 1.000000E-1
Scans to average: 1
Electric dark correction enabled: true
Nonlinearity correction enabled: false
Boxcar width: 0
XAxis mode: Wavelengths
Number of Pixels in Spectrum: 2048
>>>>>Begin Spectral Data<<<<<
223.165	-18.81
223.4	-18.81
223.635	-18.81
223.869	-16.81
224.104	-30.81
224.338	-9.81
224.573	-12.81
224.808	-8.81
225.042	6.19
225.277	-8.81
225.511	1.19
225.746	7.19
225.98	11.19
226.215	4.19
226.449	6.19
226.683	31.19
226.918	11.19
227.152	28.19
227.387	35.19
227.621	33.19
227.856	40.19
228.09	56.19
228.324	37.19
228.559	46.19
228.793	150.19
229.027	355.19
229.262	381.19
229.496	392.19
229.73	406.19
229.964	450.19
230.199	478.19
230.433	479.19
230.667	528.19
230.901	554.19
231.136	491.19
231.37	456.19
231.604	489.19
231.838	497.19
232.072	482.19
232.306	457.19
232.541	484.19
232.775	568.19
233.009	628.19
233.243	589.19
233.477	546.19
233.711	568.19
233.945	566.19
234.179	543.19
234.413	603.19
234.647	661.19
234.881	617.19
235.115	545.19
235.349	580.19
235.583	593.19
235.817	572.19
236.051	551.19
236.285	587.19
236.519	618.19
236.753	674.19
236.987	716.19
237.221	694.19
237.455	785.19
237.689	745.19
237.922	704.19
238.156	649.19
238.39	682.19
238.624	716.19
238.858	767.19
239.091	802.19
239.325	846.19
239.559	962.19
239.793	996.19
240.027	1072.19
240.26	1088.19
240.494	800.19
240.728	749.19
240.961	750.19
241.195	750.19
241.429	841.19
241.662	857.19
241.896	801.19
242.13	784.19
242.363	871.19
242.597	965.19
242.83	923.19
243.064	946.19
243.298	996.19
243.531	943.19
243.765	939.19
243.998	964.19
244.232	848.19
244.465	790.19
244.699	792.19
244.932	886.19
245.166	1064.19
245.399	1007.19
245.633	936.19
245.866	920.19
246.099	936.19
246.333	954.19
246.566	999.19
246.8	1096.19
247.033	1226.19
247.266	1123.19
247.5	1102.19
247.733	1062.19
247.966	1180.19
248.2	1302.19
248.433	1220.19
248.666	1216.19
248.899	1345.19
249.133	1569.19
249.366	1776.19
249.599	1458.19
249.832	1281.19
250.066	1304.19
250.299	1353.19
250.532	1272.19
250.765	1117.19
250.998	1172.19
251.231	1224.19
251.465	1290.19
251.698	1200.19
251.931	1226.19
252.164	1231.19
252.397	1288.19
252.63	1280.19
252.863	1110.19
253.096	1118.19
253.329	1179.19
253.562	1220.19
253.795	1330.19
254.028	1354.19
254.261	1213.19
254.494	1211.19
254.727	1146.19
254.96	1195.19
255.193	1286.19
255.426	1434.19
255.659	1668.19
255.892	1712.19
256.124	1408.19
256.357	1353.19
256.59	1456.19
256.823	1487.19
257.056	1446.19
257.289	1758.19
257.521	2003.19
257.754	1756.19
257.987	1638.19
258.22	1834.19
258.452	1768.19
258.685	1435.19
258.918	1406.19
259.151	1460.19
259.383	1347.19
259.616	1177.19
259.849	1266.19
260.081	1434.19
260.314	1601.19
260.547	1778.19
260.779	1817.19
261.012	1665.19
261.244	1463.19
261.477	1383.19
261.71	1491.19
261.942	1458.19
262.175	1431.19
262.407	1528.19
262.64	1448.19
262.872	1315.19
263.105	1280.19
263.337	1317.19
263.57	1320.19
263.802	1353.19
264.035	1221.19
264.267	1190.19
264.499	1162.19
264.732	1260.19
264.964	1331.19
265.197	1391.19
265.429	1434.19
265.661	1630.19
265.894	1797.19
266.126	1860.19
266.358	1646.19
266.591	1688.19
266.823	1881.19
267.055	1667.19
267.287	1632.19
267.52	1612.19
267.752	1610.19
267.984	1582.19
268.216	1659.19
268.448	1715.19
268.681	1663.19
268.913	1586.19
269.145	1465.19
269.377	1415.19
269.609	1549.19
269.841	1809.19
270.073	2125.19
270.306	2368.19
270.538	2539.19
270.77	2146.19
271.002	1785.19
271.234	1734.19
271.466	1705.19
271.698	1885.19
271.93	2287.19
272.162	2310.19
272.394	2050.19
272.626	1941.19
272.858	1732.19
273.09	1487.19
273.322	1480.19
273.553	1406.19
273.785	1433.19
274.017	1466.19
274.249	1620.19
274.481	1616.19
274.713	1474.19
274.945	1444.19
275.176	1455.19
275.408	1437.19
275.64	1395.19
275.872	1397.19
276.104	1488.19
276.335	1702.19
276.567	1935.19
276.799	1987.19
277.031	1772.19
277.262	1646.19
277.494	1686.19
277.726	1913.19
277.957	1898.19
278.189	1725.19
278.421	1566.19
278.652	1547.19
278.884	1498.19
279.115	1541.19
279.347	1558.19
279.579	1497.19
279.81	1508.19
280.042	1700.19
280.273	1840.19
280.505	1832.19
280.736	1890.19
280.968	1770.19
281.199	1561.19
281.431	1487.19
281.662	1480.19
281.894	1475.19
282.125	1501.19
282.356	1558.19
282.588	1576.19
282.819	1595.19
283.051	1719.19
283.282	1846.19
283.513	1817.19
283.745	1568.19
283.976	1462.19
284.207	1480.19
284.439	1523.19
284.67	1561.19
284.901	1555.19
285.132	1590.19
285.364	1578.19
285.595	1592.19
285.826	1574.19
286.057	1488.19
286.288	1550.19
286.52	1562.19
286.751	1741.19
286.982	1780.19
287.213	1621.19
287.444	1506.19
287.675	1481.19
287.906	1544.19
288.138	1671.19
288.369	1643.19
288.6	1582.19
288.831	1478.19
289.062	1495.19
289.293	1512.19
289.524	1551.19
289.755	1610.19
289.986	1622.19
290.217	1484.19
290.448	1518.19
290.679	1577.19
290.91	1575.19
291.141	1575.19
291.371	1658.19
291.602	1646.19
291.833	1627.19
292.064	1710.19
292.295	1636.19
292.526	1668.19
292.757	1797.19
292.987	1691.19
293.218	1588.19
293.449	1686.19
293.68	1891.19
293.91	2098.19
294.141	1973.19
294.372	1821.19
294.603	1857.19
294.833	1957.19
295.064	1889.19
295.295	1694.19
295.525	1639.19
295.756	1534.19
295.987	1433.19
296.217	1440.19
296.448	1508.19
296.679	1536.19
296.909	1547.19
297.14	1542.19
297.37	1563.19
297.601	1647.19
297.831	1780.19
298.062	1762.19
298.292	1613.19
298.523	1536.19
298.753	1565.19
298.984	1543.19
299.214	1530.19
299.445	1592.19
299.675	1690.19
299.905	1662.19
300.136	1602.19
300.366	1590.19
300.597	1542.19
300.827	1496.19
301.057	1565.19
301.288	1674.19
301.518	1653.19
301.748	1655.19
301.979	1780.19
302.209	1763.19
302.439	1914.19
302.669	1998.19
302.9	1907.19
303.13	1700.19
303.36	1676.19
303.59	1716.19
303.82	1715.19
304.051	1657.19
304.281	1649.19
304.511	1675.19
304.741	1740.19
304.971	1960.19
305.201	2150.19
305.431	1975.19
305.661	1642.19
305.891	1461.19
306.121	1482.19
306.352	1567.19
306.582	1627.19
306.812	1742.19
307.042	1891.19
307.272	1872.19
307.502	1878.19
307.731	2047.19
307.961	2213.19
308.191	2025.19
308.421	1760.19
308.651	1644.19
308.881	1602.19
309.111	1585.19
309.341	1573.19
309.571	1628.19
309.8	1591.19
310.03	1595.19
310.26	1616.19
310.49	1598.19
310.72	1623.19
310.949	1650.19
311.179	1732.19
311.409	1691.19
311.639	1636.19
311.868	1615.19
312.098	1617.19
312.328	1652.19
312.557	1552.19
312.787	1659.19
313.017	1740.19
313.246	1681.19
313.476	1678.19
313.706	1716.19
313.935	1687.19
314.165	1715.19
314.394	1761.19
314.624	1841.19
314.853	1986.19
315.083	2047.19
315.312	2137.19
315.542	1944.19
315.771	1752.19
316.001	1727.19
316.23	1856.19
316.46	1847.19
316.689	1770.19
316.919	1712.19
317.148	1664.19
317.377	1668.19
317.607	1793.19
317.836	2018.19
318.065	2073.19
318.295	1995.19
318.524	1925.19
318.753	1842.19
318.983	1823.19
319.212	1799.19
319.441	1753.19
319.67	1722.19
319.9	1740.19
320.129	1862.19
320.358	1950.19
320.587	2009.19
320.816	2019.19
321.046	1897.19
321.275	1819.19
321.504	1840.19
321.733	2010.19
321.962	1952.19
322.191	1813.19
322.42	1786.19
322.649	1769.19
322.878	1749.19
323.108	1766.19
323.337	1846.19
323.566	1844.19
323.795	1810.19
324.024	1802.19
324.253	1772.19
324.482	1802.19
324.71	1763.19
324.939	1658.19
325.168	1686.19
325.397	1714.19
325.626	1798.19
325.855	1816.19
326.084	1723.19
326.313	1768.19
326.542	1803.19
326.77	1838.19
326.999	1861.19
327.228	1793.19
327.457	1664.19
327.686	1662.19
327.914	1705.19
328.143	1758.19
328.372	1746.19
328.6	1764.19
328.829	1764.19
329.058	1749.19
329.287	1722.19
329.515	1759.19
329.744	1786.19
329.972	1900.19
330.201	1981.19
330.43	1920.19
330.658	1863.19
330.887	1895.19
331.115	1895.19
331.344	1863.19
331.572	1831.19
331.801	1813.19
332.03	1880.19
332.258	1879.19
332.486	1903.19
332.715	1880.19
332.943	1895.19
333.172	1852.19
333.4	1888.19
333.629	1894.19
333.857	2006.19
334.085	2242.19
334.314	2520.19
334.542	2806.19
334.771	2609.19
334.999	2262.19
335.227	2118.19
335.455	2018.19
335.684	1943.19
335.912	1994.19
336.14	2139.19
336.369	2070.19
336.597	1976.19
336.825	1884.19
337.053	1895.19
337.281	2060.19
337.51	2151.19
337.738	2274.19
337.966	2160.19
338.194	1977.19
338.422	1844.19
338.65	1866.19
338.878	1826.19
339.106	1777.19
339.334	1740.19
339.562	1734.19
339.79	1765.19
340.018	1865.19
340.246	1939.19
340.474	1998.19
340.702	1928.19
340.93	1912.19
341.158	1910.19
341.386	1867.19
341.614	1840.19
341.842	1827.19
342.07	1858.19
342.298	1888.19
342.526	1834.19
342.754	1798.19
342.981	1806.19
343.209	1811.19
343.437	1778.19
343.665	1802.19
343.893	1899.19
344.12	1946.19
344.348	2011.19
344.576	1903.19
344.804	1797.19
345.031	1829.19
345.259	1876.19
345.487	1759.19
345.714	1679.19
345.942	1655.19
346.17	1658.19
346.397	1695.19
346.625	1730.19
346.853	1638.19
347.08	1647.19
347.308	1649.19
347.535	1681.19
347.763	1731.19
347.99	1712.19
348.218	1640.19
348.445	1662.19
348.673	1715.19
348.9	1747.19
349.128	1777.19
349.355	1852.19
349.583	1812.19
349.81	1732.19
350.037	1551.19
350.265	1596.19
350.492	1611.19
350.72	1659.19
350.947	1703.19
351.174	1765.19
351.402	1669.19
351.629	1587.19
351.856	1571.19
352.083	1562.19
352.311	1556.19
352.538	1641.19
352.765	1696.19
352.992	1770.19
353.22	1680.19
353.447	1638.19
353.674	1639.19
353.901	1677.19
354.128	1623.19
354.355	1584.19
354.583	1695.19
354.81	1792.19
355.037	1723.19
355.264	1772.19
355.491	1719.19
355.718	1726.19
355.945	1682.19
356.172	1660.19
356.399	1625.19
356.626	1631.19
356.853	1679.19
357.08	1795.19
357.307	2000.19
357.534	2039.19
357.761	1806.19
357.988	1647.19
358.215	1558.19
358.441	1610.19
358.668	1603.19
358.895	1633.19
359.122	1683.19
359.349	1878.19
359.576	1909.19
359.802	1692.19
360.029	1637.19
360.256	1574.19
360.483	1600.19
360.709	1697.19
360.936	1732.19
361.163	1798.19
361.39	1929.19
361.616	2126.19
361.843	2059.19
362.07	1974.19
362.296	1706.19
362.523	1684.19
362.749	1650.19
362.976	1705.19
363.203	1760.19
363.429	1659.19
363.656	1616.19
363.882	1621.19
364.109	1810.19
364.335	2041.19
364.562	1868.19
364.788	1794.19
365.015	1691.19
365.241	1666.19
365.468	1704.19
365.694	1741.19
365.92	1810.19
366.147	1786.19
366.373	1620.19
366.599	1619.19
366.826	1607.19
367.052	1611.19
367.278	1641.19
367.505	1665.19
367.731	1688.19
367.957	1712.19
368.184	1752.19
368.41	1800.19
368.636	1905.19
368.862	1851.19
369.089	1894.19
369.315	1860.19
369.541	1745.19
369.767	1691.19
369.993	1649.19
370.219	1661.19
370.445	1712.19
370.672	1781.19
370.898	1870.19
371.124	1871.19
371.35	1770.19
371.576	1763.19
371.802	1888.19
372.028	1762.19
372.254	1738.19
372.48	1665.19
372.706	1668.19
372.932	1667.19
373.158	1667.19
373.384	1689.19
373.61	1807.19
373.835	1893.19
374.061	1783.19
374.287	1736.19
374.513	1762.19
374.739	1752.19
374.965	1783.19
375.191	1810.19
375.416	1764.19
375.642	1818.19
375.868	1880.19
376.094	1961.19
376.319	1886.19
376.545	1764.19
376.771	1811.19
376.997	1871.19
377.222	1868.19
377.448	1843.19
377.674	1840.19
377.899	1818.19
378.125	1905.19
378.35	1922.19
378.576	1794.19
378.802	1710.19
379.027	1710.19
379.253	1735.19
379.478	1774.19
379.704	1763.19
379.929	1741.19
380.155	1688.19
380.38	1766.19
380.606	1802.19
380.831	1774.19
381.057	1854.19
381.282	1916.19
381.507	1824.19
381.733	1918.19
381.958	2037.19
382.184	1844.19
382.409	1856.19
382.634	1866.19
382.86	1820.19
383.085	1809.19
383.31	1847.19
383.535	2021.19
383.761	2184.19
383.986	2078.19
384.211	1955.19
384.436	1944.19
384.662	2034.19
384.887	2108.19
385.112	2032.19
385.337	2020.19
385.562	2015.19
385.787	1978.19
386.013	2064.19
386.238	2066.19
386.463	2071.19
386.688	2153.19
386.913	2297.19
387.138	2238.19
387.363	2082.19
387.588	2087.19
387.813	2081.19
388.038	2066.19
388.263	2122.19
388.488	2060.19
388.713	1906.19
388.938	1912.19
389.163	1924.19
389.387	1988.19
389.612	1930.19
389.837	2052.19
390.062	2072.19
390.287	2018.19
390.512	1968.19
390.736	1952.19
390.961	1932.19
391.186	1908.19
391.411	1965.19
391.636	1987.19
391.86	2034.19
392.085	1954.19
392.31	1999.19
392.534	2017.19
392.759	2081.19
392.984	1963.19
393.208	2017.19
393.433	2078.19
393.658	2181.19
393.882	2161.19
394.107	2003.19
394.331	1992.19
394.556	1976.19
394.78	1998.19
395.005	2119.19
395.229	2176.19
395.454	2294.19
395.678	2324.19
395.903	2261.19
396.127	2095.19
396.352	2095.19
396.576	2206.19
396.801	2230.19
397.025	2183.19
397.249	2144.19
397.474	2152.19
397.698	2175.19
397.922	2218.19
398.147	2299.19
398.371	2399.19
398.595	2388.19
398.82	2286.19
399.044	2350.19
399.268	2419.19
399.492	2590.19
399.717	2715.19
399.941	2680.19
400.165	2626.19
400.389	2556.19
400.613	2546.19
400.837	2774.19
401.062	3219.19
401.286	2787.19
401.51	2507.19
401.734	2603.19
401.958	2539.19
402.182	2381.19
402.406	2300.19
402.63	2234.19
402.854	2259.19
403.078	2273.19
403.302	2370.19
403.526	2384.19
403.75	2385.19
403.974	2408.19
404.198	2372.19
404.422	2450.19
404.645	2584.19
404.869	2551.19
405.093	2342.19
405.317	2293.19
405.541	2361.19
405.765	2391.19
405.988	2400.19
406.212	2452.19
406.436	2460.19
406.66	2517.19
406.883	2547.19
407.107	2826.19
407.331	3084.19
407.555	3366.19
407.778	3127.19
408.002	2621.19
408.226	2503.19
408.449	2489.19
408.673	2442.19
408.896	2373.19
409.12	2475.19
409.344	2439.19
409.567	2373.19
409.791	2371.19
410.014	2450.19
410.238	2530.19
410.461	2724.19
410.685	2413.19
410.908	2290.19
411.132	2413.19
411.355	2366.19
411.578	2326.19
411.802	2315.19
412.025	2403.19
412.249	2331.19
412.472	2240.19
412.695	2239.19
412.919	2227.19
413.142	2251.19
413.365	2264.19
413.589	2335.19
413.812	2424.19
414.035	2548.19
414.258	2370.19
414.482	2291.19
414.705	2303.19
414.928	2275.19
415.151	2283.19
415.374	2302.19
415.597	2333.19
415.821	2343.19
416.044	2435.19
416.267	2414.19
416.49	2208.19
416.713	2160.19
416.936	2246.19
417.159	2376.19
417.382	2428.19
417.605	2214.19
417.828	2257.19
418.051	2314.19
418.274	2325.19
418.497	2166.19
418.72	2198.19
418.943	2171.19
419.166	2298.19
419.389	2456.19
419.611	2288.19
419.834	2259.19
420.057	2298.19
420.28	2176.19
420.503	2187.19
420.726	2271.19
420.948	2231.19
421.171	2155.19
421.394	2226.19
421.617	2263.19
421.839	2265.19
422.062	2187.19
422.285	2142.19
422.507	2134.19
422.73	2106.19
422.953	2095.19
423.175	2062.19
423.398	2166.19
423.621	2177.19
423.843	2179.19
424.066	2216.19
424.288	2305.19
424.511	2363.19
424.733	2302.19
424.956	2095.19
425.178	2050.19
425.401	2106.19
425.623	2141.19
425.846	2102.19
426.068	2213.19
426.291	2272.19
426.513	2259.19
426.735	2252.19
426.958	2383.19
427.18	2534.19
427.402	2313.19
427.625	2371.19
427.847	2425.19
428.069	2232.19
428.292	2140.19
428.514	2068.19
428.736	2065.19
428.958	2098.19
429.181	2122.19
429.403	2394.19
429.625	3006.19
429.847	2622.19
430.069	2190.19
430.292	2410.19
430.514	2501.19
430.736	2271.19
430.958	2431.19
431.18	2294.19
431.402	2119.19
431.624	2083.19
431.846	2119.19
432.068	2072.19
432.29	2115.19
432.512	2124.19
432.734	2203.19
432.956	2256.19
433.178	2302.19
433.4	2294.19
433.622	2253.19
433.844	2200.19
434.066	2099.19
434.287	2112.19
434.509	2160.19
434.731	2279.19
434.953	2430.19
435.175	2376.19
435.397	2245.19
435.618	2203.19
435.84	2278.19
436.062	2162.19
436.284	2223.19
436.505	2265.19
436.727	2262.19
436.949	2228.19
437.17	2123.19
437.392	2106.19
437.614	2133.19
437.835	2052.19
438.057	2186.19
438.278	2330.19
438.5	2151.19
438.721	2126.19
438.943	2148.19
439.165	2106.19
439.386	2053.19
439.608	2083.19
439.829	2134.19
440.05	2150.19
440.272	2076.19
440.493	2047.19
440.715	2090.19
440.936	2248.19
441.158	2506.19
441.379	2406.19
441.6	2347.19
441.822	2254.19
442.043	2226.19
442.264	2263.19
442.486	2144.19
442.707	2116.19
442.928	2096.19
443.149	2193.19
443.371	2341.19
443.592	2386.19
443.813	2308.19
444.034	2336.19
444.255	2288.19
444.476	2366.19
444.698	2425.19
444.919	2389.19
445.14	2454.19
445.361	2454.19
445.582	2547.19
445.803	2391.19
446.024	2320.19
446.245	2438.19
446.466	2294.19
446.687	2218.19
446.908	2206.19
447.129	2134.19
447.35	2185.19
447.571	2219.19
447.792	2070.19
448.013	2063.19
448.234	2123.19
448.455	2192.19
448.675	2176.19
448.896	2013.19
449.117	2022.19
449.338	2081.19
449.559	2126.19
449.779	2303.19
450	2505.19
450.221	2712.19
450.442	2599.19
450.662	2236.19
450.883	2027.19
451.104	1955.19
451.324	2034.19
451.545	2141.19
451.766	2080.19
451.986	1983.19
452.207	1983.19
452.428	1890.19
452.648	1862.19
452.869	1939.19
453.089	2057.19
453.31	2067.19
453.53	2133.19
453.751	2055.19
453.971	1905.19
454.192	1963.19
454.412	2120.19
454.633	2030.19
454.853	1968.19
455.073	1874.19
455.294	1808.19
455.514	1844.19
455.734	1858.19
455.955	1911.19
456.175	1871.19
456.395	1902.19
456.616	1934.19
456.836	2018.19
457.056	1946.19
457.276	1943.19
457.497	1927.19
457.717	1802.19
457.937	1865.19
458.157	1930.19
458.377	1887.19
458.598	1884.19
458.818	1921.19
459.038	2006.19
459.258	2149.19
459.478	2163.19
459.698	2072.19
459.918	2139.19
460.138	2262.19
460.358	2274.19
460.578	2231.19
460.798	2363.19
461.018	2485.19
461.238	2400.19
461.458	2282.19
461.678	2254.19
461.898	2226.19
462.118	2122.19
462.338	2268.19
462.558	2235.19
462.777	2231.19
462.997	2425.19
463.217	2519.19
463.437	2471.19
463.657	2349.19
463.876	2292.19
464.096	2282.19
464.316	2271.19
464.536	2374.19
464.755	2338.19
464.975	2434.19
465.195	2351.19
465.414	2358.19
465.634	2406.19
465.854	2247.19
466.073	2369.19
466.293	2392.19
466.512	2090.19
466.732	2046.19
466.951	2150.19
467.171	2174.19
467.391	2038.19
467.61	2001.19
467.829	2061.19
468.049	2191.19
468.268	2515.19
468.488	2345.19
468.707	2182.19
468.927	2145.19
469.146	2142.19
469.365	2080.19
469.585	2101.19
469.804	2041.19
470.023	2067.19
470.243	2145.19
470.462	2118.19
470.681	1993.19
470.901	2082.19
471.12	2073.19
471.339	2057.19
471.558	1986.19
471.777	1946.19
471.997	2009.19
472.216	2059.19
472.435	1972.19
472.654	2020.19
472.873	2111.19
473.092	2224.19
473.311	2112.19
473.53	1976.19
473.749	1957.19
473.968	2013.19
474.187	2158.19
474.406	2269.19
474.625	2163.19
474.844	2091.19
475.063	2038.19
475.282	2150.19
475.501	2095.19
475.72	2115.19
475.939	2266.19
476.158	2173.19
476.377	2094.19
476.596	2114.19
476.814	2171.19
477.033	2200.19
477.252	2283.19
477.471	2328.19
477.69	2202.19
477.908	2187.19
478.127	2286.19
478.346	2496.19
478.564	2513.19
478.783	2518.19
479.002	2578.19
479.22	2479.19
479.439	2592.19
479.658	2903.19
479.876	2935.19
480.095	2528.19
480.313	2462.19
480.532	2346.19
480.751	2313.19
480.969	2427.19
481.188	2363.19
481.406	2336.19
481.624	2272.19
481.843	2321.19
482.061	2391.19
482.28	2370.19
482.498	2457.19
482.717	2444.19
482.935	2311.19
483.153	2260.19
483.372	2315.19
483.59	2267.19
483.808	2326.19
484.027	2351.19
484.245	2537.19
484.463	2882.19
484.681	3405.19
484.9	2571.19
485.118	2403.19
485.336	2328.19
485.554	2432.19
485.772	2577.19
485.99	2487.19
486.209	2524.19
486.427	2446.19
486.645	2426.19
486.863	2428.19
487.081	2496.19
487.299	2655.19
487.517	2491.19
