Data from WStandard_LampEnergy10_LIBS07252019.E.O._I.C._HRD10591_15-54-53-928.txt Node
Date: Thu Jul 25 15:54:53 EDT 2019
User: cochatt
Spectrometer: HR+D1059
Trigger mode: 1
Integration Time (sec): 1.000000E-1
Scans to average: 1
Electric dark correction enabled: true
Nonlinearity correction enabled: false
Boxcar width: 0
XAxis mode: Wavelengths
Number of Pixels in Spectrum: 2048
>>>>>Begin Spectral Data<<<<<
223.165	-10.94
223.4	-10.94
223.635	-10.94
223.869	-23.94
224.104	-23.94
224.338	-7.94
224.573	0.06
224.808	-11.94
225.042	-8.94
225.277	-15.94
225.511	-12.94
225.746	10.06
225.98	3.06
226.215	12.06
226.449	18.06
226.683	23.06
226.918	16.06
227.152	34.06
227.387	40.06
227.621	39.06
227.856	44.06
228.09	51.06
228.324	37.06
228.559	57.06
228.793	77.06
229.027	124.06
229.262	140.06
229.496	160.06
229.73	134.06
229.964	162.06
230.199	170.06
230.433	163.06
230.667	176.06
230.901	185.06
231.136	185.06
231.37	180.06
231.604	171.06
231.838	179.06
232.072	163.06
232.306	181.06
232.541	177.06
232.775	209.06
233.009	209.06
233.243	206.06
233.477	190.06
233.711	202.06
233.945	205.06
234.179	200.06
234.413	196.06
234.647	223.06
234.881	198.06
235.115	192.06
235.349	202.06
235.583	194.06
235.817	199.06
236.051	217.06
236.285	177.06
236.519	214.06
236.753	223.06
236.987	219.06
237.221	225.06
237.455	234.06
237.689	231.06
237.922	218.06
238.156	212.06
238.39	219.06
238.624	239.06
238.858	249.06
239.091	254.06
239.325	258.06
239.559	287.06
239.793	299.06
240.027	307.06
240.26	303.06
240.494	230.06
240.728	233.06
240.961	223.06
241.195	244.06
241.429	243.06
241.662	252.06
241.896	241.06
242.13	245.06
242.363	271.06
242.597	257.06
242.83	272.06
243.064	287.06
243.298	280.06
243.531	268.06
243.765	270.06
243.998	269.06
244.232	273.06
244.465	232.06
244.699	243.06
244.932	290.06
245.166	311.06
245.399	305.06
245.633	266.06
245.866	269.06
246.099	283.06
246.333	305.06
246.566	299.06
246.8	314.06
247.033	347.06
247.266	331.06
247.5	321.06
247.733	331.06
247.966	351.06
248.2	358.06
248.433	340.06
248.666	359.06
248.899	393.06
249.133	431.06
249.366	449.06
249.599	397.06
249.832	356.06
250.066	345.06
250.299	367.06
250.532	357.06
250.765	334.06
250.998	339.06
251.231	349.06
251.465	355.06
251.698	347.06
251.931	337.06
252.164	358.06
252.397	344.06
252.63	341.06
252.863	332.06
253.096	333.06
253.329	345.06
253.562	353.06
253.795	359.06
254.028	354.06
254.261	347.06
254.494	340.06
254.727	328.06
254.96	350.06
255.193	372.06
255.426	420.06
255.659	418.06
255.892	447.06
256.124	380.06
256.357	367.06
256.59	405.06
256.823	389.06
257.056	413.06
257.289	486.06
257.521	499.06
257.754	450.06
257.987	449.06
258.22	479.06
258.452	474.06
258.685	415.06
258.918	380.06
259.151	364.06
259.383	379.06
259.616	357.06
259.849	369.06
260.081	401.06
260.314	453.06
260.547	476.06
260.779	460.06
261.012	414.06
261.244	418.06
261.477	397.06
261.71	406.06
261.942	415.06
262.175	383.06
262.407	403.06
262.64	397.06
262.872	359.06
263.105	363.06
263.337	369.06
263.57	371.06
263.802	358.06
264.035	350.06
264.267	358.06
264.499	367.06
264.732	386.06
264.964	388.06
265.197	409.06
265.429	420.06
265.661	449.06
265.894	504.06
266.126	506.06
266.358	437.06
266.591	467.06
266.823	474.06
267.055	431.06
267.287	440.06
267.52	451.06
267.752	428.06
267.984	453.06
268.216	466.06
268.448	467.06
268.681	456.06
268.913	413.06
269.145	421.06
269.377	411.06
269.609	447.06
269.841	511.06
270.073	585.06
270.306	623.06
270.538	613.06
270.77	549.06
271.002	446.06
271.234	467.06
271.466	475.06
271.698	537.06
271.93	595.06
272.162	572.06
272.394	559.06
272.626	489.06
272.858	467.06
273.09	418.06
273.322	424.06
273.553	405.06
273.785	394.06
274.017	425.06
274.249	451.06
274.481	438.06
274.713	417.06
274.945	408.06
275.176	414.06
275.408	376.06
275.64	404.06
275.872	425.06
276.104	427.06
276.335	477.06
276.567	547.06
276.799	514.06
277.031	496.06
277.262	480.06
277.494	507.06
277.726	541.06
277.957	490.06
278.189	458.06
278.421	428.06
278.652	419.06
278.884	437.06
279.115	432.06
279.347	443.06
279.579	440.06
279.81	443.06
280.042	479.06
280.273	511.06
280.505	525.06
280.736	516.06
280.968	477.06
281.199	413.06
281.431	434.06
281.662	425.06
281.894	426.06
282.125	440.06
282.356	456.06
282.588	453.06
282.819	457.06
283.051	489.06
283.282	488.06
283.513	515.06
283.745	453.06
283.976	438.06
284.207	423.06
284.439	443.06
284.67	461.06
284.901	472.06
285.132	446.06
285.364	466.06
285.595	439.06
285.826	420.06
286.057	458.06
286.288	447.06
286.52	472.06
286.751	492.06
286.982	485.06
287.213	454.06
287.444	433.06
287.675	444.06
287.906	452.06
288.138	477.06
288.369	450.06
288.6	454.06
288.831	426.06
289.062	450.06
289.293	437.06
289.524	467.06
289.755	453.06
289.986	480.06
290.217	436.06
290.448	440.06
290.679	470.06
290.91	457.06
291.141	485.06
291.371	490.06
291.602	483.06
291.833	464.06
292.064	503.06
292.295	488.06
292.526	479.06
292.757	485.06
292.987	486.06
293.218	479.06
293.449	520.06
293.68	563.06
293.91	604.06
294.141	563.06
294.372	535.06
294.603	561.06
294.833	577.06
295.064	536.06
295.295	491.06
295.525	471.06
295.756	438.06
295.987	448.06
296.217	445.06
296.448	451.06
296.679	468.06
296.909	455.06
297.14	443.06
297.37	497.06
297.601	499.06
297.831	530.06
298.062	520.06
298.292	461.06
298.523	469.06
298.753	447.06
298.984	479.06
299.214	466.06
299.445	497.06
299.675	509.06
299.905	502.06
300.136	487.06
300.366	483.06
300.597	448.06
300.827	474.06
301.057	495.06
301.288	507.06
301.518	504.06
301.748	547.06
301.979	555.06
302.209	553.06
302.439	582.06
302.669	596.06
302.9	573.06
303.13	522.06
303.36	506.06
303.59	490.06
303.82	505.06
304.051	511.06
304.281	538.06
304.511	545.06
304.741	583.06
304.971	629.06
305.201	600.06
305.431	551.06
305.661	483.06
305.891	465.06
306.121	459.06
306.352	515.06
306.582	503.06
306.812	551.06
307.042	553.06
307.272	542.06
307.502	588.06
307.731	624.06
307.961	633.06
308.191	587.06
308.421	511.06
308.651	497.06
308.881	498.06
309.111	506.06
309.341	473.06
309.571	501.06
309.8	498.06
310.03	490.06
310.26	491.06
310.49	495.06
310.72	529.06
310.949	536.06
311.179	531.06
311.409	525.06
311.639	512.06
311.868	514.06
312.098	495.06
312.328	510.06
312.557	481.06
312.787	511.06
313.017	509.06
313.246	528.06
313.476	539.06
313.706	536.06
313.935	512.06
314.165	541.06
314.394	561.06
314.624	584.06
314.853	617.06
315.083	611.06
315.312	628.06
315.542	584.06
315.771	562.06
316.001	556.06
316.23	553.06
316.46	575.06
316.689	555.06
316.919	513.06
317.148	513.06
317.377	556.06
317.607	613.06
317.836	619.06
318.065	641.06
318.295	628.06
318.524	580.06
318.753	609.06
318.983	565.06
319.212	569.06
319.441	545.06
319.67	564.06
319.9	577.06
320.129	605.06
320.358	618.06
320.587	626.06
320.816	604.06
321.046	594.06
321.275	583.06
321.504	593.06
321.733	635.06
321.962	581.06
322.191	568.06
322.42	578.06
322.649	564.06
322.878	570.06
323.108	553.06
323.337	573.06
323.566	582.06
323.795	566.06
324.024	568.06
324.253	557.06
324.482	563.06
324.71	549.06
324.939	523.06
325.168	539.06
325.397	588.06
325.626	565.06
325.855	589.06
326.084	578.06
326.313	569.06
326.542	562.06
326.77	596.06
326.999	601.06
327.228	562.06
327.457	533.06
327.686	534.06
327.914	573.06
328.143	547.06
328.372	559.06
328.6	544.06
328.829	572.06
329.058	532.06
329.287	559.06
329.515	549.06
329.744	593.06
329.972	613.06
330.201	616.06
330.43	610.06
330.658	595.06
330.887	594.06
331.115	588.06
331.344	612.06
331.572	582.06
331.801	595.06
332.03	582.06
332.258	605.06
332.486	593.06
332.715	596.06
332.943	612.06
333.172	593.06
333.4	597.06
333.629	613.06
333.857	675.06
334.085	743.06
334.314	853.06
334.542	845.06
334.771	775.06
334.999	667.06
335.227	667.06
335.455	631.06
335.684	636.06
335.912	671.06
336.14	647.06
336.369	623.06
336.597	588.06
336.825	603.06
337.053	618.06
337.281	661.06
337.51	678.06
337.738	687.06
337.966	649.06
338.194	592.06
338.422	599.06
338.65	595.06
338.878	584.06
339.106	571.06
339.334	580.06
339.562	575.06
339.79	566.06
340.018	621.06
340.246	636.06
340.474	626.06
340.702	609.06
340.93	645.06
341.158	603.06
341.386	616.06
341.614	609.06
341.842	592.06
342.07	607.06
342.298	590.06
342.526	588.06
342.754	581.06
342.981	601.06
343.209	587.06
343.437	600.06
343.665	579.06
343.893	605.06
344.12	617.06
344.348	635.06
344.576	591.06
344.804	615.06
345.031	601.06
345.259	618.06
345.487	567.06
345.714	546.06
345.942	529.06
346.17	557.06
346.397	575.06
346.625	573.06
346.853	552.06
347.08	537.06
347.308	558.06
347.535	553.06
347.763	569.06
347.99	554.06
348.218	593.06
348.445	577.06
348.673	563.06
348.9	588.06
349.128	628.06
349.355	615.06
349.583	603.06
349.81	555.06
350.037	534.06
350.265	541.06
350.492	532.06
350.72	559.06
350.947	593.06
351.174	580.06
351.402	559.06
351.629	525.06
351.856	517.06
352.083	532.06
352.311	532.06
352.538	546.06
352.765	583.06
352.992	606.06
353.22	567.06
353.447	555.06
353.674	564.06
353.901	560.06
354.128	565.06
354.355	570.06
354.583	596.06
354.81	594.06
355.037	588.06
355.264	590.06
355.491	572.06
355.718	572.06
355.945	578.06
356.172	552.06
356.399	548.06
356.626	549.06
356.853	578.06
357.08	645.06
357.307	667.06
357.534	630.06
357.761	559.06
357.988	537.06
358.215	525.06
358.441	525.06
358.668	521.06
358.895	568.06
359.122	624.06
359.349	623.06
359.576	602.06
359.802	578.06
360.029	536.06
360.256	523.06
360.483	562.06
360.709	587.06
360.936	602.06
361.163	634.06
361.39	675.06
361.616	700.06
361.843	705.06
362.07	641.06
362.296	577.06
362.523	555.06
362.749	559.06
362.976	560.06
363.203	589.06
363.429	553.06
363.656	567.06
363.882	593.06
364.109	654.06
364.335	655.06
364.562	624.06
364.788	601.06
365.015	580.06
365.241	576.06
365.468	569.06
365.694	617.06
365.92	605.06
366.147	569.06
366.373	558.06
366.599	579.06
366.826	556.06
367.052	563.06
367.278	567.06
367.505	593.06
367.731	593.06
367.957	615.06
368.184	637.06
368.41	672.06
368.636	668.06
368.862	645.06
369.089	653.06
369.315	647.06
369.541	615.06
369.767	584.06
369.993	565.06
370.219	601.06
370.445	631.06
370.672	657.06
370.898	693.06
371.124	644.06
371.35	646.06
371.576	666.06
371.802	654.06
372.028	625.06
372.254	575.06
372.48	575.06
372.706	601.06
372.932	624.06
373.158	625.06
373.384	636.06
373.61	652.06
373.835	661.06
374.061	629.06
374.287	642.06
374.513	648.06
374.739	646.06
374.965	654.06
375.191	634.06
375.416	662.06
375.642	679.06
375.868	706.06
376.094	681.06
376.319	685.06
376.545	648.06
376.771	659.06
376.997	706.06
377.222	668.06
377.448	661.06
377.674	673.06
377.899	680.06
378.125	712.06
378.35	695.06
378.576	643.06
378.802	634.06
379.027	625.06
379.253	644.06
379.478	618.06
379.704	635.06
379.929	656.06
380.155	667.06
380.38	665.06
380.606	652.06
380.831	654.06
381.057	692.06
381.282	694.06
381.507	700.06
381.733	731.06
381.958	743.06
382.184	659.06
382.409	656.06
382.634	677.06
382.86	683.06
383.085	679.06
383.31	726.06
383.535	755.06
383.761	790.06
383.986	772.06
384.211	748.06
384.436	740.06
384.662	789.06
384.887	790.06
385.112	732.06
385.337	742.06
385.562	715.06
385.787	719.06
386.013	747.06
386.238	740.06
386.463	769.06
386.688	835.06
386.913	857.06
387.138	821.06
387.363	784.06
387.588	764.06
387.813	759.06
388.038	784.06
388.263	828.06
388.488	751.06
388.713	705.06
388.938	716.06
389.163	707.06
389.387	727.06
389.612	719.06
389.837	757.06
390.062	741.06
390.287	743.06
390.512	754.06
390.736	727.06
390.961	713.06
391.186	688.06
391.411	716.06
391.636	745.06
391.86	712.06
392.085	737.06
392.31	767.06
392.534	735.06
392.759	752.06
392.984	766.06
393.208	791.06
393.433	795.06
393.658	849.06
393.882	807.06
394.107	762.06
394.331	767.06
394.556	780.06
394.78	783.06
395.005	803.06
395.229	835.06
395.454	856.06
395.678	837.06
395.903	811.06
396.127	815.06
396.352	822.06
396.576	872.06
396.801	841.06
397.025	851.06
397.249	831.06
397.474	820.06
397.698	818.06
397.922	863.06
398.147	892.06
398.371	895.06
398.595	861.06
398.82	862.06
399.044	895.06
399.268	929.06
399.492	938.06
399.717	981.06
399.941	970.06
400.165	967.06
400.389	963.06
400.613	983.06
400.837	1100.06
401.062	1185.06
401.286	1031.06
401.51	994.06
401.734	1008.06
401.958	938.06
402.182	895.06
402.406	891.06
402.63	867.06
402.854	851.06
403.078	889.06
403.302	901.06
403.526	900.06
403.75	929.06
403.974	931.06
404.198	930.06
404.422	959.06
404.645	988.06
404.869	957.06
405.093	895.06
405.317	891.06
405.541	913.06
405.765	930.06
405.988	942.06
406.212	911.06
406.436	961.06
406.66	1014.06
406.883	1027.06
407.107	1129.06
407.331	1217.06
407.555	1303.06
407.778	1110.06
408.002	963.06
408.226	964.06
408.449	959.06
408.673	969.06
408.896	934.06
409.12	973.06
409.344	949.06
409.567	918.06
409.791	959.06
410.014	954.06
410.238	1018.06
410.461	1041.06
410.685	929.06
410.908	920.06
411.132	968.06
411.355	982.06
411.578	938.06
411.802	931.06
412.025	922.06
412.249	926.06
412.472	884.06
412.695	909.06
412.919	914.06
413.142	913.06
413.365	927.06
413.589	967.06
413.812	1029.06
414.035	1004.06
414.258	931.06
414.482	916.06
414.705	935.06
414.928	947.06
415.151	922.06
415.374	897.06
415.597	933.06
415.821	948.06
416.044	937.06
416.267	933.06
416.49	936.06
416.713	921.06
416.936	948.06
417.159	1007.06
417.382	980.06
417.605	924.06
417.828	924.06
418.051	958.06
418.274	908.06
418.497	902.06
418.72	905.06
418.943	909.06
419.166	950.06
419.389	1002.06
419.611	953.06
419.834	937.06
420.057	957.06
420.28	922.06
420.503	956.06
420.726	970.06
420.948	933.06
421.171	903.06
421.394	951.06
421.617	981.06
421.839	979.06
422.062	959.06
422.285	944.06
422.507	933.06
422.73	910.06
422.953	879.06
423.175	889.06
423.398	903.06
423.621	917.06
423.843	935.06
424.066	959.06
424.288	989.06
424.511	1051.06
424.733	995.06
424.956	912.06
425.178	927.06
425.401	923.06
425.623	938.06
425.846	926.06
426.068	963.06
426.291	980.06
426.513	953.06
426.735	965.06
426.958	1028.06
427.18	1043.06
427.402	968.06
427.625	1032.06
427.847	987.06
428.069	933.06
428.292	933.06
428.514	905.06
428.736	899.06
428.958	917.06
429.181	933.06
429.403	1072.06
429.625	1218.06
429.847	1045.06
430.069	945.06
430.292	1048.06
430.514	1047.06
430.736	963.06
430.958	996.06
431.18	944.06
431.402	887.06
431.624	877.06
431.846	821.06
432.068	732.06
432.29	727.06
432.512	817.06
432.734	865.06
432.956	898.06
433.178	935.06
433.4	953.06
433.622	972.06
433.844	907.06
434.066	841.06
434.287	781.06
434.509	795.06
434.731	835.06
434.953	896.06
435.175	931.06
435.397	898.06
435.618	883.06
435.84	842.06
436.062	815.06
436.284	910.06
436.505	936.06
436.727	933.06
436.949	918.06
437.17	915.06
437.392	905.06
437.614	863.06
437.835	827.06
438.057	823.06
438.278	848.06
438.5	855.06
438.721	888.06
438.943	909.06
439.165	935.06
439.386	931.06
439.608	934.06
439.829	936.06
440.05	964.06
440.272	953.06
440.493	950.06
440.715	949.06
440.936	1029.06
441.158	1074.06
441.379	1033.06
441.6	1047.06
441.822	1038.06
442.043	1003.06
442.264	978.06
442.486	961.06
442.707	931.06
442.928	958.06
443.149	992.06
443.371	1029.06
443.592	1027.06
443.813	991.06
444.034	998.06
444.255	999.06
444.476	1017.06
444.698	1049.06
444.919	1024.06
445.14	1164.06
445.361	1115.06
445.582	1061.06
445.803	1052.06
446.024	1035.06
446.245	1050.06
446.466	1052.06
446.687	1045.06
446.908	1042.06
447.129	1003.06
447.35	1021.06
447.571	1003.06
447.792	945.06
448.013	945.06
448.234	954.06
448.455	967.06
448.675	995.06
448.896	937.06
449.117	898.06
449.338	941.06
449.559	987.06
449.779	1011.06
450	1011.06
450.221	1046.06
450.442	1019.06
450.662	945.06
450.883	841.06
451.104	871.06
451.324	855.06
451.545	909.06
451.766	832.06
451.986	829.06
452.207	820.06
452.428	806.06
452.648	781.06
452.869	792.06
453.089	807.06
453.31	757.06
453.53	779.06
453.751	756.06
453.971	712.06
454.192	737.06
454.412	775.06
454.633	805.06
454.853	787.06
455.073	762.06
455.294	780.06
455.514	778.06
455.734	780.06
455.955	763.06
456.175	725.06
456.395	729.06
456.616	753.06
456.836	750.06
457.056	728.06
457.276	760.06
457.497	722.06
457.717	695.06
457.937	715.06
458.157	732.06
458.377	724.06
458.598	660.06
458.818	669.06
459.038	702.06
459.258	733.06
459.478	725.06
459.698	700.06
459.918	733.06
460.138	815.06
460.358	812.06
460.578	847.06
460.798	841.06
461.018	874.06
461.238	856.06
461.458	868.06
461.678	845.06
461.898	803.06
462.118	809.06
462.338	845.06
462.558	824.06
462.777	842.06
462.997	856.06
463.217	903.06
463.437	870.06
463.657	837.06
463.876	826.06
464.096	805.06
464.316	829.06
464.536	920.06
464.755	882.06
464.975	875.06
465.195	857.06
465.414	870.06
465.634	877.06
465.854	910.06
466.073	974.06
466.293	936.06
466.512	880.06
466.732	894.06
466.951	933.06
467.171	887.06
467.391	879.06
467.61	901.06
467.829	926.06
468.049	995.06
468.268	1067.06
468.488	970.06
468.707	928.06
468.927	907.06
469.146	895.06
469.365	879.06
469.585	904.06
469.804	921.06
470.023	919.06
470.243	952.06
470.462	933.06
470.681	902.06
470.901	928.06
471.12	923.06
471.339	925.06
471.558	905.06
471.777	893.06
471.997	869.06
472.216	869.06
472.435	778.06
472.654	754.06
472.873	781.06
473.092	843.06
473.311	805.06
473.53	818.06
473.749	834.06
473.968	822.06
474.187	842.06
474.406	845.06
474.625	869.06
474.844	887.06
475.063	871.06
475.282	856.06
475.501	832.06
475.72	855.06
475.939	897.06
476.158	889.06
476.377	860.06
476.596	843.06
476.814	831.06
477.033	810.06
477.252	861.06
477.471	903.06
477.69	929.06
477.908	925.06
478.127	975.06
478.346	1033.06
478.564	1024.06
478.783	966.06
479.002	997.06
479.22	1024.06
479.439	1032.06
479.658	1039.06
479.876	956.06
480.095	874.06
480.313	909.06
480.532	897.06
480.751	850.06
480.969	842.06
481.188	808.06
481.406	767.06
481.624	772.06
481.843	803.06
482.061	826.06
482.28	874.06
482.498	859.06
482.717	859.06
482.935	859.06
483.153	954.06
483.372	995.06
483.59	1031.06
483.808	975.06
484.027	952.06
484.245	1004.06
484.463	1226.06
484.681	1288.06
484.9	1010.06
485.118	964.06
485.336	918.06
485.554	904.06
485.772	892.06
485.99	872.06
486.209	870.06
486.427	884.06
486.645	931.06
486.863	1014.06
487.081	1072.06
487.299	1004.06
487.517	1025.06
487.735	1083.06
487.953	1190.06
488.171	1207.06
488.389	1156.06
488.607	1091.06
488.825	1145.06
489.043	1063.06
489.261	989.06
489.479	1026.06
489.696	1056.06
489.914	1039.06
490.132	1032.06
490.35	1080.06
490.568	1169.06
490.786	1179.06
491.003	1210.06
491.221	1232.06
491.439	1285.06
491.657	1301.06
491.874	1354.06
492.092	1457.06
492.31	1523.06
492.527	1448.06
492.745	1363.06
492.963	1297.06
493.18	1339.06
493.398	1345.06
493.615	1342.06
493.833	1260.06
494.05	1238.06
494.268	1232.06
494.485	1236.06
494.703	1215.06
494.92	1218.06
495.138	1236.06
495.355	1234.06
495.573	1268.06
495.79	1275.06
496.008	1282.06
496.225	1238.06
496.442	1220.06
496.66	1251.06
496.877	1212.06
497.094	1239.06
497.312	1199.06
497.529	1202.06
497.746	1199.06
497.963	1274.06
498.181	1303.06
498.398	1276.06
498.615	1209.06
498.832	1153.06
499.049	1162.06
499.267	1164.06
499.484	1259.06
499.701	1313.06
499.918	1375.06
500.135	1483.06
500.352	1591.06
