Data from WStandard_LampEnergy5.5LIBS07252019.E.O._I.C._HRD10591_16-07-49-923.txt Node
Date: Thu Jul 25 16:07:49 EDT 2019
User: cochatt
Spectrometer: HR+D1059
Trigger mode: 1
Integration Time (sec): 1.000000E-1
Scans to average: 1
Electric dark correction enabled: true
Nonlinearity correction enabled: false
Boxcar width: 0
XAxis mode: Wavelengths
Number of Pixels in Spectrum: 2048
>>>>>Begin Spectral Data<<<<<
223.165	-24.19
223.4	-24.19
223.635	-24.19
223.869	-29.19
224.104	-23.19
224.338	-6.19
224.573	0.81
224.808	-4.19
225.042	-17.19
225.277	0.81
225.511	-20.19
225.746	3.81
225.98	3.81
226.215	17.81
226.449	14.81
226.683	26.81
226.918	19.81
227.152	35.81
227.387	37.81
227.621	38.81
227.856	57.81
228.09	40.81
228.324	55.81
228.559	70.81
228.793	152.81
229.027	361.81
229.262	373.81
229.496	391.81
229.73	416.81
229.964	438.81
230.199	444.81
230.433	467.81
230.667	508.81
230.901	549.81
231.136	509.81
231.37	474.81
231.604	469.81
231.838	466.81
232.072	464.81
232.306	448.81
232.541	495.81
232.775	559.81
233.009	632.81
233.243	605.81
233.477	559.81
233.711	596.81
233.945	572.81
234.179	551.81
234.413	621.81
234.647	654.81
234.881	632.81
235.115	565.81
235.349	571.81
235.583	586.81
235.817	599.81
236.051	534.81
236.285	561.81
236.519	599.81
236.753	681.81
236.987	708.81
237.221	698.81
237.455	778.81
237.689	729.81
237.922	739.81
238.156	691.81
238.39	693.81
238.624	717.81
238.858	771.81
239.091	770.81
239.325	802.81
239.559	984.81
239.793	983.81
240.027	1070.81
240.26	1115.81
240.494	778.81
240.728	727.81
240.961	738.81
241.195	738.81
241.429	831.81
241.662	852.81
241.896	803.81
242.13	783.81
242.363	856.81
242.597	939.81
242.83	920.81
243.064	927.81
243.298	967.81
243.531	979.81
243.765	947.81
243.998	963.81
244.232	831.81
244.465	805.81
244.699	790.81
244.932	936.81
245.166	1044.81
245.399	993.81
245.633	917.81
245.866	901.81
246.099	949.81
246.333	1004.81
246.566	982.81
246.8	1076.81
247.033	1222.81
247.266	1099.81
247.5	1090.81
247.733	1084.81
247.966	1145.81
248.2	1289.81
248.433	1220.81
248.666	1258.81
248.899	1360.81
249.133	1593.81
249.366	1801.81
249.599	1468.81
249.832	1302.81
250.066	1277.81
250.299	1339.81
250.532	1257.81
250.765	1103.81
250.998	1186.81
251.231	1218.81
251.465	1281.81
251.698	1213.81
251.931	1198.81
252.164	1279.81
252.397	1296.81
252.63	1283.81
252.863	1136.81
253.096	1113.81
253.329	1180.81
253.562	1203.81
253.795	1315.81
254.028	1306.81
254.261	1241.81
254.494	1191.81
254.727	1152.81
254.96	1203.81
255.193	1293.81
255.426	1427.81
255.659	1665.81
255.892	1725.81
256.124	1409.81
256.357	1375.81
256.59	1455.81
256.823	1453.81
257.056	1437.81
257.289	1731.81
257.521	1969.81
257.754	1763.81
257.987	1638.81
258.22	1864.81
258.452	1795.81
258.685	1433.81
258.918	1391.81
259.151	1410.81
259.383	1329.81
259.616	1193.81
259.849	1271.81
260.081	1414.81
260.314	1596.81
260.547	1715.81
260.779	1756.81
261.012	1637.81
261.244	1494.81
261.477	1379.81
261.71	1451.81
261.942	1467.81
262.175	1427.81
262.407	1505.81
262.64	1420.81
262.872	1343.81
263.105	1311.81
263.337	1315.81
263.57	1323.81
263.802	1376.81
264.035	1224.81
264.267	1202.81
264.499	1185.81
264.732	1257.81
264.964	1323.81
265.197	1393.81
265.429	1443.81
265.661	1638.81
265.894	1803.81
266.126	1888.81
266.358	1626.81
266.591	1672.81
266.823	1872.81
267.055	1693.81
267.287	1644.81
267.52	1601.81
267.752	1556.81
267.984	1610.81
268.216	1668.81
268.448	1737.81
268.681	1671.81
268.913	1537.81
269.145	1477.81
269.377	1429.81
269.609	1532.81
269.841	1797.81
270.073	2067.81
270.306	2340.81
270.538	2513.81
270.77	2081.81
271.002	1768.81
271.234	1730.81
271.466	1675.81
271.698	1874.81
271.93	2276.81
272.162	2285.81
272.394	2064.81
272.626	1974.81
272.858	1732.81
273.09	1482.81
273.322	1473.81
273.553	1407.81
273.785	1419.81
274.017	1493.81
274.249	1600.81
274.481	1643.81
274.713	1513.81
274.945	1428.81
275.176	1417.81
275.408	1452.81
275.64	1440.81
275.872	1367.81
276.104	1500.81
276.335	1693.81
276.567	1907.81
276.799	1973.81
277.031	1751.81
277.262	1659.81
277.494	1713.81
277.726	1887.81
277.957	1908.81
278.189	1753.81
278.421	1593.81
278.652	1534.81
278.884	1501.81
279.115	1550.81
279.347	1574.81
279.579	1504.81
279.81	1499.81
280.042	1654.81
280.273	1845.81
280.505	1824.81
280.736	1867.81
280.968	1738.81
281.199	1561.81
281.431	1468.81
281.662	1469.81
281.894	1463.81
282.125	1535.81
282.356	1586.81
282.588	1595.81
282.819	1561.81
283.051	1684.81
283.282	1841.81
283.513	1788.81
283.745	1561.81
283.976	1475.81
284.207	1447.81
284.439	1511.81
284.67	1499.81
284.901	1562.81
285.132	1581.81
285.364	1546.81
285.595	1600.81
285.826	1589.81
286.057	1553.81
286.288	1530.81
286.52	1602.81
286.751	1733.81
286.982	1760.81
287.213	1617.81
287.444	1471.81
287.675	1490.81
287.906	1571.81
288.138	1659.81
288.369	1657.81
288.6	1560.81
288.831	1495.81
289.062	1513.81
289.293	1548.81
289.524	1524.81
289.755	1611.81
289.986	1612.81
290.217	1482.81
290.448	1518.81
290.679	1583.81
290.91	1534.81
291.141	1587.81
291.371	1656.81
291.602	1677.81
291.833	1568.81
292.064	1691.81
292.295	1671.81
292.526	1691.81
292.757	1787.81
292.987	1675.81
293.218	1612.81
293.449	1711.81
293.68	1942.81
293.91	2092.81
294.141	1932.81
294.372	1822.81
294.603	1867.81
294.833	1949.81
295.064	1873.81
295.295	1681.81
295.525	1628.81
295.756	1500.81
295.987	1404.81
296.217	1494.81
296.448	1566.81
296.679	1521.81
296.909	1542.81
297.14	1529.81
297.37	1549.81
297.601	1636.81
297.831	1730.81
298.062	1816.81
298.292	1632.81
298.523	1510.81
298.753	1538.81
298.984	1595.81
299.214	1592.81
299.445	1612.81
299.675	1657.81
299.905	1648.81
300.136	1603.81
300.366	1557.81
300.597	1482.81
300.827	1507.81
301.057	1586.81
301.288	1672.81
301.518	1659.81
301.748	1680.81
301.979	1778.81
302.209	1763.81
302.439	1911.81
302.669	2024.81
302.9	1870.81
303.13	1684.81
303.36	1691.81
303.59	1678.81
303.82	1679.81
304.051	1669.81
304.281	1701.81
304.511	1641.81
304.741	1795.81
304.971	1900.81
305.201	2103.81
305.431	1977.81
305.661	1638.81
305.891	1417.81
306.121	1448.81
306.352	1548.81
306.582	1625.81
306.812	1689.81
307.042	1875.81
307.272	1879.81
307.502	1873.81
307.731	2069.81
307.961	2193.81
308.191	2056.81
308.421	1760.81
308.651	1649.81
308.881	1623.81
309.111	1644.81
309.341	1593.81
309.571	1606.81
309.8	1630.81
310.03	1591.81
310.26	1604.81
310.49	1568.81
310.72	1628.81
310.949	1699.81
311.179	1717.81
311.409	1679.81
311.639	1651.81
311.868	1618.81
312.098	1651.81
312.328	1653.81
312.557	1589.81
312.787	1661.81
313.017	1756.81
313.246	1700.81
313.476	1680.81
313.706	1747.81
313.935	1715.81
314.165	1700.81
314.394	1762.81
314.624	1894.81
314.853	1920.81
315.083	2037.81
315.312	2089.81
315.542	1991.81
315.771	1749.81
316.001	1735.81
316.23	1857.81
316.46	1820.81
316.689	1811.81
316.919	1718.81
317.148	1692.81
317.377	1659.81
317.607	1756.81
317.836	2021.81
318.065	2107.81
318.295	1946.81
318.524	1907.81
318.753	1860.81
318.983	1831.81
319.212	1805.81
319.441	1763.81
319.67	1711.81
319.9	1777.81
320.129	1874.81
320.358	1955.81
320.587	1973.81
320.816	1977.81
321.046	1913.81
321.275	1751.81
321.504	1820.81
321.733	2023.81
321.962	1926.81
322.191	1789.81
322.42	1776.81
322.649	1793.81
322.878	1741.81
323.108	1779.81
323.337	1843.81
323.566	1782.81
323.795	1819.81
324.024	1841.81
324.253	1772.81
324.482	1795.81
324.71	1750.81
324.939	1648.81
325.168	1681.81
325.397	1752.81
325.626	1779.81
325.855	1849.81
326.084	1753.81
326.313	1756.81
326.542	1822.81
326.77	1793.81
326.999	1835.81
327.228	1777.81
327.457	1687.81
327.686	1652.81
327.914	1731.81
328.143	1752.81
328.372	1763.81
328.6	1779.81
328.829	1749.81
329.058	1704.81
329.287	1656.81
329.515	1739.81
329.744	1781.81
329.972	1832.81
330.201	1943.81
330.43	1911.81
330.658	1877.81
330.887	1846.81
331.115	1860.81
331.344	1883.81
331.572	1841.81
331.801	1819.81
332.03	1817.81
332.258	1837.81
332.486	1888.81
332.715	1912.81
332.943	1945.81
333.172	1861.81
333.4	1885.81
333.629	1896.81
333.857	2036.81
334.085	2233.81
334.314	2483.81
334.542	2781.81
334.771	2573.81
334.999	2243.81
335.227	2099.81
335.455	2008.81
335.684	1968.81
335.912	1976.81
336.14	2140.81
336.369	2052.81
336.597	1920.81
336.825	1874.81
337.053	1969.81
337.281	2071.81
337.51	2157.81
337.738	2227.81
337.966	2159.81
338.194	1921.81
338.422	1869.81
338.65	1867.81
338.878	1832.81
339.106	1813.81
339.334	1780.81
339.562	1741.81
339.79	1768.81
340.018	1859.81
340.246	1963.81
340.474	1972.81
340.702	1869.81
340.93	1967.81
341.158	1892.81
341.386	1871.81
341.614	1837.81
341.842	1817.81
342.07	1864.81
342.298	1869.81
342.526	1884.81
342.754	1826.81
342.981	1820.81
343.209	1807.81
343.437	1823.81
343.665	1833.81
343.893	1912.81
344.12	1948.81
344.348	1976.81
344.576	1923.81
344.804	1798.81
345.031	1818.81
345.259	1852.81
345.487	1772.81
345.714	1701.81
345.942	1695.81
346.17	1688.81
346.397	1767.81
346.625	1755.81
346.853	1644.81
347.08	1632.81
347.308	1619.81
347.535	1674.81
347.763	1787.81
347.99	1718.81
348.218	1663.81
348.445	1670.81
348.673	1691.81
348.9	1755.81
349.128	1802.81
349.355	1823.81
349.583	1813.81
349.81	1673.81
350.037	1587.81
350.265	1592.81
350.492	1656.81
350.72	1641.81
350.947	1682.81
351.174	1733.81
351.402	1649.81
351.629	1573.81
351.856	1576.81
352.083	1595.81
352.311	1569.81
352.538	1638.81
352.765	1750.81
352.992	1772.81
353.22	1692.81
353.447	1602.81
353.674	1617.81
353.901	1695.81
354.128	1614.81
354.355	1637.81
354.583	1688.81
354.81	1742.81
355.037	1755.81
355.264	1720.81
355.491	1669.81
355.718	1740.81
355.945	1702.81
356.172	1671.81
356.399	1614.81
356.626	1629.81
356.853	1689.81
357.08	1813.81
357.307	1988.81
357.534	2031.81
357.761	1745.81
357.988	1634.81
358.215	1591.81
358.441	1578.81
358.668	1592.81
358.895	1602.81
359.122	1720.81
359.349	1940.81
359.576	1892.81
359.802	1732.81
360.029	1604.81
360.256	1611.81
360.483	1649.81
360.709	1658.81
360.936	1739.81
361.163	1760.81
361.39	1928.81
361.616	2143.81
361.843	2039.81
362.07	1936.81
362.296	1679.81
362.523	1668.81
362.749	1660.81
362.976	1696.81
363.203	1737.81
363.429	1649.81
363.656	1617.81
363.882	1669.81
364.109	1841.81
364.335	2032.81
364.562	1862.81
364.788	1751.81
365.015	1698.81
365.241	1619.81
365.468	1691.81
365.694	1701.81
365.92	1831.81
366.147	1735.81
366.373	1649.81
366.599	1624.81
366.826	1604.81
367.052	1653.81
367.278	1676.81
367.505	1652.81
367.731	1707.81
367.957	1676.81
368.184	1739.81
368.41	1852.81
368.636	1891.81
368.862	1882.81
369.089	1895.81
369.315	1843.81
369.541	1760.81
369.767	1735.81
369.993	1669.81
370.219	1664.81
370.445	1736.81
370.672	1785.81
370.898	1903.81
371.124	1919.81
371.35	1749.81
371.576	1797.81
371.802	1874.81
372.028	1780.81
372.254	1706.81
372.48	1705.81
372.706	1695.81
372.932	1699.81
373.158	1735.81
373.384	1701.81
373.61	1762.81
373.835	1843.81
374.061	1795.81
374.287	1739.81
374.513	1777.81
374.739	1793.81
374.965	1785.81
375.191	1781.81
375.416	1804.81
375.642	1777.81
375.868	1882.81
376.094	1955.81
376.319	1875.81
376.545	1754.81
376.771	1775.81
376.997	1880.81
377.222	1843.81
377.448	1815.81
377.674	1845.81
377.899	1799.81
378.125	1941.81
378.35	1943.81
378.576	1760.81
378.802	1734.81
379.027	1711.81
379.253	1720.81
379.478	1740.81
379.704	1745.81
379.929	1751.81
380.155	1719.81
380.38	1776.81
380.606	1764.81
380.831	1764.81
381.057	1903.81
381.282	1887.81
381.507	1815.81
381.733	1877.81
381.958	2081.81
382.184	1853.81
382.409	1833.81
382.634	1868.81
382.86	1842.81
383.085	1791.81
383.31	1862.81
383.535	1953.81
383.761	2134.81
383.986	2060.81
384.211	1964.81
384.436	1978.81
384.662	2074.81
384.887	2122.81
385.112	2019.81
385.337	2052.81
385.562	2054.81
385.787	2003.81
386.013	2069.81
386.238	2049.81
386.463	2018.81
386.688	2148.81
386.913	2326.81
387.138	2253.81
387.363	2081.81
387.588	2092.81
387.813	2106.81
388.038	2059.81
388.263	2159.81
388.488	2051.81
388.713	1915.81
388.938	1927.81
389.163	1926.81
389.387	2013.81
389.612	1955.81
389.837	2051.81
390.062	2011.81
390.287	2017.81
390.512	2057.81
390.736	1988.81
390.961	1932.81
391.186	1868.81
391.411	1931.81
391.636	1985.81
391.86	1998.81
392.085	2005.81
392.31	2004.81
392.534	2020.81
392.759	2076.81
392.984	2020.81
393.208	2048.81
393.433	2069.81
393.658	2170.81
393.882	2207.81
394.107	2036.81
394.331	2018.81
394.556	1957.81
394.78	2006.81
395.005	2091.81
395.229	2116.81
395.454	2261.81
395.678	2314.81
395.903	2247.81
396.127	2131.81
396.352	2123.81
396.576	2186.81
396.801	2263.81
397.025	2253.81
397.249	2185.81
397.474	2145.81
397.698	2160.81
397.922	2240.81
398.147	2315.81
398.371	2402.81
398.595	2407.81
398.82	2284.81
399.044	2331.81
399.268	2468.81
399.492	2559.81
399.717	2665.81
399.941	2735.81
400.165	2663.81
400.389	2555.81
400.613	2548.81
400.837	2770.81
401.062	3237.81
401.286	2761.81
401.51	2498.81
401.734	2607.81
401.958	2573.81
402.182	2340.81
402.406	2298.81
402.63	2249.81
402.854	2276.81
403.078	2312.81
403.302	2328.81
403.526	2388.81
403.75	2380.81
403.974	2427.81
404.198	2430.81
404.422	2439.81
404.645	2543.81
404.869	2560.81
405.093	2378.81
405.317	2284.81
405.541	2395.81
405.765	2415.81
405.988	2373.81
406.212	2425.81
406.436	2546.81
406.66	2556.81
406.883	2581.81
407.107	2818.81
407.331	3093.81
407.555	3288.81
407.778	3079.81
408.002	2633.81
408.226	2535.81
408.449	2567.81
408.673	2422.81
408.896	2435.81
409.12	2520.81
409.344	2471.81
409.567	2348.81
409.791	2392.81
410.014	2460.81
410.238	2527.81
410.461	2685.81
410.685	2417.81
410.908	2281.81
411.132	2379.81
411.355	2347.81
411.578	2330.81
411.802	2368.81
412.025	2404.81
412.249	2341.81
412.472	2246.81
412.695	2223.81
412.919	2255.81
413.142	2213.81
413.365	2273.81
413.589	2336.81
413.812	2384.81
414.035	2553.81
414.258	2327.81
414.482	2303.81
414.705	2275.81
414.928	2285.81
415.151	2240.81
415.374	2298.81
415.597	2307.81
415.821	2293.81
416.044	2412.81
416.267	2404.81
416.49	2218.81
416.713	2180.81
416.936	2244.81
417.159	2331.81
417.382	2317.81
417.605	2249.81
417.828	2298.81
418.051	2329.81
418.274	2292.81
418.497	2191.81
418.72	2195.81
418.943	2196.81
419.166	2341.81
419.389	2474.81
419.611	2283.81
419.834	2225.81
420.057	2256.81
420.28	2203.81
420.503	2168.81
420.726	2260.81
420.948	2231.81
421.171	2176.81
421.394	2175.81
421.617	2307.81
421.839	2236.81
422.062	2211.81
422.285	2181.81
422.507	2171.81
422.73	2145.81
422.953	2099.81
423.175	2103.81
423.398	2218.81
423.621	2203.81
423.843	2228.81
424.066	2232.81
424.288	2296.81
424.511	2346.81
424.733	2285.81
424.956	2083.81
425.178	2058.81
425.401	2138.81
425.623	2160.81
425.846	2176.81
426.068	2222.81
426.291	2266.81
426.513	2254.81
426.735	2243.81
426.958	2329.81
427.18	2526.81
427.402	2325.81
427.625	2363.81
427.847	2402.81
428.069	2228.81
428.292	2175.81
428.514	2071.81
428.736	2096.81
428.958	2109.81
429.181	2131.81
429.403	2434.81
429.625	2988.81
429.847	2632.81
430.069	2169.81
430.292	2389.81
430.514	2474.81
430.736	2332.81
430.958	2413.81
431.18	2324.81
431.402	2148.81
431.624	2117.81
431.846	2096.81
432.068	2031.81
432.29	2090.81
432.512	2123.81
432.734	2237.81
432.956	2224.81
433.178	2300.81
433.4	2223.81
433.622	2295.81
433.844	2161.81
434.066	2057.81
434.287	2113.81
434.509	2193.81
434.731	2303.81
434.953	2412.81
435.175	2406.81
435.397	2273.81
435.618	2234.81
435.84	2245.81
436.062	2212.81
436.284	2215.81
436.505	2229.81
436.727	2279.81
436.949	2179.81
437.17	2147.81
437.392	2101.81
437.614	2160.81
437.835	2121.81
438.057	2221.81
438.278	2314.81
438.5	2175.81
438.721	2151.81
438.943	2133.81
439.165	2147.81
439.386	2057.81
439.608	2081.81
439.829	2117.81
440.05	2175.81
440.272	2137.81
440.493	2040.81
440.715	2146.81
440.936	2271.81
441.158	2520.81
441.379	2455.81
441.6	2354.81
441.822	2265.81
442.043	2294.81
442.264	2235.81
442.486	2118.81
442.707	2052.81
442.928	2069.81
443.149	2171.81
443.371	2317.81
443.592	2408.81
443.813	2352.81
444.034	2345.81
444.255	2307.81
444.476	2346.81
444.698	2415.81
444.919	2387.81
445.14	2477.81
445.361	2469.81
445.582	2539.81
445.803	2413.81
446.024	2329.81
446.245	2410.81
446.466	2375.81
446.687	2206.81
446.908	2184.81
447.129	2209.81
447.35	2224.81
447.571	2179.81
447.792	2079.81
448.013	2071.81
448.234	2139.81
448.455	2166.81
448.675	2183.81
448.896	2033.81
449.117	2009.81
449.338	2059.81
449.559	2154.81
449.779	2268.81
450	2524.81
450.221	2725.81
450.442	2607.81
450.662	2325.81
450.883	2020.81
451.104	1957.81
451.324	2010.81
451.545	2161.81
451.766	2077.81
451.986	1978.81
452.207	1975.81
452.428	1909.81
452.648	1890.81
452.869	1949.81
453.089	2057.81
453.31	2069.81
453.53	2169.81
453.751	2063.81
453.971	1905.81
454.192	1941.81
454.412	2167.81
454.633	2047.81
454.853	1980.81
455.073	1869.81
455.294	1830.81
455.514	1857.81
455.734	1834.81
455.955	1932.81
456.175	1930.81
456.395	1913.81
456.616	1980.81
456.836	2025.81
457.056	1954.81
457.276	1939.81
457.497	1857.81
457.717	1823.81
457.937	1871.81
458.157	1929.81
458.377	1923.81
458.598	1903.81
458.818	1913.81
459.038	1997.81
459.258	2127.81
459.478	2119.81
459.698	2083.81
459.918	2128.81
460.138	2243.81
460.358	2259.81
460.578	2272.81
460.798	2328.81
461.018	2520.81
461.238	2413.81
461.458	2261.81
461.678	2259.81
461.898	2217.81
462.118	2161.81
462.338	2258.81
462.558	2256.81
462.777	2249.81
462.997	2367.81
463.217	2546.81
463.437	2506.81
463.657	2305.81
463.876	2311.81
464.096	2248.81
464.316	2252.81
464.536	2345.81
464.755	2345.81
464.975	2379.81
465.195	2294.81
465.414	2427.81
465.634	2451.81
465.854	2258.81
466.073	2413.81
466.293	2295.81
466.512	2091.81
466.732	2091.81
466.951	2147.81
467.171	2168.81
467.391	2076.81
467.61	1998.81
467.829	2010.81
468.049	2206.81
468.268	2499.81
468.488	2263.81
468.707	2239.81
468.927	2117.81
469.146	2071.81
469.365	1992.81
469.585	2073.81
469.804	2047.81
470.023	2066.81
470.243	2055.81
470.462	2080.81
470.681	2044.81
470.901	2077.81
471.12	2069.81
471.339	2019.81
471.558	2025.81
471.777	1996.81
471.997	2022.81
472.216	2013.81
472.435	1982.81
472.654	1984.81
472.873	2094.81
473.092	2223.81
473.311	2116.81
473.53	1975.81
473.749	2005.81
473.968	2075.81
474.187	2139.81
474.406	2260.81
474.625	2131.81
474.844	2101.81
475.063	2041.81
475.282	2163.81
475.501	2084.81
475.72	2135.81
475.939	2239.81
476.158	2140.81
476.377	2092.81
476.596	2162.81
476.814	2192.81
477.033	2191.81
477.252	2257.81
477.471	2345.81
477.69	2203.81
477.908	2187.81
478.127	2324.81
478.346	2521.81
478.564	2499.81
478.783	2456.81
479.002	2582.81
479.22	2459.81
479.439	2592.81
479.658	2929.81
479.876	2861.81
480.095	2513.81
480.313	2429.81
480.532	2337.81
480.751	2368.81
480.969	2388.81
481.188	2360.81
481.406	2341.81
481.624	2204.81
481.843	2295.81
482.061	2348.81
482.28	2400.81
482.498	2444.81
482.717	2434.81
482.935	2315.81
483.153	2303.81
483.372	2337.81
483.59	2258.81
483.808	2317.81
484.027	2399.81
484.245	2495.81
484.463	2857.81
484.681	3316.81
484.9	2559.81
485.118	2397.81
485.336	2319.81
485.554	2403.81
485.772	2540.81
485.99	2464.81
486.209	2509.81
486.427	2506.81
486.645	2502.81
486.863	2497.81
487.081	2524.81
487.299	2569.81
487.517	2513.81
