Data from WStandard_LampEnergy10_LIBS07252019.E.O._I.C._HRD10591_15-54-39-928.txt Node
Date: Thu Jul 25 15:54:39 EDT 2019
User: cochatt
Spectrometer: HR+D1059
Trigger mode: 1
Integration Time (sec): 1.000000E-1
Scans to average: 1
Electric dark correction enabled: true
Nonlinearity correction enabled: false
Boxcar width: 0
XAxis mode: Wavelengths
Number of Pixels in Spectrum: 2048
>>>>>Begin Spectral Data<<<<<
223.165	-12.69
223.4	-12.69
223.635	-12.69
223.869	-14.69
224.104	-22.69
224.338	-2.69
224.573	-15.69
224.808	-10.69
225.042	-10.69
225.277	-7.69
225.511	-10.69
225.746	10.31
225.98	6.31
226.215	6.31
226.449	18.31
226.683	27.31
226.918	13.31
227.152	26.31
227.387	34.31
227.621	40.31
227.856	53.31
228.09	38.31
228.324	37.31
228.559	49.31
228.793	86.31
229.027	137.31
229.262	140.31
229.496	144.31
229.73	147.31
229.964	160.31
230.199	183.31
230.433	172.31
230.667	170.31
230.901	197.31
231.136	176.31
231.37	159.31
231.604	154.31
231.838	171.31
232.072	178.31
232.306	184.31
232.541	181.31
232.775	186.31
233.009	218.31
233.243	209.31
233.477	182.31
233.711	195.31
233.945	193.31
234.179	206.31
234.413	205.31
234.647	213.31
234.881	205.31
235.115	187.31
235.349	195.31
235.583	192.31
235.817	203.31
236.051	185.31
236.285	182.31
236.519	198.31
236.753	225.31
236.987	228.31
237.221	213.31
237.455	244.31
237.689	225.31
237.922	196.31
238.156	199.31
238.39	227.31
238.624	223.31
238.858	234.31
239.091	235.31
239.325	245.31
239.559	278.31
239.793	278.31
240.027	284.31
240.26	299.31
240.494	229.31
240.728	221.31
240.961	243.31
241.195	232.31
241.429	253.31
241.662	262.31
241.896	242.31
242.13	243.31
242.363	264.31
242.597	280.31
242.83	266.31
243.064	275.31
243.298	285.31
243.531	266.31
243.765	278.31
243.998	275.31
244.232	252.31
244.465	245.31
244.699	266.31
244.932	273.31
245.166	303.31
245.399	288.31
245.633	266.31
245.866	285.31
246.099	293.31
246.333	299.31
246.566	304.31
246.8	301.31
247.033	347.31
247.266	314.31
247.5	311.31
247.733	313.31
247.966	335.31
248.2	384.31
248.433	332.31
248.666	368.31
248.899	386.31
249.133	428.31
249.366	455.31
249.599	406.31
249.832	359.31
250.066	367.31
250.299	384.31
250.532	334.31
250.765	312.31
250.998	340.31
251.231	356.31
251.465	337.31
251.698	333.31
251.931	321.31
252.164	333.31
252.397	354.31
252.63	356.31
252.863	320.31
253.096	335.31
253.329	325.31
253.562	357.31
253.795	358.31
254.028	357.31
254.261	347.31
254.494	334.31
254.727	351.31
254.96	338.31
255.193	372.31
255.426	417.31
255.659	462.31
255.892	453.31
256.124	387.31
256.357	379.31
256.59	408.31
256.823	397.31
257.056	405.31
257.289	459.31
257.521	502.31
257.754	453.31
257.987	477.31
258.22	469.31
258.452	451.31
258.685	380.31
258.918	395.31
259.151	400.31
259.383	357.31
259.616	352.31
259.849	376.31
260.081	384.31
260.314	438.31
260.547	461.31
260.779	461.31
261.012	436.31
261.244	409.31
261.477	389.31
261.71	393.31
261.942	387.31
262.175	365.31
262.407	418.31
262.64	380.31
262.872	375.31
263.105	363.31
263.337	376.31
263.57	371.31
263.802	365.31
264.035	360.31
264.267	339.31
264.499	342.31
264.732	359.31
264.964	376.31
265.197	398.31
265.429	405.31
265.661	461.31
265.894	466.31
266.126	473.31
266.358	442.31
266.591	468.31
266.823	485.31
267.055	447.31
267.287	433.31
267.52	446.31
267.752	425.31
267.984	457.31
268.216	459.31
268.448	458.31
268.681	440.31
268.913	415.31
269.145	416.31
269.377	411.31
269.609	429.31
269.841	486.31
270.073	560.31
270.306	627.31
270.538	605.31
270.77	534.31
271.002	457.31
271.234	465.31
271.466	468.31
271.698	540.31
271.93	593.31
272.162	560.31
272.394	531.31
272.626	515.31
272.858	452.31
273.09	434.31
273.322	404.31
273.553	386.31
273.785	405.31
274.017	416.31
274.249	453.31
274.481	421.31
274.713	403.31
274.945	410.31
275.176	402.31
275.408	388.31
275.64	381.31
275.872	405.31
276.104	443.31
276.335	484.31
276.567	520.31
276.799	509.31
277.031	482.31
277.262	458.31
277.494	482.31
277.726	513.31
277.957	494.31
278.189	451.31
278.421	425.31
278.652	395.31
278.884	424.31
279.115	436.31
279.347	417.31
279.579	412.31
279.81	431.31
280.042	469.31
280.273	507.31
280.505	500.31
280.736	508.31
280.968	477.31
281.199	432.31
281.431	406.31
281.662	420.31
281.894	435.31
282.125	422.31
282.356	447.31
282.588	449.31
282.819	459.31
283.051	511.31
283.282	504.31
283.513	483.31
283.745	437.31
283.976	407.31
284.207	454.31
284.439	468.31
284.67	447.31
284.901	438.31
285.132	457.31
285.364	450.31
285.595	449.31
285.826	448.31
286.057	456.31
286.288	440.31
286.52	462.31
286.751	494.31
286.982	490.31
287.213	450.31
287.444	422.31
287.675	444.31
287.906	468.31
288.138	472.31
288.369	461.31
288.6	432.31
288.831	426.31
289.062	454.31
289.293	452.31
289.524	436.31
289.755	450.31
289.986	468.31
290.217	438.31
290.448	453.31
290.679	444.31
290.91	471.31
291.141	483.31
291.371	466.31
291.602	461.31
291.833	466.31
292.064	473.31
292.295	488.31
292.526	497.31
292.757	496.31
292.987	475.31
293.218	481.31
293.449	518.31
293.68	567.31
293.91	582.31
294.141	542.31
294.372	553.31
294.603	564.31
294.833	548.31
295.064	536.31
295.295	481.31
295.525	476.31
295.756	442.31
295.987	429.31
296.217	448.31
296.448	469.31
296.679	439.31
296.909	428.31
297.14	475.31
297.37	487.31
297.601	502.31
297.831	552.31
298.062	526.31
298.292	472.31
298.523	477.31
298.753	463.31
298.984	463.31
299.214	483.31
299.445	480.31
299.675	483.31
299.905	490.31
300.136	483.31
300.366	457.31
300.597	466.31
300.827	474.31
301.057	501.31
301.288	496.31
301.518	509.31
301.748	525.31
301.979	525.31
302.209	547.31
302.439	565.31
302.669	579.31
302.9	537.31
303.13	498.31
303.36	480.31
303.59	499.31
303.82	483.31
304.051	502.31
304.281	528.31
304.511	525.31
304.741	556.31
304.971	603.31
305.201	620.31
305.431	561.31
305.661	481.31
305.891	452.31
306.121	440.31
306.352	461.31
306.582	519.31
306.812	517.31
307.042	557.31
307.272	573.31
307.502	571.31
307.731	625.31
307.961	626.31
308.191	556.31
308.421	540.31
308.651	498.31
308.881	487.31
309.111	480.31
309.341	491.31
309.571	504.31
309.8	497.31
310.03	488.31
310.26	482.31
310.49	468.31
310.72	514.31
310.949	522.31
311.179	524.31
311.409	505.31
311.639	498.31
311.868	487.31
312.098	503.31
312.328	481.31
312.557	485.31
312.787	508.31
313.017	530.31
313.246	534.31
313.476	525.31
313.706	539.31
313.935	550.31
314.165	506.31
314.394	563.31
314.624	585.31
314.853	613.31
315.083	628.31
315.312	629.31
315.542	560.31
315.771	524.31
316.001	572.31
316.23	555.31
316.46	563.31
316.689	537.31
316.919	532.31
317.148	509.31
317.377	533.31
317.607	572.31
317.836	646.31
318.065	634.31
318.295	610.31
318.524	585.31
318.753	550.31
318.983	560.31
319.212	558.31
319.441	570.31
319.67	560.31
319.9	569.31
320.129	594.31
320.358	606.31
320.587	596.31
320.816	616.31
321.046	584.31
321.275	585.31
321.504	606.31
321.733	603.31
321.962	601.31
322.191	578.31
322.42	544.31
322.649	544.31
322.878	549.31
323.108	562.31
323.337	587.31
323.566	572.31
323.795	577.31
324.024	556.31
324.253	549.31
324.482	554.31
324.71	550.31
324.939	527.31
325.168	536.31
325.397	557.31
325.626	573.31
325.855	569.31
326.084	561.31
326.313	558.31
326.542	572.31
326.77	570.31
326.999	552.31
327.228	536.31
327.457	535.31
327.686	526.31
327.914	553.31
328.143	562.31
328.372	552.31
328.6	555.31
328.829	545.31
329.058	534.31
329.287	531.31
329.515	569.31
329.744	559.31
329.972	594.31
330.201	627.31
330.43	603.31
330.658	570.31
330.887	620.31
331.115	595.31
331.344	595.31
331.572	577.31
331.801	583.31
332.03	571.31
332.258	586.31
332.486	632.31
332.715	607.31
332.943	596.31
333.172	580.31
333.4	577.31
333.629	630.31
333.857	650.31
334.085	723.31
334.314	791.31
334.542	834.31
334.771	745.31
334.999	663.31
335.227	631.31
335.455	604.31
335.684	615.31
335.912	648.31
336.14	632.31
336.369	596.31
336.597	603.31
336.825	587.31
337.053	620.31
337.281	654.31
337.51	688.31
337.738	697.31
337.966	662.31
338.194	594.31
338.422	570.31
338.65	603.31
338.878	564.31
339.106	571.31
339.334	557.31
339.562	561.31
339.79	574.31
340.018	618.31
340.246	637.31
340.474	630.31
340.702	617.31
340.93	607.31
341.158	612.31
341.386	605.31
341.614	595.31
341.842	583.31
342.07	568.31
342.298	603.31
342.526	593.31
342.754	626.31
342.981	603.31
343.209	584.31
343.437	600.31
343.665	598.31
343.893	598.31
344.12	626.31
344.348	625.31
344.576	587.31
344.804	589.31
345.031	600.31
345.259	589.31
345.487	576.31
345.714	556.31
345.942	560.31
346.17	557.31
346.397	579.31
346.625	556.31
346.853	540.31
347.08	531.31
347.308	550.31
347.535	558.31
347.763	583.31
347.99	576.31
348.218	553.31
348.445	557.31
348.673	572.31
348.9	573.31
349.128	611.31
349.355	598.31
349.583	573.31
349.81	570.31
350.037	536.31
350.265	535.31
350.492	520.31
350.72	548.31
350.947	566.31
351.174	570.31
351.402	537.31
351.629	520.31
351.856	532.31
352.083	522.31
352.311	528.31
352.538	551.31
352.765	556.31
352.992	578.31
353.22	540.31
353.447	542.31
353.674	542.31
353.901	577.31
354.128	533.31
354.355	529.31
354.583	552.31
354.81	587.31
355.037	560.31
355.264	569.31
355.491	560.31
355.718	562.31
355.945	562.31
356.172	563.31
356.399	537.31
356.626	548.31
356.853	570.31
357.08	660.31
357.307	692.31
357.534	641.31
357.761	580.31
357.988	534.31
358.215	545.31
358.441	530.31
358.668	533.31
358.895	563.31
359.122	577.31
359.349	624.31
359.576	621.31
359.802	576.31
360.029	547.31
360.256	539.31
360.483	554.31
360.709	584.31
360.936	609.31
361.163	635.31
361.39	674.31
361.616	720.31
361.843	716.31
362.07	612.31
362.296	564.31
362.523	564.31
362.749	554.31
362.976	577.31
363.203	594.31
363.429	554.31
363.656	557.31
363.882	609.31
364.109	658.31
364.335	652.31
364.562	603.31
364.788	596.31
365.015	566.31
365.241	545.31
365.468	579.31
365.694	618.31
365.92	622.31
366.147	563.31
366.373	553.31
366.599	556.31
366.826	569.31
367.052	552.31
367.278	566.31
367.505	579.31
367.731	612.31
367.957	582.31
368.184	628.31
368.41	665.31
368.636	668.31
368.862	649.31
369.089	642.31
369.315	616.31
369.541	588.31
369.767	596.31
369.993	580.31
370.219	582.31
370.445	608.31
370.672	646.31
370.898	676.31
371.124	648.31
371.35	617.31
371.576	684.31
371.802	658.31
372.028	636.31
372.254	616.31
372.48	590.31
372.706	600.31
372.932	603.31
373.158	605.31
373.384	626.31
373.61	653.31
373.835	652.31
374.061	608.31
374.287	616.31
374.513	602.31
374.739	629.31
374.965	622.31
375.191	633.31
375.416	656.31
375.642	655.31
375.868	706.31
376.094	696.31
376.319	675.31
376.545	627.31
376.771	653.31
376.997	692.31
377.222	659.31
377.448	675.31
377.674	690.31
377.899	686.31
378.125	701.31
378.35	677.31
378.576	625.31
378.802	620.31
379.027	630.31
379.253	635.31
379.478	637.31
379.704	615.31
379.929	631.31
380.155	618.31
380.38	652.31
380.606	662.31
380.831	648.31
381.057	698.31
381.282	674.31
381.507	697.31
381.733	733.31
381.958	733.31
382.184	659.31
382.409	676.31
382.634	673.31
382.86	668.31
383.085	675.31
383.31	695.31
383.535	766.31
383.761	803.31
383.986	761.31
384.211	739.31
384.436	735.31
384.662	757.31
384.887	778.31
385.112	731.31
385.337	732.31
385.562	732.31
385.787	725.31
386.013	746.31
386.238	770.31
386.463	780.31
386.688	840.31
386.913	861.31
387.138	800.31
387.363	770.31
387.588	759.31
387.813	778.31
388.038	771.31
388.263	783.31
388.488	742.31
388.713	718.31
388.938	706.31
389.163	737.31
389.387	734.31
389.612	719.31
389.837	756.31
390.062	761.31
390.287	761.31
390.512	756.31
390.736	741.31
390.961	724.31
391.186	739.31
391.411	745.31
391.636	735.31
391.86	772.31
392.085	748.31
392.31	748.31
392.534	753.31
392.759	776.31
392.984	745.31
393.208	777.31
393.433	785.31
393.658	832.31
393.882	806.31
394.107	782.31
394.331	770.31
394.556	771.31
394.78	780.31
395.005	796.31
395.229	826.31
395.454	865.31
395.678	857.31
395.903	822.31
396.127	809.31
396.352	812.31
396.576	823.31
396.801	834.31
397.025	835.31
397.249	854.31
397.474	838.31
397.698	820.31
397.922	855.31
398.147	880.31
398.371	894.31
398.595	878.31
398.82	875.31
399.044	886.31
399.268	914.31
399.492	947.31
399.717	998.31
399.941	985.31
400.165	962.31
400.389	949.31
400.613	976.31
400.837	1141.31
401.062	1186.31
401.286	1015.31
401.51	967.31
401.734	958.31
401.958	955.31
402.182	882.31
402.406	884.31
402.63	882.31
402.854	851.31
403.078	897.31
403.302	882.31
403.526	919.31
403.75	925.31
403.974	927.31
404.198	952.31
404.422	986.31
404.645	992.31
404.869	963.31
405.093	916.31
405.317	890.31
405.541	914.31
405.765	929.31
405.988	912.31
406.212	927.31
406.436	980.31
406.66	996.31
406.883	1005.31
407.107	1148.31
407.331	1202.31
407.555	1226.31
407.778	1122.31
408.002	994.31
408.226	956.31
408.449	956.31
408.673	951.31
408.896	921.31
409.12	972.31
409.344	929.31
409.567	938.31
409.791	941.31
410.014	946.31
410.238	1044.31
410.461	1053.31
410.685	954.31
410.908	928.31
411.132	937.31
411.355	932.31
411.578	920.31
411.802	930.31
412.025	966.31
412.249	925.31
412.472	903.31
412.695	917.31
412.919	928.31
413.142	915.31
413.365	919.31
413.589	940.31
413.812	996.31
414.035	986.31
414.258	928.31
414.482	933.31
414.705	950.31
414.928	907.31
415.151	906.31
415.374	902.31
415.597	945.31
415.821	936.31
416.044	925.31
416.267	951.31
416.49	916.31
416.713	899.31
416.936	960.31
417.159	962.31
417.382	960.31
417.605	926.31
417.828	961.31
418.051	963.31
418.274	960.31
418.497	912.31
418.72	931.31
418.943	920.31
419.166	953.31
419.389	971.31
419.611	932.31
419.834	914.31
420.057	937.31
420.28	933.31
420.503	917.31
420.726	910.31
420.948	946.31
421.171	913.31
421.394	932.31
421.617	1002.31
421.839	1003.31
422.062	966.31
422.285	920.31
422.507	929.31
422.73	904.31
422.953	873.31
423.175	873.31
423.398	897.31
423.621	899.31
423.843	925.31
424.066	963.31
424.288	990.31
424.511	1033.31
424.733	982.31
424.956	929.31
425.178	928.31
425.401	926.31
425.623	952.31
425.846	923.31
426.068	961.31
426.291	957.31
426.513	948.31
426.735	950.31
426.958	1028.31
427.18	1022.31
427.402	1007.31
427.625	990.31
427.847	1002.31
428.069	925.31
428.292	908.31
428.514	919.31
428.736	910.31
428.958	883.31
429.181	897.31
429.403	1059.31
429.625	1232.31
429.847	1024.31
430.069	930.31
430.292	1026.31
430.514	1017.31
430.736	961.31
430.958	986.31
431.18	911.31
431.402	844.31
431.624	851.31
431.846	798.31
432.068	717.31
432.29	762.31
432.512	818.31
432.734	883.31
432.956	920.31
433.178	938.31
433.4	940.31
433.622	938.31
433.844	915.31
434.066	851.31
434.287	788.31
434.509	768.31
434.731	836.31
434.953	931.31
435.175	952.31
435.397	926.31
435.618	871.31
435.84	860.31
436.062	864.31
436.284	898.31
436.505	948.31
436.727	946.31
436.949	931.31
437.17	887.31
437.392	864.31
437.614	828.31
437.835	792.31
438.057	798.31
438.278	836.31
438.5	868.31
438.721	897.31
438.943	916.31
439.165	936.31
439.386	922.31
439.608	961.31
439.829	950.31
440.05	924.31
440.272	944.31
440.493	928.31
440.715	959.31
440.936	1023.31
441.158	1040.31
441.379	1032.31
441.6	1046.31
441.822	1012.31
442.043	996.31
442.264	978.31
442.486	978.31
442.707	961.31
442.928	938.31
443.149	966.31
443.371	982.31
443.592	1000.31
443.813	1012.31
444.034	977.31
444.255	1008.31
444.476	1044.31
444.698	1032.31
444.919	1043.31
445.14	1101.31
445.361	1099.31
445.582	1054.31
445.803	1052.31
446.024	1036.31
446.245	1078.31
446.466	1047.31
446.687	1050.31
446.908	1082.31
447.129	1022.31
447.35	1004.31
447.571	1005.31
447.792	965.31
448.013	964.31
448.234	963.31
448.455	996.31
448.675	980.31
448.896	920.31
449.117	899.31
449.338	902.31
449.559	955.31
449.779	959.31
450	1011.31
450.221	1043.31
450.442	1015.31
450.662	930.31
450.883	889.31
451.104	890.31
451.324	874.31
451.545	870.31
451.766	843.31
451.986	850.31
452.207	828.31
452.428	803.31
452.648	790.31
452.869	777.31
453.089	790.31
453.31	792.31
453.53	768.31
453.751	725.31
453.971	696.31
454.192	717.31
454.412	795.31
454.633	774.31
454.853	787.31
455.073	738.31
455.294	775.31
455.514	778.31
455.734	759.31
455.955	754.31
456.175	793.31
456.395	729.31
456.616	739.31
456.836	738.31
457.056	708.31
457.276	717.31
457.497	694.31
457.717	688.31
457.937	695.31
458.157	724.31
458.377	686.31
458.598	678.31
458.818	683.31
459.038	697.31
459.258	716.31
459.478	730.31
459.698	689.31
459.918	758.31
460.138	799.31
460.358	837.31
460.578	808.31
460.798	864.31
461.018	894.31
461.238	878.31
461.458	841.31
461.678	827.31
461.898	810.31
462.118	837.31
462.338	851.31
462.558	825.31
462.777	841.31
462.997	867.31
463.217	876.31
463.437	865.31
463.657	849.31
463.876	837.31
464.096	825.31
464.316	829.31
464.536	858.31
464.755	885.31
464.975	905.31
465.195	867.31
465.414	848.31
465.634	856.31
465.854	885.31
466.073	974.31
466.293	906.31
466.512	858.31
466.732	865.31
466.951	886.31
467.171	886.31
467.391	891.31
467.61	873.31
467.829	896.31
468.049	930.31
468.268	1027.31
468.488	937.31
468.707	914.31
468.927	930.31
469.146	899.31
469.365	877.31
469.585	920.31
469.804	919.31
470.023	955.31
470.243	945.31
470.462	935.31
470.681	928.31
470.901	932.31
471.12	925.31
471.339	920.31
471.558	917.31
471.777	907.31
471.997	907.31
472.216	847.31
472.435	781.31
472.654	757.31
472.873	780.31
473.092	819.31
473.311	803.31
473.53	836.31
473.749	801.31
473.968	846.31
474.187	828.31
474.406	831.31
474.625	855.31
474.844	861.31
475.063	863.31
475.282	856.31
475.501	827.31
475.72	836.31
475.939	922.31
476.158	880.31
476.377	881.31
476.596	849.31
476.814	853.31
477.033	811.31
477.252	851.31
477.471	868.31
477.69	924.31
477.908	953.31
478.127	946.31
478.346	1001.31
478.564	1019.31
478.783	1000.31
479.002	1002.31
479.22	1037.31
479.439	1034.31
479.658	1048.31
479.876	995.31
480.095	862.31
480.313	890.31
480.532	900.31
480.751	844.31
480.969	829.31
481.188	813.31
481.406	800.31
481.624	761.31
481.843	788.31
482.061	807.31
482.28	871.31
482.498	872.31
482.717	849.31
482.935	884.31
483.153	968.31
483.372	1031.31
483.59	989.31
483.808	1003.31
484.027	953.31
484.245	999.31
484.463	1220.31
484.681	1296.31
484.9	1031.31
485.118	972.31
485.336	927.31
485.554	914.31
485.772	889.31
485.99	896.31
486.209	906.31
486.427	917.31
486.645	934.31
486.863	1005.31
487.081	1052.31
487.299	984.31
487.517	991.31
487.735	1143.31
487.953	1213.31
488.171	1166.31
488.389	1144.31
488.607	1102.31
488.825	1122.31
489.043	1048.31
489.261	990.31
489.479	1059.31
489.696	1039.31
489.914	1030.31
490.132	1020.31
490.35	1088.31
490.568	1172.31
490.786	1190.31
491.003	1195.31
491.221	1281.31
491.439	1278.31
491.657	1331.31
491.874	1392.31
492.092	1444.31
492.31	1491.31
492.527	1450.31
492.745	1363.31
492.963	1313.31
493.18	1312.31
493.398	1351.31
493.615	1333.31
493.833	1265.31
494.05	1253.31
494.268	1244.31
494.485	1227.31
494.703	1218.31
494.92	1234.31
495.138	1224.31
495.355	1266.31
495.573	1269.31
495.79	1268.31
496.008	1295.31
496.225	1204.31
496.442	1234.31
496.66	1229.31
496.877	1230.31
497.094	1221.31
497.312	1215.31
497.529	1190.31
497.746	1182.31
497.963	1254.31
498.181	1282.31
498.398	1264.31
498.615	1201.31
498.832	1152.31
499.049	1142.31
499.267	1172.31
499.484	1237.31
499.701	1354.31
499.918	1369.31
500.135	1504.31
500.352	1547.31
