Data from WStandard_LampEnergy8_LIBS07252019.E.O._I.C._HRD10591_15-59-37-929.txt Node
Date: Thu Jul 25 15:59:37 EDT 2019
User: cochatt
Spectrometer: HR+D1059
Trigger mode: 1
Integration Time (sec): 1.000000E-1
Scans to average: 1
Electric dark correction enabled: true
Nonlinearity correction enabled: false
Boxcar width: 0
XAxis mode: Wavelengths
Number of Pixels in Spectrum: 2048
>>>>>Begin Spectral Data<<<<<
223.165	-9.12
223.4	-9.12
223.635	-9.12
223.869	-5.12
224.104	-31.12
224.338	-7.12
224.573	-23.12
224.808	-4.12
225.042	1.88
225.277	-4.12
225.511	-5.12
225.746	-9.12
225.98	4.88
226.215	14.88
226.449	13.88
226.683	9.88
226.918	17.88
227.152	34.88
227.387	25.88
227.621	32.88
227.856	44.88
228.09	49.88
228.324	58.88
228.559	61.88
228.793	102.88
229.027	207.88
229.262	208.88
229.496	185.88
229.73	231.88
229.964	248.88
230.199	251.88
230.433	249.88
230.667	275.88
230.901	278.88
231.136	260.88
231.37	259.88
231.604	258.88
231.838	269.88
232.072	269.88
232.306	255.88
232.541	264.88
232.775	311.88
233.009	312.88
233.243	301.88
233.477	287.88
233.711	278.88
233.945	299.88
234.179	279.88
234.413	306.88
234.647	335.88
234.881	309.88
235.115	291.88
235.349	289.88
235.583	321.88
235.817	308.88
236.051	292.88
236.285	309.88
236.519	320.88
236.753	337.88
236.987	359.88
237.221	354.88
237.455	381.88
237.689	349.88
237.922	333.88
238.156	346.88
238.39	355.88
238.624	353.88
238.858	379.88
239.091	383.88
239.325	407.88
239.559	496.88
239.793	482.88
240.027	489.88
240.26	515.88
240.494	396.88
240.728	383.88
240.961	375.88
241.195	403.88
241.429	406.88
241.662	420.88
241.896	396.88
242.13	395.88
242.363	445.88
242.597	428.88
242.83	448.88
243.064	450.88
243.298	448.88
243.531	445.88
243.765	439.88
243.998	435.88
244.232	409.88
244.465	389.88
244.699	413.88
244.932	465.88
245.166	495.88
245.399	495.88
245.633	455.88
245.866	438.88
246.099	469.88
246.333	459.88
246.566	493.88
246.8	531.88
247.033	565.88
247.266	520.88
247.5	505.88
247.733	526.88
247.966	529.88
248.2	581.88
248.433	569.88
248.666	611.88
248.899	663.88
249.133	732.88
249.366	806.88
249.599	641.88
249.832	622.88
250.066	626.88
250.299	603.88
250.532	568.88
250.765	543.88
250.998	567.88
251.231	595.88
251.465	577.88
251.698	560.88
251.931	572.88
252.164	584.88
252.397	591.88
252.63	571.88
252.863	549.88
253.096	535.88
253.329	548.88
253.562	573.88
253.795	624.88
254.028	605.88
254.261	565.88
254.494	580.88
254.727	551.88
254.96	569.88
255.193	651.88
255.426	691.88
255.659	766.88
255.892	779.88
256.124	658.88
256.357	653.88
256.59	702.88
256.823	697.88
257.056	723.88
257.289	852.88
257.521	883.88
257.754	773.88
257.987	795.88
258.22	858.88
258.452	812.88
258.685	675.88
258.918	671.88
259.151	652.88
259.383	628.88
259.616	575.88
259.849	617.88
260.081	679.88
260.314	743.88
260.547	807.88
260.779	792.88
261.012	743.88
261.244	693.88
261.477	639.88
261.71	665.88
261.942	674.88
262.175	664.88
262.407	667.88
262.64	657.88
262.872	612.88
263.105	605.88
263.337	621.88
263.57	639.88
263.802	617.88
264.035	609.88
264.267	574.88
264.499	551.88
264.732	608.88
264.964	649.88
265.197	652.88
265.429	717.88
265.661	771.88
265.894	831.88
266.126	871.88
266.358	766.88
266.591	815.88
266.823	819.88
267.055	786.88
267.287	752.88
267.52	724.88
267.752	744.88
267.984	740.88
268.216	803.88
268.448	791.88
268.681	775.88
268.913	723.88
269.145	697.88
269.377	688.88
269.609	762.88
269.841	863.88
270.073	971.88
270.306	1087.88
270.538	1053.88
270.77	920.88
271.002	819.88
271.234	802.88
271.466	793.88
271.698	886.88
271.93	1051.88
272.162	1036.88
272.394	919.88
272.626	859.88
272.858	791.88
273.09	708.88
273.322	695.88
273.553	675.88
273.785	712.88
274.017	727.88
274.249	732.88
274.481	733.88
274.713	690.88
274.945	688.88
275.176	676.88
275.408	668.88
275.64	663.88
275.872	699.88
276.104	735.88
276.335	828.88
276.567	889.88
276.799	888.88
277.031	805.88
277.262	799.88
277.494	850.88
277.726	925.88
277.957	864.88
278.189	806.88
278.421	726.88
278.652	700.88
278.884	741.88
279.115	727.88
279.347	739.88
279.579	710.88
279.81	738.88
280.042	814.88
280.273	891.88
280.505	879.88
280.736	862.88
280.968	797.88
281.199	741.88
281.431	711.88
281.662	715.88
281.894	711.88
282.125	720.88
282.356	768.88
282.588	742.88
282.819	765.88
283.051	823.88
283.282	884.88
283.513	828.88
283.745	727.88
283.976	718.88
284.207	720.88
284.439	736.88
284.67	752.88
284.901	765.88
285.132	753.88
285.364	747.88
285.595	764.88
285.826	753.88
286.057	732.88
286.288	764.88
286.52	795.88
286.751	811.88
286.982	845.88
287.213	801.88
287.444	732.88
287.675	739.88
287.906	788.88
288.138	839.88
288.369	797.88
288.6	764.88
288.831	722.88
289.062	722.88
289.293	759.88
289.524	760.88
289.755	780.88
289.986	756.88
290.217	731.88
290.448	752.88
290.679	771.88
290.91	798.88
291.141	777.88
291.371	808.88
291.602	848.88
291.833	772.88
292.064	836.88
292.295	830.88
292.526	832.88
292.757	871.88
292.987	840.88
293.218	782.88
293.449	869.88
293.68	948.88
293.91	972.88
294.141	934.88
294.372	917.88
294.603	932.88
294.833	948.88
295.064	881.88
295.295	845.88
295.525	795.88
295.756	740.88
295.987	718.88
296.217	752.88
296.448	770.88
296.679	755.88
296.909	773.88
297.14	760.88
297.37	794.88
297.601	837.88
297.831	901.88
298.062	864.88
298.292	821.88
298.523	797.88
298.753	781.88
298.984	770.88
299.214	805.88
299.445	823.88
299.675	840.88
299.905	809.88
300.136	795.88
300.366	773.88
300.597	775.88
300.827	807.88
301.057	816.88
301.288	849.88
301.518	844.88
301.748	857.88
301.979	883.88
302.209	923.88
302.439	950.88
302.669	982.88
302.9	952.88
303.13	870.88
303.36	845.88
303.59	868.88
303.82	867.88
304.051	829.88
304.281	862.88
304.511	886.88
304.741	940.88
304.971	1005.88
305.201	1050.88
305.431	944.88
305.661	793.88
305.891	768.88
306.121	766.88
306.352	824.88
306.582	841.88
306.812	885.88
307.042	952.88
307.272	972.88
307.502	970.88
307.731	1062.88
307.961	1067.88
308.191	988.88
308.421	884.88
308.651	857.88
308.881	803.88
309.111	803.88
309.341	831.88
309.571	853.88
309.8	851.88
310.03	816.88
310.26	815.88
310.49	825.88
310.72	853.88
310.949	856.88
311.179	887.88
311.409	871.88
311.639	865.88
311.868	830.88
312.098	848.88
312.328	843.88
312.557	841.88
312.787	846.88
313.017	859.88
313.246	862.88
313.476	885.88
313.706	891.88
313.935	880.88
314.165	915.88
314.394	927.88
314.624	979.88
314.853	1022.88
315.083	1043.88
315.312	1077.88
315.542	982.88
315.771	936.88
316.001	908.88
316.23	943.88
316.46	959.88
316.689	928.88
316.919	876.88
317.148	872.88
317.377	864.88
317.607	963.88
317.836	1053.88
318.065	1065.88
318.295	995.88
318.524	943.88
318.753	917.88
318.983	952.88
319.212	917.88
319.441	893.88
319.67	916.88
319.9	939.88
320.129	967.88
320.358	1011.88
320.587	1017.88
320.816	1010.88
321.046	978.88
321.275	957.88
321.504	994.88
321.733	1032.88
321.962	987.88
322.191	941.88
322.42	903.88
322.649	923.88
322.878	913.88
323.108	923.88
323.337	967.88
323.566	978.88
323.795	962.88
324.024	934.88
324.253	932.88
324.482	945.88
324.71	901.88
324.939	885.88
325.168	915.88
325.397	924.88
325.626	941.88
325.855	939.88
326.084	928.88
326.313	925.88
326.542	958.88
326.77	965.88
326.999	958.88
327.228	927.88
327.457	888.88
327.686	888.88
327.914	901.88
328.143	946.88
328.372	943.88
328.6	936.88
328.829	940.88
329.058	893.88
329.287	915.88
329.515	926.88
329.744	957.88
329.972	999.88
330.201	1003.88
330.43	1011.88
330.658	993.88
330.887	978.88
331.115	986.88
331.344	995.88
331.572	971.88
331.801	939.88
332.03	973.88
332.258	963.88
332.486	1018.88
332.715	1012.88
332.943	1006.88
333.172	947.88
333.4	1030.88
333.629	1015.88
333.857	1095.88
334.085	1222.88
334.314	1379.88
334.542	1444.88
334.771	1278.88
334.999	1143.88
335.227	1041.88
335.455	1058.88
335.684	1060.88
335.912	1083.88
336.14	1084.88
336.369	1041.88
336.597	986.88
336.825	980.88
337.053	1020.88
337.281	1063.88
337.51	1147.88
337.738	1169.88
337.966	1134.88
338.194	1003.88
338.422	972.88
338.65	946.88
338.878	951.88
339.106	936.88
339.334	915.88
339.562	936.88
339.79	959.88
340.018	1011.88
340.246	1027.88
340.474	1000.88
340.702	1025.88
340.93	1022.88
341.158	1006.88
341.386	988.88
341.614	979.88
341.842	999.88
342.07	1018.88
342.298	1011.88
342.526	977.88
342.754	955.88
342.981	968.88
343.209	953.88
343.437	956.88
343.665	965.88
343.893	1007.88
344.12	1065.88
344.348	1025.88
344.576	993.88
344.804	957.88
345.031	975.88
345.259	995.88
345.487	931.88
345.714	936.88
345.942	907.88
346.17	937.88
346.397	968.88
346.625	944.88
346.853	910.88
347.08	884.88
347.308	898.88
347.535	930.88
347.763	942.88
347.99	909.88
348.218	877.88
348.445	902.88
348.673	909.88
348.9	931.88
349.128	981.88
349.355	1032.88
349.583	973.88
349.81	930.88
350.037	884.88
350.265	880.88
350.492	874.88
350.72	912.88
350.947	931.88
351.174	923.88
351.402	900.88
351.629	889.88
351.856	852.88
352.083	845.88
352.311	865.88
352.538	905.88
352.765	923.88
352.992	914.88
353.22	916.88
353.447	898.88
353.674	917.88
353.901	941.88
354.128	898.88
354.355	888.88
354.583	953.88
354.81	935.88
355.037	953.88
355.264	955.88
355.491	927.88
355.718	940.88
355.945	921.88
356.172	899.88
356.399	876.88
356.626	887.88
356.853	935.88
357.08	1024.88
357.307	1101.88
357.534	1106.88
357.761	921.88
357.988	879.88
358.215	850.88
358.441	881.88
358.668	889.88
358.895	921.88
359.122	965.88
359.349	1042.88
359.576	1004.88
359.802	934.88
360.029	903.88
360.256	864.88
360.483	924.88
360.709	951.88
360.936	967.88
361.163	1028.88
361.39	1099.88
361.616	1145.88
361.843	1169.88
362.07	1055.88
362.296	944.88
362.523	899.88
362.749	915.88
362.976	930.88
363.203	938.88
363.429	927.88
363.656	911.88
363.882	958.88
364.109	1063.88
364.335	1112.88
364.562	994.88
364.788	952.88
365.015	918.88
365.241	894.88
365.468	944.88
365.694	969.88
365.92	974.88
366.147	951.88
366.373	908.88
366.599	911.88
366.826	913.88
367.052	915.88
367.278	966.88
367.505	903.88
367.731	973.88
367.957	965.88
368.184	996.88
368.41	1048.88
368.636	1048.88
368.862	1064.88
369.089	1052.88
369.315	1036.88
369.541	976.88
369.767	957.88
369.993	926.88
370.219	922.88
370.445	950.88
370.672	1043.88
370.898	1056.88
371.124	1033.88
371.35	1001.88
371.576	1043.88
371.802	1037.88
372.028	998.88
372.254	955.88
372.48	953.88
372.706	922.88
372.932	980.88
373.158	940.88
373.384	944.88
373.61	1000.88
373.835	1011.88
374.061	983.88
374.287	981.88
374.513	980.88
374.739	1006.88
374.965	991.88
375.191	973.88
375.416	993.88
375.642	1029.88
375.868	1101.88
376.094	1108.88
376.319	1042.88
376.545	1007.88
376.771	1010.88
376.997	1075.88
377.222	1053.88
377.448	1006.88
377.674	1024.88
377.899	1071.88
378.125	1107.88
378.35	1063.88
378.576	985.88
378.802	942.88
379.027	941.88
379.253	935.88
379.478	969.88
379.704	996.88
379.929	973.88
380.155	983.88
380.38	995.88
380.606	1014.88
380.831	1031.88
381.057	1064.88
381.282	1069.88
381.507	1052.88
381.733	1124.88
381.958	1157.88
382.184	1064.88
382.409	1019.88
382.634	1021.88
382.86	1047.88
383.085	1017.88
383.31	1076.88
383.535	1181.88
383.761	1203.88
383.986	1135.88
384.211	1117.88
384.436	1135.88
384.662	1168.88
384.887	1237.88
385.112	1123.88
385.337	1121.88
385.562	1139.88
385.787	1101.88
386.013	1147.88
386.238	1145.88
386.463	1144.88
386.688	1219.88
386.913	1317.88
387.138	1236.88
387.363	1196.88
387.588	1204.88
387.813	1159.88
388.038	1180.88
388.263	1213.88
388.488	1127.88
388.713	1074.88
388.938	1093.88
389.163	1100.88
389.387	1120.88
389.612	1107.88
389.837	1152.88
390.062	1147.88
390.287	1143.88
390.512	1108.88
390.736	1101.88
390.961	1070.88
391.186	1056.88
391.411	1091.88
391.636	1136.88
391.86	1125.88
392.085	1139.88
392.31	1094.88
392.534	1111.88
392.759	1135.88
392.984	1150.88
393.208	1160.88
393.433	1156.88
393.658	1188.88
393.882	1180.88
394.107	1150.88
394.331	1129.88
394.556	1107.88
394.78	1124.88
395.005	1195.88
395.229	1227.88
395.454	1314.88
395.678	1277.88
395.903	1227.88
396.127	1208.88
396.352	1192.88
396.576	1264.88
396.801	1261.88
397.025	1263.88
397.249	1232.88
397.474	1231.88
397.698	1195.88
397.922	1275.88
398.147	1293.88
398.371	1405.88
398.595	1326.88
398.82	1291.88
399.044	1304.88
399.268	1362.88
399.492	1406.88
399.717	1477.88
399.941	1456.88
400.165	1477.88
400.389	1469.88
400.613	1446.88
400.837	1696.88
401.062	1856.88
401.286	1560.88
401.51	1442.88
401.734	1478.88
401.958	1406.88
402.182	1311.88
402.406	1290.88
402.63	1263.88
402.854	1293.88
403.078	1295.88
403.302	1319.88
403.526	1336.88
403.75	1329.88
403.974	1383.88
404.198	1393.88
404.422	1425.88
404.645	1466.88
404.869	1403.88
405.093	1332.88
405.317	1335.88
405.541	1318.88
405.765	1362.88
405.988	1342.88
406.212	1368.88
406.436	1400.88
406.66	1444.88
406.883	1502.88
407.107	1678.88
407.331	1808.88
407.555	1881.88
407.778	1653.88
408.002	1429.88
408.226	1425.88
408.449	1399.88
408.673	1347.88
408.896	1381.88
409.12	1369.88
409.344	1384.88
409.567	1327.88
409.791	1351.88
410.014	1363.88
410.238	1501.88
410.461	1521.88
410.685	1356.88
410.908	1335.88
411.132	1333.88
411.355	1320.88
411.578	1307.88
411.802	1301.88
412.025	1347.88
412.249	1352.88
412.472	1266.88
412.695	1285.88
412.919	1320.88
413.142	1269.88
413.365	1340.88
413.589	1351.88
413.812	1412.88
414.035	1424.88
414.258	1300.88
414.482	1305.88
414.705	1293.88
414.928	1308.88
415.151	1287.88
415.374	1330.88
415.597	1339.88
415.821	1336.88
416.044	1358.88
416.267	1365.88
416.49	1274.88
416.713	1229.88
416.936	1299.88
417.159	1379.88
417.382	1361.88
417.605	1299.88
417.828	1334.88
418.051	1310.88
418.274	1312.88
418.497	1249.88
418.72	1318.88
418.943	1265.88
419.166	1341.88
419.389	1367.88
419.611	1298.88
419.834	1276.88
420.057	1294.88
420.28	1267.88
420.503	1308.88
420.726	1311.88
420.948	1289.88
421.171	1279.88
421.394	1310.88
421.617	1361.88
421.839	1366.88
422.062	1339.88
422.285	1252.88
422.507	1256.88
422.73	1240.88
422.953	1224.88
423.175	1219.88
423.398	1248.88
423.621	1255.88
423.843	1295.88
424.066	1313.88
424.288	1346.88
424.511	1377.88
424.733	1386.88
424.956	1230.88
425.178	1231.88
425.401	1256.88
425.623	1267.88
425.846	1254.88
426.068	1280.88
426.291	1335.88
426.513	1310.88
426.735	1347.88
426.958	1428.88
427.18	1455.88
427.402	1369.88
427.625	1395.88
427.847	1392.88
428.069	1255.88
428.292	1254.88
428.514	1234.88
428.736	1226.88
428.958	1281.88
429.181	1270.88
429.403	1479.88
429.625	1736.88
429.847	1442.88
430.069	1341.88
430.292	1422.88
430.514	1429.88
430.736	1325.88
430.958	1356.88
431.18	1295.88
431.402	1241.88
431.624	1184.88
431.846	1191.88
432.068	1132.88
432.29	1115.88
432.512	1166.88
432.734	1275.88
432.956	1261.88
433.178	1326.88
433.4	1315.88
433.622	1297.88
433.844	1257.88
434.066	1189.88
434.287	1204.88
434.509	1173.88
434.731	1253.88
434.953	1366.88
435.175	1360.88
435.397	1284.88
435.618	1235.88
435.84	1228.88
436.062	1215.88
436.284	1264.88
436.505	1281.88
436.727	1303.88
436.949	1244.88
437.17	1225.88
437.392	1226.88
437.614	1235.88
437.835	1159.88
438.057	1211.88
438.278	1229.88
438.5	1227.88
438.721	1190.88
438.943	1271.88
439.165	1251.88
439.386	1226.88
439.608	1240.88
439.829	1239.88
440.05	1261.88
440.272	1244.88
440.493	1211.88
440.715	1267.88
440.936	1355.88
441.158	1420.88
441.379	1396.88
441.6	1353.88
441.822	1318.88
442.043	1307.88
442.264	1352.88
442.486	1263.88
442.707	1252.88
442.928	1251.88
443.149	1288.88
443.371	1354.88
443.592	1376.88
443.813	1351.88
444.034	1312.88
444.255	1355.88
444.476	1383.88
444.698	1396.88
444.919	1376.88
445.14	1531.88
445.361	1462.88
445.582	1475.88
445.803	1393.88
446.024	1362.88
446.245	1409.88
446.466	1391.88
446.687	1316.88
446.908	1323.88
447.129	1282.88
447.35	1307.88
447.571	1302.88
447.792	1231.88
448.013	1220.88
448.234	1259.88
448.455	1291.88
448.675	1309.88
448.896	1198.88
449.117	1185.88
449.338	1224.88
449.559	1279.88
449.779	1332.88
450	1402.88
450.221	1476.88
450.442	1450.88
450.662	1296.88
450.883	1193.88
451.104	1169.88
451.324	1184.88
451.545	1201.88
451.766	1166.88
451.986	1132.88
452.207	1119.88
452.428	1102.88
452.648	1124.88
452.869	1132.88
453.089	1149.88
453.31	1167.88
453.53	1167.88
453.751	1108.88
453.971	1033.88
454.192	1085.88
454.412	1140.88
454.633	1118.88
454.853	1096.88
455.073	1038.88
455.294	1096.88
455.514	1054.88
455.734	1079.88
455.955	1106.88
456.175	1090.88
456.395	1065.88
456.616	1100.88
456.836	1076.88
457.056	1057.88
457.276	1078.88
457.497	1041.88
457.717	1024.88
457.937	1043.88
458.157	1068.88
458.377	1041.88
458.598	1054.88
458.818	1028.88
459.038	1097.88
459.258	1144.88
459.478	1154.88
459.698	1095.88
459.918	1123.88
460.138	1158.88
460.358	1220.88
460.578	1242.88
460.798	1283.88
461.018	1348.88
461.238	1307.88
461.458	1236.88
461.678	1223.88
461.898	1215.88
462.118	1208.88
462.338	1264.88
462.558	1244.88
462.777	1275.88
462.997	1304.88
463.217	1337.88
463.437	1325.88
463.657	1265.88
463.876	1252.88
464.096	1213.88
464.316	1241.88
464.536	1263.88
464.755	1332.88
464.975	1289.88
465.195	1262.88
465.414	1305.88
465.634	1298.88
465.854	1292.88
466.073	1378.88
466.293	1340.88
466.512	1199.88
466.732	1174.88
466.951	1224.88
467.171	1232.88
467.391	1197.88
467.61	1180.88
467.829	1245.88
468.049	1305.88
468.268	1428.88
468.488	1333.88
468.707	1264.88
468.927	1218.88
469.146	1212.88
469.365	1204.88
469.585	1257.88
469.804	1232.88
470.023	1217.88
470.243	1219.88
470.462	1227.88
470.681	1188.88
470.901	1207.88
471.12	1229.88
471.339	1208.88
471.558	1201.88
471.777	1199.88
471.997	1237.88
472.216	1168.88
472.435	1115.88
472.654	1128.88
472.873	1155.88
473.092	1203.88
473.311	1206.88
473.53	1127.88
473.749	1133.88
473.968	1168.88
474.187	1193.88
474.406	1235.88
474.625	1188.88
474.844	1211.88
475.063	1205.88
475.282	1234.88
475.501	1209.88
475.72	1206.88
475.939	1274.88
476.158	1192.88
476.377	1204.88
476.596	1217.88
476.814	1221.88
477.033	1214.88
477.252	1287.88
477.471	1299.88
477.69	1268.88
477.908	1251.88
478.127	1364.88
478.346	1373.88
478.564	1399.88
478.783	1409.88
479.002	1451.88
479.22	1387.88
479.439	1435.88
479.658	1565.88
479.876	1527.88
480.095	1365.88
480.313	1312.88
480.532	1286.88
480.751	1300.88
480.969	1288.88
481.188	1298.88
481.406	1233.88
481.624	1214.88
481.843	1266.88
482.061	1279.88
482.28	1337.88
482.498	1339.88
482.717	1315.88
482.935	1304.88
483.153	1330.88
483.372	1397.88
483.59	1376.88
483.808	1363.88
484.027	1364.88
484.245	1456.88
484.463	1727.88
484.681	1879.88
484.9	1467.88
485.118	1350.88
485.336	1320.88
485.554	1373.88
485.772	1382.88
485.99	1375.88
486.209	1378.88
486.427	1375.88
486.645	1422.88
486.863	1421.88
487.081	1421.88
487.299	1486.88
487.517	1447.88
487.735	1470.88
487.953	1467.88
488.171	1509.88
488.389	1463.88
488.607	1469.88
488.825	1593.88
489.043	1535.88
489.261	1415.88
489.479	1449.88
489.696	1487.88
489.914	1467.88
490.132	1451.88
490.35	1432.88
490.568	1497.88
490.786	1497.88
491.003	1432.88
491.221	1545.88
491.439	1563.88
491.657	1564.88
491.874	1624.88
492.092	1679.88
492.31	1681.88
492.527	1664.88
492.745	1620.88
492.963	1566.88
493.18	1643.88
493.398	1730.88
493.615	1700.88
493.833	1611.88
