Data from WStandard_LampEnergy5.5LIBS07252019.E.O._I.C._HRD10591_16-08-07-922.txt Node
Date: Thu Jul 25 16:08:07 EDT 2019
User: cochatt
Spectrometer: HR+D1059
Trigger mode: 1
Integration Time (sec): 1.000000E-1
Scans to average: 1
Electric dark correction enabled: true
Nonlinearity correction enabled: false
Boxcar width: 0
XAxis mode: Wavelengths
Number of Pixels in Spectrum: 2048
>>>>>Begin Spectral Data<<<<<
223.165	-19.44
223.4	-19.44
223.635	-19.44
223.869	-26.44
224.104	-6.44
224.338	-27.44
224.573	-18.44
224.808	-11.44
225.042	2.56
225.277	9.56
225.511	-0.44
225.746	-11.44
225.98	-0.44
226.215	8.56
226.449	17.56
226.683	27.56
226.918	34.56
227.152	21.56
227.387	24.56
227.621	34.56
227.856	38.56
228.09	38.56
228.324	51.56
228.559	53.56
228.793	140.56
229.027	361.56
229.262	349.56
229.496	406.56
229.73	384.56
229.964	431.56
230.199	469.56
230.433	465.56
230.667	490.56
230.901	534.56
231.136	488.56
231.37	466.56
231.604	459.56
231.838	443.56
232.072	467.56
232.306	439.56
232.541	500.56
232.775	531.56
233.009	598.56
233.243	593.56
233.477	531.56
233.711	576.56
233.945	574.56
234.179	565.56
234.413	577.56
234.647	646.56
234.881	603.56
235.115	521.56
235.349	561.56
235.583	546.56
235.817	544.56
236.051	545.56
236.285	566.56
236.519	579.56
236.753	664.56
236.987	688.56
237.221	677.56
237.455	746.56
237.689	721.56
237.922	680.56
238.156	636.56
238.39	672.56
238.624	701.56
238.858	727.56
239.091	775.56
239.325	775.56
239.559	907.56
239.793	904.56
240.027	1028.56
240.26	1006.56
240.494	734.56
240.728	697.56
240.961	711.56
241.195	740.56
241.429	817.56
241.662	813.56
241.896	743.56
242.13	737.56
242.363	837.56
242.597	897.56
242.83	864.56
243.064	897.56
243.298	943.56
243.531	911.56
243.765	917.56
243.998	919.56
244.232	802.56
244.465	799.56
244.699	780.56
244.932	895.56
245.166	996.56
245.399	962.56
245.633	890.56
245.866	885.56
246.099	949.56
246.333	962.56
246.566	937.56
246.8	1041.56
247.033	1143.56
247.266	1101.56
247.5	1047.56
247.733	1033.56
247.966	1098.56
248.2	1201.56
248.433	1184.56
248.666	1210.56
248.899	1353.56
249.133	1515.56
249.366	1753.56
249.599	1400.56
249.832	1206.56
250.066	1277.56
250.299	1306.56
250.532	1208.56
250.765	1081.56
250.998	1125.56
251.231	1183.56
251.465	1232.56
251.698	1167.56
251.931	1140.56
252.164	1204.56
252.397	1260.56
252.63	1243.56
252.863	1119.56
253.096	1109.56
253.329	1140.56
253.562	1177.56
253.795	1278.56
254.028	1259.56
254.261	1181.56
254.494	1183.56
254.727	1092.56
254.96	1136.56
255.193	1233.56
255.426	1431.56
255.659	1640.56
255.892	1674.56
256.124	1366.56
256.357	1301.56
256.59	1456.56
256.823	1405.56
257.056	1405.56
257.289	1718.56
257.521	1910.56
257.754	1663.56
257.987	1594.56
258.22	1754.56
258.452	1745.56
258.685	1420.56
258.918	1405.56
259.151	1380.56
259.383	1329.56
259.616	1159.56
259.849	1246.56
260.081	1398.56
260.314	1545.56
260.547	1688.56
260.779	1737.56
261.012	1581.56
261.244	1490.56
261.477	1353.56
261.71	1405.56
261.942	1443.56
262.175	1402.56
262.407	1470.56
262.64	1377.56
262.872	1309.56
263.105	1239.56
263.337	1269.56
263.57	1287.56
263.802	1321.56
264.035	1234.56
264.267	1145.56
264.499	1118.56
264.732	1208.56
264.964	1266.56
265.197	1351.56
265.429	1389.56
265.661	1542.56
265.894	1728.56
266.126	1764.56
266.358	1629.56
266.591	1670.56
266.823	1774.56
267.055	1587.56
267.287	1589.56
267.52	1576.56
267.752	1555.56
267.984	1542.56
268.216	1627.56
268.448	1662.56
268.681	1615.56
268.913	1489.56
269.145	1455.56
269.377	1383.56
269.609	1477.56
269.841	1737.56
270.073	1994.56
270.306	2267.56
270.538	2447.56
270.77	2071.56
271.002	1713.56
271.234	1652.56
271.466	1657.56
271.698	1809.56
271.93	2211.56
272.162	2230.56
272.394	2019.56
272.626	1929.56
272.858	1667.56
273.09	1453.56
273.322	1432.56
273.553	1368.56
273.785	1377.56
274.017	1432.56
274.249	1585.56
274.481	1580.56
274.713	1438.56
274.945	1397.56
275.176	1438.56
275.408	1360.56
275.64	1410.56
275.872	1377.56
276.104	1431.56
276.335	1641.56
276.567	1913.56
276.799	1928.56
277.031	1716.56
277.262	1587.56
277.494	1661.56
277.726	1878.56
277.957	1815.56
278.189	1669.56
278.421	1516.56
278.652	1479.56
278.884	1444.56
279.115	1480.56
279.347	1483.56
279.579	1457.56
279.81	1415.56
280.042	1622.56
280.273	1799.56
280.505	1814.56
280.736	1833.56
280.968	1709.56
281.199	1541.56
281.431	1474.56
281.662	1444.56
281.894	1444.56
282.125	1442.56
282.356	1505.56
282.588	1561.56
282.819	1551.56
283.051	1650.56
283.282	1818.56
283.513	1771.56
283.745	1519.56
283.976	1413.56
284.207	1444.56
284.439	1465.56
284.67	1482.56
284.901	1532.56
285.132	1542.56
285.364	1541.56
285.595	1572.56
285.826	1538.56
286.057	1497.56
286.288	1453.56
286.52	1529.56
286.751	1688.56
286.982	1721.56
287.213	1581.56
287.444	1481.56
287.675	1472.56
287.906	1514.56
288.138	1669.56
288.369	1616.56
288.6	1475.56
288.831	1481.56
289.062	1476.56
289.293	1523.56
289.524	1528.56
289.755	1577.56
289.986	1597.56
290.217	1482.56
290.448	1494.56
290.679	1503.56
290.91	1537.56
291.141	1585.56
291.371	1621.56
291.602	1663.56
291.833	1589.56
292.064	1626.56
292.295	1629.56
292.526	1653.56
292.757	1751.56
292.987	1662.56
293.218	1553.56
293.449	1658.56
293.68	1871.56
293.91	2037.56
294.141	1859.56
294.372	1769.56
294.603	1802.56
294.833	1895.56
295.064	1854.56
295.295	1660.56
295.525	1612.56
295.756	1494.56
295.987	1389.56
296.217	1459.56
296.448	1475.56
296.679	1498.56
296.909	1513.56
297.14	1492.56
297.37	1496.56
297.601	1603.56
297.831	1715.56
298.062	1751.56
298.292	1550.56
298.523	1508.56
298.753	1517.56
298.984	1561.56
299.214	1544.56
299.445	1552.56
299.675	1610.56
299.905	1618.56
300.136	1567.56
300.366	1537.56
300.597	1476.56
300.827	1437.56
301.057	1541.56
301.288	1609.56
301.518	1637.56
301.748	1629.56
301.979	1714.56
302.209	1757.56
302.439	1864.56
302.669	1937.56
302.9	1855.56
303.13	1649.56
303.36	1602.56
303.59	1653.56
303.82	1669.56
304.051	1661.56
304.281	1606.56
304.511	1597.56
304.741	1679.56
304.971	1909.56
305.201	2069.56
305.431	1906.56
305.661	1581.56
305.891	1456.56
306.121	1426.56
306.352	1512.56
306.582	1574.56
306.812	1662.56
307.042	1808.56
307.272	1789.56
307.502	1830.56
307.731	1985.56
307.961	2146.56
308.191	2001.56
308.421	1731.56
308.651	1627.56
308.881	1597.56
309.111	1567.56
309.341	1558.56
309.571	1567.56
309.8	1586.56
310.03	1553.56
310.26	1538.56
310.49	1554.56
310.72	1552.56
310.949	1652.56
311.179	1700.56
311.409	1635.56
311.639	1613.56
311.868	1570.56
312.098	1605.56
312.328	1583.56
312.557	1589.56
312.787	1616.56
313.017	1630.56
313.246	1608.56
313.476	1616.56
313.706	1707.56
313.935	1696.56
314.165	1688.56
314.394	1747.56
314.624	1772.56
314.853	1898.56
315.083	1981.56
315.312	2089.56
315.542	1926.56
315.771	1699.56
316.001	1692.56
316.23	1823.56
316.46	1790.56
316.689	1761.56
316.919	1704.56
317.148	1641.56
317.377	1603.56
317.607	1756.56
317.836	1972.56
318.065	2022.56
318.295	1955.56
318.524	1873.56
318.753	1717.56
318.983	1790.56
319.212	1740.56
319.441	1700.56
319.67	1697.56
319.9	1723.56
320.129	1816.56
320.358	1904.56
320.587	1909.56
320.816	1931.56
321.046	1882.56
321.275	1780.56
321.504	1784.56
321.733	1916.56
321.962	1945.56
322.191	1719.56
322.42	1748.56
322.649	1698.56
322.878	1671.56
323.108	1726.56
323.337	1750.56
323.566	1803.56
323.795	1777.56
324.024	1807.56
324.253	1771.56
324.482	1800.56
324.71	1705.56
324.939	1656.56
325.168	1649.56
325.397	1713.56
325.626	1798.56
325.855	1856.56
326.084	1721.56
326.313	1738.56
326.542	1761.56
326.77	1777.56
326.999	1777.56
327.228	1755.56
327.457	1633.56
327.686	1639.56
327.914	1647.56
328.143	1715.56
328.372	1736.56
328.6	1714.56
328.829	1710.56
329.058	1683.56
329.287	1665.56
329.515	1724.56
329.744	1746.56
329.972	1853.56
330.201	1927.56
330.43	1886.56
330.658	1817.56
330.887	1830.56
331.115	1792.56
331.344	1873.56
331.572	1779.56
331.801	1803.56
332.03	1823.56
332.258	1810.56
332.486	1850.56
332.715	1839.56
332.943	1892.56
333.172	1806.56
333.4	1853.56
333.629	1861.56
333.857	1982.56
334.085	2206.56
334.314	2448.56
334.542	2757.56
334.771	2512.56
334.999	2218.56
335.227	2073.56
335.455	1966.56
335.684	1969.56
335.912	1973.56
336.14	2042.56
336.369	1959.56
336.597	1907.56
336.825	1843.56
337.053	1916.56
337.281	2017.56
337.51	2099.56
337.738	2159.56
337.966	2098.56
338.194	1888.56
338.422	1834.56
338.65	1808.56
338.878	1806.56
339.106	1794.56
339.334	1733.56
339.562	1729.56
339.79	1739.56
340.018	1848.56
340.246	1915.56
340.474	1931.56
340.702	1867.56
340.93	1905.56
341.158	1882.56
341.386	1818.56
341.614	1825.56
341.842	1804.56
342.07	1834.56
342.298	1832.56
342.526	1855.56
342.754	1793.56
342.981	1729.56
343.209	1811.56
343.437	1786.56
343.665	1819.56
343.893	1858.56
344.12	1930.56
344.348	1954.56
344.576	1835.56
344.804	1754.56
345.031	1755.56
345.259	1806.56
345.487	1756.56
345.714	1697.56
345.942	1656.56
346.17	1678.56
346.397	1688.56
346.625	1749.56
346.853	1661.56
347.08	1592.56
347.308	1583.56
347.535	1645.56
347.763	1736.56
347.99	1727.56
348.218	1641.56
348.445	1613.56
348.673	1654.56
348.9	1729.56
349.128	1768.56
349.355	1859.56
349.583	1800.56
349.81	1709.56
350.037	1569.56
350.265	1521.56
350.492	1603.56
350.72	1655.56
350.947	1679.56
351.174	1716.56
351.402	1655.56
351.629	1586.56
351.856	1555.56
352.083	1560.56
352.311	1552.56
352.538	1599.56
352.765	1663.56
352.992	1734.56
353.22	1658.56
353.447	1641.56
353.674	1620.56
353.901	1673.56
354.128	1602.56
354.355	1629.56
354.583	1669.56
354.81	1717.56
355.037	1702.56
355.264	1721.56
355.491	1638.56
355.718	1691.56
355.945	1687.56
356.172	1621.56
356.399	1569.56
356.626	1613.56
356.853	1635.56
357.08	1775.56
357.307	1950.56
357.534	1981.56
357.761	1735.56
357.988	1611.56
358.215	1534.56
358.441	1555.56
358.668	1591.56
358.895	1569.56
359.122	1677.56
359.349	1861.56
359.576	1868.56
359.802	1695.56
360.029	1590.56
360.256	1567.56
360.483	1608.56
360.709	1640.56
360.936	1712.56
361.163	1753.56
361.39	1919.56
361.616	2077.56
361.843	2006.56
362.07	1923.56
362.296	1677.56
362.523	1626.56
362.749	1663.56
362.976	1696.56
363.203	1717.56
363.429	1672.56
363.656	1613.56
363.882	1653.56
364.109	1816.56
364.335	2014.56
364.562	1841.56
364.788	1769.56
365.015	1686.56
365.241	1627.56
365.468	1641.56
365.694	1723.56
365.92	1771.56
366.147	1714.56
366.373	1603.56
366.599	1578.56
366.826	1559.56
367.052	1609.56
367.278	1647.56
367.505	1634.56
367.731	1687.56
367.957	1687.56
368.184	1744.56
368.41	1835.56
368.636	1841.56
368.862	1848.56
369.089	1866.56
369.315	1806.56
369.541	1749.56
369.767	1709.56
369.993	1650.56
370.219	1599.56
370.445	1667.56
370.672	1744.56
370.898	1828.56
371.124	1856.56
371.35	1738.56
371.576	1778.56
371.802	1862.56
372.028	1757.56
372.254	1716.56
372.48	1691.56
372.706	1653.56
372.932	1684.56
373.158	1681.56
373.384	1698.56
373.61	1756.56
373.835	1882.56
374.061	1762.56
374.287	1771.56
374.513	1760.56
374.739	1727.56
374.965	1766.56
375.191	1761.56
375.416	1813.56
375.642	1791.56
375.868	1875.56
376.094	1950.56
376.319	1866.56
376.545	1764.56
376.771	1772.56
376.997	1855.56
377.222	1810.56
377.448	1769.56
377.674	1809.56
377.899	1798.56
378.125	1895.56
378.35	1924.56
378.576	1736.56
378.802	1678.56
379.027	1700.56
379.253	1665.56
379.478	1702.56
379.704	1690.56
379.929	1755.56
380.155	1728.56
380.38	1718.56
380.606	1730.56
380.831	1721.56
381.057	1807.56
381.282	1847.56
381.507	1807.56
381.733	1870.56
381.958	1993.56
382.184	1839.56
382.409	1782.56
382.634	1809.56
382.86	1816.56
383.085	1785.56
383.31	1823.56
383.535	2010.56
383.761	2087.56
383.986	1971.56
384.211	1974.56
384.436	1920.56
384.662	2054.56
384.887	2074.56
385.112	1967.56
385.337	2007.56
385.562	1966.56
385.787	2022.56
386.013	2002.56
386.238	2014.56
386.463	1997.56
386.688	2089.56
386.913	2270.56
387.138	2231.56
387.363	2021.56
387.588	2029.56
387.813	2058.56
388.038	2081.56
388.263	2095.56
388.488	2057.56
388.713	1904.56
388.938	1854.56
389.163	1845.56
389.387	1937.56
389.612	1921.56
389.837	2017.56
390.062	1971.56
390.287	1978.56
390.512	1983.56
390.736	1969.56
390.961	1909.56
391.186	1892.56
391.411	1894.56
391.636	1961.56
391.86	1991.56
392.085	1939.56
392.31	1938.56
392.534	1970.56
392.759	1986.56
392.984	1962.56
393.208	1994.56
393.433	2052.56
393.658	2095.56
393.882	2127.56
394.107	1986.56
394.331	1969.56
394.556	2004.56
394.78	2022.56
395.005	2103.56
395.229	2103.56
395.454	2246.56
395.678	2313.56
395.903	2189.56
396.127	2062.56
396.352	2089.56
396.576	2150.56
396.801	2168.56
397.025	2186.56
397.249	2147.56
397.474	2154.56
397.698	2150.56
397.922	2158.56
398.147	2268.56
398.371	2355.56
398.595	2374.56
398.82	2250.56
399.044	2282.56
399.268	2388.56
399.492	2534.56
399.717	2629.56
399.941	2674.56
400.165	2610.56
400.389	2559.56
400.613	2505.56
400.837	2778.56
401.062	3158.56
401.286	2759.56
401.51	2517.56
401.734	2586.56
401.958	2490.56
402.182	2291.56
402.406	2223.56
402.63	2257.56
402.854	2226.56
403.078	2242.56
403.302	2362.56
403.526	2359.56
403.75	2379.56
403.974	2378.56
404.198	2392.56
404.422	2470.56
404.645	2519.56
404.869	2556.56
405.093	2294.56
405.317	2305.56
405.541	2345.56
405.765	2335.56
405.988	2407.56
406.212	2390.56
406.436	2453.56
406.66	2512.56
406.883	2542.56
407.107	2842.56
407.331	3051.56
407.555	3280.56
407.778	3084.56
408.002	2535.56
408.226	2485.56
408.449	2492.56
408.673	2425.56
408.896	2401.56
409.12	2453.56
409.344	2410.56
409.567	2343.56
409.791	2360.56
410.014	2374.56
410.238	2520.56
410.461	2709.56
410.685	2443.56
410.908	2291.56
411.132	2381.56
411.355	2314.56
411.578	2300.56
411.802	2297.56
412.025	2336.56
412.249	2313.56
412.472	2237.56
412.695	2181.56
412.919	2224.56
413.142	2245.56
413.365	2245.56
413.589	2289.56
413.812	2351.56
414.035	2456.56
414.258	2284.56
414.482	2256.56
414.705	2230.56
414.928	2217.56
415.151	2242.56
415.374	2243.56
415.597	2241.56
415.821	2285.56
416.044	2396.56
416.267	2392.56
416.49	2165.56
416.713	2141.56
416.936	2219.56
417.159	2326.56
417.382	2376.56
417.605	2219.56
417.828	2244.56
418.051	2338.56
418.274	2248.56
418.497	2181.56
418.72	2203.56
418.943	2141.56
419.166	2309.56
419.389	2373.56
419.611	2246.56
419.834	2209.56
420.057	2249.56
420.28	2155.56
420.503	2182.56
420.726	2222.56
420.948	2209.56
421.171	2165.56
421.394	2187.56
421.617	2245.56
421.839	2216.56
422.062	2181.56
422.285	2151.56
422.507	2123.56
422.73	2112.56
422.953	2100.56
423.175	2097.56
423.398	2170.56
423.621	2155.56
423.843	2187.56
424.066	2168.56
424.288	2283.56
424.511	2319.56
424.733	2299.56
424.956	2039.56
425.178	2065.56
425.401	2086.56
425.623	2111.56
425.846	2109.56
426.068	2206.56
426.291	2247.56
426.513	2191.56
426.735	2197.56
426.958	2304.56
427.18	2459.56
427.402	2237.56
427.625	2332.56
427.847	2374.56
428.069	2233.56
428.292	2155.56
428.514	2065.56
428.736	2047.56
428.958	2068.56
429.181	2097.56
429.403	2357.56
429.625	2933.56
429.847	2598.56
430.069	2159.56
430.292	2369.56
430.514	2477.56
430.736	2233.56
430.958	2324.56
431.18	2253.56
431.402	2107.56
431.624	2089.56
431.846	2102.56
432.068	2038.56
432.29	2069.56
432.512	2116.56
432.734	2170.56
432.956	2179.56
433.178	2281.56
433.4	2257.56
433.622	2251.56
433.844	2134.56
434.066	2073.56
434.287	2075.56
434.509	2143.56
434.731	2241.56
434.953	2392.56
435.175	2349.56
435.397	2209.56
435.618	2196.56
435.84	2272.56
436.062	2252.56
436.284	2197.56
436.505	2186.56
436.727	2209.56
436.949	2122.56
437.17	2128.56
437.392	2096.56
437.614	2117.56
437.835	2067.56
438.057	2189.56
438.278	2321.56
438.5	2133.56
438.721	2059.56
438.943	2104.56
439.165	2107.56
439.386	2033.56
439.608	2055.56
439.829	2074.56
440.05	2082.56
440.272	2053.56
440.493	2025.56
440.715	2095.56
440.936	2201.56
441.158	2447.56
441.379	2383.56
441.6	2291.56
441.822	2265.56
442.043	2225.56
442.264	2185.56
442.486	2142.56
442.707	2047.56
442.928	2102.56
443.149	2116.56
443.371	2290.56
443.592	2352.56
443.813	2275.56
444.034	2284.56
444.255	2305.56
444.476	2331.56
444.698	2399.56
444.919	2367.56
445.14	2467.56
445.361	2441.56
445.582	2488.56
445.803	2391.56
446.024	2264.56
446.245	2374.56
446.466	2268.56
446.687	2173.56
446.908	2164.56
447.129	2131.56
447.35	2147.56
447.571	2128.56
447.792	2047.56
448.013	2013.56
448.234	2101.56
448.455	2181.56
448.675	2205.56
448.896	1979.56
449.117	1953.56
449.338	2007.56
449.559	2127.56
449.779	2260.56
450	2449.56
450.221	2657.56
450.442	2548.56
450.662	2249.56
450.883	1989.56
451.104	1941.56
451.324	1981.56
451.545	2113.56
451.766	2061.56
451.986	1939.56
452.207	1945.56
452.428	1859.56
452.648	1860.56
452.869	1910.56
453.089	2023.56
453.31	2006.56
453.53	2121.56
453.751	2010.56
453.971	1909.56
454.192	1917.56
454.412	2069.56
454.633	2011.56
454.853	1953.56
455.073	1848.56
455.294	1808.56
455.514	1853.56
455.734	1847.56
455.955	1859.56
456.175	1850.56
456.395	1867.56
456.616	1932.56
456.836	1957.56
457.056	1911.56
457.276	1953.56
457.497	1837.56
457.717	1774.56
457.937	1833.56
458.157	1849.56
458.377	1827.56
458.598	1873.56
458.818	1845.56
459.038	2010.56
459.258	2127.56
459.478	2087.56
459.698	2055.56
459.918	2114.56
460.138	2191.56
460.358	2246.56
460.578	2251.56
460.798	2291.56
461.018	2456.56
461.238	2325.56
461.458	2210.56
461.678	2243.56
461.898	2205.56
462.118	2142.56
462.338	2219.56
462.558	2245.56
462.777	2226.56
462.997	2358.56
463.217	2519.56
463.437	2470.56
463.657	2243.56
463.876	2267.56
464.096	2279.56
464.316	2243.56
464.536	2325.56
464.755	2340.56
464.975	2372.56
465.195	2294.56
465.414	2371.56
465.634	2326.56
465.854	2215.56
466.073	2347.56
466.293	2319.56
466.512	2052.56
466.732	2035.56
466.951	2150.56
467.171	2134.56
467.391	2023.56
467.61	1993.56
467.829	2027.56
468.049	2187.56
468.268	2429.56
468.488	2277.56
468.707	2186.56
468.927	2099.56
469.146	2047.56
469.365	1989.56
469.585	2070.56
469.804	1991.56
470.023	2014.56
470.243	2105.56
470.462	2023.56
470.681	1986.56
470.901	2013.56
471.12	1996.56
471.339	2042.56
471.558	1976.56
471.777	1925.56
471.997	1993.56
472.216	2030.56
472.435	1924.56
472.654	1954.56
472.873	2053.56
473.092	2219.56
473.311	2106.56
473.53	1907.56
473.749	1971.56
473.968	2022.56
474.187	2104.56
474.406	2236.56
474.625	2113.56
474.844	2107.56
475.063	2054.56
475.282	2097.56
475.501	2082.56
475.72	2029.56
475.939	2167.56
476.158	2130.56
476.377	2074.56
476.596	2068.56
476.814	2154.56
477.033	2147.56
477.252	2249.56
477.471	2285.56
477.69	2172.56
477.908	2165.56
478.127	2281.56
478.346	2449.56
478.564	2480.56
478.783	2434.56
479.002	2525.56
479.22	2443.56
479.439	2530.56
479.658	2859.56
479.876	2847.56
480.095	2504.56
480.313	2417.56
480.532	2247.56
480.751	2301.56
480.969	2368.56
481.188	2314.56
481.406	2323.56
481.624	2237.56
481.843	2205.56
482.061	2323.56
482.28	2333.56
482.498	2413.56
482.717	2379.56
482.935	2283.56
483.153	2225.56
483.372	2276.56
483.59	2285.56
483.808	2278.56
484.027	2316.56
484.245	2531.56
484.463	2835.56
484.681	3277.56
484.9	2557.56
485.118	2359.56
485.336	2319.56
485.554	2386.56
485.772	2475.56
485.99	2432.56
486.209	2487.56
486.427	2417.56
486.645	2430.56
486.863	2396.56
487.081	2456.56
487.299	2499.56
487.517	2526.56
