Data from WStandard_LampEnergy5.5LIBS07252019.E.O._I.C._HRD10591_16-07-57-920.txt Node
Date: Thu Jul 25 16:07:57 EDT 2019
User: cochatt
Spectrometer: HR+D1059
Trigger mode: 1
Integration Time (sec): 1.000000E-1
Scans to average: 1
Electric dark correction enabled: true
Nonlinearity correction enabled: false
Boxcar width: 0
XAxis mode: Wavelengths
Number of Pixels in Spectrum: 2048
>>>>>Begin Spectral Data<<<<<
223.165	-18.44
223.4	-18.44
223.635	-18.44
223.869	-29.44
224.104	-18.44
224.338	-15.44
224.573	-5.44
224.808	-19.44
225.042	-22.44
225.277	-10.44
225.511	10.56
225.746	-3.44
225.98	13.56
226.215	15.56
226.449	28.56
226.683	13.56
226.918	21.56
227.152	39.56
227.387	30.56
227.621	48.56
227.856	65.56
228.09	53.56
228.324	50.56
228.559	65.56
228.793	152.56
229.027	377.56
229.262	387.56
229.496	411.56
229.73	408.56
229.964	448.56
230.199	468.56
230.433	473.56
230.667	500.56
230.901	533.56
231.136	501.56
231.37	473.56
231.604	483.56
231.838	487.56
232.072	493.56
232.306	457.56
232.541	466.56
232.775	579.56
233.009	620.56
233.243	581.56
233.477	530.56
233.711	538.56
233.945	577.56
234.179	540.56
234.413	608.56
234.647	640.56
234.881	618.56
235.115	579.56
235.349	570.56
235.583	582.56
235.817	577.56
236.051	546.56
236.285	575.56
236.519	604.56
236.753	671.56
236.987	665.56
237.221	673.56
237.455	741.56
237.689	732.56
237.922	689.56
238.156	665.56
238.39	681.56
238.624	729.56
238.858	770.56
239.091	782.56
239.325	811.56
239.559	949.56
239.793	997.56
240.027	1104.56
240.26	1077.56
240.494	798.56
240.728	749.56
240.961	741.56
241.195	752.56
241.429	860.56
241.662	851.56
241.896	790.56
242.13	749.56
242.363	852.56
242.597	929.56
242.83	902.56
243.064	908.56
243.298	974.56
243.531	962.56
243.765	933.56
243.998	966.56
244.232	824.56
244.465	794.56
244.699	813.56
244.932	906.56
245.166	1044.56
245.399	1018.56
245.633	927.56
245.866	896.56
246.099	956.56
246.333	971.56
246.566	988.56
246.8	1092.56
247.033	1226.56
247.266	1093.56
247.5	1074.56
247.733	1092.56
247.966	1155.56
248.2	1242.56
248.433	1226.56
248.666	1269.56
248.899	1383.56
249.133	1571.56
249.366	1812.56
249.599	1458.56
249.832	1280.56
250.066	1312.56
250.299	1350.56
250.532	1266.56
250.765	1111.56
250.998	1172.56
251.231	1221.56
251.465	1283.56
251.698	1196.56
251.931	1208.56
252.164	1212.56
252.397	1273.56
252.63	1310.56
252.863	1159.56
253.096	1110.56
253.329	1184.56
253.562	1193.56
253.795	1347.56
254.028	1281.56
254.261	1203.56
254.494	1194.56
254.727	1130.56
254.96	1165.56
255.193	1258.56
255.426	1469.56
255.659	1666.56
255.892	1718.56
256.124	1404.56
256.357	1345.56
256.59	1438.56
256.823	1458.56
257.056	1438.56
257.289	1724.56
257.521	1954.56
257.754	1766.56
257.987	1630.56
258.22	1818.56
258.452	1762.56
258.685	1435.56
258.918	1404.56
259.151	1424.56
259.383	1336.56
259.616	1210.56
259.849	1302.56
260.081	1435.56
260.314	1592.56
260.547	1733.56
260.779	1764.56
261.012	1650.56
261.244	1452.56
261.477	1370.56
261.71	1464.56
261.942	1456.56
262.175	1414.56
262.407	1497.56
262.64	1416.56
262.872	1320.56
263.105	1306.56
263.337	1309.56
263.57	1352.56
263.802	1319.56
264.035	1234.56
264.267	1185.56
264.499	1178.56
264.732	1228.56
264.964	1321.56
265.197	1407.56
265.429	1422.56
265.661	1619.56
265.894	1798.56
266.126	1846.56
266.358	1648.56
266.591	1695.56
266.823	1850.56
267.055	1660.56
267.287	1605.56
267.52	1578.56
267.752	1567.56
267.984	1596.56
268.216	1673.56
268.448	1771.56
268.681	1689.56
268.913	1533.56
269.145	1445.56
269.377	1418.56
269.609	1519.56
269.841	1762.56
270.073	2076.56
270.306	2322.56
270.538	2537.56
270.77	2086.56
271.002	1796.56
271.234	1701.56
271.466	1658.56
271.698	1870.56
271.93	2290.56
272.162	2302.56
272.394	2013.56
272.626	1954.56
272.858	1704.56
273.09	1515.56
273.322	1481.56
273.553	1397.56
273.785	1443.56
274.017	1509.56
274.249	1615.56
274.481	1633.56
274.713	1497.56
274.945	1461.56
275.176	1468.56
275.408	1465.56
275.64	1416.56
275.872	1404.56
276.104	1470.56
276.335	1689.56
276.567	1948.56
276.799	2001.56
277.031	1748.56
277.262	1630.56
277.494	1672.56
277.726	1914.56
277.957	1862.56
278.189	1727.56
278.421	1614.56
278.652	1510.56
278.884	1529.56
279.115	1510.56
279.347	1568.56
279.579	1499.56
279.81	1472.56
280.042	1633.56
280.273	1791.56
280.505	1860.56
280.736	1853.56
280.968	1768.56
281.199	1533.56
281.431	1502.56
281.662	1434.56
281.894	1456.56
282.125	1520.56
282.356	1577.56
282.588	1585.56
282.819	1580.56
283.051	1702.56
283.282	1828.56
283.513	1782.56
283.745	1546.56
283.976	1454.56
284.207	1460.56
284.439	1500.56
284.67	1534.56
284.901	1534.56
285.132	1587.56
285.364	1549.56
285.595	1535.56
285.826	1557.56
286.057	1520.56
286.288	1514.56
286.52	1589.56
286.751	1713.56
286.982	1789.56
287.213	1674.56
287.444	1480.56
287.675	1480.56
287.906	1541.56
288.138	1671.56
288.369	1635.56
288.6	1536.56
288.831	1495.56
289.062	1495.56
289.293	1554.56
289.524	1516.56
289.755	1586.56
289.986	1622.56
290.217	1483.56
290.448	1501.56
290.679	1575.56
290.91	1561.56
291.141	1564.56
291.371	1669.56
291.602	1641.56
291.833	1612.56
292.064	1703.56
292.295	1655.56
292.526	1669.56
292.757	1766.56
292.987	1698.56
293.218	1547.56
293.449	1693.56
293.68	1928.56
293.91	2088.56
294.141	1935.56
294.372	1791.56
294.603	1881.56
294.833	2022.56
295.064	1853.56
295.295	1657.56
295.525	1670.56
295.756	1552.56
295.987	1464.56
296.217	1500.56
296.448	1524.56
296.679	1522.56
296.909	1563.56
297.14	1536.56
297.37	1526.56
297.601	1636.56
297.831	1772.56
298.062	1777.56
298.292	1621.56
298.523	1587.56
298.753	1507.56
298.984	1540.56
299.214	1557.56
299.445	1576.56
299.675	1642.56
299.905	1634.56
300.136	1625.56
300.366	1588.56
300.597	1528.56
300.827	1501.56
301.057	1553.56
301.288	1658.56
301.518	1661.56
301.748	1707.56
301.979	1767.56
302.209	1818.56
302.439	1897.56
302.669	1978.56
302.9	1834.56
303.13	1689.56
303.36	1690.56
303.59	1704.56
303.82	1694.56
304.051	1655.56
304.281	1687.56
304.511	1682.56
304.741	1769.56
304.971	1957.56
305.201	2141.56
305.431	2033.56
305.661	1638.56
305.891	1495.56
306.121	1476.56
306.352	1494.56
306.582	1614.56
306.812	1741.56
307.042	1867.56
307.272	1858.56
307.502	1896.56
307.731	1997.56
307.961	2196.56
308.191	2054.56
308.421	1746.56
308.651	1638.56
308.881	1635.56
309.111	1600.56
309.341	1581.56
309.571	1608.56
309.8	1605.56
310.03	1557.56
310.26	1595.56
310.49	1584.56
310.72	1645.56
310.949	1721.56
311.179	1741.56
311.409	1693.56
311.639	1604.56
311.868	1604.56
312.098	1635.56
312.328	1645.56
312.557	1611.56
312.787	1656.56
313.017	1729.56
313.246	1693.56
313.476	1673.56
313.706	1735.56
313.935	1699.56
314.165	1748.56
314.394	1754.56
314.624	1844.56
314.853	1914.56
315.083	2060.56
315.312	2150.56
315.542	1989.56
315.771	1752.56
316.001	1741.56
316.23	1848.56
316.46	1858.56
316.689	1823.56
316.919	1687.56
317.148	1613.56
317.377	1655.56
317.607	1750.56
317.836	2033.56
318.065	2117.56
318.295	2016.56
318.524	1888.56
318.753	1873.56
318.983	1843.56
319.212	1768.56
319.441	1765.56
319.67	1738.56
319.9	1770.56
320.129	1878.56
320.358	1955.56
320.587	1988.56
320.816	1973.56
321.046	1906.56
321.275	1792.56
321.504	1848.56
321.733	1993.56
321.962	1928.56
322.191	1773.56
322.42	1761.56
322.649	1719.56
322.878	1750.56
323.108	1769.56
323.337	1808.56
323.566	1791.56
323.795	1794.56
324.024	1828.56
324.253	1725.56
324.482	1794.56
324.71	1771.56
324.939	1677.56
325.168	1709.56
325.397	1774.56
325.626	1812.56
325.855	1852.56
326.084	1749.56
326.313	1724.56
326.542	1776.56
326.77	1810.56
326.999	1836.56
327.228	1786.56
327.457	1686.56
327.686	1659.56
327.914	1735.56
328.143	1749.56
328.372	1763.56
328.6	1804.56
328.829	1752.56
329.058	1730.56
329.287	1745.56
329.515	1791.56
329.744	1795.56
329.972	1905.56
330.201	1957.56
330.43	1930.56
330.658	1831.56
330.887	1860.56
331.115	1842.56
331.344	1926.56
331.572	1864.56
331.801	1817.56
332.03	1833.56
332.258	1865.56
332.486	1879.56
332.715	1878.56
332.943	1885.56
333.172	1877.56
333.4	1896.56
333.629	1908.56
333.857	2002.56
334.085	2248.56
334.314	2523.56
334.542	2774.56
334.771	2596.56
334.999	2289.56
335.227	2127.56
335.455	1993.56
335.684	1996.56
335.912	2006.56
336.14	2106.56
336.369	2017.56
336.597	1925.56
336.825	1898.56
337.053	1992.56
337.281	2051.56
337.51	2086.56
337.738	2230.56
337.966	2144.56
338.194	1940.56
338.422	1848.56
338.65	1858.56
338.878	1819.56
339.106	1826.56
339.334	1769.56
339.562	1750.56
339.79	1771.56
340.018	1911.56
340.246	1995.56
340.474	1945.56
340.702	1916.56
340.93	1929.56
341.158	1883.56
341.386	1830.56
341.614	1884.56
341.842	1842.56
342.07	1838.56
342.298	1845.56
342.526	1874.56
342.754	1841.56
342.981	1812.56
343.209	1801.56
343.437	1785.56
343.665	1822.56
343.893	1892.56
344.12	1998.56
344.348	1993.56
344.576	1907.56
344.804	1822.56
345.031	1770.56
345.259	1850.56
345.487	1786.56
345.714	1712.56
345.942	1676.56
346.17	1693.56
346.397	1740.56
346.625	1796.56
346.853	1638.56
347.08	1627.56
347.308	1692.56
347.535	1694.56
347.763	1704.56
347.99	1735.56
348.218	1664.56
348.445	1669.56
348.673	1691.56
348.9	1741.56
349.128	1773.56
349.355	1865.56
349.583	1842.56
349.81	1744.56
350.037	1648.56
350.265	1580.56
350.492	1598.56
350.72	1611.56
350.947	1720.56
351.174	1772.56
351.402	1664.56
351.629	1576.56
351.856	1597.56
352.083	1594.56
352.311	1570.56
352.538	1642.56
352.765	1720.56
352.992	1792.56
353.22	1700.56
353.447	1624.56
353.674	1694.56
353.901	1698.56
354.128	1648.56
354.355	1650.56
354.583	1708.56
354.81	1746.56
355.037	1752.56
355.264	1749.56
355.491	1687.56
355.718	1772.56
355.945	1679.56
356.172	1656.56
356.399	1623.56
356.626	1627.56
356.853	1672.56
357.08	1812.56
357.307	2012.56
357.534	2020.56
357.761	1783.56
357.988	1631.56
358.215	1574.56
358.441	1604.56
358.668	1640.56
358.895	1637.56
359.122	1732.56
359.349	1874.56
359.576	1933.56
359.802	1710.56
360.029	1659.56
360.256	1595.56
360.483	1612.56
360.709	1694.56
360.936	1769.56
361.163	1805.56
361.39	1982.56
361.616	2098.56
361.843	2074.56
362.07	2015.56
362.296	1708.56
362.523	1658.56
362.749	1651.56
362.976	1718.56
363.203	1746.56
363.429	1657.56
363.656	1637.56
363.882	1651.56
364.109	1814.56
364.335	2010.56
364.562	1865.56
364.788	1834.56
365.015	1722.56
365.241	1641.56
365.468	1688.56
365.694	1764.56
365.92	1828.56
366.147	1800.56
366.373	1662.56
366.599	1653.56
366.826	1620.56
367.052	1654.56
367.278	1684.56
367.505	1682.56
367.731	1691.56
367.957	1706.56
368.184	1770.56
368.41	1820.56
368.636	1862.56
368.862	1897.56
369.089	1893.56
369.315	1858.56
369.541	1778.56
369.767	1715.56
369.993	1631.56
370.219	1637.56
370.445	1710.56
370.672	1813.56
370.898	1882.56
371.124	1870.56
371.35	1751.56
371.576	1809.56
371.802	1886.56
372.028	1857.56
372.254	1756.56
372.48	1684.56
372.706	1663.56
372.932	1694.56
373.158	1704.56
373.384	1735.56
373.61	1778.56
373.835	1893.56
374.061	1830.56
374.287	1732.56
374.513	1753.56
374.739	1829.56
374.965	1820.56
375.191	1789.56
375.416	1866.56
375.642	1817.56
375.868	1904.56
376.094	2009.56
376.319	1922.56
376.545	1759.56
376.771	1803.56
376.997	1901.56
377.222	1829.56
377.448	1837.56
377.674	1801.56
377.899	1813.56
378.125	1929.56
378.35	1921.56
378.576	1784.56
378.802	1736.56
379.027	1718.56
379.253	1731.56
379.478	1728.56
379.704	1748.56
379.929	1765.56
380.155	1755.56
380.38	1787.56
380.606	1829.56
380.831	1776.56
381.057	1820.56
381.282	1885.56
381.507	1824.56
381.733	1952.56
381.958	2062.56
382.184	1904.56
382.409	1807.56
382.634	1847.56
382.86	1804.56
383.085	1837.56
383.31	1896.56
383.535	2026.56
383.761	2153.56
383.986	2031.56
384.211	1970.56
384.436	1967.56
384.662	2052.56
384.887	2125.56
385.112	2024.56
385.337	2042.56
385.562	1976.56
385.787	2018.56
386.013	2134.56
386.238	2060.56
386.463	2056.56
386.688	2204.56
386.913	2304.56
387.138	2300.56
387.363	2098.56
387.588	2019.56
387.813	2062.56
388.038	2086.56
388.263	2155.56
388.488	2104.56
388.713	1933.56
388.938	1927.56
389.163	1957.56
389.387	1993.56
389.612	1928.56
389.837	2048.56
390.062	2033.56
390.287	2028.56
390.512	2001.56
390.736	1985.56
390.961	1968.56
391.186	1932.56
391.411	1919.56
391.636	2022.56
391.86	2037.56
392.085	2003.56
392.31	1975.56
392.534	1993.56
392.759	2044.56
392.984	2021.56
393.208	2034.56
393.433	2082.56
393.658	2154.56
393.882	2203.56
394.107	2080.56
394.331	1991.56
394.556	1997.56
394.78	2040.56
395.005	2108.56
395.229	2131.56
395.454	2275.56
395.678	2322.56
395.903	2261.56
396.127	2146.56
396.352	2150.56
396.576	2213.56
396.801	2213.56
397.025	2192.56
397.249	2174.56
397.474	2169.56
397.698	2171.56
397.922	2199.56
398.147	2344.56
398.371	2370.56
398.595	2385.56
398.82	2253.56
399.044	2349.56
399.268	2468.56
399.492	2588.56
399.717	2682.56
399.941	2718.56
400.165	2699.56
400.389	2610.56
400.613	2589.56
400.837	2787.56
401.062	3173.56
401.286	2825.56
401.51	2540.56
401.734	2644.56
401.958	2549.56
402.182	2352.56
402.406	2300.56
402.63	2265.56
402.854	2250.56
403.078	2314.56
403.302	2340.56
403.526	2362.56
403.75	2368.56
403.974	2385.56
404.198	2412.56
404.422	2452.56
404.645	2594.56
404.869	2544.56
405.093	2308.56
405.317	2336.56
405.541	2372.56
405.765	2406.56
405.988	2394.56
406.212	2480.56
406.436	2509.56
406.66	2576.56
406.883	2578.56
407.107	2908.56
407.331	3116.56
407.555	3370.56
407.778	3135.56
408.002	2584.56
408.226	2509.56
408.449	2555.56
408.673	2474.56
408.896	2454.56
409.12	2458.56
409.344	2473.56
409.567	2346.56
409.791	2381.56
410.014	2441.56
410.238	2516.56
410.461	2729.56
410.685	2449.56
410.908	2326.56
411.132	2384.56
411.355	2385.56
411.578	2309.56
411.802	2327.56
412.025	2391.56
412.249	2312.56
412.472	2272.56
412.695	2210.56
412.919	2285.56
413.142	2323.56
413.365	2304.56
413.589	2392.56
413.812	2405.56
414.035	2547.56
414.258	2348.56
414.482	2256.56
414.705	2307.56
414.928	2265.56
415.151	2296.56
415.374	2294.56
415.597	2360.56
415.821	2348.56
416.044	2462.56
416.267	2458.56
416.49	2195.56
416.713	2151.56
416.936	2224.56
417.159	2370.56
417.382	2341.56
417.605	2254.56
417.828	2314.56
418.051	2380.56
418.274	2267.56
418.497	2205.56
418.72	2227.56
418.943	2202.56
419.166	2319.56
419.389	2430.56
419.611	2272.56
419.834	2267.56
420.057	2265.56
420.28	2245.56
420.503	2201.56
420.726	2226.56
420.948	2219.56
421.171	2168.56
421.394	2229.56
421.617	2284.56
421.839	2275.56
422.062	2209.56
422.285	2188.56
422.507	2160.56
422.73	2112.56
422.953	2106.56
423.175	2123.56
423.398	2170.56
423.621	2170.56
423.843	2179.56
424.066	2205.56
424.288	2269.56
424.511	2330.56
424.733	2279.56
424.956	2110.56
425.178	2118.56
425.401	2123.56
425.623	2149.56
425.846	2106.56
426.068	2230.56
426.291	2268.56
426.513	2232.56
426.735	2255.56
426.958	2390.56
427.18	2540.56
427.402	2314.56
427.625	2378.56
427.847	2401.56
428.069	2211.56
428.292	2168.56
428.514	2097.56
428.736	2109.56
428.958	2144.56
429.181	2166.56
429.403	2347.56
429.625	2952.56
429.847	2625.56
430.069	2223.56
430.292	2420.56
430.514	2535.56
430.736	2281.56
430.958	2451.56
431.18	2339.56
431.402	2118.56
431.624	2124.56
431.846	2116.56
432.068	2070.56
432.29	2069.56
432.512	2147.56
432.734	2192.56
432.956	2230.56
433.178	2346.56
433.4	2312.56
433.622	2283.56
433.844	2188.56
434.066	2058.56
434.287	2102.56
434.509	2190.56
434.731	2258.56
434.953	2480.56
435.175	2398.56
435.397	2252.56
435.618	2279.56
435.84	2286.56
436.062	2215.56
436.284	2225.56
436.505	2186.56
436.727	2259.56
436.949	2259.56
437.17	2162.56
437.392	2133.56
437.614	2139.56
437.835	2040.56
438.057	2241.56
438.278	2329.56
438.5	2189.56
438.721	2069.56
438.943	2114.56
439.165	2123.56
439.386	2065.56
439.608	2098.56
439.829	2086.56
440.05	2138.56
440.272	2068.56
440.493	2068.56
440.715	2114.56
440.936	2252.56
441.158	2484.56
441.379	2423.56
441.6	2368.56
441.822	2339.56
442.043	2268.56
442.264	2214.56
442.486	2126.56
442.707	2100.56
442.928	2160.56
443.149	2230.56
443.371	2336.56
443.592	2430.56
443.813	2322.56
444.034	2322.56
444.255	2326.56
444.476	2373.56
444.698	2467.56
444.919	2369.56
445.14	2500.56
445.361	2486.56
445.582	2526.56
445.803	2418.56
446.024	2306.56
446.245	2443.56
446.466	2343.56
446.687	2235.56
446.908	2188.56
447.129	2184.56
447.35	2221.56
447.571	2220.56
447.792	2138.56
448.013	2108.56
448.234	2133.56
448.455	2209.56
448.675	2203.56
448.896	2048.56
449.117	2037.56
449.338	2073.56
449.559	2170.56
449.779	2309.56
450	2528.56
450.221	2722.56
450.442	2625.56
450.662	2322.56
450.883	2048.56
451.104	2004.56
451.324	2029.56
451.545	2096.56
451.766	2087.56
451.986	1994.56
452.207	2008.56
452.428	1960.56
452.648	1897.56
452.869	1947.56
453.089	2071.56
453.31	2097.56
453.53	2126.56
453.751	2061.56
453.971	1897.56
454.192	1998.56
454.412	2105.56
454.633	2064.56
454.853	1988.56
455.073	1878.56
455.294	1838.56
455.514	1886.56
455.734	1838.56
455.955	1900.56
456.175	1906.56
456.395	1922.56
456.616	1971.56
456.836	2029.56
457.056	1961.56
457.276	1951.56
457.497	1908.56
457.717	1831.56
457.937	1858.56
458.157	1911.56
458.377	1887.56
458.598	1890.56
458.818	1942.56
459.038	2060.56
459.258	2172.56
459.478	2166.56
459.698	2133.56
459.918	2115.56
460.138	2217.56
460.358	2298.56
460.578	2297.56
460.798	2381.56
461.018	2534.56
461.238	2414.56
461.458	2283.56
461.678	2280.56
461.898	2214.56
462.118	2207.56
462.338	2276.56
462.558	2285.56
462.777	2294.56
462.997	2386.56
463.217	2533.56
463.437	2535.56
463.657	2340.56
463.876	2332.56
464.096	2236.56
464.316	2279.56
464.536	2355.56
464.755	2374.56
464.975	2401.56
465.195	2343.56
465.414	2414.56
465.634	2394.56
465.854	2292.56
466.073	2393.56
466.293	2351.56
466.512	2100.56
466.732	2122.56
466.951	2207.56
467.171	2156.56
467.391	2092.56
467.61	2040.56
467.829	2080.56
468.049	2222.56
468.268	2493.56
468.488	2331.56
468.707	2226.56
468.927	2117.56
469.146	2077.56
469.365	1984.56
469.585	2109.56
469.804	2070.56
470.023	2096.56
470.243	2085.56
470.462	2108.56
470.681	2058.56
470.901	2061.56
471.12	2116.56
471.339	2037.56
471.558	1983.56
471.777	1982.56
471.997	2027.56
472.216	2006.56
472.435	1970.56
472.654	1994.56
472.873	2124.56
473.092	2198.56
473.311	2133.56
473.53	1997.56
473.749	2005.56
473.968	2046.56
474.187	2138.56
474.406	2279.56
474.625	2132.56
474.844	2122.56
475.063	2072.56
475.282	2170.56
475.501	2135.56
475.72	2095.56
475.939	2212.56
476.158	2173.56
476.377	2133.56
476.596	2157.56
476.814	2204.56
477.033	2171.56
477.252	2306.56
477.471	2345.56
477.69	2214.56
477.908	2180.56
478.127	2335.56
478.346	2500.56
478.564	2530.56
478.783	2470.56
479.002	2584.56
479.22	2488.56
479.439	2626.56
479.658	2906.56
479.876	2915.56
480.095	2549.56
480.313	2460.56
480.532	2267.56
480.751	2356.56
480.969	2405.56
481.188	2394.56
481.406	2337.56
481.624	2240.56
481.843	2278.56
482.061	2390.56
482.28	2401.56
482.498	2464.56
482.717	2411.56
482.935	2326.56
483.153	2359.56
483.372	2358.56
483.59	2303.56
483.808	2304.56
484.027	2374.56
484.245	2538.56
484.463	2893.56
484.681	3333.56
484.9	2580.56
485.118	2379.56
485.336	2324.56
485.554	2429.56
485.772	2627.56
485.99	2512.56
486.209	2535.56
486.427	2538.56
486.645	2525.56
486.863	2417.56
487.081	2533.56
487.299	2616.56
