Data from WStandard_LampEnergy8_LIBS07252019.E.O._I.C._HRD10591_15-58-04-929.txt Node
Date: Thu Jul 25 15:58:04 EDT 2019
User: cochatt
Spectrometer: HR+D1059
Trigger mode: 1
Integration Time (sec): 1.000000E-1
Scans to average: 1
Electric dark correction enabled: true
Nonlinearity correction enabled: false
Boxcar width: 0
XAxis mode: Wavelengths
Number of Pixels in Spectrum: 2048
>>>>>Begin Spectral Data<<<<<
223.165	-8.81
223.4	-8.81
223.635	-8.81
223.869	-23.81
224.104	-14.81
224.338	-7.81
224.573	-26.81
224.808	-5.81
225.042	-9.81
225.277	-3.81
225.511	-18.81
225.746	0.19
225.98	4.19
226.215	20.19
226.449	12.19
226.683	20.19
226.918	22.19
227.152	41.19
227.387	43.19
227.621	49.19
227.856	39.19
228.09	52.19
228.324	48.19
228.559	64.19
228.793	108.19
229.027	210.19
229.262	205.19
229.496	228.19
229.73	228.19
229.964	246.19
230.199	279.19
230.433	282.19
230.667	275.19
230.901	294.19
231.136	268.19
231.37	274.19
231.604	268.19
231.838	271.19
232.072	274.19
232.306	264.19
232.541	264.19
232.775	301.19
233.009	314.19
233.243	324.19
233.477	302.19
233.711	316.19
233.945	303.19
234.179	305.19
234.413	330.19
234.647	339.19
234.881	338.19
235.115	306.19
235.349	312.19
235.583	316.19
235.817	310.19
236.051	297.19
236.285	322.19
236.519	326.19
236.753	369.19
236.987	366.19
237.221	364.19
237.455	402.19
237.689	382.19
237.922	360.19
238.156	347.19
238.39	376.19
238.624	386.19
238.858	394.19
239.091	432.19
239.325	454.19
239.559	471.19
239.793	529.19
240.027	530.19
240.26	509.19
240.494	391.19
240.728	376.19
240.961	388.19
241.195	408.19
241.429	465.19
241.662	417.19
241.896	420.19
242.13	413.19
242.363	452.19
242.597	474.19
242.83	469.19
243.064	458.19
243.298	499.19
243.531	487.19
243.765	486.19
243.998	489.19
244.232	423.19
244.465	409.19
244.699	421.19
244.932	467.19
245.166	537.19
245.399	513.19
245.633	467.19
245.866	480.19
246.099	481.19
246.333	486.19
246.566	529.19
246.8	545.19
247.033	590.19
247.266	572.19
247.5	551.19
247.733	550.19
247.966	588.19
248.2	615.19
248.433	611.19
248.666	659.19
248.899	716.19
249.133	770.19
249.366	851.19
249.599	688.19
249.832	603.19
250.066	650.19
250.299	652.19
250.532	602.19
250.765	580.19
250.998	608.19
251.231	638.19
251.465	599.19
251.698	573.19
251.931	595.19
252.164	639.19
252.397	628.19
252.63	628.19
252.863	573.19
253.096	581.19
253.329	596.19
253.562	612.19
253.795	654.19
254.028	638.19
254.261	591.19
254.494	595.19
254.727	543.19
254.96	584.19
255.193	658.19
255.426	746.19
255.659	821.19
255.892	816.19
256.124	713.19
256.357	676.19
256.59	724.19
256.823	728.19
257.056	734.19
257.289	844.19
257.521	922.19
257.754	825.19
257.987	802.19
258.22	892.19
258.452	834.19
258.685	730.19
258.918	708.19
259.151	703.19
259.383	665.19
259.616	616.19
259.849	659.19
260.081	713.19
260.314	795.19
260.547	845.19
260.779	862.19
261.012	809.19
261.244	714.19
261.477	699.19
261.71	706.19
261.942	708.19
262.175	688.19
262.407	721.19
262.64	683.19
262.872	661.19
263.105	631.19
263.337	656.19
263.57	673.19
263.802	678.19
264.035	619.19
264.267	611.19
264.499	592.19
264.732	622.19
264.964	655.19
265.197	689.19
265.429	723.19
265.661	801.19
265.894	890.19
266.126	888.19
266.358	806.19
266.591	836.19
266.823	862.19
267.055	806.19
267.287	766.19
267.52	802.19
267.752	772.19
267.984	787.19
268.216	817.19
268.448	851.19
268.681	811.19
268.913	740.19
269.145	712.19
269.377	728.19
269.609	790.19
269.841	916.19
270.073	1044.19
270.306	1150.19
270.538	1160.19
270.77	999.19
271.002	872.19
271.234	854.19
271.466	857.19
271.698	962.19
271.93	1116.19
272.162	1087.19
272.394	999.19
272.626	923.19
272.858	818.19
273.09	756.19
273.322	723.19
273.553	685.19
273.785	725.19
274.017	749.19
274.249	787.19
274.481	798.19
274.713	707.19
274.945	708.19
275.176	713.19
275.408	694.19
275.64	710.19
275.872	701.19
276.104	747.19
276.335	824.19
276.567	952.19
276.799	909.19
277.031	862.19
277.262	830.19
277.494	870.19
277.726	924.19
277.957	900.19
278.189	840.19
278.421	774.19
278.652	782.19
278.884	758.19
279.115	765.19
279.347	786.19
279.579	751.19
279.81	777.19
280.042	833.19
280.273	909.19
280.505	918.19
280.736	906.19
280.968	847.19
281.199	782.19
281.431	752.19
281.662	749.19
281.894	737.19
282.125	777.19
282.356	798.19
282.588	806.19
282.819	811.19
283.051	864.19
283.282	900.19
283.513	888.19
283.745	797.19
283.976	740.19
284.207	724.19
284.439	758.19
284.67	797.19
284.901	822.19
285.132	813.19
285.364	783.19
285.595	764.19
285.826	800.19
286.057	785.19
286.288	806.19
286.52	835.19
286.751	880.19
286.982	890.19
287.213	814.19
287.444	734.19
287.675	745.19
287.906	820.19
288.138	865.19
288.369	836.19
288.6	768.19
288.831	749.19
289.062	763.19
289.293	798.19
289.524	805.19
289.755	819.19
289.986	799.19
290.217	781.19
290.448	777.19
290.679	799.19
290.91	806.19
291.141	817.19
291.371	848.19
291.602	836.19
291.833	843.19
292.064	841.19
292.295	839.19
292.526	873.19
292.757	881.19
292.987	869.19
293.218	825.19
293.449	897.19
293.68	1013.19
293.91	1052.19
294.141	969.19
294.372	953.19
294.603	992.19
294.833	1013.19
295.064	950.19
295.295	864.19
295.525	802.19
295.756	785.19
295.987	758.19
296.217	770.19
296.448	798.19
296.679	825.19
296.909	768.19
297.14	765.19
297.37	835.19
297.601	852.19
297.831	911.19
298.062	913.19
298.292	839.19
298.523	814.19
298.753	808.19
298.984	811.19
299.214	834.19
299.445	872.19
299.675	856.19
299.905	863.19
300.136	850.19
300.366	833.19
300.597	793.19
300.827	807.19
301.057	833.19
301.288	902.19
301.518	902.19
301.748	898.19
301.979	944.19
302.209	951.19
302.439	1005.19
302.669	1024.19
302.9	992.19
303.13	885.19
303.36	868.19
303.59	868.19
303.82	883.19
304.051	886.19
304.281	892.19
304.511	929.19
304.741	970.19
304.971	1033.19
305.201	1096.19
305.431	1019.19
305.661	852.19
305.891	769.19
306.121	783.19
306.352	821.19
306.582	866.19
306.812	948.19
307.042	981.19
307.272	997.19
307.502	1034.19
307.731	1097.19
307.961	1112.19
308.191	1024.19
308.421	894.19
308.651	858.19
308.881	889.19
309.111	860.19
309.341	836.19
309.571	869.19
309.8	859.19
310.03	842.19
310.26	844.19
310.49	827.19
310.72	875.19
310.949	919.19
311.179	904.19
311.409	895.19
311.639	872.19
311.868	881.19
312.098	859.19
312.328	849.19
312.557	852.19
312.787	902.19
313.017	900.19
313.246	883.19
313.476	890.19
313.706	928.19
313.935	916.19
314.165	954.19
314.394	958.19
314.624	1024.19
314.853	1035.19
315.083	1096.19
315.312	1095.19
315.542	1008.19
315.771	905.19
316.001	914.19
316.23	976.19
316.46	974.19
316.689	948.19
316.919	893.19
317.148	891.19
317.377	911.19
317.607	977.19
317.836	1141.19
318.065	1107.19
318.295	1054.19
318.524	1004.19
318.753	960.19
318.983	976.19
319.212	971.19
319.441	929.19
319.67	952.19
319.9	964.19
320.129	1006.19
320.358	1027.19
320.587	1064.19
320.816	1088.19
321.046	1042.19
321.275	1002.19
321.504	1005.19
321.733	1070.19
321.962	1001.19
322.191	967.19
322.42	948.19
322.649	916.19
322.878	949.19
323.108	958.19
323.337	1001.19
323.566	989.19
323.795	985.19
324.024	965.19
324.253	957.19
324.482	967.19
324.71	916.19
324.939	902.19
325.168	938.19
325.397	942.19
325.626	975.19
325.855	996.19
326.084	935.19
326.313	960.19
326.542	973.19
326.77	975.19
326.999	980.19
327.228	939.19
327.457	912.19
327.686	895.19
327.914	929.19
328.143	951.19
328.372	942.19
328.6	972.19
328.829	948.19
329.058	934.19
329.287	964.19
329.515	965.19
329.744	1016.19
329.972	1028.19
330.201	1058.19
330.43	1036.19
330.658	999.19
330.887	1021.19
331.115	1008.19
331.344	995.19
331.572	971.19
331.801	996.19
332.03	1016.19
332.258	1025.19
332.486	1039.19
332.715	1025.19
332.943	1042.19
333.172	1029.19
333.4	1012.19
333.629	1053.19
333.857	1128.19
334.085	1252.19
334.314	1414.19
334.542	1445.19
334.771	1324.19
334.999	1212.19
335.227	1098.19
335.455	1086.19
335.684	1067.19
335.912	1084.19
336.14	1099.19
336.369	1088.19
336.597	1045.19
336.825	1057.19
337.053	1073.19
337.281	1108.19
337.51	1173.19
337.738	1237.19
337.966	1125.19
338.194	1034.19
338.422	984.19
338.65	1020.19
338.878	971.19
339.106	955.19
339.334	931.19
339.562	948.19
339.79	984.19
340.018	1066.19
340.246	1065.19
340.474	1070.19
340.702	1083.19
340.93	1050.19
341.158	1014.19
341.386	1020.19
341.614	1008.19
341.842	1035.19
342.07	1006.19
342.298	995.19
342.526	1012.19
342.754	1015.19
342.981	983.19
343.209	996.19
343.437	968.19
343.665	998.19
343.893	1041.19
344.12	1082.19
344.348	1090.19
344.576	1003.19
344.804	1026.19
345.031	1008.19
345.259	982.19
345.487	976.19
345.714	935.19
345.942	956.19
346.17	904.19
346.397	985.19
346.625	986.19
346.853	900.19
347.08	914.19
347.308	947.19
347.535	934.19
347.763	961.19
347.99	939.19
348.218	913.19
348.445	962.19
348.673	972.19
348.9	984.19
349.128	999.19
349.355	1010.19
349.583	1035.19
349.81	955.19
350.037	875.19
350.265	888.19
350.492	886.19
350.72	937.19
350.947	996.19
351.174	966.19
351.402	913.19
351.629	882.19
351.856	866.19
352.083	871.19
352.311	894.19
352.538	952.19
352.765	966.19
352.992	1009.19
353.22	922.19
353.447	895.19
353.674	927.19
353.901	960.19
354.128	926.19
354.355	920.19
354.583	959.19
354.81	982.19
355.037	1001.19
355.264	993.19
355.491	942.19
355.718	946.19
355.945	921.19
356.172	917.19
356.399	917.19
356.626	916.19
356.853	956.19
357.08	1058.19
357.307	1122.19
357.534	1100.19
357.761	972.19
357.988	920.19
358.215	892.19
358.441	862.19
358.668	878.19
358.895	896.19
359.122	990.19
359.349	1107.19
359.576	1044.19
359.802	926.19
360.029	925.19
360.256	888.19
360.483	917.19
360.709	962.19
360.936	1011.19
361.163	1035.19
361.39	1102.19
361.616	1187.19
361.843	1148.19
362.07	1059.19
362.296	938.19
362.523	930.19
362.749	939.19
362.976	969.19
363.203	963.19
363.429	968.19
363.656	904.19
363.882	964.19
364.109	1065.19
364.335	1140.19
364.562	1043.19
364.788	1013.19
365.015	949.19
365.241	948.19
365.468	962.19
365.694	1003.19
365.92	1040.19
366.147	964.19
366.373	908.19
366.599	909.19
366.826	901.19
367.052	925.19
367.278	959.19
367.505	959.19
367.731	974.19
367.957	978.19
368.184	1030.19
368.41	1085.19
368.636	1101.19
368.862	1119.19
369.089	1094.19
369.315	1053.19
369.541	1001.19
369.767	961.19
369.993	957.19
370.219	955.19
370.445	989.19
370.672	1042.19
370.898	1056.19
371.124	1059.19
371.35	1011.19
371.576	1082.19
371.802	1074.19
372.028	1030.19
372.254	982.19
372.48	969.19
372.706	960.19
372.932	979.19
373.158	965.19
373.384	996.19
373.61	1037.19
373.835	1065.19
374.061	1032.19
374.287	980.19
374.513	1002.19
374.739	1019.19
374.965	1012.19
375.191	1044.19
375.416	1025.19
375.642	1053.19
375.868	1082.19
376.094	1128.19
376.319	1060.19
376.545	982.19
376.771	1059.19
376.997	1094.19
377.222	1068.19
377.448	1045.19
377.674	1055.19
377.899	1074.19
378.125	1121.19
378.35	1092.19
378.576	1025.19
378.802	979.19
379.027	963.19
379.253	997.19
379.478	973.19
379.704	997.19
379.929	1005.19
380.155	1028.19
380.38	1023.19
380.606	1025.19
380.831	1027.19
381.057	1092.19
381.282	1084.19
381.507	1066.19
381.733	1163.19
381.958	1160.19
382.184	1081.19
382.409	1055.19
382.634	1065.19
382.86	1059.19
383.085	1044.19
383.31	1091.19
383.535	1215.19
383.761	1224.19
383.986	1186.19
384.211	1139.19
384.436	1166.19
384.662	1216.19
384.887	1243.19
385.112	1180.19
385.337	1160.19
385.562	1164.19
385.787	1174.19
386.013	1208.19
386.238	1188.19
386.463	1176.19
386.688	1281.19
386.913	1314.19
387.138	1292.19
387.363	1184.19
387.588	1188.19
387.813	1181.19
388.038	1213.19
388.263	1237.19
388.488	1166.19
388.713	1127.19
388.938	1072.19
389.163	1102.19
389.387	1171.19
389.612	1116.19
389.837	1167.19
390.062	1152.19
390.287	1178.19
390.512	1146.19
390.736	1129.19
390.961	1114.19
391.186	1096.19
391.411	1114.19
391.636	1145.19
391.86	1158.19
392.085	1131.19
392.31	1152.19
392.534	1145.19
392.759	1155.19
392.984	1184.19
393.208	1158.19
393.433	1201.19
393.658	1243.19
393.882	1229.19
394.107	1184.19
394.331	1156.19
394.556	1159.19
394.78	1200.19
395.005	1209.19
395.229	1266.19
395.454	1335.19
395.678	1324.19
395.903	1243.19
396.127	1188.19
396.352	1264.19
396.576	1288.19
396.801	1264.19
397.025	1279.19
397.249	1249.19
397.474	1255.19
397.698	1225.19
397.922	1270.19
398.147	1372.19
398.371	1417.19
398.595	1376.19
398.82	1302.19
399.044	1366.19
399.268	1405.19
399.492	1500.19
399.717	1516.19
399.941	1531.19
400.165	1481.19
400.389	1486.19
400.613	1500.19
400.837	1665.19
401.062	1843.19
401.286	1587.19
401.51	1436.19
401.734	1492.19
401.958	1446.19
402.182	1353.19
402.406	1309.19
402.63	1278.19
402.854	1309.19
403.078	1331.19
403.302	1379.19
403.526	1350.19
403.75	1371.19
403.974	1401.19
404.198	1384.19
404.422	1444.19
404.645	1515.19
404.869	1445.19
405.093	1371.19
405.317	1337.19
405.541	1366.19
405.765	1385.19
405.988	1424.19
406.212	1416.19
406.436	1447.19
406.66	1461.19
406.883	1493.19
407.107	1704.19
407.331	1842.19
407.555	1964.19
407.778	1718.19
408.002	1469.19
408.226	1415.19
408.449	1450.19
408.673	1412.19
408.896	1433.19
409.12	1433.19
409.344	1393.19
409.567	1365.19
409.791	1368.19
410.014	1434.19
410.238	1491.19
410.461	1554.19
410.685	1408.19
410.908	1383.19
411.132	1394.19
411.355	1354.19
411.578	1349.19
411.802	1337.19
412.025	1350.19
412.249	1330.19
412.472	1350.19
412.695	1330.19
412.919	1337.19
413.142	1297.19
413.365	1348.19
413.589	1404.19
413.812	1436.19
414.035	1457.19
414.258	1313.19
414.482	1336.19
414.705	1338.19
414.928	1321.19
415.151	1328.19
415.374	1305.19
415.597	1348.19
415.821	1332.19
416.044	1351.19
416.267	1398.19
416.49	1302.19
416.713	1288.19
416.936	1326.19
417.159	1426.19
417.382	1394.19
417.605	1316.19
417.828	1326.19
418.051	1377.19
418.274	1324.19
418.497	1323.19
418.72	1305.19
418.943	1290.19
419.166	1350.19
419.389	1379.19
419.611	1327.19
419.834	1316.19
420.057	1317.19
420.28	1294.19
420.503	1290.19
420.726	1320.19
420.948	1295.19
421.171	1296.19
421.394	1331.19
421.617	1366.19
421.839	1366.19
422.062	1337.19
422.285	1280.19
422.507	1316.19
422.73	1260.19
422.953	1223.19
423.175	1256.19
423.398	1310.19
423.621	1304.19
423.843	1298.19
424.066	1344.19
424.288	1382.19
424.511	1433.19
424.733	1349.19
424.956	1273.19
425.178	1262.19
425.401	1273.19
425.623	1288.19
425.846	1273.19
426.068	1357.19
426.291	1373.19
426.513	1316.19
426.735	1344.19
426.958	1462.19
427.18	1532.19
427.402	1397.19
427.625	1444.19
427.847	1411.19
428.069	1311.19
428.292	1285.19
428.514	1241.19
428.736	1259.19
428.958	1260.19
429.181	1300.19
429.403	1477.19
429.625	1788.19
429.847	1509.19
430.069	1345.19
430.292	1483.19
430.514	1452.19
430.736	1380.19
430.958	1391.19
431.18	1312.19
431.402	1280.19
431.624	1234.19
431.846	1217.19
432.068	1156.19
432.29	1155.19
432.512	1176.19
432.734	1245.19
432.956	1292.19
433.178	1358.19
433.4	1320.19
433.622	1325.19
433.844	1246.19
434.066	1195.19
434.287	1194.19
434.509	1200.19
434.731	1288.19
434.953	1410.19
435.175	1359.19
435.397	1320.19
435.618	1290.19
435.84	1278.19
436.062	1235.19
436.284	1255.19
436.505	1314.19
436.727	1366.19
436.949	1276.19
437.17	1282.19
437.392	1282.19
437.614	1233.19
437.835	1196.19
438.057	1282.19
438.278	1290.19
438.5	1248.19
438.721	1202.19
438.943	1282.19
439.165	1298.19
439.386	1225.19
439.608	1277.19
439.829	1266.19
440.05	1254.19
440.272	1220.19
440.493	1246.19
440.715	1270.19
440.936	1351.19
441.158	1453.19
441.379	1418.19
441.6	1409.19
441.822	1372.19
442.043	1350.19
442.264	1317.19
442.486	1256.19
442.707	1258.19
442.928	1298.19
443.149	1295.19
443.371	1383.19
443.592	1399.19
443.813	1392.19
444.034	1376.19
444.255	1355.19
444.476	1401.19
444.698	1428.19
444.919	1418.19
445.14	1500.19
445.361	1492.19
445.582	1492.19
445.803	1428.19
446.024	1423.19
446.245	1452.19
446.466	1426.19
446.687	1346.19
446.908	1379.19
447.129	1330.19
447.35	1363.19
447.571	1318.19
447.792	1283.19
448.013	1246.19
448.234	1256.19
448.455	1340.19
448.675	1319.19
448.896	1250.19
449.117	1192.19
449.338	1226.19
449.559	1293.19
449.779	1346.19
450	1451.19
450.221	1502.19
450.442	1468.19
450.662	1347.19
450.883	1180.19
451.104	1165.19
451.324	1201.19
451.545	1235.19
451.766	1188.19
451.986	1150.19
452.207	1153.19
452.428	1152.19
452.648	1130.19
452.869	1147.19
453.089	1172.19
453.31	1154.19
453.53	1159.19
453.751	1137.19
453.971	1069.19
454.192	1133.19
454.412	1147.19
454.633	1181.19
454.853	1132.19
455.073	1093.19
455.294	1082.19
455.514	1082.19
455.734	1081.19
455.955	1073.19
456.175	1091.19
456.395	1088.19
456.616	1115.19
456.836	1136.19
457.056	1088.19
457.276	1096.19
457.497	1054.19
457.717	1056.19
457.937	1068.19
458.157	1091.19
458.377	1063.19
458.598	1034.19
458.818	1065.19
459.038	1157.19
459.258	1192.19
459.478	1142.19
459.698	1130.19
459.918	1170.19
460.138	1223.19
460.358	1268.19
460.578	1237.19
460.798	1288.19
461.018	1355.19
461.238	1347.19
461.458	1290.19
461.678	1280.19
461.898	1260.19
462.118	1205.19
462.338	1276.19
462.558	1266.19
462.777	1283.19
462.997	1332.19
463.217	1373.19
463.437	1373.19
463.657	1301.19
463.876	1274.19
464.096	1258.19
464.316	1261.19
464.536	1329.19
464.755	1318.19
464.975	1292.19
465.195	1297.19
465.414	1322.19
465.634	1323.19
465.854	1316.19
466.073	1432.19
466.293	1320.19
466.512	1218.19
466.732	1229.19
466.951	1277.19
467.171	1269.19
467.391	1230.19
467.61	1198.19
467.829	1228.19
468.049	1345.19
468.268	1470.19
468.488	1382.19
468.707	1273.19
468.927	1257.19
469.146	1244.19
469.365	1244.19
469.585	1273.19
469.804	1248.19
470.023	1254.19
470.243	1236.19
470.462	1241.19
470.681	1218.19
470.901	1258.19
471.12	1229.19
471.339	1261.19
471.558	1246.19
471.777	1196.19
471.997	1230.19
472.216	1186.19
472.435	1144.19
472.654	1127.19
472.873	1193.19
473.092	1282.19
473.311	1198.19
473.53	1175.19
473.749	1185.19
473.968	1193.19
474.187	1214.19
474.406	1268.19
474.625	1219.19
474.844	1249.19
475.063	1270.19
475.282	1227.19
475.501	1236.19
475.72	1233.19
475.939	1287.19
476.158	1283.19
476.377	1246.19
476.596	1237.19
476.814	1237.19
477.033	1238.19
477.252	1288.19
477.471	1321.19
477.69	1265.19
477.908	1268.19
478.127	1380.19
478.346	1458.19
478.564	1458.19
478.783	1449.19
479.002	1473.19
479.22	1445.19
479.439	1486.19
479.658	1629.19
479.876	1558.19
480.095	1411.19
480.313	1348.19
480.532	1280.19
480.751	1349.19
480.969	1340.19
481.188	1301.19
481.406	1267.19
481.624	1253.19
481.843	1267.19
482.061	1292.19
482.28	1333.19
482.498	1362.19
482.717	1343.19
482.935	1314.19
483.153	1411.19
483.372	1386.19
483.59	1373.19
483.808	1380.19
484.027	1370.19
484.245	1494.19
484.463	1815.19
484.681	1907.19
484.9	1464.19
485.118	1379.19
485.336	1380.19
485.554	1397.19
485.772	1409.19
485.99	1365.19
486.209	1427.19
486.427	1403.19
486.645	1415.19
486.863	1429.19
487.081	1469.19
487.299	1489.19
487.517	1488.19
487.735	1489.19
487.953	1517.19
488.171	1510.19
488.389	1487.19
488.607	1458.19
488.825	1645.19
489.043	1584.19
489.261	1434.19
489.479	1489.19
489.696	1470.19
489.914	1451.19
490.132	1446.19
490.35	1463.19
490.568	1530.19
490.786	1545.19
491.003	1536.19
491.221	1568.19
491.439	1630.19
491.657	1622.19
491.874	1655.19
492.092	1662.19
492.31	1726.19
492.527	1701.19
492.745	1621.19
492.963	1589.19
493.18	1634.19
