Data from WStandard_LampEnergy10_LIBS07252019.E.O._I.C._HRD10591_15-54-04-928.txt Node
Date: Thu Jul 25 15:54:04 EDT 2019
User: cochatt
Spectrometer: HR+D1059
Trigger mode: 1
Integration Time (sec): 1.000000E-1
Scans to average: 1
Electric dark correction enabled: true
Nonlinearity correction enabled: false
Boxcar width: 0
XAxis mode: Wavelengths
Number of Pixels in Spectrum: 2048
>>>>>Begin Spectral Data<<<<<
223.165	-20.12
223.4	-20.12
223.635	-20.12
223.869	-20.12
224.104	-17.12
224.338	-12.12
224.573	-5.12
224.808	-3.12
225.042	-10.12
225.277	-4.12
225.511	1.88
225.746	4.88
225.98	5.88
226.215	4.88
226.449	10.88
226.683	18.88
226.918	21.88
227.152	22.88
227.387	32.88
227.621	49.88
227.856	53.88
228.09	43.88
228.324	49.88
228.559	73.88
228.793	84.88
229.027	143.88
229.262	143.88
229.496	164.88
229.73	165.88
229.964	158.88
230.199	160.88
230.433	178.88
230.667	187.88
230.901	199.88
231.136	195.88
231.37	178.88
231.604	169.88
231.838	187.88
232.072	177.88
232.306	173.88
232.541	187.88
232.775	211.88
233.009	213.88
233.243	201.88
233.477	179.88
233.711	203.88
233.945	201.88
234.179	203.88
234.413	209.88
234.647	233.88
234.881	219.88
235.115	216.88
235.349	196.88
235.583	179.88
235.817	190.88
236.051	178.88
236.285	202.88
236.519	203.88
236.753	218.88
236.987	235.88
237.221	235.88
237.455	250.88
237.689	235.88
237.922	245.88
238.156	211.88
238.39	232.88
238.624	250.88
238.858	253.88
239.091	231.88
239.325	271.88
239.559	278.88
239.793	303.88
240.027	297.88
240.26	281.88
240.494	251.88
240.728	237.88
240.961	238.88
241.195	243.88
241.429	269.88
241.662	283.88
241.896	247.88
242.13	262.88
242.363	275.88
242.597	284.88
242.83	267.88
243.064	285.88
243.298	292.88
243.531	285.88
243.765	297.88
243.998	299.88
244.232	260.88
244.465	258.88
244.699	257.88
244.932	296.88
245.166	313.88
245.399	280.88
245.633	289.88
245.866	282.88
246.099	302.88
246.333	281.88
246.566	305.88
246.8	340.88
247.033	349.88
247.266	325.88
247.5	328.88
247.733	319.88
247.966	331.88
248.2	361.88
248.433	362.88
248.666	385.88
248.899	402.88
249.133	418.88
249.366	477.88
249.599	408.88
249.832	378.88
250.066	373.88
250.299	378.88
250.532	358.88
250.765	337.88
250.998	330.88
251.231	360.88
251.465	347.88
251.698	351.88
251.931	342.88
252.164	347.88
252.397	363.88
252.63	370.88
252.863	335.88
253.096	314.88
253.329	347.88
253.562	352.88
253.795	367.88
254.028	349.88
254.261	326.88
254.494	347.88
254.727	343.88
254.96	355.88
255.193	386.88
255.426	427.88
255.659	465.88
255.892	434.88
256.124	415.88
256.357	379.88
256.59	410.88
256.823	387.88
257.056	415.88
257.289	491.88
257.521	531.88
257.754	453.88
257.987	425.88
258.22	499.88
258.452	487.88
258.685	417.88
258.918	398.88
259.151	418.88
259.383	387.88
259.616	359.88
259.849	366.88
260.081	401.88
260.314	456.88
260.547	486.88
260.779	461.88
261.012	440.88
261.244	417.88
261.477	393.88
261.71	406.88
261.942	412.88
262.175	404.88
262.407	412.88
262.64	401.88
262.872	397.88
263.105	373.88
263.337	374.88
263.57	365.88
263.802	377.88
264.035	356.88
264.267	351.88
264.499	345.88
264.732	364.88
264.964	387.88
265.197	418.88
265.429	415.88
265.661	477.88
265.894	499.88
266.126	482.88
266.358	476.88
266.591	493.88
266.823	517.88
267.055	468.88
267.287	438.88
267.52	478.88
267.752	427.88
267.984	460.88
268.216	466.88
268.448	462.88
268.681	444.88
268.913	422.88
269.145	421.88
269.377	418.88
269.609	460.88
269.841	535.88
270.073	587.88
270.306	645.88
270.538	637.88
270.77	563.88
271.002	503.88
271.234	488.88
271.466	502.88
271.698	529.88
271.93	603.88
272.162	602.88
272.394	552.88
272.626	517.88
272.858	464.88
273.09	417.88
273.322	423.88
273.553	381.88
273.785	399.88
274.017	423.88
274.249	435.88
274.481	434.88
274.713	405.88
274.945	433.88
275.176	403.88
275.408	425.88
275.64	411.88
275.872	409.88
276.104	429.88
276.335	502.88
276.567	527.88
276.799	549.88
277.031	494.88
277.262	475.88
277.494	506.88
277.726	541.88
277.957	546.88
278.189	485.88
278.421	433.88
278.652	413.88
278.884	429.88
279.115	448.88
279.347	441.88
279.579	435.88
279.81	453.88
280.042	492.88
280.273	537.88
280.505	531.88
280.736	514.88
280.968	482.88
281.199	446.88
281.431	414.88
281.662	449.88
281.894	437.88
282.125	450.88
282.356	451.88
282.588	458.88
282.819	436.88
283.051	505.88
283.282	524.88
283.513	505.88
283.745	453.88
283.976	429.88
284.207	435.88
284.439	439.88
284.67	467.88
284.901	469.88
285.132	465.88
285.364	477.88
285.595	474.88
285.826	465.88
286.057	456.88
286.288	463.88
286.52	479.88
286.751	497.88
286.982	486.88
287.213	439.88
287.444	433.88
287.675	459.88
287.906	483.88
288.138	507.88
288.369	493.88
288.6	457.88
288.831	433.88
289.062	440.88
289.293	469.88
289.524	478.88
289.755	459.88
289.986	464.88
290.217	437.88
290.448	443.88
290.679	469.88
290.91	475.88
291.141	487.88
291.371	505.88
291.602	481.88
291.833	511.88
292.064	501.88
292.295	484.88
292.526	491.88
292.757	543.88
292.987	490.88
293.218	506.88
293.449	535.88
293.68	584.88
293.91	594.88
294.141	559.88
294.372	552.88
294.603	582.88
294.833	573.88
295.064	546.88
295.295	500.88
295.525	482.88
295.756	462.88
295.987	428.88
296.217	462.88
296.448	479.88
296.679	459.88
296.909	464.88
297.14	479.88
297.37	497.88
297.601	498.88
297.831	537.88
298.062	541.88
298.292	501.88
298.523	491.88
298.753	465.88
298.984	477.88
299.214	485.88
299.445	529.88
299.675	520.88
299.905	511.88
300.136	481.88
300.366	455.88
300.597	442.88
300.827	476.88
301.057	481.88
301.288	521.88
301.518	519.88
301.748	516.88
301.979	535.88
302.209	564.88
302.439	586.88
302.669	611.88
302.9	567.88
303.13	501.88
303.36	506.88
303.59	532.88
303.82	532.88
304.051	535.88
304.281	534.88
304.511	548.88
304.741	580.88
304.971	626.88
305.201	627.88
305.431	577.88
305.661	505.88
305.891	479.88
306.121	467.88
306.352	486.88
306.582	517.88
306.812	539.88
307.042	586.88
307.272	579.88
307.502	599.88
307.731	650.88
307.961	645.88
308.191	582.88
308.421	549.88
308.651	495.88
308.881	497.88
309.111	529.88
309.341	494.88
309.571	507.88
309.8	488.88
310.03	477.88
310.26	523.88
310.49	505.88
310.72	524.88
310.949	507.88
311.179	542.88
311.409	511.88
311.639	498.88
311.868	511.88
312.098	522.88
312.328	497.88
312.557	511.88
312.787	525.88
313.017	510.88
313.246	523.88
313.476	538.88
313.706	552.88
313.935	547.88
314.165	581.88
314.394	591.88
314.624	605.88
314.853	633.88
315.083	639.88
315.312	626.88
315.542	575.88
315.771	558.88
316.001	574.88
316.23	590.88
316.46	584.88
316.689	566.88
316.919	552.88
317.148	518.88
317.377	537.88
317.607	579.88
317.836	632.88
318.065	651.88
318.295	629.88
318.524	614.88
318.753	565.88
318.983	585.88
319.212	573.88
319.441	567.88
319.67	554.88
319.9	584.88
320.129	597.88
320.358	624.88
320.587	623.88
320.816	624.88
321.046	622.88
321.275	609.88
321.504	600.88
321.733	638.88
321.962	607.88
322.191	573.88
322.42	561.88
322.649	555.88
322.878	563.88
323.108	581.88
323.337	580.88
323.566	595.88
323.795	599.88
324.024	583.88
324.253	585.88
324.482	552.88
324.71	561.88
324.939	544.88
325.168	563.88
325.397	569.88
325.626	584.88
325.855	602.88
326.084	587.88
326.313	598.88
326.542	577.88
326.77	597.88
326.999	606.88
327.228	561.88
327.457	543.88
327.686	540.88
327.914	538.88
328.143	584.88
328.372	578.88
328.6	567.88
328.829	544.88
329.058	587.88
329.287	547.88
329.515	569.88
329.744	607.88
329.972	600.88
330.201	628.88
330.43	620.88
330.658	604.88
330.887	614.88
331.115	607.88
331.344	618.88
331.572	578.88
331.801	606.88
332.03	616.88
332.258	601.88
332.486	623.88
332.715	607.88
332.943	609.88
333.172	590.88
333.4	613.88
333.629	641.88
333.857	666.88
334.085	732.88
334.314	839.88
334.542	860.88
334.771	769.88
334.999	717.88
335.227	653.88
335.455	651.88
335.684	642.88
335.912	674.88
336.14	667.88
336.369	626.88
336.597	599.88
336.825	601.88
337.053	677.88
337.281	683.88
337.51	712.88
337.738	695.88
337.966	653.88
338.194	612.88
338.422	607.88
338.65	605.88
338.878	588.88
339.106	590.88
339.334	584.88
339.562	591.88
339.79	594.88
340.018	654.88
340.246	631.88
340.474	622.88
340.702	631.88
340.93	608.88
341.158	618.88
341.386	626.88
341.614	618.88
341.842	597.88
342.07	631.88
342.298	613.88
342.526	626.88
342.754	605.88
342.981	585.88
343.209	599.88
343.437	606.88
343.665	625.88
343.893	647.88
344.12	653.88
344.348	642.88
344.576	630.88
344.804	611.88
345.031	599.88
345.259	584.88
345.487	582.88
345.714	567.88
345.942	569.88
346.17	582.88
346.397	570.88
346.625	558.88
346.853	553.88
347.08	545.88
347.308	551.88
347.535	587.88
347.763	588.88
347.99	577.88
348.218	569.88
348.445	556.88
348.673	598.88
348.9	589.88
349.128	621.88
349.355	628.88
349.583	612.88
349.81	569.88
350.037	553.88
350.265	529.88
350.492	550.88
350.72	566.88
350.947	586.88
351.174	577.88
351.402	575.88
351.629	537.88
351.856	538.88
352.083	540.88
352.311	562.88
352.538	575.88
352.765	564.88
352.992	600.88
353.22	563.88
353.447	575.88
353.674	586.88
353.901	581.88
354.128	558.88
354.355	579.88
354.583	589.88
354.81	623.88
355.037	580.88
355.264	582.88
355.491	572.88
355.718	579.88
355.945	589.88
356.172	573.88
356.399	550.88
356.626	555.88
356.853	601.88
357.08	647.88
357.307	710.88
357.534	674.88
357.761	590.88
357.988	554.88
358.215	546.88
358.441	546.88
358.668	565.88
358.895	574.88
359.122	607.88
359.349	663.88
359.576	619.88
359.802	571.88
360.029	540.88
360.256	557.88
360.483	580.88
360.709	599.88
360.936	614.88
361.163	649.88
361.39	699.88
361.616	686.88
361.843	731.88
362.07	659.88
362.296	580.88
362.523	569.88
362.749	589.88
362.976	575.88
363.203	611.88
363.429	590.88
363.656	561.88
363.882	614.88
364.109	693.88
364.335	693.88
364.562	631.88
364.788	604.88
365.015	576.88
365.241	563.88
365.468	586.88
365.694	630.88
365.92	618.88
366.147	596.88
366.373	578.88
366.599	563.88
366.826	585.88
367.052	579.88
367.278	574.88
367.505	587.88
367.731	618.88
367.957	639.88
368.184	663.88
368.41	704.88
368.636	685.88
368.862	677.88
369.089	674.88
369.315	655.88
369.541	622.88
369.767	607.88
369.993	610.88
370.219	608.88
370.445	635.88
370.672	658.88
370.898	714.88
371.124	661.88
371.35	641.88
371.576	666.88
371.802	677.88
372.028	639.88
372.254	633.88
372.48	596.88
372.706	595.88
372.932	618.88
373.158	641.88
373.384	654.88
373.61	649.88
373.835	675.88
374.061	647.88
374.287	637.88
374.513	639.88
374.739	662.88
374.965	634.88
375.191	671.88
375.416	667.88
375.642	687.88
375.868	705.88
376.094	719.88
376.319	682.88
376.545	653.88
376.771	655.88
376.997	695.88
377.222	687.88
377.448	660.88
377.674	670.88
377.899	709.88
378.125	725.88
378.35	727.88
378.576	658.88
378.802	629.88
379.027	630.88
379.253	662.88
379.478	638.88
379.704	683.88
379.929	660.88
380.155	669.88
380.38	676.88
380.606	669.88
380.831	670.88
381.057	722.88
381.282	714.88
381.507	703.88
381.733	759.88
381.958	761.88
382.184	701.88
382.409	681.88
382.634	709.88
382.86	709.88
383.085	693.88
383.31	721.88
383.535	799.88
383.761	818.88
383.986	785.88
384.211	755.88
384.436	774.88
384.662	776.88
384.887	803.88
385.112	765.88
385.337	754.88
385.562	721.88
385.787	767.88
386.013	791.88
386.238	763.88
386.463	778.88
386.688	841.88
386.913	885.88
387.138	825.88
387.363	805.88
387.588	774.88
387.813	787.88
388.038	796.88
388.263	800.88
388.488	777.88
388.713	748.88
388.938	737.88
389.163	751.88
389.387	775.88
389.612	752.88
389.837	750.88
390.062	766.88
390.287	775.88
390.512	745.88
390.736	773.88
390.961	763.88
391.186	716.88
391.411	735.88
391.636	792.88
391.86	785.88
392.085	776.88
392.31	789.88
392.534	777.88
392.759	787.88
392.984	796.88
393.208	765.88
393.433	820.88
393.658	838.88
393.882	835.88
394.107	814.88
394.331	769.88
394.556	787.88
394.78	775.88
395.005	825.88
395.229	825.88
395.454	897.88
395.678	885.88
395.903	839.88
396.127	835.88
396.352	825.88
396.576	875.88
396.801	867.88
397.025	845.88
397.249	872.88
397.474	847.88
397.698	856.88
397.922	885.88
398.147	881.88
398.371	940.88
398.595	898.88
398.82	893.88
399.044	922.88
399.268	935.88
399.492	985.88
399.717	1005.88
399.941	1003.88
400.165	989.88
400.389	946.88
400.613	993.88
400.837	1126.88
401.062	1220.88
401.286	1027.88
401.51	992.88
401.734	993.88
401.958	941.88
402.182	936.88
402.406	898.88
402.63	881.88
402.854	900.88
403.078	928.88
403.302	940.88
403.526	950.88
403.75	933.88
403.974	945.88
404.198	938.88
404.422	998.88
404.645	1027.88
404.869	1013.88
405.093	907.88
405.317	895.88
405.541	943.88
405.765	962.88
405.988	945.88
406.212	938.88
406.436	965.88
406.66	984.88
406.883	1053.88
407.107	1182.88
407.331	1265.88
407.555	1320.88
407.778	1143.88
408.002	1012.88
408.226	991.88
408.449	977.88
408.673	942.88
408.896	975.88
409.12	977.88
409.344	986.88
409.567	911.88
409.791	960.88
410.014	997.88
410.238	1043.88
410.461	1070.88
410.685	983.88
410.908	964.88
411.132	954.88
411.355	938.88
411.578	980.88
411.802	958.88
412.025	970.88
412.249	967.88
412.472	941.88
412.695	950.88
412.919	935.88
413.142	926.88
413.365	919.88
413.589	958.88
413.812	1029.88
414.035	990.88
414.258	957.88
414.482	956.88
414.705	955.88
414.928	932.88
415.151	916.88
415.374	963.88
415.597	945.88
415.821	957.88
416.044	965.88
416.267	952.88
416.49	902.88
416.713	937.88
416.936	978.88
417.159	1002.88
417.382	995.88
417.605	943.88
417.828	949.88
418.051	969.88
418.274	964.88
418.497	947.88
418.72	957.88
418.943	948.88
419.166	990.88
419.389	987.88
419.611	954.88
419.834	963.88
420.057	947.88
420.28	949.88
420.503	953.88
420.726	973.88
420.948	961.88
421.171	929.88
421.394	932.88
421.617	1006.88
421.839	1014.88
422.062	993.88
422.285	985.88
422.507	929.88
422.73	916.88
422.953	924.88
423.175	919.88
423.398	921.88
423.621	961.88
423.843	954.88
424.066	1002.88
424.288	1044.88
424.511	1037.88
424.733	1030.88
424.956	950.88
425.178	955.88
425.401	936.88
425.623	955.88
425.846	961.88
426.068	978.88
426.291	979.88
426.513	988.88
426.735	981.88
426.958	1069.88
427.18	1082.88
427.402	1012.88
427.625	1056.88
427.847	1022.88
428.069	949.88
428.292	938.88
428.514	924.88
428.736	937.88
428.958	930.88
429.181	957.88
429.403	1107.88
429.625	1244.88
429.847	1059.88
430.069	975.88
430.292	1055.88
430.514	1085.88
430.736	990.88
430.958	1011.88
431.18	919.88
431.402	894.88
431.624	849.88
431.846	830.88
432.068	743.88
432.29	745.88
432.512	807.88
432.734	878.88
432.956	923.88
433.178	1014.88
433.4	1011.88
433.622	967.88
433.844	889.88
434.066	865.88
434.287	827.88
434.509	806.88
434.731	847.88
434.953	931.88
435.175	925.88
435.397	922.88
435.618	915.88
435.84	849.88
436.062	855.88
436.284	926.88
436.505	953.88
436.727	966.88
436.949	927.88
437.17	912.88
437.392	925.88
437.614	864.88
437.835	817.88
438.057	843.88
438.278	855.88
438.5	879.88
438.721	869.88
438.943	945.88
439.165	936.88
439.386	952.88
439.608	963.88
439.829	959.88
440.05	970.88
440.272	964.88
440.493	987.88
440.715	989.88
440.936	1019.88
441.158	1070.88
441.379	1061.88
441.6	1074.88
441.822	1038.88
442.043	1048.88
442.264	995.88
442.486	970.88
442.707	957.88
442.928	959.88
443.149	991.88
443.371	1022.88
443.592	1040.88
443.813	994.88
444.034	1038.88
444.255	1026.88
444.476	1065.88
444.698	1046.88
444.919	1050.88
445.14	1143.88
445.361	1077.88
445.582	1084.88
445.803	1057.88
446.024	1068.88
446.245	1069.88
446.466	1065.88
446.687	1066.88
446.908	1055.88
447.129	1030.88
447.35	1049.88
447.571	1036.88
447.792	996.88
448.013	964.88
448.234	995.88
448.455	993.88
448.675	1017.88
448.896	948.88
449.117	917.88
449.338	965.88
449.559	990.88
449.779	1025.88
450	1036.88
450.221	1055.88
450.442	1020.88
450.662	989.88
450.883	895.88
451.104	895.88
451.324	896.88
451.545	882.88
451.766	879.88
451.986	848.88
452.207	824.88
452.428	821.88
452.648	790.88
452.869	794.88
453.089	815.88
453.31	779.88
453.53	791.88
453.751	747.88
453.971	697.88
454.192	760.88
454.412	799.88
454.633	802.88
454.853	816.88
455.073	764.88
455.294	798.88
455.514	790.88
455.734	785.88
455.955	784.88
456.175	771.88
456.395	740.88
456.616	732.88
456.836	717.88
457.056	752.88
457.276	749.88
457.497	719.88
457.717	721.88
457.937	737.88
458.157	733.88
458.377	710.88
458.598	689.88
458.818	681.88
459.038	722.88
459.258	733.88
459.478	727.88
459.698	689.88
459.918	742.88
460.138	799.88
460.358	833.88
460.578	837.88
460.798	879.88
461.018	918.88
461.238	877.88
461.458	864.88
461.678	875.88
461.898	831.88
462.118	851.88
462.338	843.88
462.558	871.88
462.777	862.88
462.997	893.88
463.217	897.88
463.437	894.88
463.657	855.88
463.876	847.88
464.096	836.88
464.316	853.88
464.536	882.88
464.755	873.88
464.975	912.88
465.195	893.88
465.414	896.88
465.634	901.88
465.854	933.88
466.073	957.88
466.293	937.88
466.512	892.88
466.732	902.88
466.951	916.88
467.171	937.88
467.391	905.88
467.61	881.88
467.829	925.88
468.049	986.88
468.268	1068.88
468.488	973.88
468.707	922.88
468.927	917.88
469.146	908.88
469.365	923.88
469.585	954.88
469.804	942.88
470.023	923.88
470.243	935.88
470.462	937.88
470.681	933.88
470.901	920.88
471.12	943.88
471.339	951.88
471.558	919.88
471.777	955.88
471.997	915.88
472.216	862.88
472.435	800.88
472.654	777.88
472.873	802.88
473.092	824.88
473.311	858.88
473.53	811.88
473.749	858.88
473.968	867.88
474.187	881.88
474.406	884.88
474.625	881.88
474.844	882.88
475.063	892.88
475.282	878.88
475.501	847.88
475.72	841.88
475.939	921.88
476.158	909.88
476.377	889.88
476.596	895.88
476.814	822.88
477.033	841.88
477.252	888.88
477.471	907.88
477.69	900.88
477.908	961.88
478.127	982.88
478.346	997.88
478.564	1026.88
478.783	993.88
479.002	1040.88
479.22	1004.88
479.439	1051.88
479.658	1103.88
479.876	1009.88
480.095	897.88
480.313	908.88
480.532	904.88
480.751	882.88
480.969	855.88
481.188	819.88
481.406	798.88
481.624	787.88
481.843	803.88
482.061	806.88
482.28	890.88
482.498	895.88
482.717	851.88
482.935	903.88
483.153	979.88
483.372	1064.88
483.59	1029.88
483.808	995.88
484.027	960.88
484.245	1050.88
484.463	1235.88
484.681	1326.88
484.9	1033.88
485.118	964.88
485.336	934.88
485.554	929.88
485.772	912.88
485.99	898.88
486.209	922.88
486.427	928.88
486.645	973.88
486.863	1058.88
487.081	1042.88
487.299	1025.88
487.517	1015.88
487.735	1099.88
487.953	1228.88
488.171	1215.88
488.389	1141.88
488.607	1121.88
488.825	1155.88
489.043	1094.88
489.261	1021.88
489.479	1079.88
489.696	1065.88
489.914	1045.88
490.132	1077.88
490.35	1120.88
490.568	1166.88
490.786	1194.88
491.003	1196.88
491.221	1236.88
491.439	1316.88
491.657	1309.88
491.874	1397.88
492.092	1477.88
492.31	1534.88
492.527	1474.88
492.745	1417.88
492.963	1351.88
493.18	1320.88
493.398	1351.88
493.615	1384.88
493.833	1319.88
494.05	1275.88
494.268	1259.88
494.485	1269.88
494.703	1224.88
494.92	1231.88
495.138	1252.88
495.355	1258.88
495.573	1278.88
495.79	1310.88
496.008	1327.88
496.225	1250.88
496.442	1215.88
496.66	1264.88
496.877	1245.88
497.094	1265.88
497.312	1246.88
497.529	1209.88
497.746	1254.88
497.963	1305.88
498.181	1340.88
498.398	1269.88
498.615	1255.88
498.832	1215.88
499.049	1180.88
499.267	1211.88
499.484	1261.88
499.701	1358.88
499.918	1385.88
500.135	1497.88
