Data from WStandard_LampEnergy5.5LIBS07252019.E.O._I.C._HRD10591_16-08-29-920.txt Node
Date: Thu Jul 25 16:08:29 EDT 2019
User: cochatt
Spectrometer: HR+D1059
Trigger mode: 1
Integration Time (sec): 1.000000E-1
Scans to average: 1
Electric dark correction enabled: true
Nonlinearity correction enabled: false
Boxcar width: 0
XAxis mode: Wavelengths
Number of Pixels in Spectrum: 2048
>>>>>Begin Spectral Data<<<<<
223.165	-6.25
223.4	-6.25
223.635	-6.25
223.869	-23.25
224.104	-22.25
224.338	-6.25
224.573	-1.25
224.808	-15.25
225.042	-0.25
225.277	-16.25
225.511	-4.25
225.746	-0.25
225.98	2.75
226.215	10.75
226.449	11.75
226.683	17.75
226.918	22.75
227.152	29.75
227.387	41.75
227.621	31.75
227.856	45.75
228.09	51.75
228.324	51.75
228.559	54.75
228.793	139.75
229.027	359.75
229.262	367.75
229.496	375.75
229.73	405.75
229.964	423.75
230.199	443.75
230.433	464.75
230.667	492.75
230.901	508.75
231.136	461.75
231.37	460.75
231.604	428.75
231.838	456.75
232.072	444.75
232.306	425.75
232.541	485.75
232.775	541.75
233.009	573.75
233.243	562.75
233.477	503.75
233.711	521.75
233.945	529.75
234.179	531.75
234.413	593.75
234.647	615.75
234.881	574.75
235.115	522.75
235.349	537.75
235.583	554.75
235.817	544.75
236.051	501.75
236.285	535.75
236.519	593.75
236.753	653.75
236.987	659.75
237.221	649.75
237.455	725.75
237.689	684.75
237.922	641.75
238.156	637.75
238.39	635.75
238.624	692.75
238.858	698.75
239.091	749.75
239.325	776.75
239.559	866.75
239.793	903.75
240.027	1002.75
240.26	1002.75
240.494	739.75
240.728	693.75
240.961	706.75
241.195	695.75
241.429	801.75
241.662	771.75
241.896	733.75
242.13	756.75
242.363	826.75
242.597	879.75
242.83	852.75
243.064	852.75
243.298	900.75
243.531	902.75
243.765	898.75
243.998	869.75
244.232	787.75
244.465	751.75
244.699	761.75
244.932	873.75
245.166	1023.75
245.399	951.75
245.633	890.75
245.866	875.75
246.099	901.75
246.333	927.75
246.566	928.75
246.8	1007.75
247.033	1127.75
247.266	1022.75
247.5	1009.75
247.733	1032.75
247.966	1068.75
248.2	1177.75
248.433	1130.75
248.666	1175.75
248.899	1273.75
249.133	1420.75
249.366	1663.75
249.599	1373.75
249.832	1213.75
250.066	1217.75
250.299	1216.75
250.532	1168.75
250.765	1040.75
250.998	1127.75
251.231	1163.75
251.465	1203.75
251.698	1115.75
251.931	1100.75
252.164	1167.75
252.397	1205.75
252.63	1211.75
252.863	1060.75
253.096	1043.75
253.329	1088.75
253.562	1146.75
253.795	1234.75
254.028	1201.75
254.261	1115.75
254.494	1099.75
254.727	1045.75
254.96	1115.75
255.193	1211.75
255.426	1377.75
255.659	1545.75
255.892	1601.75
256.124	1301.75
256.357	1260.75
256.59	1409.75
256.823	1392.75
257.056	1350.75
257.289	1636.75
257.521	1817.75
257.754	1636.75
257.987	1532.75
258.22	1684.75
258.452	1653.75
258.685	1339.75
258.918	1311.75
259.151	1347.75
259.383	1272.75
259.616	1124.75
259.849	1182.75
260.081	1351.75
260.314	1473.75
260.547	1615.75
260.779	1673.75
261.012	1522.75
261.244	1343.75
261.477	1297.75
261.71	1352.75
261.942	1385.75
262.175	1325.75
262.407	1412.75
262.64	1313.75
262.872	1236.75
263.105	1202.75
263.337	1224.75
263.57	1258.75
263.802	1204.75
264.035	1153.75
264.267	1151.75
264.499	1073.75
264.732	1157.75
264.964	1221.75
265.197	1303.75
265.429	1363.75
265.661	1485.75
265.894	1649.75
266.126	1713.75
266.358	1508.75
266.591	1601.75
266.823	1756.75
267.055	1560.75
267.287	1554.75
267.52	1544.75
267.752	1476.75
267.984	1469.75
268.216	1554.75
268.448	1600.75
268.681	1551.75
268.913	1415.75
269.145	1395.75
269.377	1317.75
269.609	1431.75
269.841	1675.75
270.073	1937.75
270.306	2165.75
270.538	2363.75
270.77	1931.75
271.002	1675.75
271.234	1606.75
271.466	1579.75
271.698	1761.75
271.93	2105.75
272.162	2143.75
272.394	1937.75
272.626	1801.75
272.858	1626.75
273.09	1394.75
273.322	1403.75
273.553	1291.75
273.785	1333.75
274.017	1364.75
274.249	1510.75
274.481	1557.75
274.713	1388.75
274.945	1347.75
275.176	1380.75
275.408	1335.75
275.64	1311.75
275.872	1288.75
276.104	1371.75
276.335	1611.75
276.567	1843.75
276.799	1841.75
277.031	1648.75
277.262	1515.75
277.494	1584.75
277.726	1785.75
277.957	1736.75
278.189	1636.75
278.421	1472.75
278.652	1446.75
278.884	1400.75
279.115	1431.75
279.347	1463.75
279.579	1396.75
279.81	1405.75
280.042	1600.75
280.273	1730.75
280.505	1710.75
280.736	1765.75
280.968	1636.75
281.199	1476.75
281.431	1417.75
281.662	1404.75
281.894	1416.75
282.125	1445.75
282.356	1458.75
282.588	1521.75
282.819	1523.75
283.051	1620.75
283.282	1754.75
283.513	1685.75
283.745	1478.75
283.976	1417.75
284.207	1407.75
284.439	1421.75
284.67	1402.75
284.901	1490.75
285.132	1493.75
285.364	1481.75
285.595	1511.75
285.826	1442.75
286.057	1453.75
286.288	1424.75
286.52	1485.75
286.751	1612.75
286.982	1677.75
287.213	1549.75
287.444	1444.75
287.675	1411.75
287.906	1481.75
288.138	1577.75
288.369	1586.75
288.6	1432.75
288.831	1374.75
289.062	1398.75
289.293	1485.75
289.524	1487.75
289.755	1536.75
289.986	1539.75
290.217	1383.75
290.448	1423.75
290.679	1472.75
290.91	1496.75
291.141	1519.75
291.371	1584.75
291.602	1571.75
291.833	1551.75
292.064	1596.75
292.295	1538.75
292.526	1618.75
292.757	1671.75
292.987	1607.75
293.218	1486.75
293.449	1611.75
293.68	1822.75
293.91	1972.75
294.141	1805.75
294.372	1708.75
294.603	1784.75
294.833	1877.75
295.064	1756.75
295.295	1626.75
295.525	1543.75
295.756	1442.75
295.987	1371.75
296.217	1411.75
296.448	1443.75
296.679	1415.75
296.909	1468.75
297.14	1462.75
297.37	1472.75
297.601	1537.75
297.831	1676.75
298.062	1685.75
298.292	1531.75
298.523	1482.75
298.753	1466.75
298.984	1479.75
299.214	1493.75
299.445	1510.75
299.675	1567.75
299.905	1545.75
300.136	1546.75
300.366	1467.75
300.597	1470.75
300.827	1441.75
301.057	1500.75
301.288	1580.75
301.518	1581.75
301.748	1619.75
301.979	1677.75
302.209	1684.75
302.439	1817.75
302.669	1892.75
302.9	1753.75
303.13	1541.75
303.36	1604.75
303.59	1634.75
303.82	1603.75
304.051	1591.75
304.281	1613.75
304.511	1588.75
304.741	1662.75
304.971	1836.75
305.201	2020.75
305.431	1867.75
305.661	1523.75
305.891	1455.75
306.121	1389.75
306.352	1486.75
306.582	1523.75
306.812	1608.75
307.042	1714.75
307.272	1699.75
307.502	1779.75
307.731	1956.75
307.961	2079.75
308.191	1962.75
308.421	1664.75
308.651	1572.75
308.881	1547.75
309.111	1521.75
309.341	1512.75
309.571	1512.75
309.8	1526.75
310.03	1525.75
310.26	1534.75
310.49	1525.75
310.72	1534.75
310.949	1612.75
311.179	1640.75
311.409	1607.75
311.639	1568.75
311.868	1533.75
312.098	1571.75
312.328	1561.75
312.557	1523.75
312.787	1540.75
313.017	1569.75
313.246	1592.75
313.476	1576.75
313.706	1621.75
313.935	1620.75
314.165	1635.75
314.394	1663.75
314.624	1772.75
314.853	1882.75
315.083	1931.75
315.312	1971.75
315.542	1827.75
315.771	1626.75
316.001	1631.75
316.23	1765.75
316.46	1714.75
316.689	1713.75
316.919	1613.75
317.148	1583.75
317.377	1578.75
317.607	1677.75
317.836	1877.75
318.065	1953.75
318.295	1901.75
318.524	1787.75
318.753	1731.75
318.983	1732.75
319.212	1715.75
319.441	1660.75
319.67	1688.75
319.9	1621.75
320.129	1722.75
320.358	1855.75
320.587	1885.75
320.816	1851.75
321.046	1832.75
321.275	1752.75
321.504	1738.75
321.733	1883.75
321.962	1849.75
322.191	1690.75
322.42	1683.75
322.649	1701.75
322.878	1661.75
323.108	1666.75
323.337	1721.75
323.566	1772.75
323.795	1735.75
324.024	1707.75
324.253	1690.75
324.482	1696.75
324.71	1704.75
324.939	1578.75
325.168	1622.75
325.397	1651.75
325.626	1744.75
325.855	1761.75
326.084	1687.75
326.313	1684.75
326.542	1703.75
326.77	1740.75
326.999	1766.75
327.228	1716.75
327.457	1603.75
327.686	1593.75
327.914	1603.75
328.143	1670.75
328.372	1699.75
328.6	1663.75
328.829	1654.75
329.058	1669.75
329.287	1640.75
329.515	1638.75
329.744	1723.75
329.972	1790.75
330.201	1825.75
330.43	1825.75
330.658	1794.75
330.887	1775.75
331.115	1770.75
331.344	1797.75
331.572	1774.75
331.801	1745.75
332.03	1781.75
332.258	1775.75
332.486	1804.75
332.715	1818.75
332.943	1817.75
333.172	1760.75
333.4	1804.75
333.629	1828.75
333.857	1954.75
334.085	2112.75
334.314	2367.75
334.542	2660.75
334.771	2364.75
334.999	2123.75
335.227	2047.75
335.455	1879.75
335.684	1883.75
335.912	1908.75
336.14	1985.75
336.369	1934.75
336.597	1835.75
336.825	1791.75
337.053	1840.75
337.281	1963.75
337.51	2012.75
337.738	2098.75
337.966	2001.75
338.194	1829.75
338.422	1793.75
338.65	1772.75
338.878	1765.75
339.106	1714.75
339.334	1675.75
339.562	1643.75
339.79	1697.75
340.018	1800.75
340.246	1888.75
340.474	1868.75
340.702	1809.75
340.93	1849.75
341.158	1804.75
341.386	1740.75
341.614	1769.75
341.842	1736.75
342.07	1734.75
342.298	1773.75
342.526	1746.75
342.754	1704.75
342.981	1728.75
343.209	1747.75
343.437	1716.75
343.665	1734.75
343.893	1797.75
344.12	1874.75
344.348	1886.75
344.576	1821.75
344.804	1755.75
345.031	1768.75
345.259	1761.75
345.487	1707.75
345.714	1651.75
345.942	1602.75
346.17	1612.75
346.397	1684.75
346.625	1737.75
346.853	1570.75
347.08	1581.75
347.308	1567.75
347.535	1637.75
347.763	1691.75
347.99	1665.75
348.218	1597.75
348.445	1565.75
348.673	1605.75
348.9	1660.75
349.128	1718.75
349.355	1781.75
349.583	1705.75
349.81	1663.75
350.037	1519.75
350.265	1503.75
350.492	1550.75
350.72	1623.75
350.947	1636.75
351.174	1652.75
351.402	1608.75
351.629	1530.75
351.856	1533.75
352.083	1544.75
352.311	1501.75
352.538	1557.75
352.765	1643.75
352.992	1682.75
353.22	1625.75
353.447	1541.75
353.674	1572.75
353.901	1641.75
354.128	1594.75
354.355	1579.75
354.583	1660.75
354.81	1699.75
355.037	1692.75
355.264	1676.75
355.491	1623.75
355.718	1625.75
355.945	1620.75
356.172	1622.75
356.399	1554.75
356.626	1600.75
356.853	1587.75
357.08	1735.75
357.307	1928.75
357.534	1891.75
357.761	1695.75
357.988	1561.75
358.215	1534.75
358.441	1535.75
358.668	1515.75
358.895	1516.75
359.122	1638.75
359.349	1817.75
359.576	1823.75
359.802	1596.75
360.029	1551.75
360.256	1503.75
360.483	1561.75
360.709	1613.75
360.936	1657.75
361.163	1730.75
361.39	1824.75
361.616	1982.75
361.843	1959.75
362.07	1863.75
362.296	1650.75
362.523	1624.75
362.749	1611.75
362.976	1612.75
363.203	1648.75
363.429	1589.75
363.656	1579.75
363.882	1622.75
364.109	1783.75
364.335	1953.75
364.562	1767.75
364.788	1692.75
365.015	1651.75
365.241	1566.75
365.468	1624.75
365.694	1697.75
365.92	1735.75
366.147	1675.75
366.373	1573.75
366.599	1555.75
366.826	1563.75
367.052	1559.75
367.278	1592.75
367.505	1624.75
367.731	1674.75
367.957	1684.75
368.184	1684.75
368.41	1765.75
368.636	1804.75
368.862	1819.75
369.089	1832.75
369.315	1726.75
369.541	1652.75
369.767	1686.75
369.993	1591.75
370.219	1585.75
370.445	1614.75
370.672	1685.75
370.898	1801.75
371.124	1785.75
371.35	1684.75
371.576	1705.75
371.802	1830.75
372.028	1755.75
372.254	1674.75
372.48	1649.75
372.706	1593.75
372.932	1622.75
373.158	1601.75
373.384	1631.75
373.61	1687.75
373.835	1821.75
374.061	1729.75
374.287	1675.75
374.513	1694.75
374.739	1697.75
374.965	1724.75
375.191	1759.75
375.416	1750.75
375.642	1753.75
375.868	1852.75
376.094	1898.75
376.319	1820.75
376.545	1689.75
376.771	1731.75
376.997	1799.75
377.222	1785.75
377.448	1734.75
377.674	1790.75
377.899	1792.75
378.125	1861.75
378.35	1866.75
378.576	1731.75
378.802	1649.75
379.027	1639.75
379.253	1657.75
379.478	1663.75
379.704	1695.75
379.929	1672.75
380.155	1716.75
380.38	1721.75
380.606	1717.75
380.831	1695.75
381.057	1757.75
381.282	1813.75
381.507	1732.75
381.733	1855.75
381.958	1935.75
382.184	1783.75
382.409	1725.75
382.634	1759.75
382.86	1738.75
383.085	1747.75
383.31	1828.75
383.535	1947.75
383.761	2074.75
383.986	1941.75
384.211	1882.75
384.436	1913.75
384.662	1929.75
384.887	2047.75
385.112	1982.75
385.337	1955.75
385.562	1937.75
385.787	1929.75
386.013	1958.75
386.238	1993.75
386.463	1943.75
386.688	2056.75
386.913	2180.75
387.138	2198.75
387.363	2004.75
387.588	2004.75
387.813	2004.75
388.038	1977.75
388.263	2065.75
388.488	1988.75
388.713	1843.75
388.938	1809.75
389.163	1887.75
389.387	1910.75
389.612	1898.75
389.837	1930.75
390.062	1937.75
390.287	1945.75
390.512	1948.75
390.736	1896.75
390.961	1849.75
391.186	1828.75
391.411	1881.75
391.636	1901.75
391.86	1919.75
392.085	1922.75
392.31	1884.75
392.534	1908.75
392.759	1953.75
392.984	1900.75
393.208	1939.75
393.433	1995.75
393.658	2044.75
393.882	2058.75
394.107	2012.75
394.331	1924.75
394.556	1885.75
394.78	1919.75
395.005	1989.75
395.229	2059.75
395.454	2192.75
395.678	2249.75
395.903	2141.75
396.127	2084.75
396.352	2014.75
396.576	2112.75
396.801	2129.75
397.025	2108.75
397.249	2106.75
397.474	2098.75
397.698	2069.75
397.922	2127.75
398.147	2173.75
398.371	2274.75
398.595	2294.75
398.82	2186.75
399.044	2241.75
399.268	2315.75
399.492	2500.75
399.717	2596.75
399.941	2599.75
400.165	2559.75
400.389	2453.75
400.613	2399.75
400.837	2681.75
401.062	3079.75
401.286	2666.75
401.51	2396.75
401.734	2547.75
401.958	2507.75
402.182	2304.75
402.406	2199.75
402.63	2184.75
402.854	2196.75
403.078	2237.75
403.302	2239.75
403.526	2276.75
403.75	2321.75
403.974	2332.75
404.198	2227.75
404.422	2329.75
404.645	2477.75
404.869	2439.75
405.093	2286.75
405.317	2227.75
405.541	2298.75
405.765	2315.75
405.988	2277.75
406.212	2335.75
406.436	2374.75
406.66	2425.75
406.883	2478.75
407.107	2801.75
407.331	2955.75
407.555	3207.75
407.778	3004.75
408.002	2536.75
408.226	2421.75
408.449	2422.75
408.673	2334.75
408.896	2365.75
409.12	2421.75
409.344	2349.75
409.567	2263.75
409.791	2316.75
410.014	2334.75
410.238	2459.75
410.461	2607.75
410.685	2354.75
410.908	2246.75
411.132	2334.75
411.355	2282.75
411.578	2221.75
411.802	2257.75
412.025	2297.75
412.249	2268.75
412.472	2194.75
412.695	2187.75
412.919	2212.75
413.142	2199.75
413.365	2263.75
413.589	2231.75
413.812	2352.75
414.035	2453.75
414.258	2251.75
414.482	2236.75
414.705	2214.75
414.928	2186.75
415.151	2148.75
415.374	2183.75
415.597	2253.75
415.821	2223.75
416.044	2263.75
416.267	2327.75
416.49	2123.75
416.713	2075.75
416.936	2165.75
417.159	2272.75
417.382	2244.75
417.605	2146.75
417.828	2253.75
418.051	2241.75
418.274	2205.75
418.497	2137.75
418.72	2107.75
418.943	2108.75
419.166	2280.75
419.389	2356.75
419.611	2220.75
419.834	2154.75
420.057	2209.75
420.28	2139.75
420.503	2099.75
420.726	2150.75
420.948	2149.75
421.171	2110.75
421.394	2119.75
421.617	2185.75
421.839	2143.75
422.062	2117.75
422.285	2073.75
422.507	2081.75
422.73	2085.75
422.953	2040.75
423.175	2040.75
423.398	2095.75
423.621	2064.75
423.843	2114.75
424.066	2170.75
424.288	2220.75
424.511	2255.75
424.733	2185.75
424.956	2007.75
425.178	2007.75
425.401	2031.75
425.623	2075.75
425.846	2047.75
426.068	2129.75
426.291	2173.75
426.513	2158.75
426.735	2143.75
426.958	2291.75
427.18	2453.75
427.402	2257.75
427.625	2272.75
427.847	2275.75
428.069	2133.75
428.292	2048.75
428.514	2032.75
428.736	2002.75
428.958	2063.75
429.181	2065.75
429.403	2278.75
429.625	2881.75
429.847	2516.75
430.069	2078.75
430.292	2302.75
430.514	2385.75
430.736	2129.75
430.958	2348.75
431.18	2237.75
431.402	2025.75
431.624	2050.75
431.846	2061.75
432.068	2025.75
432.29	2034.75
432.512	2041.75
432.734	2110.75
432.956	2106.75
433.178	2223.75
433.4	2184.75
433.622	2207.75
433.844	2075.75
434.066	2039.75
434.287	2034.75
434.509	2069.75
434.731	2213.75
434.953	2358.75
435.175	2287.75
435.397	2179.75
435.618	2143.75
435.84	2156.75
436.062	2109.75
436.284	2096.75
436.505	2096.75
436.727	2157.75
436.949	2131.75
437.17	2100.75
437.392	2044.75
437.614	2070.75
437.835	2035.75
438.057	2145.75
438.278	2193.75
438.5	2084.75
438.721	2008.75
438.943	2083.75
439.165	2037.75
439.386	1986.75
439.608	1989.75
439.829	2016.75
440.05	2055.75
440.272	2045.75
440.493	1955.75
440.715	2053.75
440.936	2147.75
441.158	2396.75
441.379	2332.75
441.6	2264.75
441.822	2191.75
442.043	2185.75
442.264	2167.75
442.486	2058.75
442.707	2012.75
442.928	2056.75
443.149	2112.75
443.371	2224.75
443.592	2304.75
443.813	2215.75
444.034	2225.75
444.255	2243.75
444.476	2274.75
444.698	2325.75
444.919	2309.75
445.14	2377.75
445.361	2330.75
445.582	2473.75
445.803	2329.75
446.024	2209.75
446.245	2311.75
446.466	2251.75
446.687	2122.75
446.908	2118.75
447.129	2049.75
447.35	2107.75
447.571	2079.75
447.792	2015.75
448.013	2008.75
448.234	2040.75
448.455	2153.75
448.675	2174.75
448.896	1979.75
449.117	1911.75
449.338	1968.75
449.559	2093.75
449.779	2179.75
450	2397.75
450.221	2577.75
450.442	2513.75
450.662	2207.75
450.883	1934.75
451.104	1924.75
451.324	1987.75
451.545	1999.75
451.766	1992.75
451.986	1900.75
452.207	1888.75
452.428	1852.75
452.648	1804.75
452.869	1837.75
453.089	1989.75
453.31	1973.75
453.53	2086.75
453.751	1975.75
453.971	1854.75
454.192	1907.75
454.412	2045.75
454.633	1947.75
454.853	1886.75
455.073	1764.75
455.294	1758.75
455.514	1768.75
455.734	1805.75
455.955	1828.75
456.175	1812.75
456.395	1843.75
456.616	1906.75
456.836	1937.75
457.056	1841.75
457.276	1855.75
457.497	1819.75
457.717	1749.75
457.937	1815.75
458.157	1836.75
458.377	1804.75
458.598	1811.75
458.818	1828.75
459.038	1960.75
459.258	2033.75
459.478	2048.75
459.698	1988.75
459.918	2051.75
460.138	2103.75
460.358	2118.75
460.578	2141.75
460.798	2275.75
461.018	2396.75
461.238	2257.75
461.458	2131.75
461.678	2194.75
461.898	2122.75
462.118	2111.75
462.338	2196.75
462.558	2207.75
462.777	2187.75
462.997	2295.75
463.217	2465.75
463.437	2483.75
463.657	2246.75
463.876	2215.75
464.096	2232.75
464.316	2196.75
464.536	2278.75
464.755	2243.75
464.975	2314.75
465.195	2221.75
465.414	2325.75
465.634	2362.75
465.854	2186.75
466.073	2307.75
466.293	2280.75
466.512	2013.75
466.732	1978.75
466.951	2057.75
467.171	2063.75
467.391	2012.75
467.61	1931.75
467.829	1981.75
468.049	2133.75
468.268	2364.75
468.488	2191.75
468.707	2085.75
468.927	2036.75
469.146	2018.75
469.365	1930.75
469.585	1987.75
469.804	1941.75
470.023	2006.75
470.243	2025.75
470.462	1995.75
470.681	1973.75
470.901	2034.75
471.12	2007.75
471.339	1958.75
471.558	1910.75
471.777	1904.75
471.997	1964.75
472.216	1931.75
472.435	1921.75
472.654	1963.75
472.873	2067.75
473.092	2143.75
473.311	2070.75
473.53	1890.75
473.749	1896.75
473.968	1969.75
474.187	2049.75
474.406	2178.75
474.625	2053.75
474.844	2041.75
475.063	2012.75
475.282	2111.75
475.501	2041.75
475.72	2012.75
475.939	2098.75
476.158	2087.75
476.377	1995.75
476.596	2041.75
476.814	2078.75
477.033	2075.75
477.252	2193.75
477.471	2215.75
477.69	2157.75
477.908	2081.75
478.127	2228.75
478.346	2396.75
478.564	2442.75
478.783	2378.75
479.002	2489.75
479.22	2374.75
479.439	2506.75
479.658	2737.75
479.876	2753.75
480.095	2461.75
480.313	2319.75
480.532	2214.75
480.751	2270.75
480.969	2297.75
481.188	2267.75
481.406	2228.75
481.624	2160.75
481.843	2187.75
482.061	2247.75
482.28	2347.75
482.498	2351.75
482.717	2325.75
482.935	2275.75
483.153	2220.75
483.372	2259.75
483.59	2175.75
483.808	2241.75
484.027	2254.75
484.245	2469.75
484.463	2763.75
484.681	3160.75
484.9	2494.75
485.118	2317.75
485.336	2223.75
485.554	2317.75
485.772	2445.75
485.99	2437.75
486.209	2417.75
486.427	2377.75
486.645	2411.75
486.863	2380.75
487.081	2429.75
487.299	2524.75
487.517	2457.75
