Data from WStandard_LampEnergy8_LIBS07252019.E.O._I.C._HRD10591_15-58-05-929.txt Node
Date: Thu Jul 25 15:58:05 EDT 2019
User: cochatt
Spectrometer: HR+D1059
Trigger mode: 1
Integration Time (sec): 1.000000E-1
Scans to average: 1
Electric dark correction enabled: true
Nonlinearity correction enabled: false
Boxcar width: 0
XAxis mode: Wavelengths
Number of Pixels in Spectrum: 2048
>>>>>Begin Spectral Data<<<<<
223.165	-21.88
223.4	-21.88
223.635	-21.88
223.869	-29.88
224.104	-10.88
224.338	-3.88
224.573	-15.88
224.808	-2.88
225.042	-16.88
225.277	-2.88
225.511	-5.88
225.746	5.12
225.98	4.12
226.215	28.12
226.449	21.12
226.683	22.12
226.918	9.12
227.152	21.12
227.387	43.12
227.621	50.12
227.856	31.12
228.09	43.12
228.324	60.12
228.559	56.12
228.793	102.12
229.027	205.12
229.262	225.12
229.496	226.12
229.73	235.12
229.964	247.12
230.199	267.12
230.433	267.12
230.667	283.12
230.901	306.12
231.136	271.12
231.37	272.12
231.604	277.12
231.838	273.12
232.072	286.12
232.306	260.12
232.541	283.12
232.775	317.12
233.009	320.12
233.243	311.12
233.477	302.12
233.711	292.12
233.945	309.12
234.179	311.12
234.413	320.12
234.647	343.12
234.881	322.12
235.115	317.12
235.349	295.12
235.583	322.12
235.817	326.12
236.051	310.12
236.285	338.12
236.519	323.12
236.753	362.12
236.987	358.12
237.221	367.12
237.455	371.12
237.689	370.12
237.922	358.12
238.156	355.12
238.39	382.12
238.624	388.12
238.858	381.12
239.091	415.12
239.325	427.12
239.559	490.12
239.793	509.12
240.027	550.12
240.26	504.12
240.494	409.12
240.728	396.12
240.961	405.12
241.195	416.12
241.429	426.12
241.662	438.12
241.896	424.12
242.13	427.12
242.363	460.12
242.597	470.12
242.83	457.12
243.064	476.12
243.298	480.12
243.531	472.12
243.765	467.12
243.998	489.12
244.232	439.12
244.465	409.12
244.699	413.12
244.932	477.12
245.166	536.12
245.399	472.12
245.633	475.12
245.866	450.12
246.099	491.12
246.333	499.12
246.566	528.12
246.8	570.12
247.033	613.12
247.266	535.12
247.5	559.12
247.733	542.12
247.966	559.12
248.2	599.12
248.433	617.12
248.666	620.12
248.899	679.12
249.133	751.12
249.366	844.12
249.599	714.12
249.832	642.12
250.066	656.12
250.299	643.12
250.532	630.12
250.765	595.12
250.998	602.12
251.231	596.12
251.465	606.12
251.698	592.12
251.931	589.12
252.164	620.12
252.397	619.12
252.63	635.12
252.863	562.12
253.096	550.12
253.329	588.12
253.562	585.12
253.795	640.12
254.028	633.12
254.261	591.12
254.494	592.12
254.727	581.12
254.96	619.12
255.193	657.12
255.426	739.12
255.659	823.12
255.892	828.12
256.124	699.12
256.357	674.12
256.59	714.12
256.823	716.12
257.056	745.12
257.289	867.12
257.521	910.12
257.754	819.12
257.987	831.12
258.22	863.12
258.452	827.12
258.685	696.12
258.918	682.12
259.151	685.12
259.383	663.12
259.616	605.12
259.849	637.12
260.081	738.12
260.314	791.12
260.547	850.12
260.779	854.12
261.012	789.12
261.244	721.12
261.477	679.12
261.71	694.12
261.942	712.12
262.175	682.12
262.407	722.12
262.64	686.12
262.872	650.12
263.105	638.12
263.337	649.12
263.57	654.12
263.802	650.12
264.035	619.12
264.267	592.12
264.499	607.12
264.732	636.12
264.964	679.12
265.197	670.12
265.429	717.12
265.661	788.12
265.894	860.12
266.126	915.12
266.358	790.12
266.591	841.12
266.823	890.12
267.055	800.12
267.287	781.12
267.52	783.12
267.752	792.12
267.984	783.12
268.216	836.12
268.448	862.12
268.681	840.12
268.913	740.12
269.145	722.12
269.377	708.12
269.609	787.12
269.841	932.12
270.073	1024.12
270.306	1172.12
270.538	1158.12
270.77	995.12
271.002	881.12
271.234	842.12
271.466	831.12
271.698	958.12
271.93	1078.12
272.162	1081.12
272.394	973.12
272.626	904.12
272.858	836.12
273.09	725.12
273.322	737.12
273.553	697.12
273.785	728.12
274.017	728.12
274.249	778.12
274.481	786.12
274.713	744.12
274.945	710.12
275.176	719.12
275.408	690.12
275.64	711.12
275.872	704.12
276.104	788.12
276.335	870.12
276.567	964.12
276.799	961.12
277.031	838.12
277.262	841.12
277.494	832.12
277.726	915.12
277.957	926.12
278.189	818.12
278.421	778.12
278.652	755.12
278.884	737.12
279.115	755.12
279.347	740.12
279.579	766.12
279.81	764.12
280.042	856.12
280.273	896.12
280.505	878.12
280.736	908.12
280.968	862.12
281.199	760.12
281.431	734.12
281.662	725.12
281.894	765.12
282.125	776.12
282.356	786.12
282.588	782.12
282.819	790.12
283.051	866.12
283.282	903.12
283.513	856.12
283.745	774.12
283.976	725.12
284.207	744.12
284.439	785.12
284.67	778.12
284.901	802.12
285.132	785.12
285.364	760.12
285.595	768.12
285.826	798.12
286.057	787.12
286.288	764.12
286.52	821.12
286.751	857.12
286.982	911.12
287.213	812.12
287.444	738.12
287.675	745.12
287.906	804.12
288.138	865.12
288.369	824.12
288.6	786.12
288.831	756.12
289.062	774.12
289.293	783.12
289.524	782.12
289.755	817.12
289.986	784.12
290.217	772.12
290.448	765.12
290.679	789.12
290.91	810.12
291.141	809.12
291.371	835.12
291.602	857.12
291.833	825.12
292.064	860.12
292.295	834.12
292.526	861.12
292.757	890.12
292.987	850.12
293.218	804.12
293.449	892.12
293.68	985.12
293.91	1042.12
294.141	960.12
294.372	912.12
294.603	968.12
294.833	980.12
295.064	952.12
295.295	865.12
295.525	819.12
295.756	773.12
295.987	745.12
296.217	774.12
296.448	783.12
296.679	778.12
296.909	808.12
297.14	800.12
297.37	815.12
297.601	871.12
297.831	892.12
298.062	906.12
298.292	798.12
298.523	780.12
298.753	846.12
298.984	819.12
299.214	829.12
299.445	862.12
299.675	863.12
299.905	862.12
300.136	818.12
300.366	797.12
300.597	763.12
300.827	792.12
301.057	830.12
301.288	860.12
301.518	886.12
301.748	888.12
301.979	938.12
302.209	948.12
302.439	1038.12
302.669	1043.12
302.9	943.12
303.13	890.12
303.36	878.12
303.59	892.12
303.82	890.12
304.051	883.12
304.281	910.12
304.511	912.12
304.741	975.12
304.971	1057.12
305.201	1079.12
305.431	978.12
305.661	813.12
305.891	790.12
306.121	792.12
306.352	822.12
306.582	869.12
306.812	938.12
307.042	946.12
307.272	980.12
307.502	1009.12
307.731	1091.12
307.961	1118.12
308.191	1018.12
308.421	880.12
308.651	864.12
308.881	846.12
309.111	856.12
309.341	829.12
309.571	861.12
309.8	855.12
310.03	856.12
310.26	816.12
310.49	788.12
310.72	834.12
310.949	900.12
311.179	871.12
311.409	858.12
311.639	852.12
311.868	860.12
312.098	843.12
312.328	877.12
312.557	857.12
312.787	895.12
313.017	883.12
313.246	908.12
313.476	915.12
313.706	925.12
313.935	915.12
314.165	911.12
314.394	965.12
314.624	1018.12
314.853	1077.12
315.083	1076.12
315.312	1072.12
315.542	1003.12
315.771	928.12
316.001	941.12
316.23	964.12
316.46	952.12
316.689	930.12
316.919	887.12
317.148	888.12
317.377	895.12
317.607	991.12
317.836	1110.12
318.065	1106.12
318.295	1061.12
318.524	997.12
318.753	981.12
318.983	979.12
319.212	983.12
319.441	931.12
319.67	960.12
319.9	943.12
320.129	1022.12
320.358	1060.12
320.587	1046.12
320.816	1079.12
321.046	1020.12
321.275	964.12
321.504	1018.12
321.733	1068.12
321.962	1021.12
322.191	959.12
322.42	941.12
322.649	941.12
322.878	966.12
323.108	934.12
323.337	959.12
323.566	962.12
323.795	990.12
324.024	974.12
324.253	929.12
324.482	938.12
324.71	920.12
324.939	884.12
325.168	922.12
325.397	928.12
325.626	958.12
325.855	947.12
326.084	942.12
326.313	975.12
326.542	962.12
326.77	974.12
326.999	988.12
327.228	951.12
327.457	894.12
327.686	885.12
327.914	925.12
328.143	960.12
328.372	928.12
328.6	919.12
328.829	924.12
329.058	935.12
329.287	934.12
329.515	971.12
329.744	955.12
329.972	1001.12
330.201	1054.12
330.43	1056.12
330.658	1003.12
330.887	979.12
331.115	984.12
331.344	1010.12
331.572	1010.12
331.801	967.12
332.03	1016.12
332.258	1018.12
332.486	1036.12
332.715	1046.12
332.943	1015.12
333.172	986.12
333.4	994.12
333.629	1045.12
333.857	1130.12
334.085	1247.12
334.314	1402.12
334.542	1482.12
334.771	1332.12
334.999	1184.12
335.227	1120.12
335.455	1056.12
335.684	1101.12
335.912	1117.12
336.14	1104.12
336.369	1100.12
336.597	1020.12
336.825	1023.12
337.053	1079.12
337.281	1111.12
337.51	1180.12
337.738	1197.12
337.966	1099.12
338.194	1030.12
338.422	1006.12
338.65	1005.12
338.878	989.12
339.106	952.12
339.334	964.12
339.562	954.12
339.79	984.12
340.018	1028.12
340.246	1075.12
340.474	1059.12
340.702	1034.12
340.93	1044.12
341.158	1034.12
341.386	1006.12
341.614	1007.12
341.842	1016.12
342.07	999.12
342.298	1016.12
342.526	987.12
342.754	1010.12
342.981	1001.12
343.209	976.12
343.437	994.12
343.665	1007.12
343.893	1028.12
344.12	1065.12
344.348	1069.12
344.576	980.12
344.804	998.12
345.031	999.12
345.259	1012.12
345.487	950.12
345.714	920.12
345.942	934.12
346.17	932.12
346.397	970.12
346.625	957.12
346.853	906.12
347.08	897.12
347.308	900.12
347.535	935.12
347.763	980.12
347.99	938.12
348.218	910.12
348.445	910.12
348.673	960.12
348.9	981.12
349.128	1026.12
349.355	1024.12
349.583	991.12
349.81	943.12
350.037	874.12
350.265	885.12
350.492	900.12
350.72	917.12
350.947	947.12
351.174	970.12
351.402	900.12
351.629	855.12
351.856	828.12
352.083	877.12
352.311	878.12
352.538	914.12
352.765	934.12
352.992	957.12
353.22	916.12
353.447	893.12
353.674	933.12
353.901	930.12
354.128	942.12
354.355	951.12
354.583	986.12
354.81	996.12
355.037	999.12
355.264	946.12
355.491	925.12
355.718	962.12
355.945	948.12
356.172	949.12
356.399	894.12
356.626	920.12
356.853	959.12
357.08	1048.12
357.307	1158.12
357.534	1083.12
357.761	975.12
357.988	893.12
358.215	900.12
358.441	903.12
358.668	880.12
358.895	896.12
359.122	983.12
359.349	1070.12
359.576	1027.12
359.802	912.12
360.029	916.12
360.256	906.12
360.483	906.12
360.709	981.12
360.936	985.12
361.163	1048.12
361.39	1139.12
361.616	1202.12
361.843	1165.12
362.07	1078.12
362.296	950.12
362.523	923.12
362.749	911.12
362.976	978.12
363.203	956.12
363.429	936.12
363.656	919.12
363.882	986.12
364.109	1078.12
364.335	1127.12
364.562	1032.12
364.788	990.12
365.015	929.12
365.241	912.12
365.468	960.12
365.694	982.12
365.92	1041.12
366.147	984.12
366.373	908.12
366.599	928.12
366.826	909.12
367.052	938.12
367.278	943.12
367.505	928.12
367.731	966.12
367.957	1007.12
368.184	1031.12
368.41	1082.12
368.636	1060.12
368.862	1036.12
369.089	1065.12
369.315	1044.12
369.541	968.12
369.767	956.12
369.993	958.12
370.219	932.12
370.445	978.12
370.672	1055.12
370.898	1064.12
371.124	1085.12
371.35	1033.12
371.576	1074.12
371.802	1045.12
372.028	1015.12
372.254	1007.12
372.48	957.12
372.706	974.12
372.932	967.12
373.158	971.12
373.384	992.12
373.61	1031.12
373.835	1058.12
374.061	1018.12
374.287	969.12
374.513	985.12
374.739	999.12
374.965	1021.12
375.191	1042.12
375.416	1035.12
375.642	1064.12
375.868	1112.12
376.094	1134.12
376.319	1092.12
376.545	984.12
376.771	1059.12
376.997	1114.12
377.222	1041.12
377.448	1040.12
377.674	1038.12
377.899	1084.12
378.125	1109.12
378.35	1076.12
378.576	1019.12
378.802	943.12
379.027	945.12
379.253	987.12
379.478	979.12
379.704	1004.12
379.929	990.12
380.155	1007.12
380.38	1034.12
380.606	1030.12
380.831	1014.12
381.057	1080.12
381.282	1084.12
381.507	1075.12
381.733	1128.12
381.958	1163.12
382.184	1088.12
382.409	1049.12
382.634	1079.12
382.86	1049.12
383.085	1036.12
383.31	1122.12
383.535	1197.12
383.761	1229.12
383.986	1183.12
384.211	1149.12
384.436	1119.12
384.662	1202.12
384.887	1212.12
385.112	1166.12
385.337	1158.12
385.562	1141.12
385.787	1142.12
386.013	1167.12
386.238	1164.12
386.463	1202.12
386.688	1290.12
386.913	1332.12
387.138	1250.12
387.363	1223.12
387.588	1203.12
387.813	1173.12
388.038	1197.12
388.263	1254.12
388.488	1164.12
388.713	1074.12
388.938	1088.12
389.163	1110.12
389.387	1119.12
389.612	1135.12
389.837	1146.12
390.062	1154.12
390.287	1158.12
390.512	1107.12
390.736	1106.12
390.961	1094.12
391.186	1087.12
391.411	1110.12
391.636	1135.12
391.86	1123.12
392.085	1121.12
392.31	1112.12
392.534	1119.12
392.759	1132.12
392.984	1141.12
393.208	1206.12
393.433	1223.12
393.658	1258.12
393.882	1261.12
394.107	1167.12
394.331	1130.12
394.556	1162.12
394.78	1197.12
395.005	1205.12
395.229	1256.12
395.454	1355.12
395.678	1308.12
395.903	1241.12
396.127	1211.12
396.352	1219.12
396.576	1247.12
396.801	1296.12
397.025	1247.12
397.249	1271.12
397.474	1262.12
397.698	1232.12
397.922	1267.12
398.147	1355.12
398.371	1392.12
398.595	1355.12
398.82	1311.12
399.044	1337.12
399.268	1347.12
399.492	1511.12
399.717	1466.12
399.941	1517.12
400.165	1500.12
400.389	1437.12
400.613	1473.12
400.837	1661.12
401.062	1822.12
401.286	1550.12
401.51	1471.12
401.734	1525.12
401.958	1406.12
402.182	1337.12
402.406	1338.12
402.63	1294.12
402.854	1287.12
403.078	1344.12
403.302	1371.12
403.526	1359.12
403.75	1394.12
403.974	1366.12
404.198	1355.12
404.422	1411.12
404.645	1500.12
404.869	1434.12
405.093	1360.12
405.317	1309.12
405.541	1366.12
405.765	1377.12
405.988	1345.12
406.212	1380.12
406.436	1418.12
406.66	1492.12
406.883	1538.12
407.107	1726.12
407.331	1853.12
407.555	1943.12
407.778	1700.12
408.002	1474.12
408.226	1418.12
408.449	1444.12
408.673	1383.12
408.896	1379.12
409.12	1423.12
409.344	1371.12
409.567	1375.12
409.791	1364.12
410.014	1395.12
410.238	1488.12
410.461	1545.12
410.685	1382.12
410.908	1336.12
411.132	1369.12
411.355	1320.12
411.578	1325.12
411.802	1348.12
412.025	1378.12
412.249	1340.12
412.472	1313.12
412.695	1320.12
412.919	1317.12
413.142	1268.12
413.365	1332.12
413.589	1386.12
413.812	1456.12
414.035	1462.12
414.258	1354.12
414.482	1330.12
414.705	1353.12
414.928	1324.12
415.151	1311.12
415.374	1288.12
415.597	1342.12
415.821	1369.12
416.044	1365.12
416.267	1378.12
416.49	1275.12
416.713	1282.12
416.936	1351.12
417.159	1430.12
417.382	1391.12
417.605	1307.12
417.828	1336.12
418.051	1350.12
418.274	1367.12
418.497	1294.12
418.72	1308.12
418.943	1316.12
419.166	1328.12
419.389	1378.12
419.611	1330.12
419.834	1284.12
420.057	1315.12
420.28	1289.12
420.503	1318.12
420.726	1359.12
420.948	1322.12
421.171	1262.12
421.394	1310.12
421.617	1334.12
421.839	1333.12
422.062	1339.12
422.285	1274.12
422.507	1274.12
422.73	1269.12
422.953	1230.12
423.175	1229.12
423.398	1282.12
423.621	1274.12
423.843	1281.12
424.066	1327.12
424.288	1396.12
424.511	1431.12
424.733	1362.12
424.956	1250.12
425.178	1263.12
425.401	1261.12
425.623	1302.12
425.846	1281.12
426.068	1374.12
426.291	1380.12
426.513	1325.12
426.735	1330.12
426.958	1458.12
427.18	1503.12
427.402	1359.12
427.625	1432.12
427.847	1382.12
428.069	1305.12
428.292	1288.12
428.514	1244.12
428.736	1245.12
428.958	1301.12
429.181	1271.12
429.403	1510.12
429.625	1766.12
429.847	1488.12
430.069	1334.12
430.292	1516.12
430.514	1506.12
430.736	1363.12
430.958	1414.12
431.18	1318.12
431.402	1237.12
431.624	1193.12
431.846	1192.12
432.068	1150.12
432.29	1159.12
432.512	1207.12
432.734	1210.12
432.956	1296.12
433.178	1346.12
433.4	1330.12
433.622	1323.12
433.844	1268.12
434.066	1220.12
434.287	1177.12
434.509	1208.12
434.731	1276.12
434.953	1358.12
435.175	1344.12
435.397	1294.12
435.618	1267.12
435.84	1252.12
436.062	1254.12
436.284	1278.12
436.505	1320.12
436.727	1334.12
436.949	1302.12
437.17	1261.12
437.392	1224.12
437.614	1198.12
437.835	1189.12
438.057	1250.12
438.278	1244.12
438.5	1247.12
438.721	1269.12
438.943	1269.12
439.165	1252.12
439.386	1217.12
439.608	1275.12
439.829	1285.12
440.05	1282.12
440.272	1286.12
440.493	1244.12
440.715	1282.12
440.936	1352.12
441.158	1466.12
441.379	1406.12
441.6	1400.12
441.822	1365.12
442.043	1398.12
442.264	1344.12
442.486	1302.12
442.707	1254.12
442.928	1286.12
443.149	1314.12
443.371	1387.12
443.592	1412.12
443.813	1408.12
444.034	1377.12
444.255	1369.12
444.476	1402.12
444.698	1407.12
444.919	1402.12
445.14	1499.12
445.361	1475.12
445.582	1479.12
445.803	1420.12
446.024	1427.12
446.245	1437.12
446.466	1381.12
446.687	1341.12
446.908	1365.12
447.129	1310.12
447.35	1319.12
447.571	1302.12
447.792	1274.12
448.013	1241.12
448.234	1303.12
448.455	1334.12
448.675	1334.12
448.896	1235.12
449.117	1209.12
449.338	1239.12
449.559	1317.12
449.779	1320.12
450	1455.12
450.221	1486.12
450.442	1434.12
450.662	1256.12
450.883	1174.12
451.104	1202.12
451.324	1231.12
451.545	1252.12
451.766	1204.12
451.986	1165.12
452.207	1125.12
452.428	1098.12
452.648	1087.12
452.869	1123.12
453.089	1156.12
453.31	1160.12
453.53	1153.12
453.751	1158.12
453.971	1076.12
454.192	1106.12
454.412	1205.12
454.633	1171.12
454.853	1134.12
455.073	1081.12
455.294	1096.12
455.514	1062.12
455.734	1081.12
455.955	1097.12
456.175	1044.12
456.395	1079.12
456.616	1107.12
456.836	1122.12
457.056	1078.12
457.276	1133.12
457.497	1072.12
457.717	1032.12
457.937	1033.12
458.157	1052.12
458.377	1043.12
458.598	1066.12
458.818	1030.12
459.038	1108.12
459.258	1186.12
459.478	1151.12
459.698	1151.12
459.918	1193.12
460.138	1246.12
460.358	1266.12
460.578	1253.12
460.798	1302.12
461.018	1340.12
461.238	1332.12
461.458	1268.12
461.678	1251.12
461.898	1190.12
462.118	1230.12
462.338	1279.12
462.558	1294.12
462.777	1267.12
462.997	1322.12
463.217	1381.12
463.437	1373.12
463.657	1289.12
463.876	1222.12
464.096	1247.12
464.316	1251.12
464.536	1342.12
464.755	1332.12
464.975	1314.12
465.195	1262.12
465.414	1344.12
465.634	1322.12
465.854	1336.12
466.073	1436.12
466.293	1352.12
466.512	1250.12
466.732	1242.12
466.951	1247.12
467.171	1229.12
467.391	1200.12
467.61	1214.12
467.829	1222.12
468.049	1318.12
468.268	1475.12
468.488	1356.12
468.707	1268.12
468.927	1245.12
469.146	1215.12
469.365	1247.12
469.585	1233.12
469.804	1214.12
470.023	1275.12
470.243	1274.12
470.462	1268.12
470.681	1252.12
470.901	1269.12
471.12	1276.12
471.339	1282.12
471.558	1214.12
471.777	1188.12
471.997	1228.12
472.216	1209.12
472.435	1117.12
472.654	1119.12
472.873	1174.12
473.092	1234.12
473.311	1180.12
473.53	1149.12
473.749	1167.12
473.968	1199.12
474.187	1213.12
474.406	1255.12
474.625	1201.12
474.844	1178.12
475.063	1205.12
475.282	1252.12
475.501	1192.12
475.72	1220.12
475.939	1316.12
476.158	1242.12
476.377	1212.12
476.596	1242.12
476.814	1215.12
477.033	1229.12
477.252	1272.12
477.471	1303.12
477.69	1313.12
477.908	1286.12
478.127	1386.12
478.346	1431.12
478.564	1454.12
478.783	1396.12
479.002	1458.12
479.22	1398.12
479.439	1469.12
479.658	1612.12
479.876	1544.12
480.095	1400.12
480.313	1365.12
480.532	1307.12
480.751	1314.12
480.969	1295.12
481.188	1322.12
481.406	1273.12
481.624	1247.12
481.843	1296.12
482.061	1339.12
482.28	1335.12
482.498	1328.12
482.717	1338.12
482.935	1322.12
483.153	1385.12
483.372	1354.12
483.59	1374.12
483.808	1368.12
484.027	1376.12
484.245	1480.12
484.463	1782.12
484.681	1940.12
484.9	1474.12
485.118	1375.12
485.336	1394.12
485.554	1352.12
485.772	1414.12
485.99	1412.12
486.209	1389.12
486.427	1400.12
486.645	1386.12
486.863	1436.12
487.081	1483.12
487.299	1503.12
487.517	1487.12
487.735	1482.12
487.953	1509.12
488.171	1488.12
488.389	1510.12
488.607	1468.12
488.825	1600.12
489.043	1586.12
489.261	1414.12
489.479	1485.12
489.696	1510.12
489.914	1464.12
490.132	1478.12
490.35	1461.12
490.568	1551.12
490.786	1491.12
491.003	1508.12
491.221	1558.12
491.439	1586.12
491.657	1606.12
491.874	1613.12
492.092	1673.12
492.31	1711.12
492.527	1709.12
492.745	1645.12
492.963	1603.12
493.18	1649.12
