Data from WStandard_LampEnergy5.5LIBS07252019.E.O._I.C._HRD10591_16-06-30-920.txt Node
Date: Thu Jul 25 16:06:30 EDT 2019
User: cochatt
Spectrometer: HR+D1059
Trigger mode: 1
Integration Time (sec): 1.000000E-1
Scans to average: 1
Electric dark correction enabled: true
Nonlinearity correction enabled: false
Boxcar width: 0
XAxis mode: Wavelengths
Number of Pixels in Spectrum: 2048
>>>>>Begin Spectral Data<<<<<
223.165	-22.25
223.4	-22.25
223.635	-22.25
223.869	-12.25
224.104	-4.25
224.338	-11.25
224.573	-15.25
224.808	-25.25
225.042	-10.25
225.277	-2.25
225.511	-12.25
225.746	-2.25
225.98	10.75
226.215	10.75
226.449	36.75
226.683	9.75
226.918	13.75
227.152	35.75
227.387	18.75
227.621	43.75
227.856	33.75
228.09	43.75
228.324	44.75
228.559	57.75
228.793	141.75
229.027	361.75
229.262	343.75
229.496	375.75
229.73	386.75
229.964	412.75
230.199	439.75
230.433	443.75
230.667	478.75
230.901	521.75
231.136	461.75
231.37	463.75
231.604	429.75
231.838	447.75
232.072	449.75
232.306	436.75
232.541	466.75
232.775	538.75
233.009	578.75
233.243	590.75
233.477	508.75
233.711	523.75
233.945	563.75
234.179	525.75
234.413	541.75
234.647	615.75
234.881	574.75
235.115	533.75
235.349	540.75
235.583	557.75
235.817	528.75
236.051	513.75
236.285	527.75
236.519	569.75
236.753	649.75
236.987	662.75
237.221	664.75
237.455	737.75
237.689	697.75
237.922	663.75
238.156	627.75
238.39	651.75
238.624	673.75
238.858	719.75
239.091	726.75
239.325	738.75
239.559	855.75
239.793	921.75
240.027	997.75
240.26	994.75
240.494	754.75
240.728	683.75
240.961	716.75
241.195	727.75
241.429	784.75
241.662	758.75
241.896	727.75
242.13	717.75
242.363	798.75
242.597	878.75
242.83	819.75
243.064	871.75
243.298	904.75
243.531	883.75
243.765	879.75
243.998	874.75
244.232	753.75
244.465	715.75
244.699	744.75
244.932	843.75
245.166	979.75
245.399	923.75
245.633	853.75
245.866	822.75
246.099	883.75
246.333	933.75
246.566	934.75
246.8	998.75
247.033	1112.75
247.266	1022.75
247.5	997.75
247.733	1029.75
247.966	1035.75
248.2	1191.75
248.433	1124.75
248.666	1129.75
248.899	1267.75
249.133	1473.75
249.366	1658.75
249.599	1350.75
249.832	1183.75
250.066	1198.75
250.299	1248.75
250.532	1154.75
250.765	1082.75
250.998	1095.75
251.231	1145.75
251.465	1175.75
251.698	1111.75
251.931	1098.75
252.164	1150.75
252.397	1219.75
252.63	1165.75
252.863	1049.75
253.096	1032.75
253.329	1058.75
253.562	1140.75
253.795	1244.75
254.028	1203.75
254.261	1131.75
254.494	1126.75
254.727	1057.75
254.96	1080.75
255.193	1179.75
255.426	1357.75
255.659	1541.75
255.892	1613.75
256.124	1332.75
256.357	1281.75
256.59	1351.75
256.823	1377.75
257.056	1336.75
257.289	1597.75
257.521	1819.75
257.754	1640.75
257.987	1518.75
258.22	1684.75
258.452	1634.75
258.685	1316.75
258.918	1303.75
259.151	1307.75
259.383	1253.75
259.616	1119.75
259.849	1157.75
260.081	1295.75
260.314	1457.75
260.547	1617.75
260.779	1637.75
261.012	1530.75
261.244	1347.75
261.477	1276.75
261.71	1359.75
261.942	1336.75
262.175	1281.75
262.407	1403.75
262.64	1285.75
262.872	1229.75
263.105	1198.75
263.337	1205.75
263.57	1218.75
263.802	1226.75
264.035	1133.75
264.267	1060.75
264.499	1056.75
264.732	1146.75
264.964	1203.75
265.197	1266.75
265.429	1318.75
265.661	1478.75
265.894	1615.75
266.126	1697.75
266.358	1496.75
266.591	1545.75
266.823	1703.75
267.055	1525.75
267.287	1472.75
267.52	1448.75
267.752	1457.75
267.984	1461.75
268.216	1509.75
268.448	1539.75
268.681	1529.75
268.913	1417.75
269.145	1373.75
269.377	1324.75
269.609	1405.75
269.841	1625.75
270.073	1915.75
270.306	2130.75
270.538	2327.75
270.77	1905.75
271.002	1605.75
271.234	1544.75
271.466	1508.75
271.698	1710.75
271.93	2087.75
272.162	2069.75
272.394	1851.75
272.626	1758.75
272.858	1530.75
273.09	1365.75
273.322	1343.75
273.553	1284.75
273.785	1299.75
274.017	1370.75
274.249	1481.75
274.481	1495.75
274.713	1361.75
274.945	1295.75
275.176	1339.75
275.408	1339.75
275.64	1298.75
275.872	1276.75
276.104	1347.75
276.335	1527.75
276.567	1779.75
276.799	1817.75
277.031	1590.75
277.262	1513.75
277.494	1539.75
277.726	1726.75
277.957	1729.75
278.189	1557.75
278.421	1409.75
278.652	1390.75
278.884	1364.75
279.115	1371.75
279.347	1425.75
279.579	1386.75
279.81	1331.75
280.042	1552.75
280.273	1661.75
280.505	1688.75
280.736	1709.75
280.968	1609.75
281.199	1425.75
281.431	1364.75
281.662	1338.75
281.894	1347.75
282.125	1355.75
282.356	1433.75
282.588	1459.75
282.819	1423.75
283.051	1596.75
283.282	1661.75
283.513	1635.75
283.745	1409.75
283.976	1303.75
284.207	1357.75
284.439	1365.75
284.67	1393.75
284.901	1377.75
285.132	1463.75
285.364	1426.75
285.595	1423.75
285.826	1433.75
286.057	1409.75
286.288	1391.75
286.52	1443.75
286.751	1558.75
286.982	1608.75
287.213	1502.75
287.444	1382.75
287.675	1331.75
287.906	1437.75
288.138	1505.75
288.369	1484.75
288.6	1417.75
288.831	1353.75
289.062	1404.75
289.293	1441.75
289.524	1389.75
289.755	1433.75
289.986	1438.75
290.217	1348.75
290.448	1357.75
290.679	1402.75
290.91	1421.75
291.141	1447.75
291.371	1548.75
291.602	1529.75
291.833	1483.75
292.064	1500.75
292.295	1507.75
292.526	1530.75
292.757	1627.75
292.987	1545.75
293.218	1445.75
293.449	1545.75
293.68	1773.75
293.91	1899.75
294.141	1755.75
294.372	1632.75
294.603	1645.75
294.833	1765.75
295.064	1649.75
295.295	1539.75
295.525	1502.75
295.756	1379.75
295.987	1349.75
296.217	1356.75
296.448	1421.75
296.679	1404.75
296.909	1438.75
297.14	1374.75
297.37	1403.75
297.601	1476.75
297.831	1586.75
298.062	1614.75
298.292	1461.75
298.523	1370.75
298.753	1422.75
298.984	1444.75
299.214	1424.75
299.445	1438.75
299.675	1496.75
299.905	1525.75
300.136	1491.75
300.366	1436.75
300.597	1419.75
300.827	1376.75
301.057	1434.75
301.288	1509.75
301.518	1500.75
301.748	1547.75
301.979	1615.75
302.209	1619.75
302.439	1737.75
302.669	1820.75
302.9	1697.75
303.13	1508.75
303.36	1557.75
303.59	1567.75
303.82	1531.75
304.051	1474.75
304.281	1515.75
304.511	1486.75
304.741	1587.75
304.971	1756.75
305.201	1925.75
305.431	1852.75
305.661	1522.75
305.891	1351.75
306.121	1347.75
306.352	1389.75
306.582	1464.75
306.812	1593.75
307.042	1695.75
307.272	1694.75
307.502	1733.75
307.731	1847.75
307.961	2023.75
308.191	1889.75
308.421	1592.75
308.651	1530.75
308.881	1474.75
309.111	1485.75
309.341	1475.75
309.571	1429.75
309.8	1487.75
310.03	1490.75
310.26	1478.75
310.49	1462.75
310.72	1500.75
310.949	1546.75
311.179	1597.75
311.409	1550.75
311.639	1516.75
311.868	1482.75
312.098	1496.75
312.328	1509.75
312.557	1468.75
312.787	1539.75
313.017	1579.75
313.246	1546.75
313.476	1530.75
313.706	1562.75
313.935	1590.75
314.165	1605.75
314.394	1592.75
314.624	1694.75
314.853	1796.75
315.083	1869.75
315.312	1929.75
315.542	1825.75
315.771	1584.75
316.001	1614.75
316.23	1722.75
316.46	1674.75
316.689	1689.75
316.919	1545.75
317.148	1526.75
317.377	1518.75
317.607	1623.75
317.836	1810.75
318.065	1932.75
318.295	1833.75
318.524	1747.75
318.753	1653.75
318.983	1674.75
319.212	1628.75
319.441	1603.75
319.67	1558.75
319.9	1589.75
320.129	1685.75
320.358	1755.75
320.587	1774.75
320.816	1780.75
321.046	1755.75
321.275	1657.75
321.504	1671.75
321.733	1781.75
321.962	1735.75
322.191	1590.75
322.42	1623.75
322.649	1591.75
322.878	1626.75
323.108	1650.75
323.337	1678.75
323.566	1702.75
323.795	1667.75
324.024	1668.75
324.253	1627.75
324.482	1663.75
324.71	1606.75
324.939	1558.75
325.168	1517.75
325.397	1564.75
325.626	1681.75
325.855	1672.75
326.084	1594.75
326.313	1636.75
326.542	1621.75
326.77	1692.75
326.999	1697.75
327.228	1637.75
327.457	1553.75
327.686	1518.75
327.914	1587.75
328.143	1644.75
328.372	1623.75
328.6	1639.75
328.829	1597.75
329.058	1537.75
329.287	1571.75
329.515	1612.75
329.744	1619.75
329.972	1705.75
330.201	1777.75
330.43	1771.75
330.658	1729.75
330.887	1764.75
331.115	1742.75
331.344	1725.75
331.572	1687.75
331.801	1709.75
332.03	1689.75
332.258	1703.75
332.486	1707.75
332.715	1737.75
332.943	1709.75
333.172	1720.75
333.4	1728.75
333.629	1777.75
333.857	1861.75
334.085	2047.75
334.314	2325.75
334.542	2540.75
334.771	2341.75
334.999	2017.75
335.227	1957.75
335.455	1869.75
335.684	1861.75
335.912	1872.75
336.14	1935.75
336.369	1879.75
336.597	1758.75
336.825	1746.75
337.053	1764.75
337.281	1847.75
337.51	1934.75
337.738	2013.75
337.966	1940.75
338.194	1777.75
338.422	1713.75
338.65	1694.75
338.878	1641.75
339.106	1653.75
339.334	1631.75
339.562	1609.75
339.79	1595.75
340.018	1734.75
340.246	1859.75
340.474	1849.75
340.702	1757.75
340.93	1756.75
341.158	1739.75
341.386	1717.75
341.614	1695.75
341.842	1706.75
342.07	1657.75
342.298	1720.75
342.526	1699.75
342.754	1673.75
342.981	1647.75
343.209	1667.75
343.437	1678.75
343.665	1706.75
343.893	1783.75
344.12	1824.75
344.348	1829.75
344.576	1758.75
344.804	1665.75
345.031	1709.75
345.259	1715.75
345.487	1633.75
345.714	1602.75
345.942	1555.75
346.17	1557.75
346.397	1606.75
346.625	1599.75
346.853	1495.75
347.08	1496.75
347.308	1493.75
347.535	1551.75
347.763	1646.75
347.99	1553.75
348.218	1501.75
348.445	1539.75
348.673	1582.75
348.9	1625.75
349.128	1658.75
349.355	1747.75
349.583	1660.75
349.81	1568.75
350.037	1485.75
350.265	1468.75
350.492	1472.75
350.72	1534.75
350.947	1561.75
351.174	1669.75
351.402	1556.75
351.629	1467.75
351.856	1450.75
352.083	1510.75
352.311	1473.75
352.538	1525.75
352.765	1578.75
352.992	1595.75
353.22	1539.75
353.447	1516.75
353.674	1514.75
353.901	1568.75
354.128	1513.75
354.355	1530.75
354.583	1554.75
354.81	1635.75
355.037	1591.75
355.264	1610.75
355.491	1556.75
355.718	1629.75
355.945	1556.75
356.172	1476.75
356.399	1493.75
356.626	1502.75
356.853	1589.75
357.08	1672.75
357.307	1847.75
357.534	1883.75
357.761	1622.75
357.988	1515.75
358.215	1447.75
358.441	1494.75
358.668	1466.75
358.895	1499.75
359.122	1590.75
359.349	1727.75
359.576	1745.75
359.802	1566.75
360.029	1512.75
360.256	1499.75
360.483	1484.75
360.709	1545.75
360.936	1574.75
361.163	1672.75
361.39	1803.75
361.616	1955.75
361.843	1857.75
362.07	1799.75
362.296	1542.75
362.523	1550.75
362.749	1537.75
362.976	1591.75
363.203	1606.75
363.429	1535.75
363.656	1492.75
363.882	1537.75
364.109	1702.75
364.335	1921.75
364.562	1768.75
364.788	1642.75
365.015	1600.75
365.241	1513.75
365.468	1538.75
365.694	1582.75
365.92	1696.75
366.147	1609.75
366.373	1537.75
366.599	1521.75
366.826	1500.75
367.052	1516.75
367.278	1501.75
367.505	1540.75
367.731	1587.75
367.957	1541.75
368.184	1574.75
368.41	1629.75
368.636	1667.75
368.862	1721.75
369.089	1753.75
369.315	1673.75
369.541	1647.75
369.767	1577.75
369.993	1522.75
370.219	1521.75
370.445	1536.75
370.672	1659.75
370.898	1775.75
371.124	1732.75
371.35	1636.75
371.576	1687.75
371.802	1752.75
372.028	1714.75
372.254	1631.75
372.48	1557.75
372.706	1549.75
372.932	1573.75
373.158	1598.75
373.384	1609.75
373.61	1669.75
373.835	1769.75
374.061	1663.75
374.287	1623.75
374.513	1653.75
374.739	1605.75
374.965	1636.75
375.191	1637.75
375.416	1630.75
375.642	1678.75
375.868	1745.75
376.094	1821.75
376.319	1722.75
376.545	1654.75
376.771	1674.75
376.997	1723.75
377.222	1761.75
377.448	1634.75
377.674	1722.75
377.899	1677.75
378.125	1764.75
378.35	1791.75
378.576	1637.75
378.802	1568.75
379.027	1574.75
379.253	1622.75
379.478	1591.75
379.704	1618.75
379.929	1616.75
380.155	1623.75
380.38	1641.75
380.606	1660.75
380.831	1639.75
381.057	1661.75
381.282	1737.75
381.507	1667.75
381.733	1753.75
381.958	1895.75
382.184	1750.75
382.409	1670.75
382.634	1674.75
382.86	1638.75
383.085	1687.75
383.31	1764.75
383.535	1855.75
383.761	1954.75
383.986	1877.75
384.211	1803.75
384.436	1825.75
384.662	1910.75
384.887	1956.75
385.112	1871.75
385.337	1905.75
385.562	1858.75
385.787	1848.75
386.013	1905.75
386.238	1873.75
386.463	1867.75
386.688	1987.75
386.913	2087.75
387.138	2058.75
387.363	1917.75
387.588	1947.75
387.813	1909.75
388.038	1954.75
388.263	1969.75
388.488	1924.75
388.713	1785.75
388.938	1778.75
389.163	1797.75
389.387	1817.75
389.612	1848.75
389.837	1877.75
390.062	1890.75
390.287	1859.75
390.512	1892.75
390.736	1843.75
390.961	1817.75
391.186	1770.75
391.411	1801.75
391.636	1854.75
391.86	1863.75
392.085	1844.75
392.31	1829.75
392.534	1861.75
392.759	1889.75
392.984	1859.75
393.208	1874.75
393.433	1991.75
393.658	2079.75
393.882	2057.75
394.107	1903.75
394.331	1817.75
394.556	1807.75
394.78	1900.75
395.005	1968.75
395.229	2003.75
395.454	2122.75
395.678	2188.75
395.903	2120.75
396.127	1973.75
396.352	1962.75
396.576	2004.75
396.801	2069.75
397.025	2070.75
397.249	2069.75
397.474	2053.75
397.698	2005.75
397.922	2021.75
398.147	2143.75
398.371	2222.75
398.595	2235.75
398.82	2130.75
399.044	2193.75
399.268	2289.75
399.492	2379.75
399.717	2499.75
399.941	2566.75
400.165	2446.75
400.389	2357.75
400.613	2368.75
400.837	2552.75
401.062	2953.75
401.286	2523.75
401.51	2295.75
401.734	2370.75
401.958	2358.75
402.182	2206.75
402.406	2101.75
402.63	2128.75
402.854	2109.75
403.078	2153.75
403.302	2243.75
403.526	2189.75
403.75	2173.75
403.974	2221.75
404.198	2255.75
404.422	2254.75
404.645	2368.75
404.869	2342.75
405.093	2187.75
405.317	2122.75
405.541	2203.75
405.765	2282.75
405.988	2263.75
406.212	2313.75
406.436	2314.75
406.66	2363.75
406.883	2344.75
407.107	2625.75
407.331	2856.75
407.555	3077.75
407.778	2883.75
408.002	2407.75
408.226	2343.75
408.449	2381.75
408.673	2264.75
408.896	2315.75
409.12	2359.75
409.344	2282.75
409.567	2171.75
409.791	2242.75
410.014	2268.75
410.238	2323.75
410.461	2515.75
410.685	2295.75
410.908	2159.75
411.132	2217.75
411.355	2223.75
411.578	2143.75
411.802	2165.75
412.025	2239.75
412.249	2187.75
412.472	2119.75
412.695	2082.75
412.919	2089.75
413.142	2074.75
413.365	2171.75
413.589	2212.75
413.812	2235.75
414.035	2309.75
414.258	2140.75
414.482	2101.75
414.705	2146.75
414.928	2093.75
415.151	2092.75
415.374	2133.75
415.597	2173.75
415.821	2185.75
416.044	2300.75
416.267	2291.75
416.49	2065.75
416.713	2009.75
416.936	2087.75
417.159	2180.75
417.382	2185.75
417.605	2093.75
417.828	2165.75
418.051	2174.75
418.274	2136.75
418.497	2036.75
418.72	2086.75
418.943	2022.75
419.166	2178.75
419.389	2301.75
419.611	2185.75
419.834	2089.75
420.057	2169.75
420.28	2103.75
420.503	2036.75
420.726	2026.75
420.948	2071.75
421.171	2026.75
421.394	2034.75
421.617	2113.75
421.839	2128.75
422.062	2057.75
422.285	2055.75
422.507	2021.75
422.73	1971.75
422.953	1970.75
423.175	1958.75
423.398	2037.75
423.621	2028.75
423.843	2047.75
424.066	2082.75
424.288	2114.75
424.511	2160.75
424.733	2106.75
424.956	1951.75
425.178	1950.75
425.401	1970.75
425.623	2005.75
425.846	2010.75
426.068	2075.75
426.291	2103.75
426.513	2063.75
426.735	2050.75
426.958	2174.75
427.18	2300.75
427.402	2123.75
427.625	2151.75
427.847	2171.75
428.069	2101.75
428.292	1973.75
428.514	1938.75
428.736	1918.75
428.958	2010.75
429.181	2023.75
429.403	2200.75
429.625	2678.75
429.847	2431.75
430.069	2041.75
430.292	2206.75
430.514	2251.75
430.736	2143.75
430.958	2195.75
431.18	2134.75
431.402	1977.75
431.624	2015.75
431.846	1951.75
432.068	1931.75
432.29	1955.75
432.512	2003.75
432.734	2017.75
432.956	2021.75
433.178	2148.75
433.4	2085.75
433.622	2132.75
433.844	2056.75
434.066	1972.75
434.287	1986.75
434.509	2056.75
434.731	2152.75
434.953	2262.75
435.175	2191.75
435.397	2092.75
435.618	2090.75
435.84	2130.75
436.062	2069.75
436.284	2095.75
436.505	2088.75
436.727	2096.75
436.949	2044.75
437.17	2022.75
437.392	1984.75
437.614	2012.75
437.835	1980.75
438.057	2061.75
438.278	2174.75
438.5	2054.75
438.721	1969.75
438.943	1977.75
439.165	1986.75
439.386	1900.75
439.608	1959.75
439.829	2004.75
440.05	1993.75
440.272	1970.75
440.493	1917.75
440.715	1948.75
440.936	2086.75
441.158	2305.75
441.379	2263.75
441.6	2185.75
441.822	2134.75
442.043	2115.75
442.264	2059.75
442.486	1998.75
442.707	1971.75
442.928	1951.75
443.149	2063.75
443.371	2163.75
443.592	2199.75
443.813	2199.75
444.034	2156.75
444.255	2175.75
444.476	2177.75
444.698	2298.75
444.919	2232.75
445.14	2329.75
445.361	2294.75
445.582	2402.75
445.803	2273.75
446.024	2182.75
446.245	2235.75
446.466	2207.75
446.687	2119.75
446.908	2055.75
447.129	2043.75
447.35	2068.75
447.571	2060.75
447.792	1960.75
448.013	1945.75
448.234	1952.75
448.455	2077.75
448.675	2064.75
448.896	1920.75
449.117	1880.75
449.338	1943.75
449.559	2030.75
449.779	2124.75
450	2359.75
450.221	2509.75
450.442	2455.75
450.662	2141.75
450.883	1918.75
451.104	1851.75
451.324	1909.75
451.545	1982.75
451.766	1962.75
451.986	1856.75
452.207	1841.75
452.428	1786.75
452.648	1758.75
452.869	1818.75
453.089	1969.75
453.31	1948.75
453.53	1981.75
453.751	1930.75
453.971	1793.75
454.192	1835.75
454.412	1970.75
454.633	1877.75
454.853	1838.75
455.073	1713.75
455.294	1732.75
455.514	1706.75
455.734	1732.75
455.955	1793.75
456.175	1767.75
456.395	1785.75
456.616	1823.75
456.836	1871.75
457.056	1823.75
457.276	1837.75
457.497	1797.75
457.717	1743.75
457.937	1735.75
458.157	1794.75
458.377	1784.75
458.598	1796.75
458.818	1822.75
459.038	1904.75
459.258	2016.75
459.478	1993.75
459.698	1948.75
459.918	2019.75
460.138	2063.75
460.358	2102.75
460.578	2120.75
460.798	2217.75
461.018	2349.75
461.238	2248.75
461.458	2122.75
461.678	2119.75
461.898	2107.75
462.118	2038.75
462.338	2141.75
462.558	2152.75
462.777	2132.75
462.997	2241.75
463.217	2421.75
463.437	2322.75
463.657	2163.75
463.876	2136.75
464.096	2123.75
464.316	2099.75
464.536	2177.75
464.755	2239.75
464.975	2259.75
465.195	2176.75
465.414	2222.75
465.634	2298.75
465.854	2116.75
466.073	2225.75
466.293	2211.75
466.512	1946.75
466.732	1941.75
466.951	2006.75
467.171	2033.75
467.391	1953.75
467.61	1869.75
467.829	1916.75
468.049	2063.75
468.268	2330.75
468.488	2152.75
468.707	2045.75
468.927	1994.75
469.146	1920.75
469.365	1915.75
469.585	1938.75
469.804	1920.75
470.023	1945.75
470.243	1978.75
470.462	1939.75
470.681	1881.75
470.901	1944.75
471.12	1923.75
471.339	1936.75
471.558	1837.75
471.777	1875.75
471.997	1886.75
472.216	1895.75
472.435	1822.75
472.654	1867.75
472.873	1975.75
473.092	2073.75
473.311	1943.75
473.53	1854.75
473.749	1844.75
473.968	1925.75
474.187	2033.75
474.406	2134.75
474.625	2005.75
474.844	1973.75
475.063	1932.75
475.282	2024.75
475.501	1982.75
475.72	1942.75
475.939	2077.75
476.158	2020.75
476.377	1965.75
476.596	2014.75
476.814	2038.75
477.033	2036.75
477.252	2126.75
477.471	2204.75
477.69	2074.75
477.908	2089.75
478.127	2148.75
478.346	2357.75
478.564	2381.75
478.783	2294.75
479.002	2410.75
479.22	2327.75
479.439	2438.75
479.658	2721.75
479.876	2731.75
480.095	2375.75
480.313	2245.75
480.532	2151.75
480.751	2191.75
480.969	2247.75
481.188	2199.75
481.406	2227.75
481.624	2137.75
481.843	2163.75
482.061	2185.75
482.28	2258.75
482.498	2325.75
482.717	2244.75
482.935	2128.75
483.153	2172.75
483.372	2201.75
483.59	2130.75
483.808	2205.75
484.027	2250.75
484.245	2346.75
484.463	2677.75
484.681	3047.75
484.9	2371.75
485.118	2215.75
485.336	2181.75
485.554	2262.75
485.772	2399.75
485.99	2359.75
486.209	2385.75
486.427	2319.75
486.645	2312.75
486.863	2281.75
487.081	2352.75
487.299	2421.75
487.517	2366.75
