Data from WStandard_LampEnergy8_LIBS07252019.E.O._I.C._HRD10591_15-59-00-929.txt Node
Date: Thu Jul 25 15:59:00 EDT 2019
User: cochatt
Spectrometer: HR+D1059
Trigger mode: 1
Integration Time (sec): 1.000000E-1
Scans to average: 1
Electric dark correction enabled: true
Nonlinearity correction enabled: false
Boxcar width: 0
XAxis mode: Wavelengths
Number of Pixels in Spectrum: 2048
>>>>>Begin Spectral Data<<<<<
223.165	-21.81
223.4	-21.81
223.635	-21.81
223.869	0.19
224.104	-5.81
224.338	-15.81
224.573	-26.81
224.808	-26.81
225.042	-6.81
225.277	-7.81
225.511	11.19
225.746	-0.81
225.98	8.19
226.215	16.19
226.449	0.19
226.683	22.19
226.918	20.19
227.152	34.19
227.387	42.19
227.621	25.19
227.856	56.19
228.09	38.19
228.324	48.19
228.559	49.19
228.793	83.19
229.027	191.19
229.262	211.19
229.496	225.19
229.73	223.19
229.964	246.19
230.199	252.19
230.433	264.19
230.667	281.19
230.901	282.19
231.136	268.19
231.37	249.19
231.604	264.19
231.838	282.19
232.072	260.19
232.306	262.19
232.541	257.19
232.775	304.19
233.009	314.19
233.243	309.19
233.477	307.19
233.711	320.19
233.945	330.19
234.179	297.19
234.413	315.19
234.647	332.19
234.881	288.19
235.115	290.19
235.349	312.19
235.583	315.19
235.817	284.19
236.051	295.19
236.285	307.19
236.519	323.19
236.753	333.19
236.987	363.19
237.221	363.19
237.455	399.19
237.689	368.19
237.922	354.19
238.156	362.19
238.39	369.19
238.624	366.19
238.858	399.19
239.091	418.19
239.325	420.19
239.559	473.19
239.793	506.19
240.027	521.19
240.26	499.19
240.494	384.19
240.728	401.19
240.961	394.19
241.195	390.19
241.429	399.19
241.662	416.19
241.896	396.19
242.13	401.19
242.363	434.19
242.597	445.19
242.83	437.19
243.064	453.19
243.298	474.19
243.531	444.19
243.765	459.19
243.998	462.19
244.232	404.19
244.465	399.19
244.699	400.19
244.932	466.19
245.166	506.19
245.399	491.19
245.633	475.19
245.866	458.19
246.099	480.19
246.333	515.19
246.566	501.19
246.8	519.19
247.033	569.19
247.266	516.19
247.5	514.19
247.733	526.19
247.966	593.19
248.2	615.19
248.433	599.19
248.666	613.19
248.899	659.19
249.133	776.19
249.366	818.19
249.599	687.19
249.832	611.19
250.066	640.19
250.299	629.19
250.532	596.19
250.765	579.19
250.998	568.19
251.231	600.19
251.465	607.19
251.698	564.19
251.931	567.19
252.164	615.19
252.397	612.19
252.63	623.19
252.863	571.19
253.096	553.19
253.329	583.19
253.562	594.19
253.795	615.19
254.028	596.19
254.261	565.19
254.494	575.19
254.727	534.19
254.96	576.19
255.193	639.19
255.426	724.19
255.659	770.19
255.892	796.19
256.124	667.19
256.357	657.19
256.59	696.19
256.823	715.19
257.056	714.19
257.289	819.19
257.521	906.19
257.754	819.19
257.987	777.19
258.22	862.19
258.452	815.19
258.685	690.19
258.918	678.19
259.151	658.19
259.383	611.19
259.616	576.19
259.849	629.19
260.081	700.19
260.314	785.19
260.547	834.19
260.779	830.19
261.012	770.19
261.244	676.19
261.477	673.19
261.71	703.19
261.942	710.19
262.175	668.19
262.407	684.19
262.64	671.19
262.872	626.19
263.105	626.19
263.337	629.19
263.57	622.19
263.802	653.19
264.035	615.19
264.267	570.19
264.499	558.19
264.732	626.19
264.964	659.19
265.197	676.19
265.429	713.19
265.661	784.19
265.894	863.19
266.126	888.19
266.358	792.19
266.591	834.19
266.823	859.19
267.055	775.19
267.287	768.19
267.52	793.19
267.752	763.19
267.984	783.19
268.216	776.19
268.448	795.19
268.681	782.19
268.913	742.19
269.145	705.19
269.377	697.19
269.609	776.19
269.841	910.19
270.073	990.19
270.306	1087.19
270.538	1128.19
270.77	931.19
271.002	850.19
271.234	821.19
271.466	828.19
271.698	943.19
271.93	1060.19
272.162	1047.19
272.394	954.19
272.626	894.19
272.858	794.19
273.09	708.19
273.322	706.19
273.553	687.19
273.785	677.19
274.017	694.19
274.249	786.19
274.481	763.19
274.713	712.19
274.945	716.19
275.176	710.19
275.408	697.19
275.64	660.19
275.872	674.19
276.104	742.19
276.335	839.19
276.567	931.19
276.799	928.19
277.031	852.19
277.262	800.19
277.494	862.19
277.726	907.19
277.957	888.19
278.189	823.19
278.421	766.19
278.652	725.19
278.884	743.19
279.115	723.19
279.347	753.19
279.579	720.19
279.81	750.19
280.042	798.19
280.273	888.19
280.505	889.19
280.736	872.19
280.968	840.19
281.199	730.19
281.431	713.19
281.662	713.19
281.894	728.19
282.125	736.19
282.356	767.19
282.588	776.19
282.819	793.19
283.051	847.19
283.282	890.19
283.513	850.19
283.745	750.19
283.976	722.19
284.207	729.19
284.439	739.19
284.67	752.19
284.901	743.19
285.132	799.19
285.364	763.19
285.595	766.19
285.826	768.19
286.057	758.19
286.288	747.19
286.52	792.19
286.751	826.19
286.982	855.19
287.213	773.19
287.444	745.19
287.675	746.19
287.906	786.19
288.138	840.19
288.369	820.19
288.6	780.19
288.831	725.19
289.062	739.19
289.293	751.19
289.524	758.19
289.755	804.19
289.986	802.19
290.217	732.19
290.448	762.19
290.679	809.19
290.91	808.19
291.141	795.19
291.371	838.19
291.602	826.19
291.833	803.19
292.064	855.19
292.295	830.19
292.526	851.19
292.757	866.19
292.987	847.19
293.218	809.19
293.449	886.19
293.68	966.19
293.91	1037.19
294.141	960.19
294.372	912.19
294.603	962.19
294.833	967.19
295.064	908.19
295.295	852.19
295.525	794.19
295.756	726.19
295.987	720.19
296.217	767.19
296.448	752.19
296.679	784.19
296.909	760.19
297.14	779.19
297.37	791.19
297.601	850.19
297.831	926.19
298.062	876.19
298.292	832.19
298.523	774.19
298.753	779.19
298.984	819.19
299.214	805.19
299.445	808.19
299.675	854.19
299.905	847.19
300.136	820.19
300.366	770.19
300.597	782.19
300.827	808.19
301.057	809.19
301.288	863.19
301.518	851.19
301.748	844.19
301.979	908.19
302.209	921.19
302.439	968.19
302.669	991.19
302.9	936.19
303.13	853.19
303.36	856.19
303.59	862.19
303.82	839.19
304.051	889.19
304.281	875.19
304.511	890.19
304.741	954.19
304.971	1040.19
305.201	1090.19
305.431	987.19
305.661	802.19
305.891	755.19
306.121	762.19
306.352	790.19
306.582	866.19
306.812	870.19
307.042	947.19
307.272	944.19
307.502	1002.19
307.731	1038.19
307.961	1103.19
308.191	1006.19
308.421	868.19
308.651	860.19
308.881	825.19
309.111	823.19
309.341	831.19
309.571	833.19
309.8	820.19
310.03	842.19
310.26	804.19
310.49	831.19
310.72	870.19
310.949	862.19
311.179	886.19
311.409	858.19
311.639	848.19
311.868	853.19
312.098	846.19
312.328	828.19
312.557	824.19
312.787	856.19
313.017	860.19
313.246	861.19
313.476	868.19
313.706	887.19
313.935	912.19
314.165	890.19
314.394	947.19
314.624	974.19
314.853	1027.19
315.083	1057.19
315.312	1086.19
315.542	991.19
315.771	884.19
316.001	942.19
316.23	977.19
316.46	930.19
316.689	932.19
316.919	881.19
317.148	869.19
317.377	886.19
317.607	938.19
317.836	1056.19
318.065	1044.19
318.295	1034.19
318.524	1018.19
318.753	947.19
318.983	962.19
319.212	926.19
319.441	906.19
319.67	912.19
319.9	951.19
320.129	996.19
320.358	1050.19
320.587	1044.19
320.816	1020.19
321.046	993.19
321.275	989.19
321.504	979.19
321.733	1071.19
321.962	1012.19
322.191	934.19
322.42	917.19
322.649	905.19
322.878	909.19
323.108	934.19
323.337	990.19
323.566	949.19
323.795	948.19
324.024	935.19
324.253	962.19
324.482	942.19
324.71	917.19
324.939	870.19
325.168	917.19
325.397	970.19
325.626	954.19
325.855	979.19
326.084	936.19
326.313	919.19
326.542	955.19
326.77	977.19
326.999	951.19
327.228	913.19
327.457	875.19
327.686	876.19
327.914	930.19
328.143	930.19
328.372	913.19
328.6	948.19
328.829	920.19
329.058	917.19
329.287	901.19
329.515	949.19
329.744	974.19
329.972	1030.19
330.201	1033.19
330.43	1003.19
330.658	979.19
330.887	994.19
331.115	1003.19
331.344	1038.19
331.572	974.19
331.801	971.19
332.03	982.19
332.258	998.19
332.486	1012.19
332.715	983.19
332.943	1021.19
333.172	974.19
333.4	1026.19
333.629	1034.19
333.857	1113.19
334.085	1240.19
334.314	1393.19
334.542	1450.19
334.771	1320.19
334.999	1201.19
335.227	1082.19
335.455	1041.19
335.684	1053.19
335.912	1096.19
336.14	1100.19
336.369	1060.19
336.597	1000.19
336.825	1012.19
337.053	1050.19
337.281	1125.19
337.51	1113.19
337.738	1201.19
337.966	1098.19
338.194	1007.19
338.422	974.19
338.65	1016.19
338.878	964.19
339.106	959.19
339.334	944.19
339.562	905.19
339.79	964.19
340.018	1046.19
340.246	1052.19
340.474	1040.19
340.702	1016.19
340.93	1026.19
341.158	997.19
341.386	996.19
341.614	998.19
341.842	992.19
342.07	987.19
342.298	998.19
342.526	993.19
342.754	970.19
342.981	968.19
343.209	952.19
343.437	961.19
343.665	985.19
343.893	1001.19
344.12	1059.19
344.348	1051.19
344.576	1009.19
344.804	979.19
345.031	998.19
345.259	966.19
345.487	951.19
345.714	880.19
345.942	907.19
346.17	944.19
346.397	936.19
346.625	949.19
346.853	882.19
347.08	875.19
347.308	900.19
347.535	934.19
347.763	948.19
347.99	917.19
348.218	922.19
348.445	910.19
348.673	945.19
348.9	948.19
349.128	986.19
349.355	995.19
349.583	954.19
349.81	902.19
350.037	851.19
350.265	855.19
350.492	861.19
350.72	924.19
350.947	984.19
351.174	966.19
351.402	894.19
351.629	846.19
351.856	870.19
352.083	857.19
352.311	859.19
352.538	906.19
352.765	950.19
352.992	947.19
353.22	924.19
353.447	886.19
353.674	921.19
353.901	943.19
354.128	911.19
354.355	908.19
354.583	949.19
354.81	932.19
355.037	928.19
355.264	970.19
355.491	908.19
355.718	931.19
355.945	898.19
356.172	917.19
356.399	901.19
356.626	904.19
356.853	931.19
357.08	1021.19
357.307	1128.19
357.534	1089.19
357.761	940.19
357.988	900.19
358.215	885.19
358.441	892.19
358.668	862.19
358.895	902.19
359.122	968.19
359.349	1068.19
359.576	1010.19
359.802	916.19
360.029	901.19
360.256	882.19
360.483	890.19
360.709	945.19
360.936	972.19
361.163	988.19
361.39	1118.19
361.616	1160.19
361.843	1138.19
362.07	1040.19
362.296	924.19
362.523	923.19
362.749	909.19
362.976	899.19
363.203	947.19
363.429	912.19
363.656	906.19
363.882	952.19
364.109	1046.19
364.335	1089.19
364.562	1037.19
364.788	980.19
365.015	920.19
365.241	905.19
365.468	932.19
365.694	981.19
365.92	984.19
366.147	966.19
366.373	935.19
366.599	896.19
366.826	903.19
367.052	926.19
367.278	911.19
367.505	934.19
367.731	973.19
367.957	971.19
368.184	1009.19
368.41	1037.19
368.636	1054.19
368.862	1064.19
369.089	1065.19
369.315	1013.19
369.541	954.19
369.767	942.19
369.993	918.19
370.219	935.19
370.445	971.19
370.672	1008.19
370.898	1070.19
371.124	1022.19
371.35	1008.19
371.576	1025.19
371.802	1047.19
372.028	1010.19
372.254	966.19
372.48	972.19
372.706	936.19
372.932	953.19
373.158	960.19
373.384	964.19
373.61	995.19
373.835	1048.19
374.061	993.19
374.287	986.19
374.513	993.19
374.739	980.19
374.965	987.19
375.191	1003.19
375.416	996.19
375.642	1022.19
375.868	1107.19
376.094	1119.19
376.319	1063.19
376.545	1007.19
376.771	1047.19
376.997	1080.19
377.222	1079.19
377.448	1032.19
377.674	1038.19
377.899	1062.19
378.125	1113.19
378.35	1082.19
378.576	988.19
378.802	947.19
379.027	960.19
379.253	992.19
379.478	977.19
379.704	985.19
379.929	980.19
380.155	1022.19
380.38	979.19
380.606	1008.19
380.831	1040.19
381.057	1051.19
381.282	1098.19
381.507	1043.19
381.733	1149.19
381.958	1122.19
382.184	1036.19
382.409	1004.19
382.634	1027.19
382.86	1012.19
383.085	1007.19
383.31	1068.19
383.535	1204.19
383.761	1236.19
383.986	1183.19
384.211	1107.19
384.436	1093.19
384.662	1148.19
384.887	1182.19
385.112	1151.19
385.337	1170.19
385.562	1097.19
385.787	1122.19
386.013	1148.19
386.238	1136.19
386.463	1150.19
386.688	1269.19
386.913	1329.19
387.138	1283.19
387.363	1171.19
387.588	1162.19
387.813	1170.19
388.038	1198.19
388.263	1235.19
388.488	1136.19
388.713	1112.19
388.938	1060.19
389.163	1105.19
389.387	1100.19
389.612	1132.19
389.837	1142.19
390.062	1146.19
390.287	1135.19
390.512	1131.19
390.736	1102.19
390.961	1074.19
391.186	1055.19
391.411	1076.19
391.636	1126.19
391.86	1113.19
392.085	1106.19
392.31	1128.19
392.534	1135.19
392.759	1128.19
392.984	1112.19
393.208	1146.19
393.433	1186.19
393.658	1249.19
393.882	1225.19
394.107	1154.19
394.331	1113.19
394.556	1113.19
394.78	1157.19
395.005	1163.19
395.229	1210.19
395.454	1300.19
395.678	1304.19
395.903	1235.19
396.127	1165.19
396.352	1211.19
396.576	1286.19
396.801	1228.19
397.025	1244.19
397.249	1215.19
397.474	1192.19
397.698	1208.19
397.922	1254.19
398.147	1314.19
398.371	1357.19
398.595	1310.19
398.82	1302.19
399.044	1373.19
399.268	1377.19
399.492	1436.19
399.717	1498.19
399.941	1509.19
400.165	1437.19
400.389	1419.19
400.613	1455.19
400.837	1616.19
401.062	1798.19
401.286	1514.19
401.51	1419.19
401.734	1439.19
401.958	1375.19
402.182	1315.19
402.406	1297.19
402.63	1267.19
402.854	1297.19
403.078	1273.19
403.302	1322.19
403.526	1370.19
403.75	1374.19
403.974	1362.19
404.198	1338.19
404.422	1438.19
404.645	1509.19
404.869	1395.19
405.093	1314.19
405.317	1258.19
405.541	1322.19
405.765	1384.19
405.988	1362.19
406.212	1374.19
406.436	1402.19
406.66	1483.19
406.883	1504.19
407.107	1655.19
407.331	1804.19
407.555	1907.19
407.778	1662.19
408.002	1469.19
408.226	1397.19
408.449	1384.19
408.673	1371.19
408.896	1423.19
409.12	1416.19
409.344	1364.19
409.567	1318.19
409.791	1362.19
410.014	1393.19
410.238	1489.19
410.461	1541.19
410.685	1392.19
410.908	1358.19
411.132	1335.19
411.355	1352.19
411.578	1316.19
411.802	1346.19
412.025	1349.19
412.249	1347.19
412.472	1262.19
412.695	1287.19
412.919	1288.19
413.142	1313.19
413.365	1313.19
413.589	1350.19
413.812	1449.19
414.035	1429.19
414.258	1331.19
414.482	1293.19
414.705	1275.19
414.928	1286.19
415.151	1282.19
415.374	1307.19
415.597	1322.19
415.821	1317.19
416.044	1350.19
416.267	1347.19
416.49	1237.19
416.713	1272.19
416.936	1328.19
417.159	1406.19
417.382	1353.19
417.605	1302.19
417.828	1319.19
418.051	1319.19
418.274	1310.19
418.497	1289.19
418.72	1273.19
418.943	1254.19
419.166	1303.19
419.389	1375.19
419.611	1322.19
419.834	1300.19
420.057	1317.19
420.28	1288.19
420.503	1278.19
420.726	1323.19
420.948	1323.19
421.171	1279.19
421.394	1291.19
421.617	1354.19
421.839	1345.19
422.062	1301.19
422.285	1282.19
422.507	1260.19
422.73	1243.19
422.953	1170.19
423.175	1226.19
423.398	1262.19
423.621	1251.19
423.843	1243.19
424.066	1341.19
424.288	1383.19
424.511	1413.19
424.733	1343.19
424.956	1238.19
425.178	1242.19
425.401	1239.19
425.623	1248.19
425.846	1230.19
426.068	1366.19
426.291	1306.19
426.513	1338.19
426.735	1322.19
426.958	1422.19
427.18	1472.19
427.402	1372.19
427.625	1418.19
427.847	1360.19
428.069	1268.19
428.292	1238.19
428.514	1235.19
428.736	1222.19
428.958	1238.19
429.181	1255.19
429.403	1450.19
429.625	1723.19
429.847	1455.19
430.069	1303.19
430.292	1422.19
430.514	1451.19
430.736	1344.19
430.958	1426.19
431.18	1284.19
431.402	1232.19
431.624	1204.19
431.846	1160.19
432.068	1120.19
432.29	1149.19
432.512	1170.19
432.734	1270.19
432.956	1300.19
433.178	1343.19
433.4	1283.19
433.622	1291.19
433.844	1228.19
434.066	1211.19
434.287	1163.19
434.509	1194.19
434.731	1251.19
434.953	1361.19
435.175	1328.19
435.397	1278.19
435.618	1256.19
435.84	1233.19
436.062	1214.19
436.284	1249.19
436.505	1298.19
436.727	1306.19
436.949	1249.19
437.17	1204.19
437.392	1222.19
437.614	1173.19
437.835	1145.19
438.057	1232.19
438.278	1268.19
438.5	1232.19
438.721	1226.19
438.943	1236.19
439.165	1208.19
439.386	1225.19
439.608	1222.19
439.829	1232.19
440.05	1254.19
440.272	1250.19
440.493	1247.19
440.715	1269.19
440.936	1330.19
441.158	1438.19
441.379	1374.19
441.6	1373.19
441.822	1345.19
442.043	1343.19
442.264	1307.19
442.486	1250.19
442.707	1242.19
442.928	1258.19
443.149	1294.19
443.371	1363.19
443.592	1352.19
443.813	1360.19
444.034	1368.19
444.255	1353.19
444.476	1395.19
444.698	1404.19
444.919	1364.19
445.14	1519.19
445.361	1458.19
445.582	1465.19
445.803	1371.19
446.024	1378.19
446.245	1420.19
446.466	1384.19
446.687	1340.19
446.908	1364.19
447.129	1338.19
447.35	1329.19
447.571	1290.19
447.792	1234.19
448.013	1230.19
448.234	1254.19
448.455	1282.19
448.675	1257.19
448.896	1177.19
449.117	1201.19
449.338	1186.19
449.559	1297.19
449.779	1345.19
450	1407.19
450.221	1497.19
450.442	1426.19
450.662	1280.19
450.883	1162.19
451.104	1162.19
451.324	1187.19
451.545	1219.19
451.766	1167.19
451.986	1121.19
452.207	1157.19
452.428	1079.19
452.648	1074.19
452.869	1124.19
453.089	1101.19
453.31	1152.19
453.53	1164.19
453.751	1110.19
453.971	1052.19
454.192	1107.19
454.412	1150.19
454.633	1156.19
454.853	1107.19
455.073	1042.19
455.294	1093.19
455.514	1077.19
455.734	1083.19
455.955	1114.19
456.175	1100.19
456.395	1068.19
456.616	1087.19
456.836	1073.19
457.056	1074.19
457.276	1056.19
457.497	1052.19
457.717	1025.19
457.937	1049.19
458.157	1045.19
458.377	1027.19
458.598	1026.19
458.818	1040.19
459.038	1095.19
459.258	1145.19
459.478	1140.19
459.698	1116.19
459.918	1156.19
460.138	1234.19
460.358	1255.19
460.578	1235.19
460.798	1299.19
461.018	1332.19
461.238	1264.19
461.458	1218.19
461.678	1262.19
461.898	1215.19
462.118	1190.19
462.338	1242.19
462.558	1244.19
462.777	1235.19
462.997	1303.19
463.217	1369.19
463.437	1289.19
463.657	1253.19
463.876	1215.19
464.096	1242.19
464.316	1252.19
464.536	1294.19
464.755	1311.19
464.975	1303.19
465.195	1249.19
465.414	1300.19
465.634	1312.19
465.854	1299.19
466.073	1382.19
466.293	1352.19
466.512	1179.19
466.732	1221.19
466.951	1270.19
467.171	1217.19
467.391	1201.19
467.61	1184.19
467.829	1224.19
468.049	1321.19
468.268	1474.19
468.488	1345.19
468.707	1245.19
468.927	1245.19
469.146	1168.19
469.365	1232.19
469.585	1219.19
469.804	1199.19
470.023	1245.19
470.243	1235.19
470.462	1210.19
470.681	1202.19
470.901	1225.19
471.12	1232.19
471.339	1223.19
471.558	1206.19
471.777	1173.19
471.997	1176.19
472.216	1170.19
472.435	1101.19
472.654	1119.19
472.873	1147.19
473.092	1221.19
473.311	1182.19
473.53	1138.19
473.749	1122.19
473.968	1192.19
474.187	1217.19
474.406	1227.19
474.625	1168.19
474.844	1186.19
475.063	1219.19
475.282	1201.19
475.501	1180.19
475.72	1200.19
475.939	1342.19
476.158	1240.19
476.377	1194.19
476.596	1191.19
476.814	1235.19
477.033	1204.19
477.252	1245.19
477.471	1262.19
477.69	1276.19
477.908	1256.19
478.127	1344.19
478.346	1411.19
478.564	1402.19
478.783	1400.19
479.002	1426.19
479.22	1390.19
479.439	1465.19
479.658	1602.19
479.876	1481.19
480.095	1352.19
480.313	1328.19
480.532	1293.19
480.751	1304.19
480.969	1347.19
481.188	1261.19
481.406	1250.19
481.624	1267.19
481.843	1259.19
482.061	1280.19
482.28	1308.19
482.498	1334.19
482.717	1306.19
482.935	1297.19
483.153	1380.19
483.372	1356.19
483.59	1325.19
483.808	1376.19
484.027	1359.19
484.245	1467.19
484.463	1726.19
484.681	1863.19
484.9	1454.19
485.118	1358.19
485.336	1349.19
485.554	1356.19
485.772	1379.19
485.99	1336.19
486.209	1394.19
486.427	1386.19
486.645	1410.19
486.863	1414.19
487.081	1455.19
487.299	1449.19
487.517	1465.19
487.735	1499.19
487.953	1495.19
488.171	1508.19
488.389	1462.19
488.607	1459.19
488.825	1641.19
489.043	1558.19
489.261	1414.19
489.479	1499.19
489.696	1464.19
489.914	1433.19
490.132	1395.19
490.35	1451.19
490.568	1512.19
490.786	1498.19
491.003	1490.19
491.221	1536.19
491.439	1559.19
491.657	1553.19
491.874	1601.19
492.092	1671.19
492.31	1698.19
492.527	1662.19
492.745	1608.19
492.963	1599.19
493.18	1611.19
493.398	1732.19
493.615	1722.19
