Data from WStandard_LampEnergy5.5LIBS07252019.E.O._I.C._HRD10591_16-08-11-920.txt Node
Date: Thu Jul 25 16:08:11 EDT 2019
User: cochatt
Spectrometer: HR+D1059
Trigger mode: 1
Integration Time (sec): 1.000000E-1
Scans to average: 1
Electric dark correction enabled: true
Nonlinearity correction enabled: false
Boxcar width: 0
XAxis mode: Wavelengths
Number of Pixels in Spectrum: 2048
>>>>>Begin Spectral Data<<<<<
223.165	-16.25
223.4	-16.25
223.635	-16.25
223.869	-21.25
224.104	-21.25
224.338	-6.25
224.573	-10.25
224.808	-16.25
225.042	-4.25
225.277	-10.25
225.511	-5.25
225.746	-4.25
225.98	2.75
226.215	7.75
226.449	20.75
226.683	21.75
226.918	40.75
227.152	21.75
227.387	43.75
227.621	31.75
227.856	54.75
228.09	49.75
228.324	48.75
228.559	74.75
228.793	143.75
229.027	366.75
229.262	378.75
229.496	391.75
229.73	411.75
229.964	453.75
230.199	468.75
230.433	478.75
230.667	502.75
230.901	553.75
231.136	465.75
231.37	473.75
231.604	480.75
231.838	490.75
232.072	471.75
232.306	442.75
232.541	476.75
232.775	556.75
233.009	614.75
233.243	580.75
233.477	513.75
233.711	563.75
233.945	578.75
234.179	568.75
234.413	577.75
234.647	658.75
234.881	637.75
235.115	534.75
235.349	571.75
235.583	574.75
235.817	541.75
236.051	524.75
236.285	566.75
236.519	624.75
236.753	663.75
236.987	678.75
237.221	678.75
237.455	763.75
237.689	730.75
237.922	687.75
238.156	658.75
238.39	670.75
238.624	697.75
238.858	729.75
239.091	781.75
239.325	823.75
239.559	939.75
239.793	991.75
240.027	1060.75
240.26	1055.75
240.494	764.75
240.728	721.75
240.961	723.75
241.195	757.75
241.429	824.75
241.662	840.75
241.896	758.75
242.13	771.75
242.363	850.75
242.597	933.75
242.83	841.75
243.064	907.75
243.298	952.75
243.531	965.75
243.765	972.75
243.998	928.75
244.232	820.75
244.465	799.75
244.699	813.75
244.932	896.75
245.166	1060.75
245.399	1013.75
245.633	925.75
245.866	930.75
246.099	930.75
246.333	951.75
246.566	968.75
246.8	1064.75
247.033	1162.75
247.266	1108.75
247.5	1063.75
247.733	1053.75
247.966	1116.75
248.2	1286.75
248.433	1158.75
248.666	1218.75
248.899	1335.75
249.133	1541.75
249.366	1779.75
249.599	1431.75
249.832	1266.75
250.066	1262.75
250.299	1301.75
250.532	1219.75
250.765	1083.75
250.998	1160.75
251.231	1219.75
251.465	1267.75
251.698	1212.75
251.931	1177.75
252.164	1193.75
252.397	1256.75
252.63	1262.75
252.863	1135.75
253.096	1100.75
253.329	1164.75
253.562	1164.75
253.795	1276.75
254.028	1279.75
254.261	1179.75
254.494	1207.75
254.727	1139.75
254.96	1165.75
255.193	1248.75
255.426	1443.75
255.659	1621.75
255.892	1691.75
256.124	1388.75
256.357	1368.75
256.59	1452.75
256.823	1418.75
257.056	1417.75
257.289	1717.75
257.521	1936.75
257.754	1705.75
257.987	1606.75
258.22	1800.75
258.452	1779.75
258.685	1409.75
258.918	1389.75
259.151	1416.75
259.383	1368.75
259.616	1161.75
259.849	1238.75
260.081	1403.75
260.314	1545.75
260.547	1732.75
260.779	1755.75
261.012	1644.75
261.244	1449.75
261.477	1365.75
261.71	1483.75
261.942	1414.75
262.175	1359.75
262.407	1466.75
262.64	1419.75
262.872	1304.75
263.105	1278.75
263.337	1295.75
263.57	1313.75
263.802	1322.75
264.035	1223.75
264.267	1169.75
264.499	1153.75
264.732	1211.75
264.964	1313.75
265.197	1363.75
265.429	1433.75
265.661	1581.75
265.894	1766.75
266.126	1796.75
266.358	1647.75
266.591	1651.75
266.823	1831.75
267.055	1630.75
267.287	1622.75
267.52	1578.75
267.752	1600.75
267.984	1564.75
268.216	1608.75
268.448	1708.75
268.681	1705.75
268.913	1519.75
269.145	1437.75
269.377	1435.75
269.609	1513.75
269.841	1770.75
270.073	2064.75
270.306	2282.75
270.538	2398.75
270.77	2042.75
271.002	1776.75
271.234	1671.75
271.466	1653.75
271.698	1847.75
271.93	2277.75
272.162	2203.75
272.394	1989.75
272.626	1932.75
272.858	1700.75
273.09	1475.75
273.322	1457.75
273.553	1379.75
273.785	1419.75
274.017	1467.75
274.249	1558.75
274.481	1572.75
274.713	1496.75
274.945	1394.75
275.176	1418.75
275.408	1440.75
275.64	1381.75
275.872	1424.75
276.104	1456.75
276.335	1671.75
276.567	1903.75
276.799	1952.75
277.031	1701.75
277.262	1638.75
277.494	1685.75
277.726	1863.75
277.957	1845.75
278.189	1693.75
278.421	1543.75
278.652	1499.75
278.884	1498.75
279.115	1457.75
279.347	1521.75
279.579	1484.75
279.81	1461.75
280.042	1665.75
280.273	1771.75
280.505	1797.75
280.736	1838.75
280.968	1753.75
281.199	1528.75
281.431	1453.75
281.662	1437.75
281.894	1437.75
282.125	1519.75
282.356	1569.75
282.588	1549.75
282.819	1507.75
283.051	1653.75
283.282	1830.75
283.513	1799.75
283.745	1509.75
283.976	1418.75
284.207	1456.75
284.439	1457.75
284.67	1477.75
284.901	1525.75
285.132	1575.75
285.364	1561.75
285.595	1572.75
285.826	1541.75
286.057	1540.75
286.288	1508.75
286.52	1581.75
286.751	1649.75
286.982	1792.75
287.213	1641.75
287.444	1470.75
287.675	1441.75
287.906	1573.75
288.138	1655.75
288.369	1602.75
288.6	1593.75
288.831	1455.75
289.062	1473.75
289.293	1546.75
289.524	1536.75
289.755	1560.75
289.986	1567.75
290.217	1444.75
290.448	1501.75
290.679	1536.75
290.91	1582.75
291.141	1594.75
291.371	1653.75
291.602	1661.75
291.833	1612.75
292.064	1690.75
292.295	1606.75
292.526	1685.75
292.757	1742.75
292.987	1623.75
293.218	1566.75
293.449	1690.75
293.68	1878.75
293.91	2018.75
294.141	1915.75
294.372	1797.75
294.603	1847.75
294.833	1953.75
295.064	1835.75
295.295	1646.75
295.525	1641.75
295.756	1498.75
295.987	1427.75
296.217	1482.75
296.448	1569.75
296.679	1498.75
296.909	1495.75
297.14	1521.75
297.37	1531.75
297.601	1632.75
297.831	1754.75
298.062	1763.75
298.292	1575.75
298.523	1528.75
298.753	1535.75
298.984	1564.75
299.214	1566.75
299.445	1594.75
299.675	1635.75
299.905	1576.75
300.136	1572.75
300.366	1556.75
300.597	1489.75
300.827	1483.75
301.057	1593.75
301.288	1614.75
301.518	1621.75
301.748	1627.75
301.979	1756.75
302.209	1788.75
302.439	1868.75
302.669	1975.75
302.9	1865.75
303.13	1710.75
303.36	1677.75
303.59	1681.75
303.82	1689.75
304.051	1677.75
304.281	1687.75
304.511	1674.75
304.741	1725.75
304.971	1909.75
305.201	2091.75
305.431	1961.75
305.661	1612.75
305.891	1471.75
306.121	1447.75
306.352	1529.75
306.582	1605.75
306.812	1737.75
307.042	1837.75
307.272	1813.75
307.502	1887.75
307.731	2019.75
307.961	2201.75
308.191	2014.75
308.421	1698.75
308.651	1607.75
308.881	1597.75
309.111	1611.75
309.341	1553.75
309.571	1596.75
309.8	1585.75
310.03	1575.75
310.26	1599.75
310.49	1569.75
310.72	1605.75
310.949	1667.75
311.179	1671.75
311.409	1696.75
311.639	1647.75
311.868	1598.75
312.098	1600.75
312.328	1623.75
312.557	1624.75
312.787	1600.75
313.017	1687.75
313.246	1661.75
313.476	1644.75
313.706	1733.75
313.935	1731.75
314.165	1696.75
314.394	1771.75
314.624	1849.75
314.853	1941.75
315.083	2015.75
315.312	2073.75
315.542	1971.75
315.771	1751.75
316.001	1715.75
316.23	1860.75
316.46	1813.75
316.689	1745.75
316.919	1705.75
317.148	1635.75
317.377	1633.75
317.607	1776.75
317.836	1948.75
318.065	2039.75
318.295	1945.75
318.524	1902.75
318.753	1840.75
318.983	1820.75
319.212	1758.75
319.441	1749.75
319.67	1728.75
319.9	1735.75
320.129	1856.75
320.358	1920.75
320.587	1954.75
320.816	1960.75
321.046	1873.75
321.275	1780.75
321.504	1766.75
321.733	2018.75
321.962	1940.75
322.191	1772.75
322.42	1751.75
322.649	1714.75
322.878	1688.75
323.108	1764.75
323.337	1835.75
323.566	1771.75
323.795	1808.75
324.024	1793.75
324.253	1755.75
324.482	1773.75
324.71	1736.75
324.939	1638.75
325.168	1686.75
325.397	1775.75
325.626	1855.75
325.855	1827.75
326.084	1749.75
326.313	1740.75
326.542	1773.75
326.77	1827.75
326.999	1846.75
327.228	1799.75
327.457	1676.75
327.686	1686.75
327.914	1689.75
328.143	1735.75
328.372	1703.75
328.6	1741.75
328.829	1737.75
329.058	1717.75
329.287	1694.75
329.515	1780.75
329.744	1779.75
329.972	1907.75
330.201	1942.75
330.43	1890.75
330.658	1804.75
330.887	1873.75
331.115	1834.75
331.344	1858.75
331.572	1820.75
331.801	1843.75
332.03	1872.75
332.258	1825.75
332.486	1902.75
332.715	1907.75
332.943	1843.75
333.172	1838.75
333.4	1874.75
333.629	1918.75
333.857	2045.75
334.085	2175.75
334.314	2497.75
334.542	2700.75
334.771	2557.75
334.999	2222.75
335.227	2141.75
335.455	2002.75
335.684	1968.75
335.912	1993.75
336.14	2098.75
336.369	2006.75
336.597	1881.75
336.825	1857.75
337.053	1932.75
337.281	2030.75
337.51	2109.75
337.738	2179.75
337.966	2119.75
338.194	1890.75
338.422	1864.75
338.65	1859.75
338.878	1836.75
339.106	1781.75
339.334	1775.75
339.562	1705.75
339.79	1769.75
340.018	1859.75
340.246	1936.75
340.474	1945.75
340.702	1903.75
340.93	1933.75
341.158	1868.75
341.386	1857.75
341.614	1876.75
341.842	1828.75
342.07	1830.75
342.298	1847.75
342.526	1817.75
342.754	1781.75
342.981	1798.75
343.209	1807.75
343.437	1796.75
343.665	1822.75
343.893	1893.75
344.12	1944.75
344.348	2003.75
344.576	1872.75
344.804	1799.75
345.031	1822.75
345.259	1830.75
345.487	1795.75
345.714	1689.75
345.942	1638.75
346.17	1666.75
346.397	1705.75
346.625	1776.75
346.853	1676.75
347.08	1608.75
347.308	1648.75
347.535	1713.75
347.763	1747.75
347.99	1694.75
348.218	1656.75
348.445	1648.75
348.673	1708.75
348.9	1750.75
349.128	1761.75
349.355	1839.75
349.583	1851.75
349.81	1735.75
350.037	1604.75
350.265	1581.75
350.492	1587.75
350.72	1640.75
350.947	1703.75
351.174	1792.75
351.402	1661.75
351.629	1625.75
351.856	1553.75
352.083	1598.75
352.311	1596.75
352.538	1611.75
352.765	1674.75
352.992	1744.75
353.22	1691.75
353.447	1609.75
353.674	1628.75
353.901	1711.75
354.128	1631.75
354.355	1604.75
354.583	1710.75
354.81	1745.75
355.037	1734.75
355.264	1709.75
355.491	1679.75
355.718	1653.75
355.945	1625.75
356.172	1657.75
356.399	1606.75
356.626	1621.75
356.853	1709.75
357.08	1784.75
357.307	2002.75
357.534	2005.75
357.761	1751.75
357.988	1613.75
358.215	1559.75
358.441	1582.75
358.668	1567.75
358.895	1631.75
359.122	1717.75
359.349	1900.75
359.576	1847.75
359.802	1672.75
360.029	1642.75
360.256	1607.75
360.483	1626.75
360.709	1630.75
360.936	1717.75
361.163	1792.75
361.39	1949.75
361.616	2131.75
361.843	2052.75
362.07	1963.75
362.296	1671.75
362.523	1623.75
362.749	1671.75
362.976	1683.75
363.203	1734.75
363.429	1656.75
363.656	1604.75
363.882	1655.75
364.109	1803.75
364.335	1967.75
364.562	1851.75
364.788	1774.75
365.015	1693.75
365.241	1647.75
365.468	1674.75
365.694	1760.75
365.92	1841.75
366.147	1710.75
366.373	1630.75
366.599	1613.75
366.826	1603.75
367.052	1639.75
367.278	1643.75
367.505	1671.75
367.731	1703.75
367.957	1687.75
368.184	1758.75
368.41	1812.75
368.636	1901.75
368.862	1870.75
369.089	1899.75
369.315	1838.75
369.541	1776.75
369.767	1701.75
369.993	1699.75
370.219	1639.75
370.445	1639.75
370.672	1739.75
370.898	1863.75
371.124	1864.75
371.35	1749.75
371.576	1808.75
371.802	1904.75
372.028	1798.75
372.254	1738.75
372.48	1715.75
372.706	1656.75
372.932	1695.75
373.158	1686.75
373.384	1701.75
373.61	1763.75
373.835	1850.75
374.061	1776.75
374.287	1722.75
374.513	1768.75
374.739	1791.75
374.965	1753.75
375.191	1797.75
375.416	1789.75
375.642	1833.75
375.868	1863.75
376.094	1941.75
376.319	1834.75
376.545	1748.75
376.771	1729.75
376.997	1879.75
377.222	1830.75
377.448	1806.75
377.674	1870.75
377.899	1769.75
378.125	1897.75
378.35	1918.75
378.576	1786.75
378.802	1696.75
379.027	1731.75
379.253	1707.75
379.478	1734.75
379.704	1758.75
379.929	1740.75
380.155	1734.75
380.38	1744.75
380.606	1773.75
380.831	1749.75
381.057	1860.75
381.282	1872.75
381.507	1824.75
381.733	1923.75
381.958	1989.75
382.184	1890.75
382.409	1770.75
382.634	1834.75
382.86	1785.75
383.085	1777.75
383.31	1854.75
383.535	2040.75
383.761	2141.75
383.986	2069.75
384.211	2027.75
384.436	1943.75
384.662	2011.75
384.887	2104.75
385.112	2047.75
385.337	2057.75
385.562	2030.75
385.787	1964.75
386.013	2044.75
386.238	2075.75
386.463	2029.75
386.688	2122.75
386.913	2313.75
387.138	2255.75
387.363	2069.75
387.588	2053.75
387.813	1995.75
388.038	2065.75
388.263	2152.75
388.488	2104.75
388.713	1950.75
388.938	1909.75
389.163	1937.75
389.387	1967.75
389.612	1943.75
389.837	1996.75
390.062	2051.75
390.287	1998.75
390.512	2022.75
390.736	1960.75
390.961	1924.75
391.186	1924.75
391.411	1943.75
391.636	1956.75
391.86	1971.75
392.085	1991.75
392.31	1985.75
392.534	1999.75
392.759	2017.75
392.984	1972.75
393.208	2071.75
393.433	2009.75
393.658	2134.75
393.882	2160.75
394.107	2064.75
394.331	1962.75
394.556	1952.75
394.78	2019.75
395.005	2103.75
395.229	2133.75
395.454	2302.75
395.678	2275.75
395.903	2235.75
396.127	2127.75
396.352	2125.75
396.576	2183.75
396.801	2180.75
397.025	2187.75
397.249	2162.75
397.474	2150.75
397.698	2151.75
397.922	2181.75
398.147	2286.75
398.371	2383.75
398.595	2408.75
398.82	2328.75
399.044	2298.75
399.268	2398.75
399.492	2579.75
399.717	2711.75
399.941	2726.75
400.165	2671.75
400.389	2528.75
400.613	2567.75
400.837	2736.75
401.062	3163.75
401.286	2763.75
401.51	2468.75
401.734	2629.75
401.958	2557.75
402.182	2337.75
402.406	2286.75
402.63	2280.75
402.854	2273.75
403.078	2322.75
403.302	2367.75
403.526	2429.75
403.75	2372.75
403.974	2368.75
404.198	2322.75
404.422	2465.75
404.645	2547.75
404.869	2573.75
405.093	2309.75
405.317	2317.75
405.541	2453.75
405.765	2397.75
405.988	2367.75
406.212	2377.75
406.436	2435.75
406.66	2559.75
406.883	2540.75
407.107	2828.75
407.331	3091.75
407.555	3355.75
407.778	3124.75
408.002	2588.75
408.226	2482.75
408.449	2487.75
408.673	2390.75
408.896	2461.75
409.12	2497.75
409.344	2427.75
409.567	2351.75
409.791	2407.75
410.014	2443.75
410.238	2527.75
410.461	2651.75
410.685	2445.75
410.908	2327.75
411.132	2393.75
411.355	2364.75
411.578	2333.75
411.802	2316.75
412.025	2362.75
412.249	2347.75
412.472	2265.75
412.695	2222.75
412.919	2236.75
413.142	2246.75
413.365	2286.75
413.589	2339.75
413.812	2424.75
414.035	2518.75
414.258	2328.75
414.482	2256.75
414.705	2325.75
414.928	2214.75
415.151	2214.75
415.374	2281.75
415.597	2287.75
415.821	2298.75
416.044	2377.75
416.267	2415.75
416.49	2174.75
416.713	2175.75
416.936	2266.75
417.159	2360.75
417.382	2331.75
417.605	2227.75
417.828	2297.75
418.051	2361.75
418.274	2235.75
418.497	2176.75
418.72	2178.75
418.943	2192.75
419.166	2336.75
419.389	2423.75
419.611	2279.75
419.834	2196.75
420.057	2288.75
420.28	2199.75
420.503	2167.75
420.726	2191.75
420.948	2208.75
421.171	2194.75
421.394	2220.75
421.617	2248.75
421.839	2280.75
422.062	2239.75
422.285	2175.75
422.507	2159.75
422.73	2155.75
422.953	2073.75
423.175	2121.75
423.398	2137.75
423.621	2195.75
423.843	2185.75
424.066	2230.75
424.288	2346.75
424.511	2315.75
424.733	2249.75
424.956	2051.75
425.178	2079.75
425.401	2122.75
425.623	2166.75
425.846	2063.75
426.068	2177.75
426.291	2263.75
426.513	2216.75
426.735	2224.75
426.958	2376.75
427.18	2510.75
427.402	2262.75
427.625	2319.75
427.847	2394.75
428.069	2191.75
428.292	2130.75
428.514	2072.75
428.736	2078.75
428.958	2090.75
429.181	2103.75
429.403	2393.75
429.625	2907.75
429.847	2591.75
430.069	2157.75
430.292	2393.75
430.514	2458.75
430.736	2284.75
430.958	2405.75
431.18	2281.75
431.402	2159.75
431.624	2067.75
431.846	2106.75
432.068	2030.75
432.29	2122.75
432.512	2124.75
432.734	2171.75
432.956	2197.75
433.178	2320.75
433.4	2256.75
433.622	2282.75
433.844	2168.75
434.066	2075.75
434.287	2085.75
434.509	2178.75
434.731	2235.75
434.953	2436.75
435.175	2381.75
435.397	2207.75
435.618	2245.75
435.84	2206.75
436.062	2182.75
436.284	2224.75
436.505	2214.75
436.727	2243.75
436.949	2231.75
437.17	2123.75
437.392	2115.75
437.614	2123.75
437.835	2079.75
438.057	2232.75
438.278	2287.75
438.5	2118.75
438.721	2102.75
438.943	2136.75
439.165	2096.75
439.386	2054.75
439.608	2071.75
439.829	2082.75
440.05	2100.75
440.272	2057.75
440.493	2101.75
440.715	2094.75
440.936	2219.75
441.158	2485.75
441.379	2431.75
441.6	2342.75
441.822	2279.75
442.043	2245.75
442.264	2219.75
442.486	2101.75
442.707	2077.75
442.928	2119.75
443.149	2161.75
443.371	2300.75
443.592	2420.75
443.813	2275.75
444.034	2322.75
444.255	2337.75
444.476	2368.75
444.698	2394.75
444.919	2340.75
445.14	2431.75
445.361	2427.75
445.582	2520.75
445.803	2439.75
446.024	2313.75
446.245	2408.75
446.466	2315.75
446.687	2193.75
446.908	2187.75
447.129	2132.75
447.35	2151.75
447.571	2150.75
447.792	2059.75
448.013	2057.75
448.234	2102.75
448.455	2222.75
448.675	2209.75
448.896	2004.75
449.117	1965.75
449.338	2063.75
449.559	2187.75
449.779	2224.75
450	2485.75
450.221	2661.75
450.442	2608.75
450.662	2277.75
450.883	2061.75
451.104	2002.75
451.324	2014.75
451.545	2124.75
451.766	2065.75
451.986	1977.75
452.207	1961.75
452.428	1890.75
452.648	1814.75
452.869	1916.75
453.089	2071.75
453.31	2028.75
453.53	2119.75
453.751	2059.75
453.971	1920.75
454.192	1990.75
454.412	2052.75
454.633	2055.75
454.853	1976.75
455.073	1830.75
455.294	1807.75
455.514	1844.75
455.734	1827.75
455.955	1923.75
456.175	1855.75
456.395	1865.75
456.616	1961.75
456.836	1968.75
457.056	1946.75
457.276	1931.75
457.497	1879.75
457.717	1814.75
457.937	1864.75
458.157	1960.75
458.377	1896.75
458.598	1897.75
458.818	1891.75
459.038	1997.75
459.258	2128.75
459.478	2128.75
459.698	2052.75
459.918	2087.75
460.138	2213.75
460.358	2272.75
460.578	2222.75
460.798	2328.75
461.018	2495.75
461.238	2397.75
461.458	2259.75
461.678	2247.75
461.898	2243.75
462.118	2142.75
462.338	2264.75
462.558	2291.75
462.777	2299.75
462.997	2344.75
463.217	2510.75
463.437	2487.75
463.657	2309.75
463.876	2215.75
464.096	2250.75
464.316	2283.75
464.536	2350.75
464.755	2381.75
464.975	2411.75
465.195	2310.75
465.414	2399.75
465.634	2402.75
465.854	2254.75
466.073	2420.75
466.293	2353.75
466.512	2069.75
466.732	2081.75
466.951	2163.75
467.171	2137.75
467.391	2043.75
467.61	2045.75
467.829	1998.75
468.049	2233.75
468.268	2456.75
468.488	2311.75
468.707	2182.75
468.927	2077.75
469.146	2077.75
469.365	2061.75
469.585	2067.75
469.804	2022.75
470.023	2029.75
470.243	2103.75
470.462	2063.75
470.681	2000.75
470.901	2079.75
471.12	2045.75
471.339	2042.75
471.558	1978.75
471.777	1976.75
471.997	1964.75
472.216	2049.75
472.435	1949.75
472.654	2006.75
472.873	2119.75
473.092	2233.75
473.311	2078.75
473.53	1965.75
473.749	2003.75
473.968	1999.75
474.187	2095.75
474.406	2254.75
474.625	2112.75
474.844	2078.75
475.063	2040.75
475.282	2126.75
475.501	2094.75
475.72	2119.75
475.939	2225.75
476.158	2175.75
476.377	2054.75
476.596	2142.75
476.814	2172.75
477.033	2138.75
477.252	2267.75
477.471	2335.75
477.69	2160.75
477.908	2133.75
478.127	2340.75
478.346	2487.75
478.564	2468.75
478.783	2439.75
479.002	2549.75
479.22	2458.75
479.439	2567.75
479.658	2907.75
479.876	2890.75
480.095	2523.75
480.313	2379.75
480.532	2303.75
480.751	2364.75
480.969	2425.75
481.188	2337.75
481.406	2322.75
481.624	2261.75
481.843	2289.75
482.061	2331.75
482.28	2374.75
482.498	2404.75
482.717	2397.75
482.935	2318.75
483.153	2350.75
483.372	2316.75
483.59	2272.75
483.808	2313.75
484.027	2371.75
484.245	2504.75
484.463	2833.75
484.681	3340.75
484.9	2553.75
485.118	2377.75
485.336	2339.75
485.554	2429.75
485.772	2521.75
485.99	2529.75
486.209	2470.75
486.427	2455.75
486.645	2514.75
486.863	2421.75
487.081	2496.75
487.299	2531.75
