Data from WStandard_LampEnergy5.5LIBS07252019.E.O._I.C._HRD10591_16-08-23-920.txt Node
Date: Thu Jul 25 16:08:23 EDT 2019
User: cochatt
Spectrometer: HR+D1059
Trigger mode: 1
Integration Time (sec): 1.000000E-1
Scans to average: 1
Electric dark correction enabled: true
Nonlinearity correction enabled: false
Boxcar width: 0
XAxis mode: Wavelengths
Number of Pixels in Spectrum: 2048
>>>>>Begin Spectral Data<<<<<
223.165	-13.75
223.4	-13.75
223.635	-13.75
223.869	-19.75
224.104	-21.75
224.338	-11.75
224.573	-6.75
224.808	-8.75
225.042	-26.75
225.277	-17.75
225.511	3.25
225.746	4.25
225.98	15.25
226.215	7.25
226.449	17.25
226.683	10.25
226.918	33.25
227.152	36.25
227.387	20.25
227.621	29.25
227.856	49.25
228.09	24.25
228.324	31.25
228.559	45.25
228.793	133.25
229.027	361.25
229.262	349.25
229.496	371.25
229.73	395.25
229.964	429.25
230.199	462.25
230.433	449.25
230.667	469.25
230.901	544.25
231.136	478.25
231.37	449.25
231.604	462.25
231.838	452.25
232.072	459.25
232.306	437.25
232.541	475.25
232.775	548.25
233.009	616.25
233.243	568.25
233.477	527.25
233.711	535.25
233.945	563.25
234.179	531.25
234.413	572.25
234.647	646.25
234.881	595.25
235.115	555.25
235.349	543.25
235.583	579.25
235.817	543.25
236.051	537.25
236.285	547.25
236.519	581.25
236.753	636.25
236.987	688.25
237.221	663.25
237.455	735.25
237.689	711.25
237.922	690.25
238.156	643.25
238.39	649.25
238.624	685.25
238.858	733.25
239.091	748.25
239.325	801.25
239.559	899.25
239.793	947.25
240.027	1029.25
240.26	1013.25
240.494	763.25
240.728	705.25
240.961	716.25
241.195	737.25
241.429	811.25
241.662	813.25
241.896	781.25
242.13	774.25
242.363	864.25
242.597	927.25
242.83	877.25
243.064	900.25
243.298	953.25
243.531	936.25
243.765	929.25
243.998	907.25
244.232	783.25
244.465	774.25
244.699	796.25
244.932	877.25
245.166	1051.25
245.399	965.25
245.633	919.25
245.866	875.25
246.099	952.25
246.333	915.25
246.566	967.25
246.8	1027.25
247.033	1165.25
247.266	1058.25
247.5	1057.25
247.733	1091.25
247.966	1088.25
248.2	1220.25
248.433	1189.25
248.666	1216.25
248.899	1344.25
249.133	1539.25
249.366	1724.25
249.599	1439.25
249.832	1255.25
250.066	1246.25
250.299	1308.25
250.532	1186.25
250.765	1044.25
250.998	1141.25
251.231	1204.25
251.465	1241.25
251.698	1137.25
251.931	1141.25
252.164	1185.25
252.397	1268.25
252.63	1253.25
252.863	1095.25
253.096	1061.25
253.329	1123.25
253.562	1165.25
253.795	1281.25
254.028	1248.25
254.261	1200.25
254.494	1177.25
254.727	1096.25
254.96	1134.25
255.193	1281.25
255.426	1406.25
255.659	1621.25
255.892	1653.25
256.124	1376.25
256.357	1306.25
256.59	1373.25
256.823	1443.25
257.056	1394.25
257.289	1692.25
257.521	1904.25
257.754	1691.25
257.987	1550.25
258.22	1801.25
258.452	1726.25
258.685	1367.25
258.918	1349.25
259.151	1359.25
259.383	1329.25
259.616	1133.25
259.849	1227.25
260.081	1376.25
260.314	1564.25
260.547	1709.25
260.779	1707.25
261.012	1600.25
261.244	1430.25
261.477	1329.25
261.71	1389.25
261.942	1415.25
262.175	1374.25
262.407	1458.25
262.64	1348.25
262.872	1301.25
263.105	1242.25
263.337	1280.25
263.57	1295.25
263.802	1297.25
264.035	1215.25
264.267	1130.25
264.499	1127.25
264.732	1174.25
264.964	1279.25
265.197	1339.25
265.429	1380.25
265.661	1553.25
265.894	1731.25
266.126	1785.25
266.358	1570.25
266.591	1605.25
266.823	1805.25
267.055	1619.25
267.287	1589.25
267.52	1562.25
267.752	1533.25
267.984	1535.25
268.216	1620.25
268.448	1675.25
268.681	1656.25
268.913	1517.25
269.145	1409.25
269.377	1380.25
269.609	1506.25
269.841	1771.25
270.073	2053.25
270.306	2293.25
270.538	2460.25
270.77	2023.25
271.002	1754.25
271.234	1637.25
271.466	1630.25
271.698	1807.25
271.93	2211.25
272.162	2236.25
272.394	1949.25
272.626	1882.25
272.858	1695.25
273.09	1429.25
273.322	1399.25
273.553	1341.25
273.785	1408.25
274.017	1449.25
274.249	1536.25
274.481	1567.25
274.713	1420.25
274.945	1402.25
275.176	1411.25
275.408	1409.25
275.64	1336.25
275.872	1351.25
276.104	1422.25
276.335	1636.25
276.567	1890.25
276.799	1959.25
277.031	1711.25
277.262	1605.25
277.494	1644.25
277.726	1856.25
277.957	1805.25
278.189	1674.25
278.421	1509.25
278.652	1489.25
278.884	1470.25
279.115	1474.25
279.347	1550.25
279.579	1415.25
279.81	1427.25
280.042	1596.25
280.273	1797.25
280.505	1765.25
280.736	1785.25
280.968	1710.25
281.199	1480.25
281.431	1405.25
281.662	1428.25
281.894	1363.25
282.125	1447.25
282.356	1525.25
282.588	1559.25
282.819	1515.25
283.051	1646.25
283.282	1817.25
283.513	1761.25
283.745	1473.25
283.976	1366.25
284.207	1426.25
284.439	1443.25
284.67	1472.25
284.901	1552.25
285.132	1540.25
285.364	1511.25
285.595	1538.25
285.826	1509.25
286.057	1492.25
286.288	1453.25
286.52	1551.25
286.751	1677.25
286.982	1710.25
287.213	1569.25
287.444	1482.25
287.675	1445.25
287.906	1493.25
288.138	1642.25
288.369	1592.25
288.6	1524.25
288.831	1439.25
289.062	1444.25
289.293	1506.25
289.524	1501.25
289.755	1535.25
289.986	1570.25
290.217	1443.25
290.448	1445.25
290.679	1500.25
290.91	1545.25
291.141	1553.25
291.371	1608.25
291.602	1586.25
291.833	1581.25
292.064	1650.25
292.295	1616.25
292.526	1687.25
292.757	1745.25
292.987	1631.25
293.218	1514.25
293.449	1637.25
293.68	1906.25
293.91	2024.25
294.141	1860.25
294.372	1749.25
294.603	1801.25
294.833	1917.25
295.064	1791.25
295.295	1641.25
295.525	1598.25
295.756	1488.25
295.987	1402.25
296.217	1439.25
296.448	1479.25
296.679	1483.25
296.909	1471.25
297.14	1457.25
297.37	1463.25
297.601	1565.25
297.831	1709.25
298.062	1748.25
298.292	1576.25
298.523	1442.25
298.753	1489.25
298.984	1511.25
299.214	1503.25
299.445	1542.25
299.675	1628.25
299.905	1592.25
300.136	1577.25
300.366	1516.25
300.597	1483.25
300.827	1481.25
301.057	1516.25
301.288	1624.25
301.518	1576.25
301.748	1668.25
301.979	1732.25
302.209	1777.25
302.439	1852.25
302.669	1936.25
302.9	1813.25
303.13	1636.25
303.36	1655.25
303.59	1636.25
303.82	1663.25
304.051	1621.25
304.281	1643.25
304.511	1617.25
304.741	1705.25
304.971	1907.25
305.201	2065.25
305.431	1913.25
305.661	1567.25
305.891	1418.25
306.121	1411.25
306.352	1471.25
306.582	1536.25
306.812	1700.25
307.042	1821.25
307.272	1787.25
307.502	1836.25
307.731	1960.25
307.961	2117.25
308.191	2017.25
308.421	1718.25
308.651	1583.25
308.881	1503.25
309.111	1586.25
309.341	1537.25
309.571	1569.25
309.8	1560.25
310.03	1554.25
310.26	1540.25
310.49	1529.25
310.72	1577.25
310.949	1626.25
311.179	1721.25
311.409	1655.25
311.639	1607.25
311.868	1581.25
312.098	1588.25
312.328	1596.25
312.557	1553.25
312.787	1600.25
313.017	1603.25
313.246	1645.25
313.476	1632.25
313.706	1663.25
313.935	1637.25
314.165	1648.25
314.394	1687.25
314.624	1787.25
314.853	1904.25
315.083	1939.25
315.312	2031.25
315.542	1915.25
315.771	1700.25
316.001	1675.25
316.23	1802.25
316.46	1729.25
316.689	1735.25
316.919	1610.25
317.148	1575.25
317.377	1614.25
317.607	1703.25
317.836	1934.25
318.065	2049.25
318.295	1948.25
318.524	1842.25
318.753	1754.25
318.983	1764.25
319.212	1720.25
319.441	1701.25
319.67	1642.25
319.9	1711.25
320.129	1788.25
320.358	1850.25
320.587	1919.25
320.816	1919.25
321.046	1882.25
321.275	1756.25
321.504	1789.25
321.733	1957.25
321.962	1913.25
322.191	1741.25
322.42	1699.25
322.649	1651.25
322.878	1706.25
323.108	1707.25
323.337	1819.25
323.566	1785.25
323.795	1749.25
324.024	1758.25
324.253	1732.25
324.482	1752.25
324.71	1673.25
324.939	1587.25
325.168	1615.25
325.397	1666.25
325.626	1749.25
325.855	1801.25
326.084	1723.25
326.313	1699.25
326.542	1773.25
326.77	1814.25
326.999	1816.25
327.228	1731.25
327.457	1623.25
327.686	1573.25
327.914	1653.25
328.143	1679.25
328.372	1719.25
328.6	1673.25
328.829	1701.25
329.058	1713.25
329.287	1648.25
329.515	1731.25
329.744	1761.25
329.972	1803.25
330.201	1879.25
330.43	1880.25
330.658	1815.25
330.887	1783.25
331.115	1787.25
331.344	1804.25
331.572	1761.25
331.801	1776.25
332.03	1761.25
332.258	1748.25
332.486	1774.25
332.715	1865.25
332.943	1841.25
333.172	1796.25
333.4	1831.25
333.629	1910.25
333.857	1983.25
334.085	2161.25
334.314	2438.25
334.542	2717.25
334.771	2488.25
334.999	2159.25
335.227	2060.25
335.455	1961.25
335.684	1901.25
335.912	1952.25
336.14	2062.25
336.369	1979.25
336.597	1882.25
336.825	1834.25
337.053	1911.25
337.281	1985.25
337.51	2040.25
337.738	2190.25
337.966	2082.25
338.194	1863.25
338.422	1801.25
338.65	1789.25
338.878	1768.25
339.106	1699.25
339.334	1697.25
339.562	1712.25
339.79	1710.25
340.018	1857.25
340.246	1914.25
340.474	1895.25
340.702	1844.25
340.93	1866.25
341.158	1831.25
341.386	1780.25
341.614	1810.25
341.842	1751.25
342.07	1765.25
342.298	1796.25
342.526	1802.25
342.754	1722.25
342.981	1745.25
343.209	1739.25
343.437	1742.25
343.665	1794.25
343.893	1812.25
344.12	1902.25
344.348	1907.25
344.576	1815.25
344.804	1767.25
345.031	1774.25
345.259	1770.25
345.487	1733.25
345.714	1674.25
345.942	1605.25
346.17	1621.25
346.397	1675.25
346.625	1732.25
346.853	1609.25
347.08	1596.25
347.308	1624.25
347.535	1634.25
347.763	1731.25
347.99	1691.25
348.218	1581.25
348.445	1624.25
348.673	1634.25
348.9	1712.25
349.128	1757.25
349.355	1839.25
349.583	1737.25
349.81	1671.25
350.037	1548.25
350.265	1555.25
350.492	1591.25
350.72	1610.25
350.947	1674.25
351.174	1701.25
351.402	1626.25
351.629	1537.25
351.856	1537.25
352.083	1580.25
352.311	1557.25
352.538	1608.25
352.765	1655.25
352.992	1698.25
353.22	1687.25
353.447	1576.25
353.674	1615.25
353.901	1627.25
354.128	1587.25
354.355	1546.25
354.583	1643.25
354.81	1717.25
355.037	1706.25
355.264	1698.25
355.491	1679.25
355.718	1640.25
355.945	1651.25
356.172	1606.25
356.399	1614.25
356.626	1595.25
356.853	1631.25
357.08	1731.25
357.307	1947.25
357.534	1956.25
357.761	1754.25
357.988	1594.25
358.215	1530.25
358.441	1545.25
358.668	1517.25
358.895	1580.25
359.122	1691.25
359.349	1862.25
359.576	1824.25
359.802	1649.25
360.029	1552.25
360.256	1554.25
360.483	1601.25
360.709	1663.25
360.936	1707.25
361.163	1759.25
361.39	1926.25
361.616	2038.25
361.843	2001.25
362.07	1927.25
362.296	1641.25
362.523	1622.25
362.749	1644.25
362.976	1646.25
363.203	1682.25
363.429	1635.25
363.656	1578.25
363.882	1607.25
364.109	1770.25
364.335	1955.25
364.562	1811.25
364.788	1727.25
365.015	1690.25
365.241	1594.25
365.468	1634.25
365.694	1696.25
365.92	1781.25
366.147	1687.25
366.373	1627.25
366.599	1561.25
366.826	1587.25
367.052	1585.25
367.278	1614.25
367.505	1604.25
367.731	1651.25
367.957	1688.25
368.184	1727.25
368.41	1803.25
368.636	1839.25
368.862	1823.25
369.089	1835.25
369.315	1773.25
369.541	1720.25
369.767	1640.25
369.993	1616.25
370.219	1626.25
370.445	1625.25
370.672	1719.25
370.898	1837.25
371.124	1848.25
371.35	1754.25
371.576	1734.25
371.802	1824.25
372.028	1767.25
372.254	1679.25
372.48	1643.25
372.706	1643.25
372.932	1628.25
373.158	1657.25
373.384	1677.25
373.61	1711.25
373.835	1868.25
374.061	1749.25
374.287	1690.25
374.513	1693.25
374.739	1731.25
374.965	1754.25
375.191	1754.25
375.416	1774.25
375.642	1788.25
375.868	1857.25
376.094	1967.25
376.319	1877.25
376.545	1730.25
376.771	1752.25
376.997	1801.25
377.222	1851.25
377.448	1757.25
377.674	1775.25
377.899	1750.25
378.125	1871.25
378.35	1874.25
378.576	1712.25
378.802	1655.25
379.027	1633.25
379.253	1663.25
379.478	1687.25
379.704	1706.25
379.929	1705.25
380.155	1736.25
380.38	1707.25
380.606	1765.25
380.831	1700.25
381.057	1785.25
381.282	1840.25
381.507	1776.25
381.733	1881.25
381.958	1996.25
382.184	1775.25
382.409	1729.25
382.634	1812.25
382.86	1755.25
383.085	1778.25
383.31	1804.25
383.535	1997.25
383.761	2113.25
383.986	2010.25
384.211	1927.25
384.436	1916.25
384.662	1978.25
384.887	2063.25
385.112	1946.25
385.337	1978.25
385.562	1971.25
385.787	1977.25
386.013	1989.25
386.238	2006.25
386.463	1919.25
386.688	2077.25
386.913	2227.25
387.138	2213.25
387.363	2041.25
387.588	2029.25
387.813	1994.25
388.038	2038.25
388.263	2078.25
388.488	2036.25
388.713	1917.25
388.938	1878.25
389.163	1932.25
389.387	1885.25
389.612	1933.25
389.837	1982.25
390.062	1964.25
390.287	1972.25
390.512	1936.25
390.736	1927.25
390.961	1927.25
391.186	1841.25
391.411	1904.25
391.636	1915.25
391.86	1939.25
392.085	1949.25
392.31	1928.25
392.534	1975.25
392.759	2004.25
392.984	1988.25
393.208	1998.25
393.433	1979.25
393.658	2095.25
393.882	2105.25
394.107	2030.25
394.331	1917.25
394.556	1921.25
394.78	1935.25
395.005	2028.25
395.229	2098.25
395.454	2226.25
395.678	2271.25
395.903	2163.25
396.127	2067.25
396.352	2050.25
396.576	2133.25
396.801	2163.25
397.025	2128.25
397.249	2132.25
397.474	2091.25
397.698	2150.25
397.922	2164.25
398.147	2275.25
398.371	2293.25
398.595	2346.25
398.82	2204.25
399.044	2245.25
399.268	2371.25
399.492	2490.25
399.717	2670.25
399.941	2652.25
400.165	2617.25
400.389	2509.25
400.613	2434.25
400.837	2723.25
401.062	3106.25
401.286	2713.25
401.51	2463.25
401.734	2542.25
401.958	2491.25
402.182	2289.25
402.406	2271.25
402.63	2206.25
402.854	2208.25
403.078	2251.25
403.302	2319.25
403.526	2344.25
403.75	2318.25
403.974	2334.25
404.198	2337.25
404.422	2401.25
404.645	2516.25
404.869	2463.25
405.093	2313.25
405.317	2205.25
405.541	2372.25
405.765	2362.25
405.988	2328.25
406.212	2382.25
406.436	2416.25
406.66	2512.25
406.883	2464.25
407.107	2763.25
407.331	3043.25
407.555	3214.25
407.778	3077.25
408.002	2507.25
408.226	2423.25
408.449	2472.25
408.673	2357.25
408.896	2382.25
409.12	2433.25
409.344	2357.25
409.567	2260.25
409.791	2384.25
410.014	2379.25
410.238	2508.25
410.461	2654.25
410.685	2396.25
410.908	2281.25
411.132	2306.25
411.355	2295.25
411.578	2256.25
411.802	2244.25
412.025	2356.25
412.249	2291.25
412.472	2193.25
412.695	2216.25
412.919	2222.25
413.142	2211.25
413.365	2264.25
413.589	2272.25
413.812	2344.25
414.035	2508.25
414.258	2271.25
414.482	2228.25
414.705	2218.25
414.928	2257.25
415.151	2221.25
415.374	2254.25
415.597	2254.25
415.821	2269.25
416.044	2387.25
416.267	2374.25
416.49	2132.25
416.713	2132.25
416.936	2224.25
417.159	2326.25
417.382	2333.25
417.605	2173.25
417.828	2242.25
418.051	2294.25
418.274	2188.25
418.497	2146.25
418.72	2158.25
418.943	2108.25
419.166	2307.25
419.389	2376.25
419.611	2230.25
419.834	2173.25
420.057	2247.25
420.28	2169.25
420.503	2144.25
420.726	2178.25
420.948	2200.25
421.171	2121.25
421.394	2155.25
421.617	2225.25
421.839	2191.25
422.062	2178.25
422.285	2120.25
422.507	2130.25
422.73	2053.25
422.953	2076.25
423.175	2057.25
423.398	2133.25
423.621	2140.25
423.843	2134.25
424.066	2205.25
424.288	2281.25
424.511	2335.25
424.733	2205.25
424.956	2033.25
425.178	2030.25
425.401	2065.25
425.623	2084.25
425.846	2089.25
426.068	2147.25
426.291	2240.25
426.513	2157.25
426.735	2161.25
426.958	2295.25
427.18	2484.25
427.402	2232.25
427.625	2328.25
427.847	2311.25
428.069	2151.25
428.292	2075.25
428.514	2037.25
428.736	2061.25
428.958	2036.25
429.181	2102.25
429.403	2355.25
429.625	2931.25
429.847	2542.25
430.069	2140.25
430.292	2323.25
430.514	2444.25
430.736	2254.25
430.958	2390.25
431.18	2204.25
431.402	2101.25
431.624	2041.25
431.846	2064.25
432.068	2019.25
432.29	2017.25
432.512	2084.25
432.734	2141.25
432.956	2171.25
433.178	2235.25
433.4	2225.25
433.622	2228.25
433.844	2108.25
434.066	2015.25
434.287	2025.25
434.509	2138.25
434.731	2226.25
434.953	2377.25
435.175	2320.25
435.397	2179.25
435.618	2203.25
435.84	2201.25
436.062	2155.25
436.284	2177.25
436.505	2209.25
436.727	2201.25
436.949	2177.25
437.17	2089.25
437.392	2057.25
437.614	2092.25
437.835	1997.25
438.057	2128.25
438.278	2253.25
438.5	2120.25
438.721	2077.25
438.943	2077.25
439.165	2050.25
439.386	1984.25
439.608	2026.25
439.829	2026.25
440.05	2084.25
440.272	2065.25
440.493	2012.25
440.715	2043.25
440.936	2182.25
441.158	2429.25
441.379	2368.25
441.6	2266.25
441.822	2227.25
442.043	2192.25
442.264	2161.25
442.486	2081.25
442.707	2043.25
442.928	2027.25
443.149	2142.25
443.371	2261.25
443.592	2320.25
443.813	2229.25
444.034	2222.25
444.255	2274.25
444.476	2326.25
444.698	2305.25
444.919	2287.25
445.14	2396.25
445.361	2401.25
445.582	2482.25
445.803	2345.25
446.024	2290.25
446.245	2344.25
446.466	2277.25
446.687	2171.25
446.908	2133.25
447.129	2107.25
447.35	2141.25
447.571	2123.25
447.792	2030.25
448.013	1979.25
448.234	2041.25
448.455	2175.25
448.675	2158.25
448.896	1984.25
449.117	1938.25
449.338	2008.25
449.559	2091.25
449.779	2230.25
450	2431.25
450.221	2626.25
450.442	2548.25
450.662	2227.25
450.883	1995.25
451.104	1948.25
451.324	1993.25
451.545	2091.25
451.766	2029.25
451.986	1961.25
452.207	1899.25
452.428	1858.25
452.648	1817.25
452.869	1923.25
453.089	1993.25
453.31	2055.25
453.53	2080.25
453.751	1987.25
453.971	1867.25
454.192	1922.25
454.412	2026.25
454.633	1966.25
454.853	1947.25
455.073	1812.25
455.294	1797.25
455.514	1810.25
455.734	1800.25
455.955	1879.25
456.175	1813.25
456.395	1878.25
456.616	1913.25
456.836	1936.25
457.056	1880.25
457.276	1923.25
457.497	1842.25
457.717	1788.25
457.937	1812.25
458.157	1865.25
458.377	1858.25
458.598	1831.25
458.818	1875.25
459.038	1954.25
459.258	2098.25
459.478	2104.25
459.698	2050.25
459.918	2089.25
460.138	2153.25
460.358	2233.25
460.578	2199.25
460.798	2318.25
461.018	2450.25
461.238	2307.25
461.458	2234.25
461.678	2238.25
461.898	2210.25
462.118	2099.25
462.338	2213.25
462.558	2216.25
462.777	2215.25
462.997	2306.25
463.217	2473.25
463.437	2442.25
463.657	2268.25
463.876	2208.25
464.096	2204.25
464.316	2225.25
464.536	2284.25
464.755	2304.25
464.975	2365.25
465.195	2203.25
465.414	2346.25
465.634	2359.25
465.854	2202.25
466.073	2313.25
466.293	2295.25
466.512	2026.25
466.732	2007.25
466.951	2100.25
467.171	2103.25
467.391	2057.25
467.61	1961.25
467.829	2049.25
468.049	2179.25
468.268	2391.25
468.488	2254.25
468.707	2155.25
468.927	2089.25
469.146	2035.25
469.365	1988.25
469.585	2016.25
469.804	1956.25
470.023	2025.25
470.243	2034.25
470.462	1956.25
470.681	1965.25
470.901	2041.25
471.12	2010.25
471.339	1990.25
471.558	1954.25
471.777	1890.25
471.997	1960.25
472.216	1983.25
472.435	1892.25
472.654	1953.25
472.873	2045.25
473.092	2168.25
473.311	2068.25
473.53	1974.25
473.749	1881.25
473.968	1995.25
474.187	2090.25
474.406	2205.25
474.625	2081.25
474.844	2021.25
475.063	2047.25
475.282	2121.25
475.501	2027.25
475.72	2052.25
475.939	2153.25
476.158	2125.25
476.377	2047.25
476.596	2095.25
476.814	2157.25
477.033	2138.25
477.252	2240.25
477.471	2287.25
477.69	2190.25
477.908	2146.25
478.127	2268.25
478.346	2412.25
478.564	2473.25
478.783	2388.25
479.002	2483.25
479.22	2420.25
479.439	2516.25
479.658	2908.25
479.876	2824.25
480.095	2396.25
480.313	2356.25
480.532	2256.25
480.751	2309.25
480.969	2317.25
481.188	2306.25
481.406	2265.25
481.624	2242.25
481.843	2260.25
482.061	2329.25
482.28	2371.25
482.498	2415.25
482.717	2330.25
482.935	2288.25
483.153	2253.25
483.372	2305.25
483.59	2223.25
483.808	2272.25
484.027	2274.25
484.245	2453.25
484.463	2784.25
484.681	3243.25
484.9	2503.25
485.118	2316.25
485.336	2288.25
485.554	2368.25
485.772	2537.25
485.99	2441.25
486.209	2471.25
486.427	2435.25
486.645	2419.25
486.863	2392.25
487.081	2436.25
487.299	2563.25
