Data from WStandard_LampEnergy5.5LIBS07252019.E.O._I.C._HRD10591_16-06-23-920.txt Node
Date: Thu Jul 25 16:06:23 EDT 2019
User: cochatt
Spectrometer: HR+D1059
Trigger mode: 1
Integration Time (sec): 1.000000E-1
Scans to average: 1
Electric dark correction enabled: true
Nonlinearity correction enabled: false
Boxcar width: 0
XAxis mode: Wavelengths
Number of Pixels in Spectrum: 2048
>>>>>Begin Spectral Data<<<<<
223.165	-25.94
223.4	-25.94
223.635	-25.94
223.869	-14.94
224.104	-5.94
224.338	-18.94
224.573	-6.94
224.808	-21.94
225.042	-6.94
225.277	-11.94
225.511	-3.94
225.746	-1.94
225.98	8.06
226.215	16.06
226.449	23.06
226.683	14.06
226.918	32.06
227.152	26.06
227.387	30.06
227.621	42.06
227.856	50.06
228.09	31.06
228.324	54.06
228.559	50.06
228.793	132.06
229.027	332.06
229.262	316.06
229.496	350.06
229.73	347.06
229.964	408.06
230.199	400.06
230.433	429.06
230.667	445.06
230.901	464.06
231.136	454.06
231.37	443.06
231.604	423.06
231.838	421.06
232.072	433.06
232.306	411.06
232.541	446.06
232.775	485.06
233.009	543.06
233.243	523.06
233.477	462.06
233.711	475.06
233.945	497.06
234.179	485.06
234.413	528.06
234.647	583.06
234.881	530.06
235.115	488.06
235.349	496.06
235.583	486.06
235.817	507.06
236.051	472.06
236.285	513.06
236.519	534.06
236.753	587.06
236.987	599.06
237.221	633.06
237.455	685.06
237.689	646.06
237.922	610.06
238.156	600.06
238.39	589.06
238.624	606.06
238.858	685.06
239.091	696.06
239.325	726.06
239.559	831.06
239.793	866.06
240.027	954.06
240.26	968.06
240.494	690.06
240.728	642.06
240.961	643.06
241.195	653.06
241.429	735.06
241.662	735.06
241.896	690.06
242.13	697.06
242.363	755.06
242.597	813.06
242.83	796.06
243.064	801.06
243.298	859.06
243.531	809.06
243.765	823.06
243.998	817.06
244.232	706.06
244.465	698.06
244.699	728.06
244.932	823.06
245.166	910.06
245.399	874.06
245.633	781.06
245.866	769.06
246.099	799.06
246.333	841.06
246.566	856.06
246.8	913.06
247.033	1027.06
247.266	953.06
247.5	938.06
247.733	917.06
247.966	971.06
248.2	1084.06
248.433	1037.06
248.666	1078.06
248.899	1150.06
249.133	1381.06
249.366	1547.06
249.599	1265.06
249.832	1105.06
250.066	1102.06
250.299	1156.06
250.532	1065.06
250.765	939.06
250.998	986.06
251.231	1057.06
251.465	1105.06
251.698	1016.06
251.931	1011.06
252.164	1076.06
252.397	1107.06
252.63	1117.06
252.863	969.06
253.096	970.06
253.329	1042.06
253.562	1057.06
253.795	1137.06
254.028	1110.06
254.261	1023.06
254.494	1015.06
254.727	985.06
254.96	1016.06
255.193	1087.06
255.426	1224.06
255.659	1430.06
255.892	1462.06
256.124	1217.06
256.357	1141.06
256.59	1244.06
256.823	1255.06
257.056	1259.06
257.289	1473.06
257.521	1697.06
257.754	1484.06
257.987	1407.06
258.22	1562.06
258.452	1523.06
258.685	1219.06
258.918	1169.06
259.151	1203.06
259.383	1158.06
259.616	1035.06
259.849	1098.06
260.081	1231.06
260.314	1390.06
260.547	1489.06
260.779	1519.06
261.012	1390.06
261.244	1236.06
261.477	1169.06
261.71	1199.06
261.942	1213.06
262.175	1211.06
262.407	1295.06
262.64	1207.06
262.872	1139.06
263.105	1086.06
263.337	1143.06
263.57	1139.06
263.802	1129.06
264.035	1071.06
264.267	1039.06
264.499	1009.06
264.732	1085.06
264.964	1177.06
265.197	1181.06
265.429	1198.06
265.661	1369.06
265.894	1484.06
266.126	1574.06
266.358	1400.06
266.591	1442.06
266.823	1599.06
267.055	1427.06
267.287	1390.06
267.52	1347.06
267.752	1343.06
267.984	1342.06
268.216	1404.06
268.448	1430.06
268.681	1400.06
268.913	1322.06
269.145	1256.06
269.377	1241.06
269.609	1322.06
269.841	1511.06
270.073	1759.06
270.306	1946.06
270.538	2101.06
270.77	1796.06
271.002	1458.06
271.234	1425.06
271.466	1442.06
271.698	1636.06
271.93	1895.06
272.162	1890.06
272.394	1683.06
272.626	1639.06
272.858	1431.06
273.09	1285.06
273.322	1273.06
273.553	1221.06
273.785	1246.06
274.017	1297.06
274.249	1369.06
274.481	1387.06
274.713	1256.06
274.945	1204.06
275.176	1227.06
275.408	1247.06
275.64	1226.06
275.872	1224.06
276.104	1291.06
276.335	1446.06
276.567	1665.06
276.799	1677.06
277.031	1495.06
277.262	1395.06
277.494	1417.06
277.726	1625.06
277.957	1598.06
278.189	1470.06
278.421	1336.06
278.652	1333.06
278.884	1297.06
279.115	1266.06
279.347	1320.06
279.579	1297.06
279.81	1270.06
280.042	1423.06
280.273	1524.06
280.505	1487.06
280.736	1609.06
280.968	1533.06
281.199	1323.06
281.431	1266.06
281.662	1281.06
281.894	1292.06
282.125	1318.06
282.356	1365.06
282.588	1383.06
282.819	1371.06
283.051	1434.06
283.282	1533.06
283.513	1519.06
283.745	1315.06
283.976	1243.06
284.207	1287.06
284.439	1273.06
284.67	1303.06
284.901	1328.06
285.132	1404.06
285.364	1347.06
285.595	1365.06
285.826	1351.06
286.057	1327.06
286.288	1307.06
286.52	1400.06
286.751	1498.06
286.982	1507.06
287.213	1408.06
287.444	1289.06
287.675	1272.06
287.906	1331.06
288.138	1449.06
288.369	1355.06
288.6	1331.06
288.831	1313.06
289.062	1317.06
289.293	1373.06
289.524	1343.06
289.755	1335.06
289.986	1371.06
290.217	1289.06
290.448	1344.06
290.679	1361.06
290.91	1365.06
291.141	1410.06
291.371	1477.06
291.602	1435.06
291.833	1425.06
292.064	1452.06
292.295	1454.06
292.526	1482.06
292.757	1515.06
292.987	1448.06
293.218	1381.06
293.449	1437.06
293.68	1643.06
293.91	1787.06
294.141	1634.06
294.372	1496.06
294.603	1561.06
294.833	1627.06
295.064	1578.06
295.295	1404.06
295.525	1418.06
295.756	1343.06
295.987	1258.06
296.217	1302.06
296.448	1364.06
296.679	1325.06
296.909	1334.06
297.14	1336.06
297.37	1310.06
297.601	1392.06
297.831	1504.06
298.062	1531.06
298.292	1431.06
298.523	1363.06
298.753	1329.06
298.984	1407.06
299.214	1342.06
299.445	1401.06
299.675	1431.06
299.905	1435.06
300.136	1379.06
300.366	1376.06
300.597	1347.06
300.827	1303.06
301.057	1381.06
301.288	1443.06
301.518	1459.06
301.748	1475.06
301.979	1551.06
302.209	1585.06
302.439	1658.06
302.669	1739.06
302.9	1593.06
303.13	1455.06
303.36	1454.06
303.59	1482.06
303.82	1440.06
304.051	1467.06
304.281	1483.06
304.511	1448.06
304.741	1512.06
304.971	1661.06
305.201	1815.06
305.431	1687.06
305.661	1422.06
305.891	1298.06
306.121	1292.06
306.352	1344.06
306.582	1445.06
306.812	1499.06
307.042	1598.06
307.272	1563.06
307.502	1633.06
307.731	1789.06
307.961	1874.06
308.191	1794.06
308.421	1543.06
308.651	1433.06
308.881	1408.06
309.111	1424.06
309.341	1406.06
309.571	1422.06
309.8	1409.06
310.03	1398.06
310.26	1401.06
310.49	1389.06
310.72	1413.06
310.949	1486.06
311.179	1543.06
311.409	1477.06
311.639	1456.06
311.868	1403.06
312.098	1428.06
312.328	1462.06
312.557	1406.06
312.787	1467.06
313.017	1487.06
313.246	1486.06
313.476	1467.06
313.706	1559.06
313.935	1520.06
314.165	1497.06
314.394	1516.06
314.624	1641.06
314.853	1707.06
315.083	1749.06
315.312	1856.06
315.542	1674.06
315.771	1526.06
316.001	1527.06
316.23	1588.06
316.46	1576.06
316.689	1537.06
316.919	1480.06
317.148	1478.06
317.377	1502.06
317.607	1559.06
317.836	1725.06
318.065	1791.06
318.295	1700.06
318.524	1681.06
318.753	1615.06
318.983	1610.06
319.212	1597.06
319.441	1556.06
319.67	1523.06
319.9	1552.06
320.129	1630.06
320.358	1709.06
320.587	1716.06
320.816	1705.06
321.046	1721.06
321.275	1587.06
321.504	1556.06
321.733	1693.06
321.962	1667.06
322.191	1575.06
322.42	1563.06
322.649	1548.06
322.878	1536.06
323.108	1537.06
323.337	1618.06
323.566	1569.06
323.795	1608.06
324.024	1615.06
324.253	1550.06
324.482	1595.06
324.71	1583.06
324.939	1464.06
325.168	1519.06
325.397	1541.06
325.626	1576.06
325.855	1608.06
326.084	1561.06
326.313	1537.06
326.542	1600.06
326.77	1625.06
326.999	1615.06
327.228	1569.06
327.457	1515.06
327.686	1478.06
327.914	1516.06
328.143	1554.06
328.372	1573.06
328.6	1591.06
328.829	1526.06
329.058	1532.06
329.287	1551.06
329.515	1576.06
329.744	1585.06
329.972	1667.06
330.201	1725.06
330.43	1666.06
330.658	1668.06
330.887	1641.06
331.115	1625.06
331.344	1682.06
331.572	1643.06
331.801	1621.06
332.03	1675.06
332.258	1656.06
332.486	1655.06
332.715	1709.06
332.943	1709.06
333.172	1658.06
333.4	1700.06
333.629	1745.06
333.857	1834.06
334.085	2038.06
334.314	2230.06
334.542	2438.06
334.771	2257.06
334.999	2015.06
335.227	1880.06
335.455	1808.06
335.684	1768.06
335.912	1789.06
336.14	1901.06
336.369	1859.06
336.597	1747.06
336.825	1712.06
337.053	1703.06
337.281	1802.06
337.51	1872.06
337.738	1960.06
337.966	1889.06
338.194	1702.06
338.422	1702.06
338.65	1700.06
338.878	1622.06
339.106	1625.06
339.334	1590.06
339.562	1566.06
339.79	1620.06
340.018	1685.06
340.246	1734.06
340.474	1774.06
340.702	1639.06
340.93	1681.06
341.158	1659.06
341.386	1665.06
341.614	1666.06
341.842	1638.06
342.07	1626.06
342.298	1681.06
342.526	1685.06
342.754	1600.06
342.981	1622.06
343.209	1631.06
343.437	1625.06
343.665	1682.06
343.893	1733.06
344.12	1739.06
344.348	1819.06
344.576	1689.06
344.804	1665.06
345.031	1649.06
345.259	1666.06
345.487	1606.06
345.714	1546.06
345.942	1517.06
346.17	1525.06
346.397	1557.06
346.625	1609.06
346.853	1500.06
347.08	1464.06
347.308	1521.06
347.535	1530.06
347.763	1598.06
347.99	1564.06
348.218	1489.06
348.445	1490.06
348.673	1553.06
348.9	1607.06
349.128	1615.06
349.355	1680.06
349.583	1608.06
349.81	1557.06
350.037	1440.06
350.265	1429.06
350.492	1502.06
350.72	1491.06
350.947	1532.06
351.174	1561.06
351.402	1483.06
351.629	1473.06
351.856	1459.06
352.083	1456.06
352.311	1428.06
352.538	1485.06
352.765	1554.06
352.992	1585.06
353.22	1557.06
353.447	1488.06
353.674	1531.06
353.901	1550.06
354.128	1490.06
354.355	1492.06
354.583	1553.06
354.81	1603.06
355.037	1591.06
355.264	1531.06
355.491	1513.06
355.718	1546.06
355.945	1512.06
356.172	1502.06
356.399	1523.06
356.626	1451.06
356.853	1531.06
357.08	1594.06
357.307	1769.06
357.534	1795.06
357.761	1583.06
357.988	1493.06
358.215	1429.06
358.441	1514.06
358.668	1521.06
358.895	1480.06
359.122	1529.06
359.349	1693.06
359.576	1686.06
359.802	1545.06
360.029	1463.06
360.256	1471.06
360.483	1487.06
360.709	1506.06
360.936	1533.06
361.163	1580.06
361.39	1760.06
361.616	1869.06
361.843	1807.06
362.07	1736.06
362.296	1537.06
362.523	1498.06
362.749	1488.06
362.976	1524.06
363.203	1553.06
363.429	1481.06
363.656	1459.06
363.882	1537.06
364.109	1642.06
364.335	1778.06
364.562	1691.06
364.788	1601.06
365.015	1547.06
365.241	1483.06
365.468	1529.06
365.694	1576.06
365.92	1653.06
366.147	1611.06
366.373	1501.06
366.599	1489.06
366.826	1466.06
367.052	1515.06
367.278	1483.06
367.505	1483.06
367.731	1559.06
367.957	1540.06
368.184	1541.06
368.41	1615.06
368.636	1675.06
368.862	1644.06
369.089	1686.06
369.315	1611.06
369.541	1597.06
369.767	1535.06
369.993	1504.06
370.219	1497.06
370.445	1555.06
370.672	1628.06
370.898	1700.06
371.124	1637.06
371.35	1591.06
371.576	1631.06
371.802	1712.06
372.028	1667.06
372.254	1555.06
372.48	1572.06
372.706	1546.06
372.932	1570.06
373.158	1562.06
373.384	1586.06
373.61	1596.06
373.835	1699.06
374.061	1627.06
374.287	1590.06
374.513	1640.06
374.739	1614.06
374.965	1629.06
375.191	1665.06
375.416	1657.06
375.642	1665.06
375.868	1753.06
376.094	1789.06
376.319	1683.06
376.545	1605.06
376.771	1628.06
376.997	1708.06
377.222	1634.06
377.448	1609.06
377.674	1649.06
377.899	1634.06
378.125	1727.06
378.35	1730.06
378.576	1637.06
378.802	1585.06
379.027	1543.06
379.253	1571.06
379.478	1595.06
379.704	1578.06
379.929	1593.06
380.155	1609.06
380.38	1628.06
380.606	1668.06
380.831	1600.06
381.057	1677.06
381.282	1679.06
381.507	1694.06
381.733	1719.06
381.958	1795.06
382.184	1699.06
382.409	1682.06
382.634	1676.06
382.86	1658.06
383.085	1670.06
383.31	1698.06
383.535	1834.06
383.761	1927.06
383.986	1864.06
384.211	1797.06
384.436	1789.06
384.662	1865.06
384.887	1963.06
385.112	1815.06
385.337	1875.06
385.562	1863.06
385.787	1855.06
386.013	1909.06
386.238	1917.06
386.463	1881.06
386.688	1960.06
386.913	2035.06
387.138	2056.06
387.363	1899.06
387.588	1913.06
387.813	1898.06
388.038	1936.06
388.263	1962.06
388.488	1898.06
388.713	1794.06
388.938	1776.06
389.163	1794.06
389.387	1832.06
389.612	1824.06
389.837	1871.06
390.062	1878.06
390.287	1883.06
390.512	1895.06
390.736	1839.06
390.961	1824.06
391.186	1799.06
391.411	1823.06
391.636	1865.06
391.86	1885.06
392.085	1898.06
392.31	1895.06
392.534	1904.06
392.759	1927.06
392.984	1923.06
393.208	1963.06
393.433	2087.06
393.658	2140.06
393.882	2024.06
394.107	1884.06
394.331	1839.06
394.556	1859.06
394.78	1878.06
395.005	1954.06
395.229	1937.06
395.454	2083.06
395.678	2093.06
395.903	2038.06
396.127	1985.06
396.352	2013.06
396.576	2064.06
396.801	2104.06
397.025	2140.06
397.249	2080.06
397.474	2051.06
397.698	2029.06
397.922	2084.06
398.147	2120.06
398.371	2185.06
398.595	2199.06
398.82	2141.06
399.044	2189.06
399.268	2273.06
399.492	2449.06
399.717	2571.06
399.941	2594.06
400.165	2480.06
400.389	2442.06
400.613	2385.06
400.837	2515.06
401.062	2766.06
401.286	2477.06
401.51	2286.06
401.734	2321.06
401.958	2317.06
402.182	2185.06
402.406	2151.06
402.63	2095.06
402.854	2101.06
403.078	2148.06
403.302	2210.06
403.526	2279.06
403.75	2233.06
403.974	2275.06
404.198	2248.06
404.422	2282.06
404.645	2358.06
404.869	2343.06
405.093	2215.06
405.317	2166.06
405.541	2232.06
405.765	2281.06
405.988	2268.06
406.212	2304.06
406.436	2355.06
406.66	2366.06
406.883	2370.06
407.107	2562.06
407.331	2781.06
407.555	3017.06
407.778	2892.06
408.002	2429.06
408.226	2415.06
408.449	2358.06
408.673	2275.06
408.896	2293.06
409.12	2344.06
409.344	2302.06
409.567	2200.06
409.791	2279.06
410.014	2278.06
410.238	2393.06
410.461	2496.06
410.685	2249.06
410.908	2200.06
411.132	2232.06
411.355	2222.06
411.578	2145.06
411.802	2179.06
412.025	2193.06
412.249	2159.06
412.472	2148.06
412.695	2140.06
412.919	2091.06
413.142	2105.06
413.365	2157.06
413.589	2206.06
413.812	2234.06
414.035	2295.06
414.258	2151.06
414.482	2138.06
414.705	2105.06
414.928	2098.06
415.151	2129.06
415.374	2148.06
415.597	2181.06
415.821	2191.06
416.044	2277.06
416.267	2276.06
416.49	2017.06
416.713	2031.06
416.936	2105.06
417.159	2179.06
417.382	2182.06
417.605	2065.06
417.828	2156.06
418.051	2230.06
418.274	2139.06
418.497	2058.06
418.72	2103.06
418.943	2080.06
419.166	2247.06
419.389	2303.06
419.611	2226.06
419.834	2133.06
420.057	2099.06
420.28	2113.06
420.503	2016.06
420.726	2086.06
420.948	2095.06
421.171	2051.06
421.394	2059.06
421.617	2162.06
421.839	2119.06
422.062	2093.06
422.285	2056.06
422.507	2042.06
422.73	2017.06
422.953	1991.06
423.175	2018.06
423.398	2051.06
423.621	2080.06
423.843	2065.06
424.066	2062.06
424.288	2157.06
424.511	2157.06
424.733	2157.06
424.956	1978.06
425.178	2014.06
425.401	2006.06
425.623	2048.06
425.846	2019.06
426.068	2098.06
426.291	2052.06
426.513	2067.06
426.735	2059.06
426.958	2139.06
427.18	2288.06
427.402	2172.06
427.625	2164.06
427.847	2150.06
428.069	2088.06
428.292	2006.06
428.514	1937.06
428.736	1955.06
428.958	1952.06
429.181	1997.06
429.403	2173.06
429.625	2623.06
429.847	2362.06
430.069	2013.06
430.292	2216.06
430.514	2197.06
430.736	2097.06
430.958	2239.06
431.18	2131.06
431.402	1928.06
431.624	1962.06
431.846	1983.06
432.068	1909.06
432.29	1991.06
432.512	1966.06
432.734	2045.06
432.956	2033.06
433.178	2160.06
433.4	2153.06
433.622	2125.06
433.844	2007.06
434.066	1944.06
434.287	1943.06
434.509	2034.06
434.731	2145.06
434.953	2286.06
435.175	2240.06
435.397	2085.06
435.618	2085.06
435.84	2127.06
436.062	2059.06
436.284	2061.06
436.505	2082.06
436.727	2083.06
436.949	2035.06
437.17	2027.06
437.392	2008.06
437.614	1979.06
437.835	1945.06
438.057	2082.06
438.278	2161.06
438.5	2027.06
438.721	1950.06
438.943	2025.06
439.165	1967.06
439.386	1932.06
439.608	1925.06
439.829	2016.06
440.05	1974.06
440.272	1943.06
440.493	1945.06
440.715	1946.06
440.936	2080.06
441.158	2295.06
441.379	2219.06
441.6	2179.06
441.822	2146.06
442.043	2159.06
442.264	2111.06
442.486	1998.06
442.707	1941.06
442.928	1994.06
443.149	2066.06
443.371	2158.06
443.592	2273.06
443.813	2157.06
444.034	2131.06
444.255	2161.06
444.476	2247.06
444.698	2290.06
444.919	2235.06
445.14	2338.06
445.361	2311.06
445.582	2398.06
445.803	2248.06
446.024	2167.06
446.245	2266.06
446.466	2191.06
446.687	2071.06
446.908	2030.06
447.129	2011.06
447.35	2087.06
447.571	2038.06
447.792	1975.06
448.013	1943.06
448.234	1966.06
448.455	2035.06
448.675	2033.06
448.896	1861.06
449.117	1891.06
449.338	1962.06
449.559	1971.06
449.779	2102.06
450	2285.06
450.221	2469.06
450.442	2439.06
450.662	2098.06
450.883	1896.06
451.104	1865.06
451.324	1896.06
451.545	1923.06
451.766	1963.06
451.986	1882.06
452.207	1831.06
452.428	1772.06
452.648	1754.06
452.869	1833.06
453.089	1893.06
453.31	1906.06
453.53	1973.06
453.751	1874.06
453.971	1795.06
454.192	1845.06
454.412	1954.06
454.633	1849.06
454.853	1834.06
455.073	1720.06
455.294	1706.06
455.514	1713.06
455.734	1758.06
455.955	1783.06
456.175	1738.06
456.395	1784.06
456.616	1829.06
456.836	1847.06
457.056	1814.06
457.276	1793.06
457.497	1749.06
457.717	1713.06
457.937	1729.06
458.157	1799.06
458.377	1768.06
458.598	1766.06
458.818	1808.06
459.038	1846.06
459.258	1987.06
459.478	2029.06
459.698	1979.06
459.918	2017.06
460.138	2090.06
460.358	2130.06
460.578	2104.06
460.798	2178.06
461.018	2354.06
461.238	2188.06
461.458	2142.06
461.678	2104.06
461.898	2098.06
462.118	2042.06
462.338	2136.06
462.558	2144.06
462.777	2167.06
462.997	2266.06
463.217	2456.06
463.437	2346.06
463.657	2176.06
463.876	2137.06
464.096	2115.06
464.316	2160.06
464.536	2235.06
464.755	2204.06
464.975	2256.06
465.195	2137.06
465.414	2245.06
465.634	2219.06
465.854	2096.06
466.073	2182.06
466.293	2157.06
466.512	1958.06
466.732	1939.06
466.951	1996.06
467.171	2002.06
467.391	1936.06
467.61	1878.06
467.829	1883.06
468.049	2001.06
468.268	2218.06
468.488	2082.06
468.707	2010.06
468.927	1958.06
469.146	1978.06
469.365	1841.06
469.585	1914.06
469.804	1859.06
470.023	1971.06
470.243	1983.06
470.462	1955.06
470.681	1920.06
470.901	1951.06
471.12	1943.06
471.339	1911.06
471.558	1881.06
471.777	1841.06
471.997	1874.06
472.216	1877.06
472.435	1837.06
472.654	1834.06
472.873	1928.06
473.092	2023.06
473.311	1919.06
473.53	1825.06
473.749	1871.06
473.968	1930.06
474.187	1995.06
474.406	2093.06
474.625	1994.06
474.844	1930.06
475.063	1912.06
475.282	2026.06
475.501	1949.06
475.72	1918.06
475.939	2062.06
476.158	1960.06
476.377	1929.06
476.596	1963.06
476.814	1994.06
477.033	2003.06
477.252	2134.06
477.471	2128.06
477.69	2059.06
477.908	2078.06
478.127	2166.06
478.346	2281.06
478.564	2335.06
478.783	2337.06
479.002	2343.06
479.22	2294.06
479.439	2364.06
479.658	2668.06
479.876	2717.06
480.095	2380.06
480.313	2230.06
480.532	2162.06
480.751	2210.06
480.969	2242.06
481.188	2172.06
481.406	2187.06
481.624	2082.06
481.843	2142.06
482.061	2205.06
482.28	2233.06
482.498	2284.06
482.717	2251.06
482.935	2120.06
483.153	2157.06
483.372	2203.06
483.59	2141.06
483.808	2125.06
484.027	2217.06
484.245	2337.06
484.463	2508.06
484.681	2933.06
484.9	2389.06
485.118	2196.06
485.336	2252.06
485.554	2203.06
485.772	2336.06
485.99	2285.06
486.209	2312.06
486.427	2267.06
486.645	2302.06
486.863	2227.06
487.081	2283.06
487.299	2369.06
487.517	2355.06
