Data from WStandard_LampEnergy5.5LIBS07252019.E.O._I.C._HRD10591_16-09-29-921.txt Node
Date: Thu Jul 25 16:09:29 EDT 2019
User: cochatt
Spectrometer: HR+D1059
Trigger mode: 1
Integration Time (sec): 1.000000E-1
Scans to average: 1
Electric dark correction enabled: true
Nonlinearity correction enabled: false
Boxcar width: 0
XAxis mode: Wavelengths
Number of Pixels in Spectrum: 2048
>>>>>Begin Spectral Data<<<<<
223.165	-13.62
223.4	-13.62
223.635	-13.62
223.869	-13.62
224.104	-18.62
224.338	-7.62
224.573	-13.62
224.808	-14.62
225.042	-4.62
225.277	-19.62
225.511	-0.62
225.746	21.38
225.98	6.38
226.215	17.38
226.449	8.38
226.683	8.38
226.918	19.38
227.152	25.38
227.387	35.38
227.621	32.38
227.856	45.38
228.09	55.38
228.324	45.38
228.559	50.38
228.793	131.38
229.027	335.38
229.262	359.38
229.496	346.38
229.73	365.38
229.964	408.38
230.199	424.38
230.433	459.38
230.667	469.38
230.901	498.38
231.136	453.38
231.37	418.38
231.604	440.38
231.838	422.38
232.072	433.38
232.306	400.38
232.541	459.38
232.775	533.38
233.009	559.38
233.243	559.38
233.477	496.38
233.711	513.38
233.945	530.38
234.179	507.38
234.413	539.38
234.647	592.38
234.881	560.38
235.115	500.38
235.349	531.38
235.583	527.38
235.817	519.38
236.051	513.38
236.285	501.38
236.519	553.38
236.753	616.38
236.987	678.38
237.221	628.38
237.455	699.38
237.689	670.38
237.922	634.38
238.156	600.38
238.39	610.38
238.624	646.38
238.858	678.38
239.091	710.38
239.325	732.38
239.559	836.38
239.793	870.38
240.027	1005.38
240.26	968.38
240.494	702.38
240.728	660.38
240.961	668.38
241.195	681.38
241.429	742.38
241.662	767.38
241.896	708.38
242.13	714.38
242.363	790.38
242.597	847.38
242.83	813.38
243.064	817.38
243.298	903.38
243.531	877.38
243.765	858.38
243.998	849.38
244.232	772.38
244.465	723.38
244.699	753.38
244.932	839.38
245.166	971.38
245.399	926.38
245.633	838.38
245.866	833.38
246.099	860.38
246.333	888.38
246.566	921.38
246.8	961.38
247.033	1079.38
247.266	1025.38
247.5	981.38
247.733	985.38
247.966	1031.38
248.2	1154.38
248.433	1115.38
248.666	1116.38
248.899	1248.38
249.133	1418.38
249.366	1649.38
249.599	1327.38
249.832	1135.38
250.066	1152.38
250.299	1186.38
250.532	1096.38
250.765	1012.38
250.998	1095.38
251.231	1095.38
251.465	1160.38
251.698	1081.38
251.931	1074.38
252.164	1134.38
252.397	1174.38
252.63	1161.38
252.863	1031.38
253.096	997.38
253.329	1053.38
253.562	1099.38
253.795	1185.38
254.028	1182.38
254.261	1093.38
254.494	1085.38
254.727	1037.38
254.96	1084.38
255.193	1172.38
255.426	1311.38
255.659	1467.38
255.892	1569.38
256.124	1264.38
256.357	1213.38
256.59	1305.38
256.823	1305.38
257.056	1330.38
257.289	1599.38
257.521	1779.38
257.754	1560.38
257.987	1483.38
258.22	1640.38
258.452	1612.38
258.685	1305.38
258.918	1268.38
259.151	1285.38
259.383	1187.38
259.616	1086.38
259.849	1126.38
260.081	1295.38
260.314	1420.38
260.547	1542.38
260.779	1617.38
261.012	1518.38
261.244	1330.38
261.477	1272.38
261.71	1299.38
261.942	1289.38
262.175	1261.38
262.407	1351.38
262.64	1291.38
262.872	1219.38
263.105	1134.38
263.337	1198.38
263.57	1215.38
263.802	1223.38
264.035	1110.38
264.267	1061.38
264.499	1061.38
264.732	1144.38
264.964	1200.38
265.197	1256.38
265.429	1277.38
265.661	1459.38
265.894	1638.38
266.126	1701.38
266.358	1483.38
266.591	1533.38
266.823	1696.38
267.055	1501.38
267.287	1446.38
267.52	1470.38
267.752	1402.38
267.984	1420.38
268.216	1497.38
268.448	1533.38
268.681	1503.38
268.913	1429.38
269.145	1358.38
269.377	1290.38
269.609	1379.38
269.841	1583.38
270.073	1869.38
270.306	2085.38
270.538	2215.38
270.77	1851.38
271.002	1603.38
271.234	1543.38
271.466	1497.38
271.698	1699.38
271.93	2019.38
272.162	2039.38
272.394	1839.38
272.626	1759.38
272.858	1574.38
273.09	1348.38
273.322	1327.38
273.553	1286.38
273.785	1319.38
274.017	1366.38
274.249	1469.38
274.481	1482.38
274.713	1336.38
274.945	1299.38
275.176	1362.38
275.408	1302.38
275.64	1277.38
275.872	1266.38
276.104	1368.38
276.335	1526.38
276.567	1739.38
276.799	1748.38
277.031	1552.38
277.262	1489.38
277.494	1573.38
277.726	1729.38
277.957	1709.38
278.189	1550.38
278.421	1445.38
278.652	1386.38
278.884	1391.38
279.115	1393.38
279.347	1428.38
279.579	1383.38
279.81	1370.38
280.042	1505.38
280.273	1647.38
280.505	1621.38
280.736	1662.38
280.968	1560.38
281.199	1395.38
281.431	1359.38
281.662	1336.38
281.894	1373.38
282.125	1345.38
282.356	1432.38
282.588	1473.38
282.819	1464.38
283.051	1527.38
283.282	1675.38
283.513	1667.38
283.745	1430.38
283.976	1342.38
284.207	1317.38
284.439	1394.38
284.67	1391.38
284.901	1422.38
285.132	1458.38
285.364	1456.38
285.595	1442.38
285.826	1413.38
286.057	1381.38
286.288	1389.38
286.52	1459.38
286.751	1566.38
286.982	1615.38
287.213	1501.38
287.444	1382.38
287.675	1376.38
287.906	1436.38
288.138	1519.38
288.369	1499.38
288.6	1404.38
288.831	1380.38
289.062	1365.38
289.293	1393.38
289.524	1397.38
289.755	1447.38
289.986	1461.38
290.217	1349.38
290.448	1378.38
290.679	1417.38
290.91	1421.38
291.141	1447.38
291.371	1506.38
291.602	1529.38
291.833	1494.38
292.064	1563.38
292.295	1506.38
292.526	1480.38
292.757	1630.38
292.987	1531.38
293.218	1456.38
293.449	1553.38
293.68	1726.38
293.91	1895.38
294.141	1720.38
294.372	1640.38
294.603	1717.38
294.833	1790.38
295.064	1647.38
295.295	1519.38
295.525	1514.38
295.756	1387.38
295.987	1354.38
296.217	1371.38
296.448	1391.38
296.679	1419.38
296.909	1398.38
297.14	1409.38
297.37	1409.38
297.601	1482.38
297.831	1610.38
298.062	1649.38
298.292	1497.38
298.523	1399.38
298.753	1409.38
298.984	1438.38
299.214	1418.38
299.445	1474.38
299.675	1543.38
299.905	1531.38
300.136	1502.38
300.366	1470.38
300.597	1390.38
300.827	1385.38
301.057	1457.38
301.288	1546.38
301.518	1538.38
301.748	1536.38
301.979	1629.38
302.209	1648.38
302.439	1789.38
302.669	1818.38
302.9	1717.38
303.13	1514.38
303.36	1557.38
303.59	1575.38
303.82	1524.38
304.051	1525.38
304.281	1578.38
304.511	1547.38
304.741	1625.38
304.971	1770.38
305.201	1900.38
305.431	1807.38
305.661	1506.38
305.891	1386.38
306.121	1361.38
306.352	1417.38
306.582	1476.38
306.812	1567.38
307.042	1690.38
307.272	1686.38
307.502	1693.38
307.731	1874.38
307.961	1987.38
308.191	1886.38
308.421	1585.38
308.651	1523.38
308.881	1508.38
309.111	1509.38
309.341	1446.38
309.571	1480.38
309.8	1467.38
310.03	1445.38
310.26	1458.38
310.49	1430.38
310.72	1489.38
310.949	1540.38
311.179	1609.38
311.409	1533.38
311.639	1538.38
311.868	1454.38
312.098	1536.38
312.328	1523.38
312.557	1480.38
312.787	1501.38
313.017	1536.38
313.246	1565.38
313.476	1536.38
313.706	1587.38
313.935	1570.38
314.165	1560.38
314.394	1600.38
314.624	1684.38
314.853	1783.38
315.083	1866.38
315.312	1921.38
315.542	1786.38
315.771	1589.38
316.001	1604.38
316.23	1700.38
316.46	1699.38
316.689	1664.38
316.919	1564.38
317.148	1509.38
317.377	1497.38
317.607	1629.38
317.836	1800.38
318.065	1891.38
318.295	1806.38
318.524	1747.38
318.753	1668.38
318.983	1673.38
319.212	1662.38
319.441	1601.38
319.67	1623.38
319.9	1624.38
320.129	1721.38
320.358	1742.38
320.587	1851.38
320.816	1803.38
321.046	1762.38
321.275	1647.38
321.504	1676.38
321.733	1823.38
321.962	1802.38
322.191	1649.38
322.42	1629.38
322.649	1605.38
322.878	1589.38
323.108	1651.38
323.337	1669.38
323.566	1687.38
323.795	1681.38
324.024	1682.38
324.253	1606.38
324.482	1673.38
324.71	1634.38
324.939	1548.38
325.168	1566.38
325.397	1630.38
325.626	1667.38
325.855	1709.38
326.084	1619.38
326.313	1599.38
326.542	1662.38
326.77	1672.38
326.999	1682.38
327.228	1648.38
327.457	1550.38
327.686	1536.38
327.914	1578.38
328.143	1627.38
328.372	1600.38
328.6	1626.38
328.829	1580.38
329.058	1574.38
329.287	1602.38
329.515	1635.38
329.744	1675.38
329.972	1739.38
330.201	1779.38
330.43	1801.38
330.658	1715.38
330.887	1755.38
331.115	1728.38
331.344	1725.38
331.572	1702.38
331.801	1689.38
332.03	1628.38
332.258	1729.38
332.486	1735.38
332.715	1734.38
332.943	1769.38
333.172	1717.38
333.4	1732.38
333.629	1802.38
333.857	1852.38
334.085	2077.38
334.314	2224.38
334.542	2542.38
334.771	2344.38
334.999	1990.38
335.227	1929.38
335.455	1816.38
335.684	1829.38
335.912	1880.38
336.14	1939.38
336.369	1880.38
336.597	1805.38
336.825	1762.38
337.053	1802.38
337.281	1911.38
337.51	1997.38
337.738	2025.38
337.966	1938.38
338.194	1792.38
338.422	1704.38
338.65	1716.38
338.878	1676.38
339.106	1644.38
339.334	1643.38
339.562	1648.38
339.79	1636.38
340.018	1719.38
340.246	1823.38
340.474	1825.38
340.702	1758.38
340.93	1778.38
341.158	1729.38
341.386	1671.38
341.614	1696.38
341.842	1662.38
342.07	1720.38
342.298	1745.38
342.526	1670.38
342.754	1689.38
342.981	1670.38
343.209	1649.38
343.437	1694.38
343.665	1663.38
343.893	1765.38
344.12	1836.38
344.348	1825.38
344.576	1735.38
344.804	1681.38
345.031	1684.38
345.259	1719.38
345.487	1671.38
345.714	1564.38
345.942	1577.38
346.17	1600.38
346.397	1594.38
346.625	1607.38
346.853	1544.38
347.08	1538.38
347.308	1543.38
347.535	1584.38
347.763	1624.38
347.99	1653.38
348.218	1550.38
348.445	1561.38
348.673	1543.38
348.9	1602.38
349.128	1674.38
349.355	1695.38
349.583	1679.38
349.81	1665.38
350.037	1457.38
350.265	1488.38
350.492	1520.38
350.72	1510.38
350.947	1597.38
351.174	1626.38
351.402	1543.38
351.629	1468.38
351.856	1479.38
352.083	1447.38
352.311	1477.38
352.538	1517.38
352.765	1567.38
352.992	1640.38
353.22	1577.38
353.447	1533.38
353.674	1518.38
353.901	1541.38
354.128	1530.38
354.355	1480.38
354.583	1555.38
354.81	1601.38
355.037	1621.38
355.264	1617.38
355.491	1610.38
355.718	1591.38
355.945	1582.38
356.172	1550.38
356.399	1556.38
356.626	1528.38
356.853	1550.38
357.08	1669.38
357.307	1831.38
357.534	1839.38
357.761	1647.38
357.988	1512.38
358.215	1459.38
358.441	1468.38
358.668	1507.38
358.895	1512.38
359.122	1606.38
359.349	1781.38
359.576	1712.38
359.802	1607.38
360.029	1506.38
360.256	1493.38
360.483	1505.38
360.709	1551.38
360.936	1651.38
361.163	1661.38
361.39	1818.38
361.616	1937.38
361.843	1876.38
362.07	1807.38
362.296	1597.38
362.523	1517.38
362.749	1562.38
362.976	1565.38
363.203	1573.38
363.429	1575.38
363.656	1498.38
363.882	1576.38
364.109	1711.38
364.335	1888.38
364.562	1705.38
364.788	1661.38
365.015	1621.38
365.241	1513.38
365.468	1552.38
365.694	1591.38
365.92	1706.38
366.147	1621.38
366.373	1533.38
366.599	1504.38
366.826	1527.38
367.052	1533.38
367.278	1532.38
367.505	1584.38
367.731	1623.38
367.957	1602.38
368.184	1637.38
368.41	1715.38
368.636	1735.38
368.862	1768.38
369.089	1750.38
369.315	1670.38
369.541	1635.38
369.767	1625.38
369.993	1533.38
370.219	1544.38
370.445	1571.38
370.672	1708.38
370.898	1761.38
371.124	1758.38
371.35	1654.38
371.576	1690.38
371.802	1760.38
372.028	1666.38
372.254	1593.38
372.48	1591.38
372.706	1568.38
372.932	1547.38
373.158	1593.38
373.384	1597.38
373.61	1666.38
373.835	1710.38
374.061	1640.38
374.287	1618.38
374.513	1603.38
374.739	1644.38
374.965	1649.38
375.191	1659.38
375.416	1710.38
375.642	1693.38
375.868	1781.38
376.094	1794.38
376.319	1750.38
376.545	1645.38
376.771	1650.38
376.997	1765.38
377.222	1754.38
377.448	1694.38
377.674	1701.38
377.899	1719.38
378.125	1825.38
378.35	1787.38
378.576	1678.38
378.802	1579.38
379.027	1562.38
379.253	1632.38
379.478	1607.38
379.704	1631.38
379.929	1601.38
380.155	1610.38
380.38	1606.38
380.606	1683.38
380.831	1647.38
381.057	1712.38
381.282	1748.38
381.507	1690.38
381.733	1790.38
381.958	1872.38
382.184	1750.38
382.409	1659.38
382.634	1716.38
382.86	1714.38
383.085	1687.38
383.31	1720.38
383.535	1874.38
383.761	1984.38
383.986	1911.38
384.211	1866.38
384.436	1858.38
384.662	1891.38
384.887	1968.38
385.112	1869.38
385.337	1914.38
385.562	1872.38
385.787	1864.38
386.013	1966.38
386.238	1905.38
386.463	1913.38
386.688	1986.38
386.913	2119.38
387.138	2122.38
387.363	1929.38
387.588	1957.38
387.813	1926.38
388.038	1919.38
388.263	2006.38
388.488	1954.38
388.713	1801.38
388.938	1787.38
389.163	1819.38
389.387	1847.38
389.612	1801.38
389.837	1878.38
390.062	1924.38
390.287	1907.38
390.512	1851.38
390.736	1853.38
390.961	1797.38
391.186	1785.38
391.411	1806.38
391.636	1851.38
391.86	1844.38
392.085	1877.38
392.31	1850.38
392.534	1850.38
392.759	1852.38
392.984	1873.38
393.208	1929.38
393.433	1927.38
393.658	1949.38
393.882	2023.38
394.107	1910.38
394.331	1852.38
394.556	1844.38
394.78	1903.38
395.005	1913.38
395.229	1954.38
395.454	2109.38
395.678	2154.38
395.903	2053.38
396.127	1967.38
396.352	1976.38
396.576	2042.38
396.801	2053.38
397.025	2007.38
397.249	2022.38
397.474	2005.38
397.698	1987.38
397.922	2078.38
398.147	2161.38
398.371	2247.38
398.595	2220.38
398.82	2126.38
399.044	2208.38
399.268	2261.38
399.492	2416.38
399.717	2512.38
399.941	2480.38
400.165	2482.38
400.389	2367.38
400.613	2363.38
400.837	2531.38
401.062	2985.38
401.286	2558.38
401.51	2329.38
401.734	2451.38
401.958	2372.38
402.182	2210.38
402.406	2130.38
402.63	2116.38
402.854	2129.38
403.078	2127.38
403.302	2184.38
403.526	2253.38
403.75	2191.38
403.974	2230.38
404.198	2202.38
404.422	2324.38
404.645	2393.38
404.869	2407.38
405.093	2162.38
405.317	2164.38
405.541	2261.38
405.765	2250.38
405.988	2168.38
406.212	2253.38
406.436	2311.38
406.66	2417.38
406.883	2374.38
407.107	2662.38
407.331	2849.38
407.555	3147.38
407.778	2873.38
408.002	2419.38
408.226	2321.38
408.449	2389.38
408.673	2318.38
408.896	2335.38
409.12	2323.38
409.344	2265.38
409.567	2180.38
409.791	2228.38
410.014	2299.38
410.238	2344.38
410.461	2530.38
410.685	2337.38
410.908	2194.38
411.132	2215.38
411.355	2257.38
411.578	2140.38
411.802	2162.38
412.025	2205.38
412.249	2165.38
412.472	2113.38
412.695	2109.38
412.919	2110.38
413.142	2131.38
413.365	2132.38
413.589	2221.38
413.812	2244.38
414.035	2327.38
414.258	2138.38
414.482	2125.38
414.705	2152.38
414.928	2162.38
415.151	2081.38
415.374	2142.38
415.597	2165.38
415.821	2141.38
416.044	2213.38
416.267	2230.38
416.49	2099.38
416.713	2011.38
416.936	2114.38
417.159	2201.38
417.382	2201.38
417.605	2065.38
417.828	2148.38
418.051	2154.38
418.274	2113.38
418.497	2054.38
418.72	2056.38
418.943	2017.38
419.166	2182.38
419.389	2285.38
419.611	2197.38
419.834	2093.38
420.057	2124.38
420.28	2073.38
420.503	2023.38
420.726	2082.38
420.948	2117.38
421.171	2030.38
421.394	2086.38
421.617	2119.38
421.839	2106.38
422.062	2070.38
422.285	2042.38
422.507	2033.38
422.73	2002.38
422.953	1937.38
423.175	1931.38
423.398	2025.38
423.621	2042.38
423.843	2066.38
424.066	2091.38
424.288	2143.38
424.511	2191.38
424.733	2148.38
424.956	1971.38
425.178	1929.38
425.401	1998.38
425.623	1985.38
425.846	1985.38
426.068	2095.38
426.291	2132.38
426.513	2058.38
426.735	2111.38
426.958	2208.38
427.18	2383.38
427.402	2130.38
427.625	2208.38
427.847	2217.38
428.069	2090.38
428.292	2006.38
428.514	1949.38
428.736	1927.38
428.958	2016.38
429.181	2005.38
429.403	2264.38
429.625	2777.38
429.847	2411.38
430.069	2045.38
430.292	2217.38
430.514	2302.38
430.736	2097.38
430.958	2231.38
431.18	2105.38
431.402	1957.38
431.624	1945.38
431.846	1998.38
432.068	1930.38
432.29	1961.38
432.512	2023.38
432.734	1996.38
432.956	2052.38
433.178	2124.38
433.4	2129.38
433.622	2123.38
433.844	2031.38
434.066	1938.38
434.287	1962.38
434.509	2033.38
434.731	2132.38
434.953	2252.38
435.175	2187.38
435.397	2099.38
435.618	2067.38
435.84	2123.38
436.062	2064.38
436.284	2051.38
436.505	2140.38
436.727	2139.38
436.949	2095.38
437.17	1991.38
437.392	2012.38
437.614	2032.38
437.835	1963.38
438.057	2069.38
438.278	2135.38
438.5	2026.38
438.721	1999.38
438.943	1995.38
439.165	1978.38
439.386	1946.38
439.608	1930.38
439.829	1958.38
440.05	1972.38
440.272	1962.38
440.493	1961.38
440.715	1941.38
440.936	2095.38
441.158	2342.38
441.379	2236.38
441.6	2171.38
441.822	2157.38
442.043	2133.38
442.264	2083.38
442.486	1961.38
442.707	1969.38
442.928	1959.38
443.149	1996.38
443.371	2099.38
443.592	2222.38
443.813	2179.38
444.034	2172.38
444.255	2126.38
444.476	2173.38
444.698	2233.38
444.919	2229.38
445.14	2288.38
445.361	2308.38
445.582	2345.38
445.803	2218.38
446.024	2162.38
446.245	2197.38
446.466	2177.38
446.687	2086.38
446.908	2075.38
447.129	2009.38
447.35	2050.38
447.571	2055.38
447.792	1913.38
448.013	1955.38
448.234	1939.38
448.455	2097.38
448.675	2090.38
448.896	1891.38
449.117	1863.38
449.338	1890.38
449.559	1975.38
449.779	2145.38
450	2298.38
450.221	2460.38
450.442	2391.38
450.662	2157.38
450.883	1908.38
451.104	1862.38
451.324	1925.38
451.545	1970.38
451.766	1939.38
451.986	1853.38
452.207	1845.38
452.428	1819.38
452.648	1748.38
452.869	1825.38
453.089	1914.38
453.31	1923.38
453.53	2014.38
453.751	1905.38
453.971	1789.38
454.192	1845.38
454.412	1968.38
454.633	1889.38
454.853	1852.38
455.073	1729.38
455.294	1728.38
455.514	1721.38
455.734	1753.38
455.955	1754.38
456.175	1773.38
456.395	1778.38
456.616	1862.38
456.836	1883.38
457.056	1819.38
457.276	1818.38
457.497	1768.38
457.717	1709.38
457.937	1736.38
458.157	1797.38
458.377	1803.38
458.598	1763.38
458.818	1785.38
459.038	1913.38
459.258	2018.38
459.478	1999.38
459.698	1947.38
459.918	1955.38
460.138	2090.38
460.358	2121.38
460.578	2116.38
460.798	2202.38
461.018	2276.38
461.238	2199.38
461.458	2084.38
461.678	2155.38
461.898	2071.38
462.118	2013.38
462.338	2106.38
462.558	2135.38
462.777	2119.38
462.997	2188.38
463.217	2349.38
463.437	2355.38
463.657	2162.38
463.876	2167.38
464.096	2170.38
464.316	2137.38
464.536	2198.38
464.755	2172.38
464.975	2250.38
465.195	2191.38
465.414	2280.38
465.634	2231.38
465.854	2132.38
466.073	2234.38
466.293	2189.38
466.512	1954.38
466.732	1903.38
466.951	2029.38
467.171	1969.38
467.391	1923.38
467.61	1915.38
467.829	1901.38
468.049	2036.38
468.268	2277.38
468.488	2153.38
468.707	2055.38
468.927	1975.38
469.146	1938.38
469.365	1895.38
469.585	1931.38
469.804	1911.38
470.023	1945.38
470.243	1946.38
470.462	1953.38
470.681	1907.38
470.901	1929.38
471.12	1952.38
471.339	1914.38
471.558	1890.38
471.777	1850.38
471.997	1856.38
472.216	1903.38
472.435	1813.38
472.654	1869.38
472.873	1947.38
473.092	2033.38
473.311	1959.38
473.53	1871.38
473.749	1868.38
473.968	1923.38
474.187	1981.38
474.406	2126.38
474.625	2010.38
474.844	1942.38
475.063	1959.38
475.282	2031.38
475.501	1955.38
475.72	1934.38
475.939	2073.38
476.158	2013.38
476.377	1992.38
476.596	1973.38
476.814	2030.38
477.033	2029.38
477.252	2146.38
477.471	2186.38
477.69	2068.38
477.908	2030.38
478.127	2150.38
478.346	2270.38
478.564	2377.38
478.783	2281.38
479.002	2366.38
479.22	2309.38
479.439	2406.38
479.658	2719.38
479.876	2667.38
480.095	2363.38
480.313	2257.38
480.532	2157.38
480.751	2185.38
480.969	2241.38
481.188	2182.38
481.406	2170.38
481.624	2118.38
481.843	2141.38
482.061	2176.38
482.28	2229.38
482.498	2262.38
482.717	2237.38
482.935	2163.38
483.153	2200.38
483.372	2153.38
483.59	2145.38
483.808	2131.38
484.027	2199.38
484.245	2358.38
484.463	2688.38
484.681	3062.38
484.9	2402.38
485.118	2205.38
485.336	2196.38
485.554	2262.38
485.772	2384.38
485.99	2338.38
486.209	2394.38
486.427	2309.38
486.645	2305.38
486.863	2286.38
487.081	2344.38
487.299	2460.38
487.517	2398.38
