Data from WStandard_LampEnergy8_LIBS07252019.E.O._I.C._HRD10591_15-59-26-929.txt Node
Date: Thu Jul 25 15:59:26 EDT 2019
User: cochatt
Spectrometer: HR+D1059
Trigger mode: 1
Integration Time (sec): 1.000000E-1
Scans to average: 1
Electric dark correction enabled: true
Nonlinearity correction enabled: false
Boxcar width: 0
XAxis mode: Wavelengths
Number of Pixels in Spectrum: 2048
>>>>>Begin Spectral Data<<<<<
223.165	-8.06
223.4	-8.06
223.635	-8.06
223.869	-2.06
224.104	-17.06
224.338	-32.06
224.573	-16.06
224.808	-17.06
225.042	-25.06
225.277	-12.06
225.511	-3.06
225.746	1.94
225.98	-2.06
226.215	21.94
226.449	22.94
226.683	27.94
226.918	26.94
227.152	32.94
227.387	41.94
227.621	34.94
227.856	51.94
228.09	26.94
228.324	50.94
228.559	53.94
228.793	78.94
229.027	202.94
229.262	206.94
229.496	213.94
229.73	214.94
229.964	233.94
230.199	241.94
230.433	266.94
230.667	277.94
230.901	281.94
231.136	274.94
231.37	257.94
231.604	257.94
231.838	243.94
232.072	257.94
232.306	259.94
232.541	273.94
232.775	298.94
233.009	319.94
233.243	307.94
233.477	278.94
233.711	277.94
233.945	297.94
234.179	303.94
234.413	327.94
234.647	338.94
234.881	316.94
235.115	272.94
235.349	309.94
235.583	283.94
235.817	288.94
236.051	298.94
236.285	286.94
236.519	332.94
236.753	341.94
236.987	367.94
237.221	346.94
237.455	381.94
237.689	371.94
237.922	359.94
238.156	348.94
238.39	351.94
238.624	379.94
238.858	380.94
239.091	416.94
239.325	417.94
239.559	474.94
239.793	479.94
240.027	491.94
240.26	469.94
240.494	393.94
240.728	371.94
240.961	373.94
241.195	403.94
241.429	412.94
241.662	405.94
241.896	378.94
242.13	371.94
242.363	416.94
242.597	463.94
242.83	449.94
243.064	443.94
243.298	479.94
243.531	445.94
243.765	466.94
243.998	467.94
244.232	408.94
244.465	382.94
244.699	416.94
244.932	475.94
245.166	526.94
245.399	473.94
245.633	451.94
245.866	447.94
246.099	478.94
246.333	498.94
246.566	484.94
246.8	525.94
247.033	549.94
247.266	519.94
247.5	519.94
247.733	518.94
247.966	568.94
248.2	587.94
248.433	587.94
248.666	610.94
248.899	655.94
249.133	730.94
249.366	794.94
249.599	688.94
249.832	627.94
250.066	616.94
250.299	628.94
250.532	586.94
250.765	541.94
250.998	563.94
251.231	575.94
251.465	593.94
251.698	579.94
251.931	579.94
252.164	570.94
252.397	626.94
252.63	611.94
252.863	536.94
253.096	557.94
253.329	590.94
253.562	569.94
253.795	626.94
254.028	605.94
254.261	573.94
254.494	576.94
254.727	542.94
254.96	569.94
255.193	626.94
255.426	696.94
255.659	769.94
255.892	763.94
256.124	671.94
256.357	662.94
256.59	678.94
256.823	682.94
257.056	725.94
257.289	822.94
257.521	869.94
257.754	805.94
257.987	775.94
258.22	819.94
258.452	815.94
258.685	698.94
258.918	672.94
259.151	678.94
259.383	608.94
259.616	577.94
259.849	623.94
260.081	697.94
260.314	755.94
260.547	799.94
260.779	802.94
261.012	731.94
261.244	702.94
261.477	666.94
261.71	703.94
261.942	672.94
262.175	674.94
262.407	691.94
262.64	678.94
262.872	622.94
263.105	601.94
263.337	633.94
263.57	618.94
263.802	626.94
264.035	597.94
264.267	565.94
264.499	553.94
264.732	615.94
264.964	637.94
265.197	657.94
265.429	694.94
265.661	760.94
265.894	824.94
266.126	860.94
266.358	766.94
266.591	824.94
266.823	849.94
267.055	785.94
267.287	758.94
267.52	750.94
267.752	737.94
267.984	747.94
268.216	765.94
268.448	805.94
268.681	769.94
268.913	711.94
269.145	679.94
269.377	672.94
269.609	772.94
269.841	877.94
270.073	992.94
270.306	1092.94
270.538	1100.94
270.77	945.94
271.002	821.94
271.234	818.94
271.466	823.94
271.698	912.94
271.93	1051.94
272.162	1046.94
272.394	952.94
272.626	897.94
272.858	783.94
273.09	693.94
273.322	693.94
273.553	654.94
273.785	686.94
274.017	701.94
274.249	729.94
274.481	752.94
274.713	705.94
274.945	662.94
275.176	687.94
275.408	699.94
275.64	665.94
275.872	669.94
276.104	788.94
276.335	849.94
276.567	886.94
276.799	869.94
277.031	801.94
277.262	797.94
277.494	838.94
277.726	874.94
277.957	856.94
278.189	799.94
278.421	743.94
278.652	726.94
278.884	719.94
279.115	729.94
279.347	741.94
279.579	709.94
279.81	738.94
280.042	805.94
280.273	877.94
280.505	833.94
280.736	847.94
280.968	810.94
281.199	742.94
281.431	681.94
281.662	730.94
281.894	699.94
282.125	752.94
282.356	793.94
282.588	759.94
282.819	767.94
283.051	826.94
283.282	874.94
283.513	832.94
283.745	745.94
283.976	706.94
284.207	710.94
284.439	731.94
284.67	737.94
284.901	756.94
285.132	755.94
285.364	750.94
285.595	769.94
285.826	756.94
286.057	759.94
286.288	776.94
286.52	798.94
286.751	839.94
286.982	823.94
287.213	780.94
287.444	723.94
287.675	730.94
287.906	756.94
288.138	817.94
288.369	808.94
288.6	756.94
288.831	738.94
289.062	728.94
289.293	767.94
289.524	752.94
289.755	800.94
289.986	766.94
290.217	751.94
290.448	732.94
290.679	761.94
290.91	783.94
291.141	816.94
291.371	825.94
291.602	800.94
291.833	785.94
292.064	825.94
292.295	794.94
292.526	843.94
292.757	854.94
292.987	808.94
293.218	806.94
293.449	861.94
293.68	942.94
293.91	1014.94
294.141	947.94
294.372	921.94
294.603	921.94
294.833	956.94
295.064	903.94
295.295	805.94
295.525	802.94
295.756	747.94
295.987	706.94
296.217	755.94
296.448	773.94
296.679	791.94
296.909	767.94
297.14	765.94
297.37	792.94
297.601	853.94
297.831	901.94
298.062	854.94
298.292	804.94
298.523	779.94
298.753	765.94
298.984	780.94
299.214	801.94
299.445	834.94
299.675	820.94
299.905	834.94
300.136	783.94
300.366	783.94
300.597	761.94
300.827	766.94
301.057	785.94
301.288	819.94
301.518	846.94
301.748	844.94
301.979	898.94
302.209	905.94
302.439	986.94
302.669	985.94
302.9	918.94
303.13	844.94
303.36	852.94
303.59	867.94
303.82	829.94
304.051	855.94
304.281	866.94
304.511	880.94
304.741	923.94
304.971	1038.94
305.201	1087.94
305.431	936.94
305.661	803.94
305.891	755.94
306.121	744.94
306.352	801.94
306.582	831.94
306.812	892.94
307.042	935.94
307.272	969.94
307.502	995.94
307.731	1057.94
307.961	1052.94
308.191	983.94
308.421	886.94
308.651	829.94
308.881	837.94
309.111	830.94
309.341	815.94
309.571	808.94
309.8	825.94
310.03	801.94
310.26	821.94
310.49	829.94
310.72	858.94
310.949	889.94
311.179	891.94
311.409	846.94
311.639	855.94
311.868	841.94
312.098	864.94
312.328	826.94
312.557	813.94
312.787	871.94
313.017	842.94
313.246	862.94
313.476	874.94
313.706	898.94
313.935	883.94
314.165	881.94
314.394	901.94
314.624	995.94
314.853	1019.94
315.083	1033.94
315.312	1061.94
315.542	989.94
315.771	898.94
316.001	907.94
316.23	942.94
316.46	925.94
316.689	905.94
316.919	888.94
317.148	843.94
317.377	890.94
317.607	977.94
317.836	1041.94
318.065	1067.94
318.295	1048.94
318.524	983.94
318.753	959.94
318.983	956.94
319.212	910.94
319.441	909.94
319.67	919.94
319.9	931.94
320.129	981.94
320.358	1038.94
320.587	1047.94
320.816	1039.94
321.046	986.94
321.275	959.94
321.504	973.94
321.733	1034.94
321.962	990.94
322.191	931.94
322.42	924.94
322.649	925.94
322.878	902.94
323.108	924.94
323.337	979.94
323.566	963.94
323.795	933.94
324.024	931.94
324.253	923.94
324.482	930.94
324.71	887.94
324.939	872.94
325.168	920.94
325.397	957.94
325.626	980.94
325.855	949.94
326.084	932.94
326.313	931.94
326.542	933.94
326.77	976.94
326.999	984.94
327.228	905.94
327.457	869.94
327.686	920.94
327.914	906.94
328.143	942.94
328.372	948.94
328.6	923.94
328.829	919.94
329.058	899.94
329.287	906.94
329.515	920.94
329.744	947.94
329.972	990.94
330.201	1047.94
330.43	1003.94
330.658	965.94
330.887	991.94
331.115	992.94
331.344	1016.94
331.572	967.94
331.801	955.94
332.03	967.94
332.258	976.94
332.486	1000.94
332.715	981.94
332.943	977.94
333.172	991.94
333.4	1011.94
333.629	1044.94
333.857	1073.94
334.085	1227.94
334.314	1339.94
334.542	1414.94
334.771	1298.94
334.999	1167.94
335.227	1087.94
335.455	1041.94
335.684	1057.94
335.912	1075.94
336.14	1091.94
336.369	1042.94
336.597	1015.94
336.825	975.94
337.053	1040.94
337.281	1093.94
337.51	1155.94
337.738	1179.94
337.966	1087.94
338.194	988.94
338.422	995.94
338.65	965.94
338.878	958.94
339.106	950.94
339.334	945.94
339.562	921.94
339.79	975.94
340.018	1055.94
340.246	1040.94
340.474	1017.94
340.702	995.94
340.93	1025.94
341.158	993.94
341.386	994.94
341.614	988.94
341.842	994.94
342.07	968.94
342.298	968.94
342.526	973.94
342.754	972.94
342.981	943.94
343.209	935.94
343.437	966.94
343.665	943.94
343.893	993.94
344.12	1034.94
344.348	1048.94
344.576	1001.94
344.804	989.94
345.031	964.94
345.259	968.94
345.487	936.94
345.714	898.94
345.942	882.94
346.17	915.94
346.397	923.94
346.625	910.94
346.853	891.94
347.08	900.94
347.308	905.94
347.535	914.94
347.763	965.94
347.99	945.94
348.218	886.94
348.445	906.94
348.673	934.94
348.9	919.94
349.128	991.94
349.355	991.94
349.583	953.94
349.81	914.94
350.037	862.94
350.265	863.94
350.492	862.94
350.72	904.94
350.947	953.94
351.174	947.94
351.402	899.94
351.629	887.94
351.856	833.94
352.083	823.94
352.311	851.94
352.538	884.94
352.765	930.94
352.992	985.94
353.22	909.94
353.447	890.94
353.674	913.94
353.901	905.94
354.128	883.94
354.355	913.94
354.583	946.94
354.81	964.94
355.037	949.94
355.264	927.94
355.491	925.94
355.718	968.94
355.945	905.94
356.172	889.94
356.399	867.94
356.626	895.94
356.853	935.94
357.08	1025.94
357.307	1099.94
357.534	1076.94
357.761	943.94
357.988	891.94
358.215	884.94
358.441	870.94
358.668	874.94
358.895	901.94
359.122	996.94
359.349	1030.94
359.576	994.94
359.802	941.94
360.029	901.94
360.256	871.94
360.483	930.94
360.709	931.94
360.936	965.94
361.163	993.94
361.39	1088.94
361.616	1152.94
361.843	1149.94
362.07	1029.94
362.296	939.94
362.523	901.94
362.749	870.94
362.976	928.94
363.203	921.94
363.429	919.94
363.656	893.94
363.882	943.94
364.109	1070.94
364.335	1070.94
364.562	1013.94
364.788	960.94
365.015	913.94
365.241	885.94
365.468	944.94
365.694	984.94
365.92	970.94
366.147	950.94
366.373	916.94
366.599	919.94
366.826	889.94
367.052	897.94
367.278	911.94
367.505	927.94
367.731	967.94
367.957	964.94
368.184	997.94
368.41	1041.94
368.636	1057.94
368.862	1066.94
369.089	1027.94
369.315	996.94
369.541	981.94
369.767	959.94
369.993	920.94
370.219	902.94
370.445	965.94
370.672	1009.94
370.898	1029.94
371.124	1017.94
371.35	971.94
371.576	997.94
371.802	1053.94
372.028	1009.94
372.254	947.94
372.48	947.94
372.706	946.94
372.932	933.94
373.158	959.94
373.384	958.94
373.61	996.94
373.835	1036.94
374.061	1002.94
374.287	980.94
374.513	992.94
374.739	974.94
374.965	982.94
375.191	1008.94
375.416	1016.94
375.642	1044.94
375.868	1079.94
376.094	1109.94
376.319	1042.94
376.545	1002.94
376.771	1047.94
376.997	1077.94
377.222	1070.94
377.448	1027.94
377.674	1051.94
377.899	1047.94
378.125	1090.94
378.35	1075.94
378.576	979.94
378.802	952.94
379.027	968.94
379.253	963.94
379.478	975.94
379.704	970.94
379.929	994.94
380.155	991.94
380.38	1010.94
380.606	1029.94
380.831	1010.94
381.057	1041.94
381.282	1041.94
381.507	1022.94
381.733	1105.94
381.958	1149.94
382.184	1051.94
382.409	1015.94
382.634	1047.94
382.86	1019.94
383.085	1002.94
383.31	1063.94
383.535	1153.94
383.761	1239.94
383.986	1142.94
384.211	1083.94
384.436	1109.94
384.662	1163.94
384.887	1201.94
385.112	1139.94
385.337	1151.94
385.562	1124.94
385.787	1131.94
386.013	1166.94
386.238	1193.94
386.463	1167.94
386.688	1261.94
386.913	1275.94
387.138	1254.94
387.363	1119.94
387.588	1143.94
387.813	1157.94
388.038	1193.94
388.263	1202.94
388.488	1141.94
388.713	1066.94
388.938	1096.94
389.163	1100.94
389.387	1110.94
389.612	1081.94
389.837	1134.94
390.062	1125.94
390.287	1096.94
390.512	1112.94
390.736	1140.94
390.961	1098.94
391.186	1082.94
391.411	1122.94
391.636	1102.94
391.86	1101.94
392.085	1115.94
392.31	1107.94
392.534	1130.94
392.759	1108.94
392.984	1103.94
393.208	1149.94
393.433	1175.94
393.658	1232.94
393.882	1194.94
394.107	1155.94
394.331	1140.94
394.556	1085.94
394.78	1130.94
395.005	1195.94
395.229	1229.94
395.454	1295.94
395.678	1276.94
395.903	1221.94
396.127	1170.94
396.352	1230.94
396.576	1224.94
396.801	1236.94
397.025	1241.94
397.249	1221.94
397.474	1222.94
397.698	1199.94
397.922	1267.94
398.147	1301.94
398.371	1343.94
398.595	1341.94
398.82	1250.94
399.044	1287.94
399.268	1363.94
399.492	1492.94
399.717	1502.94
399.941	1490.94
400.165	1468.94
400.389	1427.94
400.613	1437.94
400.837	1638.94
401.062	1802.94
401.286	1533.94
401.51	1471.94
401.734	1454.94
401.958	1397.94
402.182	1293.94
402.406	1285.94
402.63	1250.94
402.854	1288.94
403.078	1290.94
403.302	1313.94
403.526	1355.94
403.75	1341.94
403.974	1351.94
404.198	1343.94
404.422	1384.94
404.645	1470.94
404.869	1433.94
405.093	1337.94
405.317	1306.94
405.541	1333.94
405.765	1350.94
405.988	1375.94
406.212	1356.94
406.436	1393.94
406.66	1439.94
406.883	1461.94
407.107	1663.94
407.331	1834.94
407.555	1878.94
407.778	1714.94
408.002	1460.94
408.226	1360.94
408.449	1419.94
408.673	1389.94
408.896	1332.94
409.12	1380.94
409.344	1379.94
409.567	1305.94
409.791	1371.94
410.014	1378.94
410.238	1453.94
410.461	1506.94
410.685	1371.94
410.908	1325.94
411.132	1325.94
411.355	1326.94
411.578	1336.94
411.802	1341.94
412.025	1352.94
412.249	1333.94
412.472	1283.94
412.695	1299.94
412.919	1289.94
413.142	1272.94
413.365	1322.94
413.589	1361.94
413.812	1429.94
414.035	1459.94
414.258	1316.94
414.482	1289.94
414.705	1311.94
414.928	1309.94
415.151	1268.94
415.374	1308.94
415.597	1329.94
415.821	1312.94
416.044	1332.94
416.267	1339.94
416.49	1267.94
416.713	1251.94
416.936	1346.94
417.159	1378.94
417.382	1340.94
417.605	1290.94
417.828	1283.94
418.051	1325.94
418.274	1271.94
418.497	1266.94
418.72	1281.94
418.943	1261.94
419.166	1308.94
419.389	1397.94
419.611	1354.94
419.834	1326.94
420.057	1307.94
420.28	1301.94
420.503	1288.94
420.726	1318.94
420.948	1306.94
421.171	1263.94
421.394	1285.94
421.617	1355.94
421.839	1294.94
422.062	1300.94
422.285	1267.94
422.507	1267.94
422.73	1242.94
422.953	1239.94
423.175	1221.94
423.398	1250.94
423.621	1256.94
423.843	1258.94
424.066	1318.94
424.288	1368.94
424.511	1404.94
424.733	1325.94
424.956	1210.94
425.178	1194.94
425.401	1242.94
425.623	1288.94
425.846	1242.94
426.068	1326.94
426.291	1351.94
426.513	1317.94
426.735	1313.94
426.958	1425.94
427.18	1433.94
427.402	1349.94
427.625	1389.94
427.847	1366.94
428.069	1251.94
428.292	1251.94
428.514	1219.94
428.736	1217.94
428.958	1253.94
429.181	1271.94
429.403	1487.94
429.625	1719.94
429.847	1477.94
430.069	1303.94
430.292	1463.94
430.514	1405.94
430.736	1329.94
430.958	1351.94
431.18	1275.94
431.402	1219.94
431.624	1162.94
431.846	1149.94
432.068	1112.94
432.29	1119.94
432.512	1167.94
432.734	1258.94
432.956	1267.94
433.178	1343.94
433.4	1312.94
433.622	1325.94
433.844	1226.94
434.066	1187.94
434.287	1159.94
434.509	1183.94
434.731	1285.94
434.953	1379.94
435.175	1313.94
435.397	1348.94
435.618	1248.94
435.84	1200.94
436.062	1242.94
436.284	1262.94
436.505	1290.94
436.727	1283.94
436.949	1270.94
437.17	1210.94
437.392	1227.94
437.614	1205.94
437.835	1159.94
438.057	1227.94
438.278	1245.94
438.5	1238.94
438.721	1218.94
438.943	1246.94
439.165	1233.94
439.386	1246.94
439.608	1252.94
439.829	1250.94
440.05	1256.94
440.272	1242.94
440.493	1216.94
440.715	1241.94
440.936	1368.94
441.158	1458.94
441.379	1388.94
441.6	1384.94
441.822	1318.94
442.043	1355.94
442.264	1299.94
442.486	1235.94
442.707	1234.94
442.928	1266.94
443.149	1286.94
443.371	1358.94
443.592	1408.94
443.813	1345.94
444.034	1330.94
444.255	1338.94
444.476	1397.94
444.698	1383.94
444.919	1379.94
445.14	1526.94
445.361	1467.94
445.582	1454.94
445.803	1403.94
446.024	1404.94
446.245	1405.94
446.466	1368.94
446.687	1349.94
446.908	1339.94
447.129	1317.94
447.35	1299.94
447.571	1299.94
447.792	1249.94
448.013	1221.94
448.234	1274.94
448.455	1305.94
448.675	1271.94
448.896	1202.94
449.117	1199.94
449.338	1216.94
449.559	1280.94
449.779	1365.94
450	1433.94
450.221	1455.94
450.442	1411.94
450.662	1277.94
450.883	1159.94
451.104	1154.94
451.324	1173.94
451.545	1231.94
451.766	1203.94
451.986	1149.94
452.207	1121.94
452.428	1089.94
452.648	1102.94
452.869	1117.94
453.089	1137.94
453.31	1121.94
453.53	1151.94
453.751	1098.94
453.971	1059.94
454.192	1117.94
454.412	1150.94
454.633	1097.94
454.853	1073.94
455.073	1067.94
455.294	1052.94
455.514	1069.94
455.734	1058.94
455.955	1058.94
456.175	1072.94
456.395	1050.94
456.616	1096.94
456.836	1069.94
457.056	1079.94
457.276	1061.94
457.497	1053.94
457.717	994.94
457.937	1037.94
458.157	1070.94
458.377	1023.94
458.598	1001.94
458.818	1031.94
459.038	1093.94
459.258	1145.94
459.478	1125.94
459.698	1121.94
459.918	1137.94
460.138	1216.94
460.358	1234.94
460.578	1249.94
460.798	1277.94
461.018	1320.94
461.238	1288.94
461.458	1277.94
461.678	1232.94
461.898	1186.94
462.118	1196.94
462.338	1250.94
462.558	1245.94
462.777	1268.94
462.997	1327.94
463.217	1360.94
463.437	1312.94
463.657	1247.94
463.876	1230.94
464.096	1255.94
464.316	1246.94
464.536	1303.94
464.755	1288.94
464.975	1283.94
465.195	1245.94
465.414	1309.94
465.634	1287.94
465.854	1286.94
466.073	1410.94
466.293	1348.94
466.512	1190.94
466.732	1209.94
466.951	1208.94
467.171	1228.94
467.391	1191.94
467.61	1178.94
467.829	1225.94
468.049	1353.94
468.268	1436.94
468.488	1343.94
468.707	1262.94
468.927	1222.94
469.146	1208.94
469.365	1219.94
469.585	1219.94
469.804	1180.94
470.023	1254.94
470.243	1240.94
470.462	1221.94
470.681	1196.94
470.901	1242.94
471.12	1222.94
471.339	1241.94
471.558	1198.94
471.777	1199.94
471.997	1203.94
472.216	1182.94
472.435	1083.94
472.654	1136.94
472.873	1163.94
473.092	1205.94
473.311	1141.94
473.53	1134.94
473.749	1133.94
473.968	1153.94
474.187	1204.94
474.406	1223.94
474.625	1185.94
474.844	1217.94
475.063	1199.94
475.282	1211.94
475.501	1182.94
475.72	1195.94
475.939	1258.94
476.158	1235.94
476.377	1193.94
476.596	1178.94
476.814	1189.94
477.033	1206.94
477.252	1258.94
477.471	1266.94
477.69	1265.94
477.908	1273.94
478.127	1360.94
478.346	1416.94
478.564	1416.94
478.783	1385.94
479.002	1423.94
479.22	1401.94
479.439	1431.94
479.658	1570.94
479.876	1510.94
480.095	1369.94
480.313	1315.94
480.532	1277.94
480.751	1309.94
480.969	1297.94
481.188	1288.94
481.406	1235.94
481.624	1241.94
481.843	1247.94
482.061	1293.94
482.28	1308.94
482.498	1316.94
482.717	1297.94
482.935	1312.94
483.153	1360.94
483.372	1366.94
483.59	1357.94
483.808	1338.94
484.027	1347.94
484.245	1441.94
484.463	1721.94
484.681	1855.94
484.9	1457.94
485.118	1401.94
485.336	1349.94
485.554	1378.94
485.772	1409.94
485.99	1394.94
486.209	1346.94
486.427	1362.94
486.645	1387.94
486.863	1401.94
487.081	1446.94
487.299	1474.94
487.517	1456.94
487.735	1432.94
487.953	1484.94
488.171	1499.94
488.389	1467.94
488.607	1459.94
488.825	1586.94
489.043	1542.94
489.261	1374.94
489.479	1410.94
489.696	1470.94
489.914	1451.94
490.132	1386.94
490.35	1468.94
490.568	1521.94
490.786	1512.94
491.003	1489.94
491.221	1506.94
491.439	1567.94
491.657	1559.94
491.874	1633.94
492.092	1634.94
492.31	1676.94
492.527	1665.94
492.745	1602.94
492.963	1574.94
493.18	1602.94
493.398	1692.94
493.615	1683.94
493.833	1583.94
