Data from WStandard_LampEnergy10_LIBS07252019.E.O._I.C._HRD10591_15-53-02-929.txt Node
Date: Thu Jul 25 15:53:02 EDT 2019
User: cochatt
Spectrometer: HR+D1059
Trigger mode: 1
Integration Time (sec): 1.000000E-1
Scans to average: 1
Electric dark correction enabled: true
Nonlinearity correction enabled: false
Boxcar width: 0
XAxis mode: Wavelengths
Number of Pixels in Spectrum: 2048
>>>>>Begin Spectral Data<<<<<
223.165	-18.25
223.4	-18.25
223.635	-18.25
223.869	-26.25
224.104	-17.25
224.338	-7.25
224.573	-20.25
224.808	-14.25
225.042	-9.25
225.277	5.75
225.511	-6.25
225.746	15.75
225.98	11.75
226.215	11.75
226.449	14.75
226.683	14.75
226.918	24.75
227.152	19.75
227.387	39.75
227.621	37.75
227.856	40.75
228.09	33.75
228.324	46.75
228.559	45.75
228.793	77.75
229.027	133.75
229.262	138.75
229.496	160.75
229.73	155.75
229.964	157.75
230.199	173.75
230.433	186.75
230.667	194.75
230.901	187.75
231.136	177.75
231.37	168.75
231.604	190.75
231.838	176.75
232.072	173.75
232.306	165.75
232.541	184.75
232.775	192.75
233.009	215.75
233.243	210.75
233.477	194.75
233.711	195.75
233.945	208.75
234.179	189.75
234.413	206.75
234.647	208.75
234.881	213.75
235.115	189.75
235.349	194.75
235.583	205.75
235.817	189.75
236.051	208.75
236.285	192.75
236.519	201.75
236.753	210.75
236.987	226.75
237.221	219.75
237.455	242.75
237.689	238.75
237.922	223.75
238.156	218.75
238.39	221.75
238.624	229.75
238.858	230.75
239.091	252.75
239.325	270.75
239.559	303.75
239.793	287.75
240.027	294.75
240.26	299.75
240.494	238.75
240.728	211.75
240.961	241.75
241.195	238.75
241.429	257.75
241.662	263.75
241.896	246.75
242.13	261.75
242.363	257.75
242.597	294.75
242.83	279.75
243.064	275.75
243.298	302.75
243.531	285.75
243.765	287.75
243.998	289.75
244.232	247.75
244.465	256.75
244.699	254.75
244.932	287.75
245.166	325.75
245.399	319.75
245.633	267.75
245.866	288.75
246.099	304.75
246.333	278.75
246.566	300.75
246.8	286.75
247.033	358.75
247.266	327.75
247.5	323.75
247.733	315.75
247.966	342.75
248.2	351.75
248.433	350.75
248.666	387.75
248.899	407.75
249.133	420.75
249.366	455.75
249.599	385.75
249.832	370.75
250.066	373.75
250.299	373.75
250.532	341.75
250.765	324.75
250.998	365.75
251.231	362.75
251.465	359.75
251.698	357.75
251.931	347.75
252.164	377.75
252.397	363.75
252.63	367.75
252.863	318.75
253.096	321.75
253.329	340.75
253.562	348.75
253.795	367.75
254.028	353.75
254.261	350.75
254.494	347.75
254.727	346.75
254.96	352.75
255.193	373.75
255.426	427.75
255.659	467.75
255.892	460.75
256.124	413.75
256.357	408.75
256.59	419.75
256.823	422.75
257.056	415.75
257.289	480.75
257.521	496.75
257.754	481.75
257.987	486.75
258.22	482.75
258.452	466.75
258.685	402.75
258.918	404.75
259.151	403.75
259.383	410.75
259.616	351.75
259.849	381.75
260.081	406.75
260.314	448.75
260.547	451.75
260.779	471.75
261.012	441.75
261.244	404.75
261.477	408.75
261.71	407.75
261.942	417.75
262.175	418.75
262.407	403.75
262.64	385.75
262.872	363.75
263.105	360.75
263.337	378.75
263.57	391.75
263.802	389.75
264.035	360.75
264.267	344.75
264.499	355.75
264.732	383.75
264.964	384.75
265.197	432.75
265.429	435.75
265.661	478.75
265.894	487.75
266.126	511.75
266.358	442.75
266.591	482.75
266.823	469.75
267.055	469.75
267.287	458.75
267.52	450.75
267.752	446.75
267.984	469.75
268.216	470.75
268.448	500.75
268.681	448.75
268.913	424.75
269.145	402.75
269.377	416.75
269.609	450.75
269.841	497.75
270.073	573.75
270.306	633.75
270.538	629.75
270.77	549.75
271.002	478.75
271.234	471.75
271.466	473.75
271.698	535.75
271.93	610.75
272.162	605.75
272.394	574.75
272.626	526.75
272.858	473.75
273.09	419.75
273.322	405.75
273.553	400.75
273.785	410.75
274.017	443.75
274.249	449.75
274.481	449.75
274.713	416.75
274.945	434.75
275.176	409.75
275.408	417.75
275.64	392.75
275.872	430.75
276.104	449.75
276.335	494.75
276.567	546.75
276.799	522.75
277.031	500.75
277.262	448.75
277.494	496.75
277.726	517.75
277.957	553.75
278.189	470.75
278.421	435.75
278.652	438.75
278.884	438.75
279.115	450.75
279.347	420.75
279.579	438.75
279.81	445.75
280.042	516.75
280.273	515.75
280.505	507.75
280.736	524.75
280.968	465.75
281.199	427.75
281.431	438.75
281.662	435.75
281.894	413.75
282.125	429.75
282.356	441.75
282.588	448.75
282.819	477.75
283.051	500.75
283.282	529.75
283.513	507.75
283.745	457.75
283.976	423.75
284.207	437.75
284.439	439.75
284.67	456.75
284.901	442.75
285.132	486.75
285.364	462.75
285.595	478.75
285.826	462.75
286.057	445.75
286.288	445.75
286.52	494.75
286.751	491.75
286.982	507.75
287.213	454.75
287.444	455.75
287.675	455.75
287.906	481.75
288.138	499.75
288.369	488.75
288.6	441.75
288.831	449.75
289.062	455.75
289.293	462.75
289.524	456.75
289.755	496.75
289.986	464.75
290.217	455.75
290.448	447.75
290.679	446.75
290.91	481.75
291.141	506.75
291.371	515.75
291.602	482.75
291.833	482.75
292.064	503.75
292.295	517.75
292.526	512.75
292.757	521.75
292.987	479.75
293.218	495.75
293.449	522.75
293.68	590.75
293.91	610.75
294.141	531.75
294.372	550.75
294.603	567.75
294.833	567.75
295.064	558.75
295.295	504.75
295.525	493.75
295.756	458.75
295.987	447.75
296.217	447.75
296.448	460.75
296.679	460.75
296.909	456.75
297.14	484.75
297.37	474.75
297.601	490.75
297.831	547.75
298.062	527.75
298.292	470.75
298.523	441.75
298.753	471.75
298.984	473.75
299.214	480.75
299.445	483.75
299.675	509.75
299.905	488.75
300.136	474.75
300.366	467.75
300.597	451.75
300.827	474.75
301.057	466.75
301.288	496.75
301.518	505.75
301.748	505.75
301.979	538.75
302.209	570.75
302.439	574.75
302.669	603.75
302.9	547.75
303.13	516.75
303.36	516.75
303.59	545.75
303.82	524.75
304.051	553.75
304.281	531.75
304.511	549.75
304.741	599.75
304.971	621.75
305.201	645.75
305.431	564.75
305.661	484.75
305.891	449.75
306.121	465.75
306.352	515.75
306.582	511.75
306.812	541.75
307.042	571.75
307.272	569.75
307.502	594.75
307.731	639.75
307.961	633.75
308.191	595.75
308.421	545.75
308.651	505.75
308.881	500.75
309.111	482.75
309.341	493.75
309.571	523.75
309.8	502.75
310.03	504.75
310.26	498.75
310.49	496.75
310.72	512.75
310.949	514.75
311.179	542.75
311.409	522.75
311.639	507.75
311.868	498.75
312.098	508.75
312.328	483.75
312.557	502.75
312.787	527.75
313.017	522.75
313.246	513.75
313.476	534.75
313.706	516.75
313.935	523.75
314.165	559.75
314.394	549.75
314.624	591.75
314.853	618.75
315.083	624.75
315.312	619.75
315.542	570.75
315.771	545.75
316.001	562.75
316.23	576.75
316.46	572.75
316.689	560.75
316.919	547.75
317.148	533.75
317.377	541.75
317.607	590.75
317.836	662.75
318.065	658.75
318.295	637.75
318.524	601.75
318.753	583.75
318.983	571.75
319.212	576.75
319.441	550.75
319.67	553.75
319.9	579.75
320.129	643.75
320.358	610.75
320.587	641.75
320.816	640.75
321.046	622.75
321.275	583.75
321.504	613.75
321.733	630.75
321.962	586.75
322.191	568.75
322.42	560.75
322.649	565.75
322.878	554.75
323.108	549.75
323.337	606.75
323.566	571.75
323.795	572.75
324.024	545.75
324.253	573.75
324.482	554.75
324.71	539.75
324.939	558.75
325.168	546.75
325.397	585.75
325.626	616.75
325.855	573.75
326.084	589.75
326.313	593.75
326.542	593.75
326.77	602.75
326.999	579.75
327.228	560.75
327.457	517.75
327.686	541.75
327.914	568.75
328.143	575.75
328.372	574.75
328.6	567.75
328.829	572.75
329.058	519.75
329.287	568.75
329.515	593.75
329.744	586.75
329.972	623.75
330.201	631.75
330.43	607.75
330.658	584.75
330.887	587.75
331.115	612.75
331.344	603.75
331.572	606.75
331.801	586.75
332.03	582.75
332.258	606.75
332.486	594.75
332.715	624.75
332.943	616.75
333.172	602.75
333.4	605.75
333.629	631.75
333.857	680.75
334.085	753.75
334.314	850.75
334.542	831.75
334.771	780.75
334.999	679.75
335.227	647.75
335.455	634.75
335.684	629.75
335.912	659.75
336.14	671.75
336.369	647.75
336.597	631.75
336.825	613.75
337.053	651.75
337.281	663.75
337.51	725.75
337.738	713.75
337.966	667.75
338.194	598.75
338.422	616.75
338.65	611.75
338.878	597.75
339.106	571.75
339.334	566.75
339.562	564.75
339.79	568.75
340.018	613.75
340.246	637.75
340.474	645.75
340.702	637.75
340.93	611.75
341.158	614.75
341.386	606.75
341.614	595.75
341.842	608.75
342.07	617.75
342.298	599.75
342.526	619.75
342.754	589.75
342.981	626.75
343.209	586.75
343.437	602.75
343.665	602.75
343.893	628.75
344.12	636.75
344.348	635.75
344.576	626.75
344.804	615.75
345.031	605.75
345.259	613.75
345.487	581.75
345.714	545.75
345.942	549.75
346.17	572.75
346.397	570.75
346.625	562.75
346.853	546.75
347.08	541.75
347.308	570.75
347.535	553.75
347.763	590.75
347.99	567.75
348.218	561.75
348.445	573.75
348.673	560.75
348.9	596.75
349.128	635.75
349.355	608.75
349.583	583.75
349.81	551.75
350.037	544.75
350.265	522.75
350.492	534.75
350.72	556.75
350.947	571.75
351.174	586.75
351.402	558.75
351.629	536.75
351.856	528.75
352.083	523.75
352.311	537.75
352.538	545.75
352.765	586.75
352.992	579.75
353.22	564.75
353.447	545.75
353.674	559.75
353.901	579.75
354.128	555.75
354.355	565.75
354.583	611.75
354.81	614.75
355.037	591.75
355.264	588.75
355.491	575.75
355.718	553.75
355.945	568.75
356.172	563.75
356.399	557.75
356.626	563.75
356.853	581.75
357.08	663.75
357.307	682.75
357.534	645.75
357.761	550.75
357.988	533.75
358.215	558.75
358.441	547.75
358.668	535.75
358.895	569.75
359.122	615.75
359.349	650.75
359.576	605.75
359.802	575.75
360.029	574.75
360.256	556.75
360.483	576.75
360.709	578.75
360.936	611.75
361.163	641.75
361.39	700.75
361.616	735.75
361.843	713.75
362.07	655.75
362.296	577.75
362.523	564.75
362.749	584.75
362.976	586.75
363.203	601.75
363.429	550.75
363.656	583.75
363.882	602.75
364.109	671.75
364.335	662.75
364.562	648.75
364.788	603.75
365.015	584.75
365.241	558.75
365.468	593.75
365.694	631.75
365.92	603.75
366.147	615.75
366.373	571.75
366.599	564.75
366.826	570.75
367.052	561.75
367.278	581.75
367.505	578.75
367.731	606.75
367.957	624.75
368.184	661.75
368.41	664.75
368.636	651.75
368.862	664.75
369.089	684.75
369.315	625.75
369.541	602.75
369.767	582.75
369.993	584.75
370.219	597.75
370.445	631.75
370.672	639.75
370.898	677.75
371.124	675.75
371.35	641.75
371.576	645.75
371.802	647.75
372.028	647.75
372.254	643.75
372.48	622.75
372.706	625.75
372.932	609.75
373.158	629.75
373.384	618.75
373.61	655.75
373.835	657.75
374.061	619.75
374.287	623.75
374.513	627.75
374.739	645.75
374.965	635.75
375.191	654.75
375.416	659.75
375.642	667.75
375.868	726.75
376.094	715.75
376.319	707.75
376.545	673.75
376.771	672.75
376.997	696.75
377.222	696.75
377.448	671.75
377.674	680.75
377.899	701.75
378.125	727.75
378.35	711.75
378.576	664.75
378.802	604.75
379.027	650.75
379.253	664.75
379.478	658.75
379.704	633.75
379.929	627.75
380.155	656.75
380.38	666.75
380.606	657.75
380.831	690.75
381.057	701.75
381.282	705.75
381.507	703.75
381.733	741.75
381.958	775.75
382.184	712.75
382.409	677.75
382.634	691.75
382.86	700.75
383.085	689.75
383.31	712.75
383.535	800.75
383.761	818.75
383.986	768.75
384.211	726.75
384.436	721.75
384.662	769.75
384.887	780.75
385.112	747.75
385.337	736.75
385.562	726.75
385.787	739.75
386.013	783.75
386.238	784.75
386.463	790.75
386.688	815.75
386.913	862.75
387.138	835.75
387.363	791.75
387.588	790.75
387.813	758.75
388.038	778.75
388.263	834.75
388.488	775.75
388.713	694.75
388.938	724.75
389.163	739.75
389.387	741.75
389.612	723.75
389.837	765.75
390.062	758.75
390.287	746.75
390.512	773.75
390.736	761.75
390.961	716.75
391.186	724.75
391.411	742.75
391.636	744.75
391.86	765.75
392.085	758.75
392.31	753.75
392.534	742.75
392.759	793.75
392.984	751.75
393.208	761.75
393.433	810.75
393.658	850.75
393.882	820.75
394.107	786.75
394.331	770.75
394.556	783.75
394.78	760.75
395.005	789.75
395.229	848.75
395.454	869.75
395.678	863.75
395.903	839.75
396.127	784.75
396.352	843.75
396.576	830.75
396.801	856.75
397.025	864.75
397.249	846.75
397.474	833.75
397.698	813.75
397.922	859.75
398.147	912.75
398.371	943.75
398.595	922.75
398.82	887.75
399.044	901.75
399.268	943.75
399.492	985.75
399.717	1023.75
399.941	1015.75
400.165	979.75
400.389	998.75
400.613	992.75
400.837	1150.75
401.062	1197.75
401.286	1007.75
401.51	996.75
401.734	980.75
401.958	942.75
402.182	931.75
402.406	872.75
402.63	881.75
402.854	940.75
403.078	895.75
403.302	921.75
403.526	937.75
403.75	911.75
403.974	955.75
404.198	951.75
404.422	984.75
404.645	1009.75
404.869	973.75
405.093	933.75
405.317	912.75
405.541	945.75
405.765	932.75
405.988	950.75
406.212	972.75
406.436	955.75
406.66	1012.75
406.883	1049.75
407.107	1167.75
407.331	1258.75
407.555	1279.75
407.778	1129.75
408.002	980.75
408.226	970.75
408.449	981.75
408.673	933.75
408.896	947.75
409.12	947.75
409.344	966.75
409.567	927.75
409.791	981.75
410.014	957.75
410.238	1016.75
410.461	1075.75
410.685	981.75
410.908	941.75
411.132	990.75
411.355	951.75
411.578	937.75
411.802	969.75
412.025	981.75
412.249	973.75
412.472	947.75
412.695	929.75
412.919	927.75
413.142	942.75
413.365	953.75
413.589	979.75
413.812	988.75
414.035	1004.75
414.258	950.75
414.482	941.75
414.705	951.75
414.928	927.75
415.151	961.75
415.374	940.75
415.597	965.75
415.821	951.75
416.044	955.75
416.267	937.75
416.49	944.75
416.713	934.75
416.936	976.75
417.159	1010.75
417.382	990.75
417.605	943.75
417.828	972.75
418.051	964.75
418.274	945.75
418.497	938.75
418.72	957.75
418.943	951.75
419.166	959.75
419.389	979.75
419.611	953.75
419.834	943.75
420.057	959.75
420.28	923.75
420.503	938.75
420.726	969.75
420.948	970.75
421.171	922.75
421.394	972.75
421.617	991.75
421.839	999.75
422.062	982.75
422.285	941.75
422.507	945.75
422.73	881.75
422.953	922.75
423.175	910.75
423.398	958.75
423.621	936.75
423.843	959.75
424.066	1003.75
424.288	1017.75
424.511	1054.75
424.733	1057.75
424.956	963.75
425.178	941.75
425.401	932.75
425.623	951.75
425.846	960.75
426.068	993.75
426.291	975.75
426.513	963.75
426.735	983.75
426.958	1053.75
427.18	1077.75
427.402	1013.75
427.625	1041.75
427.847	998.75
428.069	955.75
428.292	944.75
428.514	914.75
428.736	918.75
428.958	934.75
429.181	977.75
429.403	1045.75
429.625	1240.75
429.847	1065.75
430.069	973.75
430.292	1039.75
430.514	1025.75
430.736	984.75
430.958	982.75
431.18	942.75
431.402	905.75
431.624	878.75
431.846	809.75
432.068	736.75
432.29	750.75
432.512	809.75
432.734	874.75
432.956	926.75
433.178	957.75
433.4	955.75
433.622	942.75
433.844	879.75
434.066	864.75
434.287	843.75
434.509	782.75
434.731	848.75
434.953	926.75
435.175	939.75
435.397	937.75
435.618	904.75
435.84	839.75
436.062	839.75
436.284	920.75
436.505	907.75
436.727	953.75
436.949	919.75
437.17	908.75
437.392	925.75
437.614	855.75
437.835	824.75
438.057	843.75
438.278	848.75
438.5	873.75
438.721	908.75
438.943	930.75
439.165	960.75
439.386	962.75
439.608	946.75
439.829	991.75
440.05	965.75
440.272	952.75
440.493	956.75
440.715	971.75
440.936	1032.75
441.158	1075.75
441.379	1050.75
441.6	1055.75
441.822	1034.75
442.043	1027.75
442.264	1015.75
442.486	963.75
442.707	978.75
442.928	976.75
443.149	985.75
443.371	1029.75
443.592	1037.75
443.813	1018.75
444.034	1021.75
444.255	1067.75
444.476	1017.75
444.698	1071.75
444.919	1073.75
445.14	1128.75
445.361	1131.75
445.582	1096.75
445.803	1064.75
446.024	1089.75
446.245	1091.75
446.466	1075.75
446.687	1072.75
446.908	1049.75
447.129	1046.75
447.35	1032.75
447.571	984.75
447.792	970.75
448.013	944.75
448.234	976.75
448.455	1019.75
448.675	1024.75
448.896	950.75
449.117	926.75
449.338	935.75
449.559	974.75
449.779	978.75
450	1012.75
450.221	1034.75
450.442	1046.75
450.662	963.75
450.883	893.75
451.104	883.75
451.324	908.75
451.545	902.75
451.766	849.75
451.986	842.75
452.207	844.75
452.428	817.75
452.648	791.75
452.869	803.75
453.089	790.75
453.31	777.75
453.53	791.75
453.751	747.75
453.971	722.75
454.192	737.75
454.412	797.75
454.633	810.75
454.853	785.75
455.073	787.75
455.294	758.75
455.514	775.75
455.734	795.75
455.955	757.75
456.175	760.75
456.395	728.75
456.616	734.75
456.836	735.75
457.056	758.75
457.276	728.75
457.497	729.75
457.717	695.75
457.937	719.75
458.157	736.75
458.377	727.75
458.598	708.75
458.818	682.75
459.038	691.75
459.258	727.75
459.478	706.75
459.698	708.75
459.918	761.75
460.138	817.75
460.358	830.75
460.578	842.75
460.798	874.75
461.018	885.75
461.238	885.75
461.458	870.75
461.678	857.75
461.898	837.75
462.118	808.75
462.338	854.75
462.558	852.75
462.777	865.75
462.997	895.75
463.217	879.75
463.437	887.75
463.657	861.75
463.876	866.75
464.096	851.75
464.316	854.75
464.536	920.75
464.755	870.75
464.975	875.75
465.195	897.75
465.414	903.75
465.634	887.75
465.854	905.75
466.073	997.75
466.293	959.75
466.512	890.75
466.732	906.75
466.951	910.75
467.171	901.75
467.391	867.75
467.61	884.75
467.829	932.75
468.049	990.75
468.268	1092.75
468.488	996.75
468.707	901.75
468.927	895.75
469.146	912.75
469.365	949.75
469.585	963.75
469.804	920.75
470.023	951.75
470.243	968.75
470.462	948.75
470.681	933.75
470.901	934.75
471.12	946.75
471.339	939.75
471.558	959.75
471.777	916.75
471.997	901.75
472.216	848.75
472.435	801.75
472.654	789.75
472.873	809.75
473.092	850.75
473.311	855.75
473.53	852.75
473.749	852.75
473.968	853.75
474.187	843.75
474.406	847.75
474.625	870.75
474.844	865.75
475.063	885.75
475.282	891.75
475.501	856.75
475.72	855.75
475.939	929.75
476.158	911.75
476.377	902.75
476.596	841.75
476.814	835.75
477.033	819.75
477.252	891.75
477.471	919.75
477.69	928.75
477.908	978.75
478.127	984.75
478.346	1021.75
478.564	1005.75
478.783	1026.75
479.002	1049.75
479.22	1019.75
479.439	1032.75
479.658	1060.75
479.876	1010.75
480.095	913.75
480.313	939.75
480.532	877.75
480.751	903.75
480.969	858.75
481.188	809.75
481.406	771.75
481.624	779.75
481.843	810.75
482.061	831.75
482.28	893.75
482.498	898.75
482.717	871.75
482.935	889.75
483.153	986.75
483.372	1028.75
483.59	1027.75
483.808	980.75
484.027	966.75
484.245	1002.75
484.463	1243.75
484.681	1314.75
484.9	1031.75
485.118	969.75
485.336	955.75
485.554	922.75
485.772	902.75
485.99	903.75
486.209	932.75
486.427	891.75
486.645	955.75
486.863	1022.75
487.081	1042.75
487.299	1030.75
487.517	1028.75
487.735	1108.75
487.953	1224.75
488.171	1205.75
488.389	1169.75
488.607	1124.75
488.825	1179.75
489.043	1085.75
489.261	995.75
489.479	1063.75
489.696	1061.75
489.914	1070.75
490.132	1041.75
490.35	1080.75
490.568	1179.75
490.786	1200.75
491.003	1216.75
491.221	1277.75
491.439	1311.75
491.657	1273.75
491.874	1412.75
492.092	1489.75
492.31	1582.75
492.527	1494.75
492.745	1394.75
492.963	1355.75
493.18	1341.75
493.398	1365.75
493.615	1373.75
493.833	1316.75
494.05	1248.75
494.268	1266.75
494.485	1269.75
494.703	1215.75
494.92	1245.75
495.138	1224.75
495.355	1227.75
495.573	1297.75
495.79	1316.75
496.008	1320.75
496.225	1265.75
496.442	1268.75
496.66	1261.75
496.877	1236.75
497.094	1278.75
497.312	1234.75
497.529	1244.75
497.746	1238.75
497.963	1298.75
498.181	1359.75
498.398	1262.75
498.615	1215.75
498.832	1165.75
499.049	1148.75
499.267	1178.75
499.484	1278.75
499.701	1354.75
499.918	1394.75
500.135	1494.75
