Data from WStandard_LampEnergy10_LIBS07252019.E.O._I.C._HRD10591_15-55-53-929.txt Node
Date: Thu Jul 25 15:55:53 EDT 2019
User: cochatt
Spectrometer: HR+D1059
Trigger mode: 1
Integration Time (sec): 1.000000E-1
Scans to average: 1
Electric dark correction enabled: true
Nonlinearity correction enabled: false
Boxcar width: 0
XAxis mode: Wavelengths
Number of Pixels in Spectrum: 2048
>>>>>Begin Spectral Data<<<<<
223.165	-18.94
223.4	-18.94
223.635	-18.94
223.869	-4.94
224.104	-20.94
224.338	-11.94
224.573	-17.94
224.808	-11.94
225.042	-11.94
225.277	-19.94
225.511	-3.94
225.746	-0.94
225.98	3.06
226.215	13.06
226.449	19.06
226.683	32.06
226.918	26.06
227.152	30.06
227.387	33.06
227.621	37.06
227.856	41.06
228.09	51.06
228.324	50.06
228.559	65.06
228.793	74.06
229.027	128.06
229.262	127.06
229.496	148.06
229.73	161.06
229.964	147.06
230.199	174.06
230.433	173.06
230.667	187.06
230.901	175.06
231.136	163.06
231.37	156.06
231.604	169.06
231.838	171.06
232.072	188.06
232.306	194.06
232.541	193.06
232.775	182.06
233.009	189.06
233.243	188.06
233.477	196.06
233.711	198.06
233.945	198.06
234.179	205.06
234.413	210.06
234.647	204.06
234.881	203.06
235.115	190.06
235.349	199.06
235.583	190.06
235.817	185.06
236.051	183.06
236.285	181.06
236.519	206.06
236.753	213.06
236.987	195.06
237.221	217.06
237.455	231.06
237.689	234.06
237.922	219.06
238.156	234.06
238.39	236.06
238.624	232.06
238.858	248.06
239.091	243.06
239.325	259.06
239.559	263.06
239.793	283.06
240.027	309.06
240.26	289.06
240.494	236.06
240.728	216.06
240.961	229.06
241.195	234.06
241.429	235.06
241.662	246.06
241.896	252.06
242.13	268.06
242.363	242.06
242.597	279.06
242.83	262.06
243.064	274.06
243.298	290.06
243.531	278.06
243.765	297.06
243.998	273.06
244.232	256.06
244.465	247.06
244.699	238.06
244.932	300.06
245.166	296.06
245.399	292.06
245.633	278.06
245.866	285.06
246.099	284.06
246.333	294.06
246.566	293.06
246.8	318.06
247.033	335.06
247.266	299.06
247.5	306.06
247.733	311.06
247.966	333.06
248.2	350.06
248.433	345.06
248.666	361.06
248.899	391.06
249.133	423.06
249.366	463.06
249.599	375.06
249.832	361.06
250.066	362.06
250.299	375.06
250.532	339.06
250.765	295.06
250.998	332.06
251.231	359.06
251.465	348.06
251.698	345.06
251.931	323.06
252.164	340.06
252.397	348.06
252.63	345.06
252.863	313.06
253.096	322.06
253.329	335.06
253.562	347.06
253.795	367.06
254.028	355.06
254.261	334.06
254.494	302.06
254.727	326.06
254.96	329.06
255.193	359.06
255.426	417.06
255.659	425.06
255.892	462.06
256.124	392.06
256.357	356.06
256.59	400.06
256.823	392.06
257.056	413.06
257.289	465.06
257.521	488.06
257.754	481.06
257.987	446.06
258.22	469.06
258.452	455.06
258.685	374.06
258.918	400.06
259.151	382.06
259.383	369.06
259.616	341.06
259.849	367.06
260.081	396.06
260.314	419.06
260.547	458.06
260.779	473.06
261.012	434.06
261.244	420.06
261.477	387.06
261.71	403.06
261.942	389.06
262.175	387.06
262.407	397.06
262.64	389.06
262.872	357.06
263.105	359.06
263.337	362.06
263.57	339.06
263.802	358.06
264.035	348.06
264.267	345.06
264.499	318.06
264.732	365.06
264.964	381.06
265.197	380.06
265.429	415.06
265.661	438.06
265.894	500.06
266.126	499.06
266.358	462.06
266.591	438.06
266.823	475.06
267.055	454.06
267.287	458.06
267.52	441.06
267.752	419.06
267.984	430.06
268.216	452.06
268.448	457.06
268.681	465.06
268.913	426.06
269.145	413.06
269.377	423.06
269.609	453.06
269.841	507.06
270.073	542.06
270.306	622.06
270.538	627.06
270.77	525.06
271.002	478.06
271.234	471.06
271.466	474.06
271.698	519.06
271.93	564.06
272.162	567.06
272.394	531.06
272.626	507.06
272.858	466.06
273.09	420.06
273.322	393.06
273.553	377.06
273.785	392.06
274.017	403.06
274.249	459.06
274.481	429.06
274.713	403.06
274.945	419.06
275.176	391.06
275.408	395.06
275.64	405.06
275.872	403.06
276.104	444.06
276.335	471.06
276.567	515.06
276.799	504.06
277.031	472.06
277.262	462.06
277.494	489.06
277.726	527.06
277.957	511.06
278.189	438.06
278.421	429.06
278.652	429.06
278.884	398.06
279.115	434.06
279.347	430.06
279.579	431.06
279.81	442.06
280.042	476.06
280.273	495.06
280.505	518.06
280.736	498.06
280.968	468.06
281.199	433.06
281.431	405.06
281.662	409.06
281.894	440.06
282.125	433.06
282.356	450.06
282.588	436.06
282.819	455.06
283.051	513.06
283.282	492.06
283.513	481.06
283.745	435.06
283.976	414.06
284.207	429.06
284.439	415.06
284.67	450.06
284.901	459.06
285.132	457.06
285.364	446.06
285.595	438.06
285.826	438.06
286.057	446.06
286.288	444.06
286.52	482.06
286.751	485.06
286.982	482.06
287.213	442.06
287.444	426.06
287.675	430.06
287.906	481.06
288.138	462.06
288.369	460.06
288.6	456.06
288.831	438.06
289.062	432.06
289.293	427.06
289.524	455.06
289.755	460.06
289.986	429.06
290.217	446.06
290.448	452.06
290.679	472.06
290.91	465.06
291.141	475.06
291.371	472.06
291.602	469.06
291.833	482.06
292.064	490.06
292.295	475.06
292.526	488.06
292.757	499.06
292.987	481.06
293.218	473.06
293.449	512.06
293.68	565.06
293.91	576.06
294.141	551.06
294.372	534.06
294.603	548.06
294.833	558.06
295.064	518.06
295.295	477.06
295.525	464.06
295.756	436.06
295.987	438.06
296.217	458.06
296.448	458.06
296.679	447.06
296.909	451.06
297.14	444.06
297.37	483.06
297.601	493.06
297.831	530.06
298.062	499.06
298.292	483.06
298.523	454.06
298.753	468.06
298.984	463.06
299.214	469.06
299.445	470.06
299.675	490.06
299.905	488.06
300.136	478.06
300.366	456.06
300.597	458.06
300.827	461.06
301.057	469.06
301.288	475.06
301.518	473.06
301.748	526.06
301.979	531.06
302.209	556.06
302.439	575.06
302.669	571.06
302.9	534.06
303.13	506.06
303.36	488.06
303.59	523.06
303.82	524.06
304.051	507.06
304.281	506.06
304.511	517.06
304.741	575.06
304.971	604.06
305.201	602.06
305.431	545.06
305.661	490.06
305.891	443.06
306.121	460.06
306.352	479.06
306.582	507.06
306.812	527.06
307.042	555.06
307.272	570.06
307.502	577.06
307.731	626.06
307.961	608.06
308.191	569.06
308.421	504.06
308.651	496.06
308.881	497.06
309.111	482.06
309.341	494.06
309.571	503.06
309.8	508.06
310.03	472.06
310.26	497.06
310.49	500.06
310.72	497.06
310.949	554.06
311.179	534.06
311.409	486.06
311.639	499.06
311.868	501.06
312.098	519.06
312.328	503.06
312.557	504.06
312.787	504.06
313.017	507.06
313.246	517.06
313.476	505.06
313.706	512.06
313.935	517.06
314.165	532.06
314.394	545.06
314.624	580.06
314.853	616.06
315.083	612.06
315.312	606.06
315.542	566.06
315.771	525.06
316.001	556.06
316.23	579.06
316.46	567.06
316.689	536.06
316.919	521.06
317.148	513.06
317.377	531.06
317.607	567.06
317.836	609.06
318.065	649.06
318.295	600.06
318.524	604.06
318.753	572.06
318.983	582.06
319.212	554.06
319.441	543.06
319.67	523.06
319.9	578.06
320.129	584.06
320.358	592.06
320.587	606.06
320.816	615.06
321.046	606.06
321.275	585.06
321.504	577.06
321.733	616.06
321.962	577.06
322.191	563.06
322.42	534.06
322.649	539.06
322.878	541.06
323.108	540.06
323.337	573.06
323.566	573.06
323.795	569.06
324.024	562.06
324.253	548.06
324.482	563.06
324.71	534.06
324.939	518.06
325.168	540.06
325.397	553.06
325.626	553.06
325.855	529.06
326.084	535.06
326.313	548.06
326.542	561.06
326.77	569.06
326.999	559.06
327.228	541.06
327.457	521.06
327.686	513.06
327.914	533.06
328.143	559.06
328.372	543.06
328.6	550.06
328.829	536.06
329.058	540.06
329.287	540.06
329.515	570.06
329.744	587.06
329.972	580.06
330.201	613.06
330.43	603.06
330.658	605.06
330.887	587.06
331.115	571.06
331.344	587.06
331.572	576.06
331.801	576.06
332.03	582.06
332.258	591.06
332.486	586.06
332.715	607.06
332.943	572.06
333.172	569.06
333.4	602.06
333.629	613.06
333.857	675.06
334.085	719.06
334.314	813.06
334.542	803.06
334.771	753.06
334.999	699.06
335.227	631.06
335.455	619.06
335.684	622.06
335.912	603.06
336.14	642.06
336.369	624.06
336.597	582.06
336.825	585.06
337.053	615.06
337.281	658.06
337.51	692.06
337.738	682.06
337.966	629.06
338.194	614.06
338.422	585.06
338.65	602.06
338.878	570.06
339.106	575.06
339.334	551.06
339.562	581.06
339.79	575.06
340.018	618.06
340.246	618.06
340.474	635.06
340.702	597.06
340.93	615.06
341.158	616.06
341.386	579.06
341.614	598.06
341.842	597.06
342.07	599.06
342.298	578.06
342.526	581.06
342.754	566.06
342.981	585.06
343.209	575.06
343.437	565.06
343.665	587.06
343.893	607.06
344.12	602.06
344.348	595.06
344.576	601.06
344.804	600.06
345.031	603.06
345.259	597.06
345.487	558.06
345.714	541.06
345.942	563.06
346.17	557.06
346.397	569.06
346.625	550.06
346.853	534.06
347.08	533.06
347.308	541.06
347.535	538.06
347.763	571.06
347.99	578.06
348.218	548.06
348.445	572.06
348.673	587.06
348.9	599.06
349.128	597.06
349.355	623.06
349.583	595.06
349.81	551.06
350.037	524.06
350.265	524.06
350.492	550.06
350.72	586.06
350.947	579.06
351.174	572.06
351.402	558.06
351.629	526.06
351.856	535.06
352.083	533.06
352.311	529.06
352.538	553.06
352.765	556.06
352.992	561.06
353.22	556.06
353.447	551.06
353.674	566.06
353.901	561.06
354.128	530.06
354.355	528.06
354.583	566.06
354.81	596.06
355.037	589.06
355.264	573.06
355.491	564.06
355.718	564.06
355.945	553.06
356.172	545.06
356.399	535.06
356.626	550.06
356.853	581.06
357.08	633.06
357.307	670.06
357.534	627.06
357.761	559.06
357.988	523.06
358.215	545.06
358.441	535.06
358.668	551.06
358.895	552.06
359.122	607.06
359.349	634.06
359.576	599.06
359.802	557.06
360.029	545.06
360.256	539.06
360.483	537.06
360.709	572.06
360.936	617.06
361.163	615.06
361.39	673.06
361.616	698.06
361.843	705.06
362.07	632.06
362.296	581.06
362.523	586.06
362.749	567.06
362.976	557.06
363.203	581.06
363.429	528.06
363.656	552.06
363.882	577.06
364.109	638.06
364.335	647.06
364.562	613.06
364.788	577.06
365.015	571.06
365.241	562.06
365.468	570.06
365.694	613.06
365.92	633.06
366.147	587.06
366.373	559.06
366.599	546.06
366.826	563.06
367.052	558.06
367.278	571.06
367.505	582.06
367.731	595.06
367.957	593.06
368.184	630.06
368.41	656.06
368.636	667.06
368.862	646.06
369.089	649.06
369.315	625.06
369.541	596.06
369.767	591.06
369.993	566.06
370.219	587.06
370.445	619.06
370.672	665.06
370.898	689.06
371.124	643.06
371.35	629.06
371.576	639.06
371.802	669.06
372.028	639.06
372.254	596.06
372.48	591.06
372.706	595.06
372.932	597.06
373.158	591.06
373.384	606.06
373.61	618.06
373.835	663.06
374.061	623.06
374.287	621.06
374.513	620.06
374.739	626.06
374.965	609.06
375.191	632.06
375.416	629.06
375.642	665.06
375.868	705.06
376.094	684.06
376.319	655.06
376.545	638.06
376.771	691.06
376.997	697.06
377.222	676.06
377.448	683.06
377.674	663.06
377.899	664.06
378.125	697.06
378.35	693.06
378.576	619.06
378.802	613.06
379.027	614.06
379.253	640.06
379.478	642.06
379.704	615.06
379.929	637.06
380.155	636.06
380.38	632.06
380.606	661.06
380.831	641.06
381.057	685.06
381.282	683.06
381.507	698.06
381.733	728.06
381.958	740.06
382.184	696.06
382.409	656.06
382.634	666.06
382.86	691.06
383.085	663.06
383.31	683.06
383.535	740.06
383.761	791.06
383.986	745.06
384.211	731.06
384.436	747.06
384.662	746.06
384.887	743.06
385.112	724.06
385.337	738.06
385.562	716.06
385.787	748.06
386.013	753.06
386.238	749.06
386.463	740.06
386.688	820.06
386.913	827.06
387.138	804.06
387.363	761.06
387.588	748.06
387.813	759.06
388.038	745.06
388.263	787.06
388.488	717.06
388.713	715.06
388.938	730.06
389.163	716.06
389.387	733.06
389.612	759.06
389.837	754.06
390.062	734.06
390.287	752.06
390.512	736.06
390.736	734.06
390.961	715.06
391.186	699.06
391.411	701.06
391.636	726.06
391.86	724.06
392.085	719.06
392.31	724.06
392.534	758.06
392.759	768.06
392.984	759.06
393.208	774.06
393.433	773.06
393.658	828.06
393.882	810.06
394.107	760.06
394.331	742.06
394.556	758.06
394.78	753.06
395.005	801.06
395.229	819.06
395.454	890.06
395.678	826.06
395.903	806.06
396.127	804.06
396.352	806.06
396.576	841.06
396.801	809.06
397.025	838.06
397.249	820.06
397.474	828.06
397.698	829.06
397.922	843.06
398.147	871.06
398.371	896.06
398.595	898.06
398.82	841.06
399.044	861.06
399.268	907.06
399.492	945.06
399.717	967.06
399.941	978.06
400.165	980.06
400.389	918.06
400.613	991.06
400.837	1111.06
401.062	1159.06
401.286	995.06
401.51	963.06
401.734	962.06
401.958	923.06
402.182	899.06
402.406	847.06
402.63	852.06
402.854	879.06
403.078	877.06
403.302	881.06
403.526	897.06
403.75	932.06
403.974	913.06
404.198	924.06
404.422	951.06
404.645	998.06
404.869	971.06
405.093	897.06
405.317	899.06
405.541	918.06
405.765	915.06
405.988	911.06
406.212	907.06
406.436	927.06
406.66	996.06
406.883	1001.06
407.107	1133.06
407.331	1196.06
407.555	1259.06
407.778	1091.06
408.002	977.06
408.226	948.06
408.449	963.06
408.673	925.06
408.896	927.06
409.12	932.06
409.344	923.06
409.567	892.06
409.791	927.06
410.014	959.06
410.238	1011.06
410.461	1042.06
410.685	936.06
410.908	888.06
411.132	937.06
411.355	937.06
411.578	910.06
411.802	916.06
412.025	919.06
412.249	923.06
412.472	876.06
412.695	917.06
412.919	871.06
413.142	889.06
413.365	907.06
413.589	965.06
413.812	963.06
414.035	963.06
414.258	930.06
414.482	912.06
414.705	880.06
414.928	911.06
415.151	900.06
415.374	903.06
415.597	929.06
415.821	922.06
416.044	933.06
416.267	946.06
416.49	886.06
416.713	890.06
416.936	915.06
417.159	970.06
417.382	963.06
417.605	894.06
417.828	918.06
418.051	931.06
418.274	925.06
418.497	933.06
418.72	902.06
418.943	915.06
419.166	953.06
419.389	974.06
419.611	957.06
419.834	888.06
420.057	934.06
420.28	892.06
420.503	942.06
420.726	956.06
420.948	915.06
421.171	907.06
421.394	909.06
421.617	967.06
421.839	981.06
422.062	956.06
422.285	933.06
422.507	915.06
422.73	861.06
422.953	872.06
423.175	866.06
423.398	917.06
423.621	901.06
423.843	929.06
424.066	937.06
424.288	998.06
424.511	1053.06
424.733	975.06
424.956	923.06
425.178	913.06
425.401	911.06
425.623	920.06
425.846	941.06
426.068	981.06
426.291	979.06
426.513	953.06
426.735	956.06
426.958	1027.06
427.18	1035.06
427.402	980.06
427.625	1009.06
427.847	971.06
428.069	923.06
428.292	890.06
428.514	897.06
428.736	893.06
428.958	903.06
429.181	942.06
429.403	1046.06
429.625	1229.06
429.847	1010.06
430.069	937.06
430.292	1049.06
430.514	1001.06
430.736	982.06
430.958	960.06
431.18	901.06
431.402	874.06
431.624	845.06
431.846	793.06
432.068	740.06
432.29	732.06
432.512	794.06
432.734	868.06
432.956	911.06
433.178	967.06
433.4	943.06
433.622	928.06
433.844	894.06
434.066	841.06
434.287	790.06
434.509	785.06
434.731	823.06
434.953	917.06
435.175	911.06
435.397	905.06
435.618	885.06
435.84	826.06
436.062	819.06
436.284	881.06
436.505	940.06
436.727	915.06
436.949	895.06
437.17	845.06
437.392	891.06
437.614	834.06
437.835	760.06
438.057	799.06
438.278	842.06
438.5	809.06
438.721	897.06
438.943	895.06
439.165	920.06
439.386	908.06
439.608	927.06
439.829	922.06
440.05	958.06
440.272	931.06
440.493	931.06
440.715	955.06
440.936	983.06
441.158	1051.06
441.379	1052.06
441.6	1023.06
441.822	998.06
442.043	1000.06
442.264	965.06
442.486	944.06
442.707	935.06
442.928	940.06
443.149	950.06
443.371	1007.06
443.592	1043.06
443.813	1015.06
444.034	1009.06
444.255	982.06
444.476	991.06
444.698	1034.06
444.919	1020.06
445.14	1092.06
445.361	1103.06
445.582	1066.06
445.803	1048.06
446.024	1011.06
446.245	1048.06
446.466	1055.06
446.687	1029.06
446.908	1035.06
447.129	1006.06
447.35	981.06
447.571	1003.06
447.792	958.06
448.013	934.06
448.234	941.06
448.455	975.06
448.675	976.06
448.896	923.06
449.117	878.06
449.338	897.06
449.559	949.06
449.779	953.06
450	1017.06
450.221	1024.06
450.442	1001.06
450.662	890.06
450.883	859.06
451.104	862.06
451.324	862.06
451.545	870.06
451.766	851.06
451.986	827.06
452.207	797.06
452.428	774.06
452.648	763.06
452.869	788.06
453.089	772.06
453.31	772.06
453.53	774.06
453.751	726.06
453.971	694.06
454.192	697.06
454.412	764.06
454.633	771.06
454.853	761.06
455.073	735.06
455.294	767.06
455.514	756.06
455.734	753.06
455.955	750.06
456.175	742.06
456.395	721.06
456.616	718.06
456.836	726.06
457.056	739.06
457.276	697.06
457.497	731.06
457.717	680.06
457.937	701.06
458.157	706.06
458.377	683.06
458.598	677.06
458.818	676.06
459.038	709.06
459.258	727.06
459.478	700.06
459.698	707.06
459.918	741.06
460.138	777.06
460.358	813.06
460.578	835.06
460.798	843.06
461.018	882.06
461.238	855.06
461.458	844.06
461.678	832.06
461.898	822.06
462.118	805.06
462.338	847.06
462.558	841.06
462.777	853.06
462.997	855.06
463.217	855.06
463.437	851.06
463.657	822.06
463.876	829.06
464.096	817.06
464.316	827.06
464.536	870.06
464.755	853.06
464.975	861.06
465.195	855.06
465.414	894.06
465.634	859.06
465.854	907.06
466.073	986.06
466.293	920.06
466.512	854.06
466.732	857.06
466.951	893.06
467.171	891.06
467.391	873.06
467.61	875.06
467.829	886.06
468.049	958.06
468.268	1028.06
468.488	967.06
468.707	934.06
468.927	914.06
469.146	886.06
469.365	893.06
469.585	918.06
469.804	909.06
470.023	929.06
470.243	943.06
470.462	907.06
470.681	915.06
470.901	939.06
471.12	909.06
471.339	909.06
471.558	908.06
471.777	865.06
471.997	852.06
472.216	837.06
472.435	781.06
472.654	735.06
472.873	777.06
473.092	810.06
473.311	819.06
473.53	823.06
473.749	842.06
473.968	853.06
474.187	831.06
474.406	871.06
474.625	850.06
474.844	846.06
475.063	843.06
475.282	875.06
475.501	827.06
475.72	823.06
475.939	884.06
476.158	889.06
476.377	858.06
476.596	850.06
476.814	806.06
477.033	797.06
477.252	813.06
477.471	888.06
477.69	894.06
477.908	895.06
478.127	968.06
478.346	1026.06
478.564	963.06
478.783	974.06
479.002	1018.06
479.22	992.06
479.439	1000.06
479.658	1031.06
479.876	969.06
480.095	893.06
480.313	887.06
480.532	851.06
480.751	863.06
480.969	812.06
481.188	781.06
481.406	763.06
481.624	792.06
481.843	779.06
482.061	815.06
482.28	837.06
482.498	869.06
482.717	856.06
482.935	891.06
483.153	974.06
483.372	1009.06
483.59	972.06
483.808	947.06
484.027	942.06
484.245	966.06
484.463	1226.06
484.681	1290.06
484.9	990.06
485.118	935.06
485.336	893.06
485.554	882.06
485.772	887.06
485.99	862.06
486.209	888.06
486.427	909.06
486.645	947.06
486.863	982.06
487.081	1040.06
487.299	972.06
487.517	1023.06
487.735	1113.06
487.953	1189.06
488.171	1203.06
488.389	1124.06
488.607	1087.06
488.825	1139.06
489.043	1057.06
489.261	994.06
489.479	1006.06
489.696	1022.06
489.914	1022.06
490.132	1030.06
490.35	1098.06
490.568	1134.06
490.786	1198.06
491.003	1163.06
491.221	1215.06
491.439	1284.06
491.657	1293.06
491.874	1340.06
492.092	1404.06
492.31	1489.06
492.527	1417.06
492.745	1309.06
492.963	1301.06
493.18	1314.06
493.398	1364.06
493.615	1337.06
493.833	1244.06
494.05	1229.06
494.268	1218.06
494.485	1225.06
494.703	1212.06
494.92	1201.06
495.138	1206.06
495.355	1232.06
495.573	1218.06
495.79	1273.06
496.008	1226.06
496.225	1218.06
496.442	1198.06
496.66	1195.06
496.877	1208.06
497.094	1267.06
497.312	1208.06
497.529	1188.06
497.746	1192.06
497.963	1223.06
498.181	1274.06
498.398	1243.06
498.615	1172.06
498.832	1128.06
499.049	1122.06
499.267	1170.06
499.484	1230.06
499.701	1320.06
499.918	1370.06
500.135	1481.06
500.352	1545.06
500.569	1544.06
