Data from WStandard_LampEnergy8_LIBS07252019.E.O._I.C._HRD10591_16-00-58-929.txt Node
Date: Thu Jul 25 16:00:58 EDT 2019
User: cochatt
Spectrometer: HR+D1059
Trigger mode: 1
Integration Time (sec): 1.000000E-1
Scans to average: 1
Electric dark correction enabled: true
Nonlinearity correction enabled: false
Boxcar width: 0
XAxis mode: Wavelengths
Number of Pixels in Spectrum: 2048
>>>>>Begin Spectral Data<<<<<
223.165	-25.94
223.4	-25.94
223.635	-25.94
223.869	-19.94
224.104	-16.94
224.338	-4.94
224.573	-15.94
224.808	-13.94
225.042	-6.94
225.277	0.06
225.511	3.06
225.746	3.06
225.98	12.06
226.215	7.06
226.449	26.06
226.683	4.06
226.918	26.06
227.152	23.06
227.387	27.06
227.621	31.06
227.856	44.06
228.09	29.06
228.324	43.06
228.559	56.06
228.793	103.06
229.027	224.06
229.262	205.06
229.496	211.06
229.73	224.06
229.964	241.06
230.199	236.06
230.433	262.06
230.667	260.06
230.901	275.06
231.136	255.06
231.37	251.06
231.604	254.06
231.838	251.06
232.072	248.06
232.306	263.06
232.541	264.06
232.775	287.06
233.009	311.06
233.243	297.06
233.477	277.06
233.711	293.06
233.945	315.06
234.179	301.06
234.413	307.06
234.647	340.06
234.881	329.06
235.115	310.06
235.349	288.06
235.583	307.06
235.817	297.06
236.051	293.06
236.285	306.06
236.519	316.06
236.753	345.06
236.987	344.06
237.221	356.06
237.455	376.06
237.689	363.06
237.922	358.06
238.156	335.06
238.39	353.06
238.624	381.06
238.858	383.06
239.091	378.06
239.325	412.06
239.559	445.06
239.793	487.06
240.027	483.06
240.26	468.06
240.494	373.06
240.728	369.06
240.961	377.06
241.195	379.06
241.429	437.06
241.662	394.06
241.896	381.06
242.13	395.06
242.363	421.06
242.597	431.06
242.83	454.06
243.064	475.06
243.298	488.06
243.531	437.06
243.765	468.06
243.998	451.06
244.232	387.06
244.465	375.06
244.699	395.06
244.932	454.06
245.166	496.06
245.399	460.06
245.633	457.06
245.866	426.06
246.099	492.06
246.333	463.06
246.566	441.06
246.8	507.06
247.033	576.06
247.266	525.06
247.5	527.06
247.733	539.06
247.966	536.06
248.2	605.06
248.433	579.06
248.666	604.06
248.899	669.06
249.133	738.06
249.366	800.06
249.599	671.06
249.832	585.06
250.066	625.06
250.299	609.06
250.532	575.06
250.765	524.06
250.998	571.06
251.231	599.06
251.465	589.06
251.698	552.06
251.931	575.06
252.164	574.06
252.397	616.06
252.63	598.06
252.863	533.06
253.096	513.06
253.329	569.06
253.562	605.06
253.795	599.06
254.028	589.06
254.261	574.06
254.494	543.06
254.727	537.06
254.96	581.06
255.193	629.06
255.426	691.06
255.659	768.06
255.892	771.06
256.124	657.06
256.357	634.06
256.59	701.06
256.823	697.06
257.056	700.06
257.289	809.06
257.521	877.06
257.754	780.06
257.987	759.06
258.22	805.06
258.452	796.06
258.685	665.06
258.918	661.06
259.151	649.06
259.383	649.06
259.616	575.06
259.849	611.06
260.081	665.06
260.314	737.06
260.547	787.06
260.779	793.06
261.012	740.06
261.244	648.06
261.477	656.06
261.71	666.06
261.942	671.06
262.175	649.06
262.407	685.06
262.64	635.06
262.872	601.06
263.105	581.06
263.337	613.06
263.57	601.06
263.802	637.06
264.035	603.06
264.267	557.06
264.499	563.06
264.732	604.06
264.964	633.06
265.197	668.06
265.429	699.06
265.661	758.06
265.894	833.06
266.126	817.06
266.358	778.06
266.591	781.06
266.823	835.06
267.055	753.06
267.287	769.06
267.52	752.06
267.752	755.06
267.984	768.06
268.216	771.06
268.448	790.06
268.681	761.06
268.913	731.06
269.145	697.06
269.377	674.06
269.609	745.06
269.841	874.06
270.073	1004.06
270.306	1079.06
270.538	1097.06
270.77	938.06
271.002	800.06
271.234	774.06
271.466	781.06
271.698	909.06
271.93	1017.06
272.162	1008.06
272.394	928.06
272.626	859.06
272.858	811.06
273.09	697.06
273.322	688.06
273.553	645.06
273.785	667.06
274.017	681.06
274.249	749.06
274.481	771.06
274.713	709.06
274.945	671.06
275.176	672.06
275.408	664.06
275.64	668.06
275.872	667.06
276.104	731.06
276.335	811.06
276.567	890.06
276.799	889.06
277.031	838.06
277.262	801.06
277.494	810.06
277.726	899.06
277.957	867.06
278.189	790.06
278.421	740.06
278.652	728.06
278.884	718.06
279.115	703.06
279.347	742.06
279.579	732.06
279.81	736.06
280.042	791.06
280.273	860.06
280.505	873.06
280.736	884.06
280.968	797.06
281.199	725.06
281.431	709.06
281.662	693.06
281.894	707.06
282.125	739.06
282.356	779.06
282.588	777.06
282.819	765.06
283.051	827.06
283.282	876.06
283.513	815.06
283.745	744.06
283.976	703.06
284.207	702.06
284.439	726.06
284.67	721.06
284.901	755.06
285.132	781.06
285.364	745.06
285.595	763.06
285.826	751.06
286.057	732.06
286.288	733.06
286.52	789.06
286.751	818.06
286.982	825.06
287.213	773.06
287.444	723.06
287.675	713.06
287.906	759.06
288.138	801.06
288.369	776.06
288.6	739.06
288.831	737.06
289.062	717.06
289.293	758.06
289.524	749.06
289.755	765.06
289.986	768.06
290.217	723.06
290.448	728.06
290.679	766.06
290.91	810.06
291.141	799.06
291.371	794.06
291.602	809.06
291.833	781.06
292.064	835.06
292.295	801.06
292.526	827.06
292.757	834.06
292.987	805.06
293.218	800.06
293.449	883.06
293.68	941.06
293.91	958.06
294.141	908.06
294.372	915.06
294.603	934.06
294.833	975.06
295.064	908.06
295.295	828.06
295.525	795.06
295.756	737.06
295.987	719.06
296.217	761.06
296.448	761.06
296.679	720.06
296.909	736.06
297.14	738.06
297.37	781.06
297.601	827.06
297.831	883.06
298.062	869.06
298.292	807.06
298.523	770.06
298.753	768.06
298.984	785.06
299.214	793.06
299.445	791.06
299.675	813.06
299.905	857.06
300.136	772.06
300.366	776.06
300.597	747.06
300.827	762.06
301.057	815.06
301.288	819.06
301.518	843.06
301.748	876.06
301.979	924.06
302.209	892.06
302.439	950.06
302.669	980.06
302.9	937.06
303.13	851.06
303.36	849.06
303.59	853.06
303.82	833.06
304.051	831.06
304.281	864.06
304.511	874.06
304.741	933.06
304.971	1005.06
305.201	1051.06
305.431	933.06
305.661	815.06
305.891	756.06
306.121	764.06
306.352	816.06
306.582	835.06
306.812	851.06
307.042	912.06
307.272	945.06
307.502	987.06
307.731	1031.06
307.961	1073.06
308.191	945.06
308.421	868.06
308.651	821.06
308.881	821.06
309.111	810.06
309.341	809.06
309.571	796.06
309.8	822.06
310.03	788.06
310.26	795.06
310.49	800.06
310.72	846.06
310.949	847.06
311.179	893.06
311.409	863.06
311.639	830.06
311.868	828.06
312.098	851.06
312.328	853.06
312.557	846.06
312.787	854.06
313.017	873.06
313.246	888.06
313.476	851.06
313.706	894.06
313.935	881.06
314.165	894.06
314.394	917.06
314.624	1002.06
314.853	1016.06
315.083	1025.06
315.312	1033.06
315.542	961.06
315.771	895.06
316.001	910.06
316.23	944.06
316.46	932.06
316.689	919.06
316.919	867.06
317.148	847.06
317.377	855.06
317.607	978.06
317.836	1033.06
318.065	1033.06
318.295	1024.06
318.524	996.06
318.753	959.06
318.983	936.06
319.212	897.06
319.441	871.06
319.67	878.06
319.9	919.06
320.129	993.06
320.358	995.06
320.587	1029.06
320.816	1005.06
321.046	985.06
321.275	962.06
321.504	966.06
321.733	1054.06
321.962	1005.06
322.191	925.06
322.42	929.06
322.649	915.06
322.878	922.06
323.108	896.06
323.337	922.06
323.566	913.06
323.795	940.06
324.024	957.06
324.253	924.06
324.482	883.06
324.71	905.06
324.939	867.06
325.168	865.06
325.397	917.06
325.626	963.06
325.855	935.06
326.084	898.06
326.313	922.06
326.542	933.06
326.77	963.06
326.999	976.06
327.228	899.06
327.457	877.06
327.686	876.06
327.914	865.06
328.143	903.06
328.372	913.06
328.6	924.06
328.829	920.06
329.058	891.06
329.287	917.06
329.515	940.06
329.744	974.06
329.972	987.06
330.201	1011.06
330.43	968.06
330.658	955.06
330.887	979.06
331.115	989.06
331.344	973.06
331.572	961.06
331.801	952.06
332.03	982.06
332.258	985.06
332.486	972.06
332.715	1001.06
332.943	988.06
333.172	975.06
333.4	968.06
333.629	1036.06
333.857	1086.06
334.085	1185.06
334.314	1369.06
334.542	1402.06
334.771	1277.06
334.999	1121.06
335.227	1061.06
335.455	1061.06
335.684	1054.06
335.912	1048.06
336.14	1067.06
336.369	1043.06
336.597	1012.06
336.825	984.06
337.053	1028.06
337.281	1084.06
337.51	1132.06
337.738	1140.06
337.966	1078.06
338.194	979.06
338.422	1002.06
338.65	986.06
338.878	930.06
339.106	944.06
339.334	907.06
339.562	927.06
339.79	956.06
340.018	990.06
340.246	1020.06
340.474	1041.06
340.702	1008.06
340.93	997.06
341.158	1018.06
341.386	982.06
341.614	976.06
341.842	963.06
342.07	994.06
342.298	974.06
342.526	948.06
342.754	955.06
342.981	935.06
343.209	939.06
343.437	940.06
343.665	1001.06
343.893	1010.06
344.12	1053.06
344.348	1059.06
344.576	992.06
344.804	967.06
345.031	963.06
345.259	1002.06
345.487	936.06
345.714	907.06
345.942	902.06
346.17	918.06
346.397	921.06
346.625	930.06
346.853	913.06
347.08	898.06
347.308	881.06
347.535	935.06
347.763	945.06
347.99	897.06
348.218	872.06
348.445	874.06
348.673	910.06
348.9	933.06
349.128	980.06
349.355	989.06
349.583	945.06
349.81	923.06
350.037	857.06
350.265	864.06
350.492	858.06
350.72	907.06
350.947	914.06
351.174	908.06
351.402	869.06
351.629	839.06
351.856	841.06
352.083	829.06
352.311	869.06
352.538	877.06
352.765	926.06
352.992	945.06
353.22	883.06
353.447	888.06
353.674	880.06
353.901	900.06
354.128	889.06
354.355	908.06
354.583	925.06
354.81	948.06
355.037	951.06
355.264	908.06
355.491	921.06
355.718	899.06
355.945	893.06
356.172	895.06
356.399	870.06
356.626	883.06
356.853	929.06
357.08	1001.06
357.307	1060.06
357.534	1034.06
357.761	948.06
357.988	895.06
358.215	829.06
358.441	859.06
358.668	854.06
358.895	879.06
359.122	959.06
359.349	1011.06
359.576	987.06
359.802	908.06
360.029	892.06
360.256	869.06
360.483	910.06
360.709	953.06
360.936	975.06
361.163	992.06
361.39	1114.06
361.616	1104.06
361.843	1123.06
362.07	1013.06
362.296	939.06
362.523	924.06
362.749	940.06
362.976	924.06
363.203	930.06
363.429	893.06
363.656	925.06
363.882	930.06
364.109	1052.06
364.335	1052.06
364.562	996.06
364.788	937.06
365.015	902.06
365.241	901.06
365.468	918.06
365.694	977.06
365.92	964.06
366.147	946.06
366.373	890.06
366.599	895.06
366.826	907.06
367.052	925.06
367.278	929.06
367.505	931.06
367.731	975.06
367.957	943.06
368.184	990.06
368.41	1026.06
368.636	1039.06
368.862	1039.06
369.089	1057.06
369.315	999.06
369.541	945.06
369.767	930.06
369.993	915.06
370.219	914.06
370.445	963.06
370.672	1013.06
370.898	1041.06
371.124	1012.06
371.35	999.06
371.576	986.06
371.802	1037.06
372.028	1008.06
372.254	927.06
372.48	925.06
372.706	948.06
372.932	955.06
373.158	941.06
373.384	936.06
373.61	973.06
373.835	1027.06
374.061	951.06
374.287	985.06
374.513	978.06
374.739	976.06
374.965	982.06
375.191	980.06
375.416	1008.06
375.642	1032.06
375.868	1074.06
376.094	1087.06
376.319	1001.06
376.545	991.06
376.771	1047.06
376.997	1072.06
377.222	1037.06
377.448	999.06
377.674	1006.06
377.899	1063.06
378.125	1108.06
378.35	1061.06
378.576	995.06
378.802	947.06
379.027	934.06
379.253	947.06
379.478	964.06
379.704	975.06
379.929	956.06
380.155	977.06
380.38	983.06
380.606	1011.06
380.831	1000.06
381.057	1028.06
381.282	1043.06
381.507	1033.06
381.733	1111.06
381.958	1120.06
382.184	1047.06
382.409	1025.06
382.634	1038.06
382.86	1034.06
383.085	1001.06
383.31	1086.06
383.535	1145.06
383.761	1198.06
383.986	1151.06
384.211	1104.06
384.436	1112.06
384.662	1140.06
384.887	1182.06
385.112	1117.06
385.337	1114.06
385.562	1115.06
385.787	1101.06
386.013	1140.06
386.238	1140.06
386.463	1148.06
386.688	1229.06
386.913	1263.06
387.138	1215.06
387.363	1188.06
387.588	1162.06
387.813	1163.06
388.038	1157.06
388.263	1186.06
388.488	1123.06
388.713	1067.06
388.938	1087.06
389.163	1077.06
389.387	1097.06
389.612	1124.06
389.837	1148.06
390.062	1101.06
390.287	1120.06
390.512	1107.06
390.736	1103.06
390.961	1112.06
391.186	1124.06
391.411	1088.06
391.636	1126.06
391.86	1107.06
392.085	1103.06
392.31	1096.06
392.534	1111.06
392.759	1132.06
392.984	1108.06
393.208	1135.06
393.433	1173.06
393.658	1219.06
393.882	1202.06
394.107	1120.06
394.331	1136.06
394.556	1115.06
394.78	1167.06
395.005	1168.06
395.229	1184.06
395.454	1280.06
395.678	1265.06
395.903	1211.06
396.127	1212.06
396.352	1246.06
396.576	1217.06
396.801	1243.06
397.025	1241.06
397.249	1226.06
397.474	1194.06
397.698	1228.06
397.922	1234.06
398.147	1327.06
398.371	1346.06
398.595	1299.06
398.82	1255.06
399.044	1305.06
399.268	1364.06
399.492	1461.06
399.717	1468.06
399.941	1487.06
400.165	1439.06
400.389	1429.06
400.613	1427.06
400.837	1655.06
401.062	1784.06
401.286	1520.06
401.51	1431.06
401.734	1447.06
401.958	1407.06
402.182	1333.06
402.406	1265.06
402.63	1260.06
402.854	1266.06
403.078	1298.06
403.302	1306.06
403.526	1365.06
403.75	1370.06
403.974	1316.06
404.198	1351.06
404.422	1412.06
404.645	1464.06
404.869	1388.06
405.093	1319.06
405.317	1320.06
405.541	1356.06
405.765	1364.06
405.988	1340.06
406.212	1373.06
406.436	1425.06
406.66	1447.06
406.883	1482.06
407.107	1657.06
407.331	1805.06
407.555	1874.06
407.778	1656.06
408.002	1441.06
408.226	1399.06
408.449	1417.06
408.673	1379.06
408.896	1363.06
409.12	1361.06
409.344	1346.06
409.567	1323.06
409.791	1332.06
410.014	1372.06
410.238	1484.06
410.461	1497.06
410.685	1342.06
410.908	1301.06
411.132	1365.06
411.355	1332.06
411.578	1323.06
411.802	1301.06
412.025	1363.06
412.249	1292.06
412.472	1316.06
412.695	1329.06
412.919	1281.06
413.142	1296.06
413.365	1268.06
413.589	1347.06
413.812	1409.06
414.035	1425.06
414.258	1308.06
414.482	1312.06
414.705	1286.06
414.928	1301.06
415.151	1296.06
415.374	1300.06
415.597	1324.06
415.821	1296.06
416.044	1345.06
416.267	1327.06
416.49	1249.06
416.713	1257.06
416.936	1307.06
417.159	1381.06
417.382	1340.06
417.605	1285.06
417.828	1313.06
418.051	1301.06
418.274	1282.06
418.497	1267.06
418.72	1260.06
418.943	1251.06
419.166	1324.06
419.389	1360.06
419.611	1297.06
419.834	1256.06
420.057	1253.06
420.28	1299.06
420.503	1268.06
420.726	1341.06
420.948	1293.06
421.171	1273.06
421.394	1312.06
421.617	1297.06
421.839	1321.06
422.062	1298.06
422.285	1275.06
422.507	1277.06
422.73	1205.06
422.953	1210.06
423.175	1215.06
423.398	1265.06
423.621	1281.06
423.843	1265.06
424.066	1330.06
424.288	1349.06
424.511	1396.06
424.733	1317.06
424.956	1245.06
425.178	1264.06
425.401	1216.06
425.623	1252.06
425.846	1265.06
426.068	1301.06
426.291	1348.06
426.513	1322.06
426.735	1240.06
426.958	1412.06
427.18	1471.06
427.402	1354.06
427.625	1398.06
427.847	1377.06
428.069	1237.06
428.292	1254.06
428.514	1221.06
428.736	1233.06
428.958	1216.06
429.181	1284.06
429.403	1477.06
429.625	1724.06
429.847	1440.06
430.069	1279.06
430.292	1405.06
430.514	1473.06
430.736	1330.06
430.958	1369.06
431.18	1279.06
431.402	1187.06
431.624	1202.06
431.846	1177.06
432.068	1128.06
432.29	1107.06
432.512	1156.06
432.734	1259.06
432.956	1259.06
433.178	1296.06
433.4	1329.06
433.622	1310.06
433.844	1260.06
434.066	1189.06
434.287	1168.06
434.509	1183.06
434.731	1244.06
434.953	1343.06
435.175	1311.06
435.397	1285.06
435.618	1249.06
435.84	1229.06
436.062	1204.06
436.284	1237.06
436.505	1241.06
436.727	1317.06
436.949	1247.06
437.17	1207.06
437.392	1237.06
437.614	1225.06
437.835	1169.06
438.057	1218.06
438.278	1230.06
438.5	1207.06
438.721	1200.06
438.943	1258.06
439.165	1187.06
439.386	1218.06
439.608	1241.06
439.829	1217.06
440.05	1221.06
440.272	1244.06
440.493	1239.06
440.715	1247.06
440.936	1312.06
441.158	1420.06
441.379	1411.06
441.6	1399.06
441.822	1344.06
442.043	1322.06
442.264	1315.06
442.486	1244.06
442.707	1255.06
442.928	1264.06
443.149	1271.06
443.371	1337.06
443.592	1396.06
443.813	1352.06
444.034	1345.06
444.255	1346.06
444.476	1367.06
444.698	1389.06
444.919	1393.06
445.14	1491.06
445.361	1435.06
445.582	1429.06
445.803	1373.06
446.024	1364.06
446.245	1424.06
446.466	1347.06
446.687	1288.06
446.908	1327.06
447.129	1263.06
447.35	1243.06
447.571	1276.06
447.792	1266.06
448.013	1250.06
448.234	1260.06
448.455	1305.06
448.675	1293.06
448.896	1203.06
449.117	1188.06
449.338	1211.06
449.559	1253.06
449.779	1294.06
450	1384.06
450.221	1455.06
450.442	1399.06
450.662	1272.06
450.883	1196.06
451.104	1157.06
451.324	1157.06
451.545	1197.06
451.766	1173.06
451.986	1109.06
452.207	1119.06
452.428	1063.06
452.648	1105.06
452.869	1103.06
453.089	1117.06
453.31	1151.06
453.53	1129.06
453.751	1128.06
453.971	1061.06
454.192	1082.06
454.412	1145.06
454.633	1144.06
454.853	1082.06
455.073	1047.06
455.294	1088.06
455.514	1066.06
455.734	1066.06
455.955	1095.06
456.175	1053.06
456.395	1052.06
456.616	1077.06
456.836	1070.06
457.056	1071.06
457.276	1064.06
457.497	1061.06
457.717	1007.06
457.937	1021.06
458.157	1051.06
458.377	1048.06
458.598	1047.06
458.818	1037.06
459.038	1095.06
459.258	1139.06
459.478	1110.06
459.698	1088.06
459.918	1162.06
460.138	1188.06
460.358	1259.06
460.578	1194.06
460.798	1288.06
461.018	1309.06
461.238	1251.06
461.458	1232.06
461.678	1252.06
461.898	1220.06
462.118	1201.06
462.338	1245.06
462.558	1252.06
462.777	1256.06
462.997	1307.06
463.217	1354.06
463.437	1297.06
463.657	1262.06
463.876	1254.06
464.096	1241.06
464.316	1270.06
464.536	1319.06
464.755	1262.06
464.975	1295.06
465.195	1249.06
465.414	1309.06
465.634	1281.06
465.854	1260.06
466.073	1367.06
466.293	1339.06
466.512	1200.06
466.732	1193.06
466.951	1210.06
467.171	1218.06
467.391	1184.06
467.61	1160.06
467.829	1195.06
468.049	1314.06
468.268	1417.06
468.488	1296.06
468.707	1255.06
468.927	1237.06
469.146	1210.06
469.365	1195.06
469.585	1212.06
469.804	1188.06
470.023	1234.06
470.243	1258.06
470.462	1213.06
470.681	1191.06
470.901	1222.06
471.12	1236.06
471.339	1237.06
471.558	1200.06
471.777	1181.06
471.997	1201.06
472.216	1159.06
472.435	1116.06
472.654	1123.06
472.873	1172.06
473.092	1238.06
473.311	1179.06
473.53	1102.06
473.749	1130.06
473.968	1192.06
474.187	1195.06
474.406	1226.06
474.625	1190.06
474.844	1190.06
475.063	1224.06
475.282	1190.06
475.501	1163.06
475.72	1194.06
475.939	1285.06
476.158	1212.06
476.377	1197.06
476.596	1193.06
476.814	1240.06
477.033	1210.06
477.252	1239.06
477.471	1263.06
477.69	1268.06
477.908	1282.06
478.127	1333.06
478.346	1408.06
478.564	1416.06
478.783	1417.06
479.002	1411.06
479.22	1410.06
479.439	1426.06
479.658	1556.06
479.876	1536.06
480.095	1386.06
480.313	1294.06
480.532	1273.06
480.751	1258.06
480.969	1331.06
481.188	1267.06
481.406	1234.06
481.624	1217.06
481.843	1223.06
482.061	1247.06
482.28	1307.06
482.498	1304.06
482.717	1263.06
482.935	1265.06
483.153	1349.06
483.372	1411.06
483.59	1358.06
483.808	1337.06
484.027	1343.06
484.245	1411.06
484.463	1728.06
484.681	1849.06
484.9	1450.06
485.118	1356.06
485.336	1357.06
485.554	1355.06
485.772	1373.06
485.99	1357.06
486.209	1418.06
486.427	1359.06
486.645	1387.06
486.863	1400.06
487.081	1417.06
487.299	1439.06
487.517	1459.06
487.735	1473.06
487.953	1496.06
488.171	1446.06
488.389	1447.06
488.607	1422.06
488.825	1578.06
489.043	1529.06
489.261	1393.06
489.479	1463.06
489.696	1447.06
489.914	1422.06
490.132	1420.06
490.35	1441.06
490.568	1536.06
490.786	1478.06
491.003	1442.06
491.221	1507.06
491.439	1541.06
491.657	1558.06
491.874	1611.06
492.092	1628.06
492.31	1686.06
492.527	1640.06
492.745	1625.06
492.963	1589.06
493.18	1598.06
493.398	1670.06
493.615	1687.06
493.833	1588.06
494.05	1563.06
