Data from WStandard_LampEnergy5.5LIBS07252019.E.O._I.C._HRD10591_16-08-04-920.txt Node
Date: Thu Jul 25 16:08:04 EDT 2019
User: cochatt
Spectrometer: HR+D1059
Trigger mode: 1
Integration Time (sec): 1.000000E-1
Scans to average: 1
Electric dark correction enabled: true
Nonlinearity correction enabled: false
Boxcar width: 0
XAxis mode: Wavelengths
Number of Pixels in Spectrum: 2048
>>>>>Begin Spectral Data<<<<<
223.165	-14.12
223.4	-14.12
223.635	-14.12
223.869	-24.12
224.104	-14.12
224.338	-18.12
224.573	-24.12
224.808	-18.12
225.042	0.88
225.277	-14.12
225.511	-16.12
225.746	0.88
225.98	9.88
226.215	20.88
226.449	11.88
226.683	32.88
226.918	28.88
227.152	36.88
227.387	44.88
227.621	38.88
227.856	53.88
228.09	39.88
228.324	49.88
228.559	58.88
228.793	143.88
229.027	356.88
229.262	377.88
229.496	376.88
229.73	416.88
229.964	452.88
230.199	466.88
230.433	465.88
230.667	520.88
230.901	546.88
231.136	475.88
231.37	475.88
231.604	468.88
231.838	475.88
232.072	501.88
232.306	446.88
232.541	492.88
232.775	574.88
233.009	614.88
233.243	626.88
233.477	547.88
233.711	542.88
233.945	593.88
234.179	551.88
234.413	613.88
234.647	661.88
234.881	613.88
235.115	569.88
235.349	562.88
235.583	607.88
235.817	580.88
236.051	564.88
236.285	581.88
236.519	591.88
236.753	689.88
236.987	692.88
237.221	697.88
237.455	790.88
237.689	734.88
237.922	691.88
238.156	672.88
238.39	663.88
238.624	702.88
238.858	776.88
239.091	798.88
239.325	824.88
239.559	944.88
239.793	953.88
240.027	1050.88
240.26	1072.88
240.494	766.88
240.728	723.88
240.961	727.88
241.195	758.88
241.429	827.88
241.662	833.88
241.896	778.88
242.13	776.88
242.363	866.88
242.597	942.88
242.83	900.88
243.064	916.88
243.298	1003.88
243.531	971.88
243.765	944.88
243.998	940.88
244.232	849.88
244.465	798.88
244.699	804.88
244.932	898.88
245.166	1086.88
245.399	1010.88
245.633	939.88
245.866	904.88
246.099	960.88
246.333	977.88
246.566	961.88
246.8	1070.88
247.033	1191.88
247.266	1109.88
247.5	1078.88
247.733	1095.88
247.966	1152.88
248.2	1282.88
248.433	1202.88
248.666	1246.88
248.899	1387.88
249.133	1592.88
249.366	1794.88
249.599	1489.88
249.832	1305.88
250.066	1336.88
250.299	1338.88
250.532	1242.88
250.765	1121.88
250.998	1190.88
251.231	1204.88
251.465	1266.88
251.698	1205.88
251.931	1227.88
252.164	1239.88
252.397	1301.88
252.63	1303.88
252.863	1104.88
253.096	1120.88
253.329	1186.88
253.562	1219.88
253.795	1362.88
254.028	1339.88
254.261	1186.88
254.494	1206.88
254.727	1138.88
254.96	1184.88
255.193	1318.88
255.426	1450.88
255.659	1687.88
255.892	1744.88
256.124	1405.88
256.357	1326.88
256.59	1476.88
256.823	1485.88
257.056	1470.88
257.289	1779.88
257.521	1951.88
257.754	1751.88
257.987	1638.88
258.22	1840.88
258.452	1756.88
258.685	1404.88
258.918	1399.88
259.151	1418.88
259.383	1355.88
259.616	1207.88
259.849	1269.88
260.081	1432.88
260.314	1600.88
260.547	1802.88
260.779	1784.88
261.012	1678.88
261.244	1483.88
261.477	1377.88
261.71	1484.88
261.942	1428.88
262.175	1388.88
262.407	1496.88
262.64	1416.88
262.872	1322.88
263.105	1250.88
263.337	1301.88
263.57	1324.88
263.802	1354.88
264.035	1272.88
264.267	1191.88
264.499	1139.88
264.732	1240.88
264.964	1304.88
265.197	1401.88
265.429	1431.88
265.661	1618.88
265.894	1794.88
266.126	1860.88
266.358	1639.88
266.591	1703.88
266.823	1853.88
267.055	1642.88
267.287	1643.88
267.52	1614.88
267.752	1588.88
267.984	1566.88
268.216	1694.88
268.448	1698.88
268.681	1670.88
268.913	1591.88
269.145	1464.88
269.377	1459.88
269.609	1579.88
269.841	1833.88
270.073	2044.88
270.306	2333.88
270.538	2518.88
270.77	2092.88
271.002	1764.88
271.234	1699.88
271.466	1661.88
271.698	1871.88
271.93	2300.88
272.162	2270.88
272.394	2058.88
272.626	1950.88
272.858	1730.88
273.09	1481.88
273.322	1485.88
273.553	1396.88
273.785	1442.88
274.017	1475.88
274.249	1586.88
274.481	1628.88
274.713	1488.88
274.945	1445.88
275.176	1447.88
275.408	1400.88
275.64	1407.88
275.872	1400.88
276.104	1505.88
276.335	1702.88
276.567	1924.88
276.799	1952.88
277.031	1757.88
277.262	1606.88
277.494	1705.88
277.726	1889.88
277.957	1926.88
278.189	1721.88
278.421	1574.88
278.652	1512.88
278.884	1490.88
279.115	1523.88
279.347	1552.88
279.579	1499.88
279.81	1485.88
280.042	1657.88
280.273	1827.88
280.505	1808.88
280.736	1872.88
280.968	1742.88
281.199	1555.88
281.431	1458.88
281.662	1451.88
281.894	1456.88
282.125	1547.88
282.356	1550.88
282.588	1603.88
282.819	1540.88
283.051	1734.88
283.282	1826.88
283.513	1794.88
283.745	1555.88
283.976	1422.88
284.207	1445.88
284.439	1482.88
284.67	1548.88
284.901	1540.88
285.132	1578.88
285.364	1574.88
285.595	1612.88
285.826	1568.88
286.057	1544.88
286.288	1530.88
286.52	1545.88
286.751	1755.88
286.982	1789.88
287.213	1610.88
287.444	1499.88
287.675	1506.88
287.906	1571.88
288.138	1690.88
288.369	1639.88
288.6	1555.88
288.831	1489.88
289.062	1485.88
289.293	1515.88
289.524	1538.88
289.755	1623.88
289.986	1602.88
290.217	1491.88
290.448	1509.88
290.679	1601.88
290.91	1552.88
291.141	1615.88
291.371	1658.88
291.602	1687.88
291.833	1619.88
292.064	1715.88
292.295	1652.88
292.526	1685.88
292.757	1800.88
292.987	1697.88
293.218	1576.88
293.449	1686.88
293.68	1915.88
293.91	2127.88
294.141	1948.88
294.372	1774.88
294.603	1814.88
294.833	1957.88
295.064	1865.88
295.295	1677.88
295.525	1659.88
295.756	1520.88
295.987	1449.88
296.217	1492.88
296.448	1567.88
296.679	1542.88
296.909	1543.88
297.14	1501.88
297.37	1538.88
297.601	1621.88
297.831	1753.88
298.062	1758.88
298.292	1639.88
298.523	1554.88
298.753	1552.88
298.984	1593.88
299.214	1556.88
299.445	1607.88
299.675	1654.88
299.905	1652.88
300.136	1608.88
300.366	1562.88
300.597	1500.88
300.827	1518.88
301.057	1583.88
301.288	1654.88
301.518	1633.88
301.748	1682.88
301.979	1740.88
302.209	1766.88
302.439	1933.88
302.669	2048.88
302.9	1873.88
303.13	1705.88
303.36	1706.88
303.59	1707.88
303.82	1707.88
304.051	1689.88
304.281	1678.88
304.511	1628.88
304.741	1770.88
304.971	1970.88
305.201	2132.88
305.431	1967.88
305.661	1620.88
305.891	1478.88
306.121	1462.88
306.352	1519.88
306.582	1621.88
306.812	1741.88
307.042	1836.88
307.272	1850.88
307.502	1883.88
307.731	2023.88
307.961	2184.88
308.191	2053.88
308.421	1728.88
308.651	1635.88
308.881	1634.88
309.111	1627.88
309.341	1566.88
309.571	1593.88
309.8	1621.88
310.03	1568.88
310.26	1595.88
310.49	1584.88
310.72	1618.88
310.949	1679.88
311.179	1714.88
311.409	1693.88
311.639	1664.88
311.868	1586.88
312.098	1613.88
312.328	1608.88
312.557	1607.88
312.787	1646.88
313.017	1711.88
313.246	1697.88
313.476	1697.88
313.706	1732.88
313.935	1710.88
314.165	1724.88
314.394	1778.88
314.624	1876.88
314.853	1946.88
315.083	2060.88
315.312	2090.88
315.542	1955.88
315.771	1741.88
316.001	1708.88
316.23	1867.88
316.46	1814.88
316.689	1776.88
316.919	1718.88
317.148	1656.88
317.377	1687.88
317.607	1750.88
317.836	1988.88
318.065	2056.88
318.295	1987.88
318.524	1911.88
318.753	1846.88
318.983	1850.88
319.212	1802.88
319.441	1775.88
319.67	1718.88
319.9	1773.88
320.129	1873.88
320.358	1898.88
320.587	1972.88
320.816	2000.88
321.046	1914.88
321.275	1800.88
321.504	1812.88
321.733	1954.88
321.962	1972.88
322.191	1779.88
322.42	1765.88
322.649	1705.88
322.878	1754.88
323.108	1761.88
323.337	1832.88
323.566	1876.88
323.795	1800.88
324.024	1798.88
324.253	1748.88
324.482	1845.88
324.71	1765.88
324.939	1651.88
325.168	1658.88
325.397	1715.88
325.626	1818.88
325.855	1823.88
326.084	1733.88
326.313	1736.88
326.542	1779.88
326.77	1861.88
326.999	1854.88
327.228	1752.88
327.457	1687.88
327.686	1671.88
327.914	1725.88
328.143	1809.88
328.372	1764.88
328.6	1766.88
328.829	1718.88
329.058	1708.88
329.287	1705.88
329.515	1756.88
329.744	1764.88
329.972	1871.88
330.201	1978.88
330.43	1913.88
330.658	1848.88
330.887	1842.88
331.115	1813.88
331.344	1929.88
331.572	1824.88
331.801	1840.88
332.03	1863.88
332.258	1862.88
332.486	1888.88
332.715	1903.88
332.943	1908.88
333.172	1832.88
333.4	1889.88
333.629	1916.88
333.857	2010.88
334.085	2193.88
334.314	2496.88
334.542	2803.88
334.771	2558.88
334.999	2247.88
335.227	2130.88
335.455	2017.88
335.684	1976.88
335.912	1988.88
336.14	2133.88
336.369	2046.88
336.597	1926.88
336.825	1854.88
337.053	1932.88
337.281	2029.88
337.51	2095.88
337.738	2227.88
337.966	2159.88
338.194	1939.88
338.422	1865.88
338.65	1851.88
338.878	1831.88
339.106	1800.88
339.334	1778.88
339.562	1721.88
339.79	1756.88
340.018	1898.88
340.246	1974.88
340.474	1958.88
340.702	1952.88
340.93	1916.88
341.158	1909.88
341.386	1855.88
341.614	1862.88
341.842	1855.88
342.07	1842.88
342.298	1846.88
342.526	1830.88
342.754	1839.88
342.981	1835.88
343.209	1799.88
343.437	1818.88
343.665	1784.88
343.893	1845.88
344.12	1948.88
344.348	2010.88
344.576	1899.88
344.804	1828.88
345.031	1866.88
345.259	1862.88
345.487	1804.88
345.714	1746.88
345.942	1704.88
346.17	1710.88
346.397	1732.88
346.625	1774.88
346.853	1650.88
347.08	1609.88
347.308	1664.88
347.535	1682.88
347.763	1783.88
347.99	1735.88
348.218	1664.88
348.445	1638.88
348.673	1670.88
348.9	1741.88
349.128	1752.88
349.355	1832.88
349.583	1824.88
349.81	1701.88
350.037	1575.88
350.265	1572.88
350.492	1619.88
350.72	1655.88
350.947	1730.88
351.174	1756.88
351.402	1679.88
351.629	1589.88
351.856	1578.88
352.083	1520.88
352.311	1591.88
352.538	1645.88
352.765	1719.88
352.992	1752.88
353.22	1697.88
353.447	1652.88
353.674	1664.88
353.901	1700.88
354.128	1651.88
354.355	1655.88
354.583	1679.88
354.81	1767.88
355.037	1768.88
355.264	1771.88
355.491	1660.88
355.718	1730.88
355.945	1699.88
356.172	1620.88
356.399	1622.88
356.626	1636.88
356.853	1693.88
357.08	1815.88
357.307	1968.88
357.534	2034.88
357.761	1742.88
357.988	1632.88
358.215	1578.88
358.441	1631.88
358.668	1564.88
358.895	1595.88
359.122	1716.88
359.349	1883.88
359.576	1880.88
359.802	1697.88
360.029	1625.88
360.256	1568.88
360.483	1608.88
360.709	1670.88
360.936	1769.88
361.163	1799.88
361.39	1960.88
361.616	2098.88
361.843	2070.88
362.07	1944.88
362.296	1690.88
362.523	1644.88
362.749	1643.88
362.976	1682.88
363.203	1703.88
363.429	1674.88
363.656	1656.88
363.882	1681.88
364.109	1854.88
364.335	2030.88
364.562	1859.88
364.788	1789.88
365.015	1711.88
365.241	1630.88
365.468	1656.88
365.694	1731.88
365.92	1815.88
366.147	1724.88
366.373	1651.88
366.599	1572.88
366.826	1573.88
367.052	1598.88
367.278	1636.88
367.505	1714.88
367.731	1692.88
367.957	1681.88
368.184	1737.88
368.41	1826.88
368.636	1872.88
368.862	1874.88
369.089	1876.88
369.315	1819.88
369.541	1769.88
369.767	1695.88
369.993	1650.88
370.219	1659.88
370.445	1712.88
370.672	1792.88
370.898	1853.88
371.124	1867.88
371.35	1776.88
371.576	1795.88
371.802	1877.88
372.028	1805.88
372.254	1710.88
372.48	1701.88
372.706	1692.88
372.932	1706.88
373.158	1691.88
373.384	1751.88
373.61	1732.88
373.835	1865.88
374.061	1840.88
374.287	1765.88
374.513	1768.88
374.739	1739.88
374.965	1800.88
375.191	1803.88
375.416	1839.88
375.642	1844.88
375.868	1904.88
376.094	1975.88
376.319	1904.88
376.545	1782.88
376.771	1780.88
376.997	1871.88
377.222	1883.88
377.448	1813.88
377.674	1840.88
377.899	1828.88
378.125	1936.88
378.35	1938.88
378.576	1785.88
378.802	1732.88
379.027	1680.88
379.253	1714.88
379.478	1745.88
379.704	1707.88
379.929	1751.88
380.155	1740.88
380.38	1769.88
380.606	1792.88
380.831	1750.88
381.057	1888.88
381.282	1875.88
381.507	1838.88
381.733	1914.88
381.958	2044.88
382.184	1876.88
382.409	1795.88
382.634	1803.88
382.86	1852.88
383.085	1846.88
383.31	1856.88
383.535	2030.88
383.761	2124.88
383.986	2036.88
384.211	2042.88
384.436	1947.88
384.662	2006.88
384.887	2125.88
385.112	2040.88
385.337	2007.88
385.562	1966.88
385.787	1995.88
386.013	2037.88
386.238	2066.88
386.463	2008.88
386.688	2146.88
386.913	2246.88
387.138	2254.88
387.363	2090.88
387.588	2069.88
387.813	2035.88
388.038	2086.88
388.263	2140.88
388.488	2116.88
388.713	1907.88
388.938	1897.88
389.163	1920.88
389.387	2020.88
389.612	1981.88
389.837	2002.88
390.062	2034.88
390.287	1984.88
390.512	2060.88
390.736	1970.88
390.961	1917.88
391.186	1864.88
391.411	1892.88
391.636	1970.88
391.86	2038.88
392.085	1967.88
392.31	1993.88
392.534	2017.88
392.759	1998.88
392.984	1987.88
393.208	2051.88
393.433	2115.88
393.658	2124.88
393.882	2182.88
394.107	2115.88
394.331	1982.88
394.556	1929.88
394.78	2009.88
395.005	2072.88
395.229	2118.88
395.454	2263.88
395.678	2340.88
395.903	2228.88
396.127	2134.88
396.352	2131.88
396.576	2167.88
396.801	2247.88
397.025	2131.88
397.249	2179.88
397.474	2158.88
397.698	2168.88
397.922	2207.88
398.147	2354.88
398.371	2397.88
398.595	2389.88
398.82	2307.88
399.044	2320.88
399.268	2416.88
399.492	2558.88
399.717	2646.88
399.941	2736.88
400.165	2638.88
400.389	2594.88
400.613	2496.88
400.837	2778.88
401.062	3210.88
401.286	2774.88
401.51	2505.88
401.734	2616.88
401.958	2583.88
402.182	2367.88
402.406	2264.88
402.63	2229.88
402.854	2292.88
403.078	2281.88
403.302	2376.88
403.526	2326.88
403.75	2419.88
403.974	2379.88
404.198	2426.88
404.422	2484.88
404.645	2512.88
404.869	2488.88
405.093	2309.88
405.317	2300.88
405.541	2418.88
405.765	2388.88
405.988	2382.88
406.212	2435.88
406.436	2509.88
406.66	2524.88
406.883	2583.88
407.107	2854.88
407.331	3111.88
407.555	3390.88
407.778	3114.88
408.002	2607.88
408.226	2505.88
408.449	2514.88
408.673	2420.88
408.896	2467.88
409.12	2531.88
409.344	2448.88
409.567	2339.88
409.791	2375.88
410.014	2508.88
410.238	2551.88
410.461	2674.88
410.685	2411.88
410.908	2310.88
411.132	2351.88
411.355	2402.88
411.578	2320.88
411.802	2321.88
412.025	2399.88
412.249	2381.88
412.472	2280.88
412.695	2216.88
412.919	2249.88
413.142	2251.88
413.365	2273.88
413.589	2376.88
413.812	2468.88
414.035	2579.88
414.258	2342.88
414.482	2311.88
414.705	2292.88
414.928	2274.88
415.151	2229.88
415.374	2280.88
415.597	2331.88
415.821	2289.88
416.044	2462.88
416.267	2430.88
416.49	2207.88
416.713	2104.88
416.936	2243.88
417.159	2345.88
417.382	2340.88
417.605	2217.88
417.828	2281.88
418.051	2350.88
418.274	2254.88
418.497	2233.88
418.72	2202.88
418.943	2199.88
419.166	2303.88
419.389	2457.88
419.611	2332.88
419.834	2243.88
420.057	2260.88
420.28	2211.88
420.503	2173.88
420.726	2256.88
420.948	2268.88
421.171	2165.88
421.394	2202.88
421.617	2276.88
421.839	2248.88
422.062	2172.88
422.285	2202.88
422.507	2195.88
422.73	2116.88
422.953	2072.88
423.175	2104.88
423.398	2211.88
423.621	2202.88
423.843	2204.88
424.066	2273.88
424.288	2323.88
424.511	2346.88
424.733	2316.88
424.956	2072.88
425.178	2067.88
425.401	2105.88
425.623	2159.88
425.846	2091.88
426.068	2238.88
426.291	2274.88
426.513	2254.88
426.735	2268.88
426.958	2406.88
427.18	2531.88
427.402	2291.88
427.625	2381.88
427.847	2423.88
428.069	2232.88
428.292	2144.88
428.514	2097.88
428.736	2083.88
428.958	2110.88
429.181	2121.88
429.403	2396.88
429.625	2950.88
429.847	2589.88
430.069	2203.88
430.292	2375.88
430.514	2539.88
430.736	2337.88
430.958	2374.88
431.18	2310.88
431.402	2143.88
431.624	2120.88
431.846	2099.88
432.068	2087.88
432.29	2080.88
432.512	2119.88
432.734	2172.88
432.956	2235.88
433.178	2312.88
433.4	2303.88
433.622	2256.88
433.844	2145.88
434.066	2123.88
434.287	2098.88
434.509	2223.88
434.731	2302.88
434.953	2439.88
435.175	2363.88
435.397	2234.88
435.618	2232.88
435.84	2292.88
436.062	2210.88
436.284	2228.88
436.505	2266.88
436.727	2222.88
436.949	2198.88
437.17	2161.88
437.392	2156.88
437.614	2177.88
437.835	2046.88
438.057	2190.88
438.278	2329.88
438.5	2207.88
438.721	2110.88
438.943	2170.88
439.165	2114.88
439.386	2065.88
439.608	2105.88
439.829	2116.88
440.05	2139.88
440.272	2144.88
440.493	2067.88
440.715	2153.88
440.936	2267.88
441.158	2520.88
441.379	2457.88
441.6	2293.88
441.822	2326.88
442.043	2239.88
442.264	2252.88
442.486	2144.88
442.707	2098.88
442.928	2100.88
443.149	2191.88
443.371	2328.88
443.592	2380.88
443.813	2320.88
444.034	2256.88
444.255	2333.88
444.476	2390.88
444.698	2397.88
444.919	2364.88
445.14	2455.88
445.361	2472.88
445.582	2592.88
445.803	2409.88
446.024	2273.88
446.245	2422.88
446.466	2360.88
446.687	2188.88
446.908	2215.88
447.129	2150.88
447.35	2162.88
447.571	2169.88
447.792	2111.88
448.013	2110.88
448.234	2116.88
448.455	2223.88
448.675	2242.88
448.896	2027.88
449.117	2006.88
449.338	2043.88
449.559	2162.88
449.779	2316.88
450	2503.88
450.221	2766.88
450.442	2626.88
450.662	2279.88
450.883	2028.88
451.104	1955.88
451.324	2024.88
451.545	2093.88
451.766	2080.88
451.986	2003.88
452.207	1940.88
452.428	1923.88
452.648	1874.88
452.869	1956.88
453.089	2106.88
453.31	2072.88
453.53	2135.88
453.751	2054.88
453.971	1967.88
454.192	1950.88
454.412	2115.88
454.633	2054.88
454.853	1978.88
455.073	1842.88
455.294	1853.88
455.514	1848.88
455.734	1824.88
455.955	1893.88
456.175	1897.88
456.395	1874.88
456.616	1968.88
456.836	2024.88
457.056	1949.88
457.276	1930.88
457.497	1878.88
457.717	1822.88
457.937	1828.88
458.157	1916.88
458.377	1938.88
458.598	1917.88
458.818	1970.88
459.038	2004.88
459.258	2170.88
459.478	2145.88
459.698	2039.88
459.918	2151.88
460.138	2268.88
460.358	2238.88
460.578	2259.88
460.798	2364.88
461.018	2530.88
461.238	2372.88
461.458	2262.88
461.678	2252.88
461.898	2249.88
462.118	2136.88
462.338	2262.88
462.558	2252.88
462.777	2268.88
462.997	2359.88
463.217	2552.88
463.437	2508.88
463.657	2323.88
463.876	2277.88
464.096	2270.88
464.316	2217.88
464.536	2336.88
464.755	2366.88
464.975	2411.88
465.195	2290.88
465.414	2424.88
465.634	2456.88
465.854	2255.88
466.073	2369.88
466.293	2376.88
466.512	2081.88
466.732	2059.88
466.951	2178.88
467.171	2175.88
467.391	2057.88
467.61	2018.88
467.829	2039.88
468.049	2203.88
468.268	2503.88
468.488	2326.88
468.707	2194.88
468.927	2075.88
469.146	2074.88
469.365	2039.88
469.585	2078.88
469.804	2064.88
470.023	2027.88
470.243	2147.88
470.462	2066.88
470.681	2040.88
470.901	2052.88
471.12	2104.88
471.339	2036.88
471.558	1961.88
471.777	1964.88
471.997	2008.88
472.216	2049.88
472.435	1911.88
472.654	2022.88
472.873	2118.88
473.092	2214.88
473.311	2109.88
473.53	1980.88
473.749	1992.88
473.968	2056.88
474.187	2141.88
474.406	2302.88
474.625	2122.88
474.844	2076.88
475.063	2054.88
475.282	2160.88
475.501	2074.88
475.72	2090.88
475.939	2208.88
476.158	2152.88
476.377	2096.88
476.596	2091.88
476.814	2148.88
477.033	2249.88
477.252	2318.88
477.471	2353.88
477.69	2186.88
477.908	2211.88
478.127	2302.88
478.346	2498.88
478.564	2576.88
478.783	2458.88
479.002	2571.88
479.22	2450.88
479.439	2638.88
479.658	2978.88
479.876	2914.88
480.095	2494.88
480.313	2423.88
480.532	2279.88
480.751	2352.88
480.969	2386.88
481.188	2358.88
481.406	2331.88
481.624	2257.88
481.843	2292.88
482.061	2350.88
482.28	2388.88
482.498	2437.88
482.717	2367.88
482.935	2354.88
483.153	2314.88
483.372	2362.88
483.59	2262.88
483.808	2315.88
484.027	2368.88
484.245	2532.88
484.463	2873.88
484.681	3360.88
484.9	2590.88
485.118	2417.88
485.336	2357.88
485.554	2473.88
485.772	2592.88
485.99	2496.88
486.209	2550.88
486.427	2508.88
486.645	2473.88
486.863	2423.88
487.081	2518.88
487.299	2571.88
