Data from WStandard_LampEnergy10_LIBS07252019.E.O._I.C._HRD10591_15-54-07-928.txt Node
Date: Thu Jul 25 15:54:07 EDT 2019
User: cochatt
Spectrometer: HR+D1059
Trigger mode: 1
Integration Time (sec): 1.000000E-1
Scans to average: 1
Electric dark correction enabled: true
Nonlinearity correction enabled: false
Boxcar width: 0
XAxis mode: Wavelengths
Number of Pixels in Spectrum: 2048
>>>>>Begin Spectral Data<<<<<
223.165	-16.38
223.4	-16.38
223.635	-16.38
223.869	-12.38
224.104	-11.38
224.338	-13.38
224.573	-9.38
224.808	-7.38
225.042	-8.38
225.277	-6.38
225.511	6.62
225.746	2.62
225.98	4.62
226.215	4.62
226.449	5.62
226.683	20.62
226.918	23.62
227.152	16.62
227.387	32.62
227.621	34.62
227.856	43.62
228.09	55.62
228.324	46.62
228.559	71.62
228.793	90.62
229.027	134.62
229.262	139.62
229.496	143.62
229.73	153.62
229.964	156.62
230.199	177.62
230.433	169.62
230.667	196.62
230.901	181.62
231.136	171.62
231.37	183.62
231.604	183.62
231.838	193.62
232.072	175.62
232.306	167.62
232.541	194.62
232.775	196.62
233.009	216.62
233.243	202.62
233.477	192.62
233.711	211.62
233.945	195.62
234.179	214.62
234.413	219.62
234.647	240.62
234.881	214.62
235.115	212.62
235.349	226.62
235.583	213.62
235.817	191.62
236.051	181.62
236.285	202.62
236.519	206.62
236.753	233.62
236.987	226.62
237.221	219.62
237.455	247.62
237.689	242.62
237.922	224.62
238.156	232.62
238.39	212.62
238.624	230.62
238.858	239.62
239.091	246.62
239.325	260.62
239.559	279.62
239.793	281.62
240.027	309.62
240.26	309.62
240.494	236.62
240.728	242.62
240.961	223.62
241.195	251.62
241.429	260.62
241.662	241.62
241.896	262.62
242.13	269.62
242.363	265.62
242.597	268.62
242.83	267.62
243.064	272.62
243.298	289.62
243.531	274.62
243.765	295.62
243.998	283.62
244.232	261.62
244.465	263.62
244.699	276.62
244.932	282.62
245.166	312.62
245.399	292.62
245.633	293.62
245.866	282.62
246.099	312.62
246.333	318.62
246.566	292.62
246.8	324.62
247.033	355.62
247.266	327.62
247.5	342.62
247.733	325.62
247.966	345.62
248.2	358.62
248.433	351.62
248.666	376.62
248.899	401.62
249.133	446.62
249.366	481.62
249.599	420.62
249.832	373.62
250.066	354.62
250.299	362.62
250.532	357.62
250.765	358.62
250.998	350.62
251.231	355.62
251.465	377.62
251.698	347.62
251.931	367.62
252.164	360.62
252.397	379.62
252.63	358.62
252.863	322.62
253.096	324.62
253.329	356.62
253.562	359.62
253.795	397.62
254.028	364.62
254.261	356.62
254.494	352.62
254.727	352.62
254.96	375.62
255.193	383.62
255.426	445.62
255.659	451.62
255.892	497.62
256.124	420.62
256.357	397.62
256.59	417.62
256.823	397.62
257.056	442.62
257.289	500.62
257.521	528.62
257.754	493.62
257.987	459.62
258.22	492.62
258.452	464.62
258.685	393.62
258.918	397.62
259.151	402.62
259.383	375.62
259.616	364.62
259.849	392.62
260.081	418.62
260.314	460.62
260.547	479.62
260.779	487.62
261.012	459.62
261.244	428.62
261.477	392.62
261.71	431.62
261.942	427.62
262.175	409.62
262.407	413.62
262.64	408.62
262.872	363.62
263.105	371.62
263.337	399.62
263.57	392.62
263.802	379.62
264.035	356.62
264.267	355.62
264.499	356.62
264.732	387.62
264.964	405.62
265.197	406.62
265.429	423.62
265.661	473.62
265.894	504.62
266.126	499.62
266.358	463.62
266.591	455.62
266.823	497.62
267.055	471.62
267.287	448.62
267.52	461.62
267.752	447.62
267.984	477.62
268.216	479.62
268.448	495.62
268.681	456.62
268.913	435.62
269.145	421.62
269.377	421.62
269.609	452.62
269.841	515.62
270.073	595.62
270.306	635.62
270.538	645.62
270.77	567.62
271.002	505.62
271.234	462.62
271.466	481.62
271.698	549.62
271.93	635.62
272.162	613.62
272.394	541.62
272.626	508.62
272.858	475.62
273.09	419.62
273.322	425.62
273.553	428.62
273.785	426.62
274.017	426.62
274.249	474.62
274.481	442.62
274.713	430.62
274.945	409.62
275.176	421.62
275.408	422.62
275.64	401.62
275.872	400.62
276.104	464.62
276.335	483.62
276.567	551.62
276.799	562.62
277.031	519.62
277.262	471.62
277.494	500.62
277.726	551.62
277.957	523.62
278.189	476.62
278.421	446.62
278.652	436.62
278.884	428.62
279.115	443.62
279.347	456.62
279.579	460.62
279.81	447.62
280.042	465.62
280.273	535.62
280.505	525.62
280.736	504.62
280.968	507.62
281.199	443.62
281.431	427.62
281.662	420.62
281.894	437.62
282.125	464.62
282.356	490.62
282.588	461.62
282.819	460.62
283.051	517.62
283.282	529.62
283.513	514.62
283.745	460.62
283.976	446.62
284.207	428.62
284.439	448.62
284.67	473.62
284.901	475.62
285.132	470.62
285.364	470.62
285.595	450.62
285.826	470.62
286.057	467.62
286.288	441.62
286.52	500.62
286.751	523.62
286.982	490.62
287.213	477.62
287.444	445.62
287.675	427.62
287.906	462.62
288.138	523.62
288.369	477.62
288.6	458.62
288.831	446.62
289.062	441.62
289.293	448.62
289.524	464.62
289.755	467.62
289.986	495.62
290.217	465.62
290.448	454.62
290.679	487.62
290.91	480.62
291.141	479.62
291.371	501.62
291.602	488.62
291.833	505.62
292.064	519.62
292.295	513.62
292.526	516.62
292.757	517.62
292.987	514.62
293.218	482.62
293.449	507.62
293.68	588.62
293.91	604.62
294.141	564.62
294.372	567.62
294.603	599.62
294.833	594.62
295.064	549.62
295.295	501.62
295.525	482.62
295.756	488.62
295.987	453.62
296.217	458.62
296.448	478.62
296.679	470.62
296.909	469.62
297.14	462.62
297.37	495.62
297.601	515.62
297.831	548.62
298.062	547.62
298.292	502.62
298.523	472.62
298.753	445.62
298.984	488.62
299.214	493.62
299.445	501.62
299.675	502.62
299.905	499.62
300.136	481.62
300.366	464.62
300.597	487.62
300.827	499.62
301.057	504.62
301.288	512.62
301.518	532.62
301.748	556.62
301.979	563.62
302.209	583.62
302.439	607.62
302.669	604.62
302.9	585.62
303.13	526.62
303.36	531.62
303.59	528.62
303.82	538.62
304.051	533.62
304.281	539.62
304.511	551.62
304.741	564.62
304.971	631.62
305.201	637.62
305.431	587.62
305.661	521.62
305.891	465.62
306.121	482.62
306.352	511.62
306.582	535.62
306.812	541.62
307.042	588.62
307.272	567.62
307.502	617.62
307.731	652.62
307.961	651.62
308.191	598.62
308.421	540.62
308.651	533.62
308.881	513.62
309.111	483.62
309.341	505.62
309.571	536.62
309.8	498.62
310.03	492.62
310.26	511.62
310.49	504.62
310.72	540.62
310.949	529.62
311.179	545.62
311.409	544.62
311.639	539.62
311.868	531.62
312.098	530.62
312.328	531.62
312.557	495.62
312.787	510.62
313.017	546.62
313.246	547.62
313.476	544.62
313.706	550.62
313.935	538.62
314.165	554.62
314.394	591.62
314.624	607.62
314.853	656.62
315.083	640.62
315.312	639.62
315.542	599.62
315.771	547.62
316.001	560.62
316.23	554.62
316.46	577.62
316.689	543.62
316.919	540.62
317.148	523.62
317.377	569.62
317.607	608.62
317.836	671.62
318.065	665.62
318.295	637.62
318.524	640.62
318.753	581.62
318.983	563.62
319.212	575.62
319.441	567.62
319.67	580.62
319.9	581.62
320.129	616.62
320.358	611.62
320.587	624.62
320.816	647.62
321.046	626.62
321.275	601.62
321.504	615.62
321.733	657.62
321.962	605.62
322.191	579.62
322.42	585.62
322.649	569.62
322.878	561.62
323.108	593.62
323.337	611.62
323.566	606.62
323.795	589.62
324.024	611.62
324.253	581.62
324.482	562.62
324.71	553.62
324.939	567.62
325.168	584.62
325.397	583.62
325.626	574.62
325.855	570.62
326.084	585.62
326.313	572.62
326.542	572.62
326.77	589.62
326.999	588.62
327.228	549.62
327.457	565.62
327.686	558.62
327.914	572.62
328.143	583.62
328.372	581.62
328.6	585.62
328.829	561.62
329.058	561.62
329.287	563.62
329.515	597.62
329.744	599.62
329.972	640.62
330.201	653.62
330.43	623.62
330.658	594.62
330.887	612.62
331.115	604.62
331.344	601.62
331.572	591.62
331.801	588.62
332.03	581.62
332.258	600.62
332.486	614.62
332.715	639.62
332.943	629.62
333.172	624.62
333.4	629.62
333.629	645.62
333.857	695.62
334.085	764.62
334.314	825.62
334.542	890.62
334.771	777.62
334.999	675.62
335.227	661.62
335.455	641.62
335.684	646.62
335.912	687.62
336.14	673.62
336.369	635.62
336.597	615.62
336.825	626.62
337.053	647.62
337.281	680.62
337.51	712.62
337.738	723.62
337.966	660.62
338.194	627.62
338.422	596.62
338.65	597.62
338.878	592.62
339.106	569.62
339.334	595.62
339.562	565.62
339.79	600.62
340.018	649.62
340.246	661.62
340.474	618.62
340.702	641.62
340.93	637.62
341.158	617.62
341.386	616.62
341.614	621.62
341.842	604.62
342.07	621.62
342.298	627.62
342.526	613.62
342.754	596.62
342.981	615.62
343.209	607.62
343.437	608.62
343.665	600.62
343.893	620.62
344.12	653.62
344.348	645.62
344.576	610.62
344.804	618.62
345.031	604.62
345.259	624.62
345.487	595.62
345.714	572.62
345.942	557.62
346.17	562.62
346.397	606.62
346.625	575.62
346.853	546.62
347.08	569.62
347.308	574.62
347.535	584.62
347.763	568.62
347.99	579.62
348.218	571.62
348.445	570.62
348.673	589.62
348.9	616.62
349.128	637.62
349.355	643.62
349.583	588.62
349.81	589.62
350.037	523.62
350.265	547.62
350.492	570.62
350.72	571.62
350.947	589.62
351.174	589.62
351.402	569.62
351.629	536.62
351.856	547.62
352.083	530.62
352.311	543.62
352.538	557.62
352.765	586.62
352.992	596.62
353.22	592.62
353.447	564.62
353.674	580.62
353.901	549.62
354.128	555.62
354.355	591.62
354.583	610.62
354.81	611.62
355.037	619.62
355.264	587.62
355.491	589.62
355.718	600.62
355.945	579.62
356.172	563.62
356.399	557.62
356.626	551.62
356.853	608.62
357.08	667.62
357.307	681.62
357.534	670.62
357.761	605.62
357.988	547.62
358.215	571.62
358.441	544.62
358.668	572.62
358.895	576.62
359.122	635.62
359.349	647.62
359.576	638.62
359.802	560.62
360.029	579.62
360.256	563.62
360.483	556.62
360.709	610.62
360.936	616.62
361.163	645.62
361.39	701.62
361.616	719.62
361.843	714.62
362.07	671.62
362.296	583.62
362.523	565.62
362.749	597.62
362.976	585.62
363.203	621.62
363.429	577.62
363.656	580.62
363.882	575.62
364.109	678.62
364.335	683.62
364.562	656.62
364.788	607.62
365.015	596.62
365.241	571.62
365.468	601.62
365.694	648.62
365.92	629.62
366.147	608.62
366.373	559.62
366.599	580.62
366.826	567.62
367.052	553.62
367.278	564.62
367.505	594.62
367.731	636.62
367.957	596.62
368.184	645.62
368.41	656.62
368.636	696.62
368.862	692.62
369.089	667.62
369.315	623.62
369.541	621.62
369.767	591.62
369.993	606.62
370.219	605.62
370.445	626.62
370.672	676.62
370.898	679.62
371.124	660.62
371.35	633.62
371.576	673.62
371.802	677.62
372.028	656.62
372.254	625.62
372.48	605.62
372.706	605.62
372.932	640.62
373.158	634.62
373.384	651.62
373.61	656.62
373.835	671.62
374.061	633.62
374.287	651.62
374.513	645.62
374.739	644.62
374.965	647.62
375.191	663.62
375.416	651.62
375.642	681.62
375.868	713.62
376.094	724.62
376.319	692.62
376.545	661.62
376.771	689.62
376.997	723.62
377.222	704.62
377.448	693.62
377.674	683.62
377.899	687.62
378.125	739.62
378.35	724.62
378.576	635.62
378.802	641.62
379.027	641.62
379.253	666.62
379.478	663.62
379.704	646.62
379.929	651.62
380.155	652.62
380.38	666.62
380.606	674.62
380.831	683.62
381.057	707.62
381.282	716.62
381.507	706.62
381.733	749.62
381.958	791.62
382.184	703.62
382.409	678.62
382.634	690.62
382.86	692.62
383.085	692.62
383.31	713.62
383.535	775.62
383.761	801.62
383.986	778.62
384.211	741.62
384.436	739.62
384.662	765.62
384.887	769.62
385.112	747.62
385.337	773.62
385.562	737.62
385.787	741.62
386.013	770.62
386.238	781.62
386.463	796.62
386.688	826.62
386.913	869.62
387.138	833.62
387.363	801.62
387.588	786.62
387.813	770.62
388.038	797.62
388.263	820.62
388.488	790.62
388.713	753.62
388.938	731.62
389.163	735.62
389.387	767.62
389.612	766.62
389.837	770.62
390.062	796.62
390.287	760.62
390.512	752.62
390.736	744.62
390.961	763.62
391.186	731.62
391.411	732.62
391.636	779.62
391.86	775.62
392.085	763.62
392.31	769.62
392.534	797.62
392.759	775.62
392.984	752.62
393.208	774.62
393.433	818.62
393.658	836.62
393.882	810.62
394.107	768.62
394.331	775.62
394.556	771.62
394.78	792.62
395.005	835.62
395.229	851.62
395.454	869.62
395.678	869.62
395.903	832.62
396.127	799.62
396.352	858.62
396.576	868.62
396.801	881.62
397.025	859.62
397.249	856.62
397.474	849.62
397.698	863.62
397.922	852.62
398.147	906.62
398.371	956.62
398.595	921.62
398.82	893.62
399.044	922.62
399.268	967.62
399.492	988.62
399.717	1038.62
399.941	972.62
400.165	993.62
400.389	987.62
400.613	1004.62
400.837	1163.62
401.062	1235.62
401.286	1044.62
401.51	1003.62
401.734	1031.62
401.958	965.62
402.182	918.62
402.406	916.62
402.63	907.62
402.854	891.62
403.078	895.62
403.302	919.62
403.526	945.62
403.75	940.62
403.974	943.62
404.198	913.62
404.422	1017.62
404.645	1031.62
404.869	995.62
405.093	964.62
405.317	943.62
405.541	931.62
405.765	947.62
405.988	963.62
406.212	985.62
406.436	961.62
406.66	1017.62
406.883	1063.62
407.107	1178.62
407.331	1272.62
407.555	1308.62
407.778	1158.62
408.002	1007.62
408.226	1008.62
408.449	1009.62
408.673	965.62
408.896	979.62
409.12	1000.62
409.344	976.62
409.567	966.62
409.791	952.62
410.014	978.62
410.238	1015.62
410.461	1070.62
410.685	995.62
410.908	979.62
411.132	981.62
411.355	976.62
411.578	938.62
411.802	947.62
412.025	978.62
412.249	940.62
412.472	910.62
412.695	933.62
412.919	927.62
413.142	915.62
413.365	957.62
413.589	963.62
413.812	1001.62
414.035	1019.62
414.258	945.62
414.482	919.62
414.705	950.62
414.928	927.62
415.151	935.62
415.374	944.62
415.597	960.62
415.821	971.62
416.044	972.62
416.267	971.62
416.49	925.62
416.713	915.62
416.936	969.62
417.159	1017.62
417.382	977.62
417.605	959.62
417.828	947.62
418.051	956.62
418.274	965.62
418.497	944.62
418.72	968.62
418.943	946.62
419.166	995.62
419.389	984.62
419.611	980.62
419.834	966.62
420.057	970.62
420.28	960.62
420.503	966.62
420.726	980.62
420.948	959.62
421.171	929.62
421.394	953.62
421.617	983.62
421.839	1003.62
422.062	981.62
422.285	953.62
422.507	925.62
422.73	916.62
422.953	888.62
423.175	895.62
423.398	912.62
423.621	943.62
423.843	921.62
424.066	1015.62
424.288	1062.62
424.511	1062.62
424.733	1042.62
424.956	944.62
425.178	951.62
425.401	944.62
425.623	957.62
425.846	973.62
426.068	977.62
426.291	974.62
426.513	968.62
426.735	992.62
426.958	1055.62
427.18	1083.62
427.402	1004.62
427.625	1059.62
427.847	1014.62
428.069	953.62
428.292	923.62
428.514	903.62
428.736	924.62
428.958	917.62
429.181	949.62
429.403	1081.62
429.625	1258.62
429.847	1064.62
430.069	964.62
430.292	1036.62
430.514	1034.62
430.736	993.62
430.958	991.62
431.18	971.62
431.402	891.62
431.624	864.62
431.846	808.62
432.068	737.62
432.29	782.62
432.512	842.62
432.734	880.62
432.956	922.62
433.178	981.62
433.4	979.62
433.622	964.62
433.844	935.62
434.066	836.62
434.287	803.62
434.509	831.62
434.731	844.62
434.953	940.62
435.175	945.62
435.397	935.62
435.618	893.62
435.84	851.62
436.062	838.62
436.284	889.62
436.505	943.62
436.727	981.62
436.949	924.62
437.17	928.62
437.392	888.62
437.614	870.62
437.835	819.62
438.057	838.62
438.278	880.62
438.5	890.62
438.721	921.62
438.943	917.62
439.165	938.62
439.386	940.62
439.608	946.62
439.829	959.62
440.05	979.62
440.272	959.62
440.493	953.62
440.715	996.62
440.936	1059.62
441.158	1083.62
441.379	1062.62
441.6	1060.62
441.822	1032.62
442.043	1044.62
442.264	1027.62
442.486	975.62
442.707	980.62
442.928	1000.62
443.149	1000.62
443.371	1034.62
443.592	1021.62
443.813	1019.62
444.034	1029.62
444.255	1043.62
444.476	1053.62
444.698	1052.62
444.919	1059.62
445.14	1149.62
445.361	1074.62
445.582	1090.62
445.803	1051.62
446.024	1056.62
446.245	1101.62
446.466	1089.62
446.687	1036.62
446.908	1079.62
447.129	1019.62
447.35	1045.62
447.571	1020.62
447.792	970.62
448.013	963.62
448.234	976.62
448.455	1023.62
448.675	999.62
448.896	940.62
449.117	953.62
449.338	946.62
449.559	971.62
449.779	1033.62
450	1045.62
450.221	1076.62
450.442	1058.62
450.662	967.62
450.883	901.62
451.104	886.62
451.324	909.62
451.545	933.62
451.766	883.62
451.986	864.62
452.207	843.62
452.428	819.62
452.648	801.62
452.869	819.62
453.089	794.62
453.31	767.62
453.53	790.62
453.751	759.62
453.971	700.62
454.192	740.62
454.412	789.62
454.633	818.62
454.853	825.62
455.073	753.62
455.294	801.62
455.514	812.62
455.734	781.62
455.955	776.62
456.175	748.62
456.395	734.62
456.616	763.62
456.836	753.62
457.056	757.62
457.276	750.62
457.497	715.62
457.717	715.62
457.937	710.62
458.157	731.62
458.377	715.62
458.598	670.62
458.818	693.62
459.038	727.62
459.258	732.62
459.478	737.62
459.698	723.62
459.918	720.62
460.138	828.62
460.358	828.62
460.578	851.62
460.798	867.62
461.018	917.62
461.238	877.62
461.458	877.62
461.678	843.62
461.898	831.62
462.118	829.62
462.338	861.62
462.558	857.62
462.777	859.62
462.997	904.62
463.217	943.62
463.437	920.62
463.657	849.62
463.876	895.62
464.096	835.62
464.316	863.62
464.536	866.62
464.755	936.62
464.975	876.62
465.195	836.62
465.414	924.62
465.634	912.62
465.854	917.62
466.073	985.62
466.293	948.62
466.512	874.62
466.732	884.62
466.951	936.62
467.171	903.62
467.391	895.62
467.61	902.62
467.829	901.62
468.049	982.62
468.268	1098.62
468.488	986.62
468.707	923.62
468.927	914.62
469.146	934.62
469.365	941.62
469.585	957.62
469.804	932.62
470.023	957.62
470.243	981.62
470.462	943.62
470.681	924.62
470.901	955.62
471.12	949.62
471.339	954.62
471.558	934.62
471.777	936.62
471.997	928.62
472.216	842.62
472.435	796.62
472.654	778.62
472.873	785.62
473.092	866.62
473.311	855.62
473.53	833.62
473.749	849.62
473.968	853.62
474.187	899.62
474.406	859.62
474.625	879.62
474.844	929.62
475.063	892.62
475.282	906.62
475.501	860.62
475.72	867.62
475.939	920.62
476.158	873.62
476.377	869.62
476.596	877.62
476.814	853.62
477.033	824.62
477.252	880.62
477.471	939.62
477.69	955.62
477.908	990.62
478.127	1027.62
478.346	1018.62
478.564	1031.62
478.783	1000.62
479.002	1081.62
479.22	1077.62
479.439	1075.62
479.658	1080.62
479.876	1019.62
480.095	920.62
480.313	935.62
480.532	900.62
480.751	865.62
480.969	833.62
481.188	773.62
481.406	796.62
481.624	795.62
481.843	839.62
482.061	839.62
482.28	899.62
482.498	922.62
482.717	909.62
482.935	907.62
483.153	984.62
483.372	1051.62
483.59	987.62
483.808	1009.62
484.027	969.62
484.245	1023.62
484.463	1241.62
484.681	1323.62
484.9	1075.62
485.118	1020.62
485.336	985.62
485.554	908.62
485.772	903.62
485.99	898.62
486.209	928.62
486.427	966.62
486.645	966.62
486.863	1031.62
487.081	1060.62
487.299	1042.62
487.517	1062.62
487.735	1123.62
487.953	1194.62
488.171	1199.62
488.389	1142.62
488.607	1107.62
488.825	1186.62
489.043	1091.62
489.261	1013.62
489.479	1028.62
489.696	1079.62
489.914	1047.62
490.132	1034.62
490.35	1112.62
490.568	1201.62
490.786	1193.62
491.003	1225.62
491.221	1307.62
491.439	1318.62
491.657	1319.62
491.874	1402.62
492.092	1455.62
492.31	1517.62
492.527	1461.62
492.745	1371.62
492.963	1318.62
493.18	1370.62
493.398	1397.62
493.615	1355.62
493.833	1308.62
494.05	1254.62
494.268	1259.62
494.485	1288.62
494.703	1266.62
494.92	1232.62
495.138	1268.62
495.355	1277.62
495.573	1267.62
495.79	1278.62
496.008	1332.62
496.225	1241.62
496.442	1256.62
496.66	1252.62
496.877	1257.62
497.094	1253.62
497.312	1239.62
497.529	1222.62
497.746	1245.62
497.963	1299.62
498.181	1340.62
498.398	1284.62
498.615	1236.62
498.832	1185.62
499.049	1203.62
499.267	1189.62
499.484	1311.62
499.701	1352.62
499.918	1428.62
500.135	1508.62
