Data from WStandard_LampEnergy10_LIBS07252019.E.O._I.C._HRD10591_15-54-44-928.txt Node
Date: Thu Jul 25 15:54:44 EDT 2019
User: cochatt
Spectrometer: HR+D1059
Trigger mode: 1
Integration Time (sec): 1.000000E-1
Scans to average: 1
Electric dark correction enabled: true
Nonlinearity correction enabled: false
Boxcar width: 0
XAxis mode: Wavelengths
Number of Pixels in Spectrum: 2048
>>>>>Begin Spectral Data<<<<<
223.165	-20.56
223.4	-20.56
223.635	-20.56
223.869	-20.56
224.104	-19.56
224.338	-1.56
224.573	-17.56
224.808	-8.56
225.042	-16.56
225.277	-12.56
225.511	12.44
225.746	6.44
225.98	11.44
226.215	18.44
226.449	14.44
226.683	21.44
226.918	10.44
227.152	22.44
227.387	13.44
227.621	33.44
227.856	41.44
228.09	43.44
228.324	55.44
228.559	53.44
228.793	67.44
229.027	127.44
229.262	135.44
229.496	133.44
229.73	148.44
229.964	152.44
230.199	156.44
230.433	175.44
230.667	164.44
230.901	192.44
231.136	188.44
231.37	179.44
231.604	176.44
231.838	177.44
232.072	186.44
232.306	180.44
232.541	198.44
232.775	199.44
233.009	217.44
233.243	187.44
233.477	176.44
233.711	203.44
233.945	203.44
234.179	191.44
234.413	191.44
234.647	218.44
234.881	190.44
235.115	207.44
235.349	177.44
235.583	187.44
235.817	189.44
236.051	181.44
236.285	199.44
236.519	219.44
236.753	220.44
236.987	215.44
237.221	215.44
237.455	220.44
237.689	216.44
237.922	207.44
238.156	207.44
238.39	211.44
238.624	224.44
238.858	227.44
239.091	247.44
239.325	269.44
239.559	282.44
239.793	300.44
240.027	310.44
240.26	284.44
240.494	233.44
240.728	230.44
240.961	228.44
241.195	237.44
241.429	255.44
241.662	251.44
241.896	228.44
242.13	232.44
242.363	272.44
242.597	265.44
242.83	269.44
243.064	275.44
243.298	300.44
243.531	289.44
243.765	276.44
243.998	291.44
244.232	231.44
244.465	232.44
244.699	267.44
244.932	273.44
245.166	325.44
245.399	277.44
245.633	288.44
245.866	287.44
246.099	288.44
246.333	289.44
246.566	309.44
246.8	311.44
247.033	343.44
247.266	321.44
247.5	299.44
247.733	317.44
247.966	324.44
248.2	353.44
248.433	328.44
248.666	345.44
248.899	389.44
249.133	420.44
249.366	468.44
249.599	385.44
249.832	357.44
250.066	352.44
250.299	364.44
250.532	357.44
250.765	324.44
250.998	312.44
251.231	335.44
251.465	348.44
251.698	352.44
251.931	344.44
252.164	351.44
252.397	329.44
252.63	351.44
252.863	297.44
253.096	333.44
253.329	338.44
253.562	369.44
253.795	359.44
254.028	353.44
254.261	331.44
254.494	339.44
254.727	332.44
254.96	341.44
255.193	370.44
255.426	395.44
255.659	444.44
255.892	465.44
256.124	407.44
256.357	386.44
256.59	396.44
256.823	408.44
257.056	401.44
257.289	464.44
257.521	493.44
257.754	463.44
257.987	462.44
258.22	465.44
258.452	465.44
258.685	388.44
258.918	381.44
259.151	388.44
259.383	373.44
259.616	336.44
259.849	379.44
260.081	405.44
260.314	452.44
260.547	471.44
260.779	464.44
261.012	437.44
261.244	409.44
261.477	385.44
261.71	387.44
261.942	379.44
262.175	407.44
262.407	405.44
262.64	400.44
262.872	387.44
263.105	357.44
263.337	379.44
263.57	378.44
263.802	385.44
264.035	371.44
264.267	348.44
264.499	347.44
264.732	360.44
264.964	386.44
265.197	409.44
265.429	414.44
265.661	455.44
265.894	483.44
266.126	482.44
266.358	461.44
266.591	469.44
266.823	473.44
267.055	441.44
267.287	442.44
267.52	422.44
267.752	447.44
267.984	425.44
268.216	439.44
268.448	469.44
268.681	457.44
268.913	424.44
269.145	415.44
269.377	440.44
269.609	442.44
269.841	519.44
270.073	592.44
270.306	619.44
270.538	624.44
270.77	529.44
271.002	481.44
271.234	463.44
271.466	465.44
271.698	516.44
271.93	616.44
272.162	602.44
272.394	533.44
272.626	518.44
272.858	450.44
273.09	419.44
273.322	385.44
273.553	402.44
273.785	381.44
274.017	408.44
274.249	419.44
274.481	427.44
274.713	410.44
274.945	400.44
275.176	398.44
275.408	413.44
275.64	396.44
275.872	400.44
276.104	455.44
276.335	484.44
276.567	532.44
276.799	544.44
277.031	503.44
277.262	456.44
277.494	489.44
277.726	518.44
277.957	522.44
278.189	461.44
278.421	424.44
278.652	423.44
278.884	429.44
279.115	433.44
279.347	428.44
279.579	434.44
279.81	440.44
280.042	496.44
280.273	496.44
280.505	510.44
280.736	499.44
280.968	473.44
281.199	433.44
281.431	407.44
281.662	424.44
281.894	421.44
282.125	430.44
282.356	437.44
282.588	448.44
282.819	460.44
283.051	480.44
283.282	504.44
283.513	486.44
283.745	420.44
283.976	420.44
284.207	425.44
284.439	426.44
284.67	431.44
284.901	464.44
285.132	455.44
285.364	472.44
285.595	453.44
285.826	431.44
286.057	459.44
286.288	428.44
286.52	475.44
286.751	495.44
286.982	497.44
287.213	448.44
287.444	407.44
287.675	435.44
287.906	446.44
288.138	501.44
288.369	471.44
288.6	447.44
288.831	421.44
289.062	437.44
289.293	436.44
289.524	455.44
289.755	455.44
289.986	451.44
290.217	431.44
290.448	431.44
290.679	471.44
290.91	460.44
291.141	462.44
291.371	478.44
291.602	492.44
291.833	471.44
292.064	473.44
292.295	495.44
292.526	512.44
292.757	485.44
292.987	476.44
293.218	485.44
293.449	514.44
293.68	580.44
293.91	573.44
294.141	548.44
294.372	548.44
294.603	552.44
294.833	586.44
295.064	546.44
295.295	494.44
295.525	451.44
295.756	447.44
295.987	439.44
296.217	448.44
296.448	447.44
296.679	440.44
296.909	455.44
297.14	456.44
297.37	467.44
297.601	494.44
297.831	526.44
298.062	516.44
298.292	499.44
298.523	454.44
298.753	457.44
298.984	469.44
299.214	478.44
299.445	481.44
299.675	479.44
299.905	503.44
300.136	482.44
300.366	479.44
300.597	425.44
300.827	456.44
301.057	479.44
301.288	512.44
301.518	491.44
301.748	535.44
301.979	544.44
302.209	552.44
302.439	599.44
302.669	582.44
302.9	555.44
303.13	521.44
303.36	494.44
303.59	505.44
303.82	500.44
304.051	517.44
304.281	517.44
304.511	534.44
304.741	595.44
304.971	607.44
305.201	601.44
305.431	566.44
305.661	485.44
305.891	441.44
306.121	469.44
306.352	464.44
306.582	532.44
306.812	550.44
307.042	577.44
307.272	587.44
307.502	596.44
307.731	623.44
307.961	622.44
308.191	584.44
308.421	525.44
308.651	493.44
308.881	479.44
309.111	507.44
309.341	483.44
309.571	491.44
309.8	486.44
310.03	483.44
310.26	489.44
310.49	489.44
310.72	496.44
310.949	545.44
311.179	534.44
311.409	477.44
311.639	486.44
311.868	481.44
312.098	510.44
312.328	499.44
312.557	509.44
312.787	512.44
313.017	511.44
313.246	507.44
313.476	519.44
313.706	528.44
313.935	530.44
314.165	556.44
314.394	564.44
314.624	598.44
314.853	610.44
315.083	626.44
315.312	628.44
315.542	565.44
315.771	514.44
316.001	528.44
316.23	579.44
316.46	567.44
316.689	569.44
316.919	546.44
317.148	499.44
317.377	544.44
317.607	593.44
317.836	640.44
318.065	643.44
318.295	603.44
318.524	584.44
318.753	565.44
318.983	549.44
319.212	551.44
319.441	532.44
319.67	546.44
319.9	574.44
320.129	585.44
320.358	610.44
320.587	592.44
320.816	606.44
321.046	596.44
321.275	579.44
321.504	580.44
321.733	634.44
321.962	621.44
322.191	581.44
322.42	548.44
322.649	537.44
322.878	552.44
323.108	572.44
323.337	582.44
323.566	552.44
323.795	573.44
324.024	590.44
324.253	555.44
324.482	558.44
324.71	550.44
324.939	542.44
325.168	543.44
325.397	568.44
325.626	585.44
325.855	568.44
326.084	568.44
326.313	562.44
326.542	550.44
326.77	582.44
326.999	566.44
327.228	551.44
327.457	521.44
327.686	547.44
327.914	535.44
328.143	540.44
328.372	560.44
328.6	545.44
328.829	566.44
329.058	539.44
329.287	544.44
329.515	557.44
329.744	571.44
329.972	600.44
330.201	621.44
330.43	613.44
330.658	573.44
330.887	593.44
331.115	613.44
331.344	605.44
331.572	579.44
331.801	573.44
332.03	590.44
332.258	602.44
332.486	594.44
332.715	612.44
332.943	598.44
333.172	596.44
333.4	571.44
333.629	597.44
333.857	693.44
334.085	737.44
334.314	808.44
334.542	831.44
334.771	745.44
334.999	672.44
335.227	631.44
335.455	641.44
335.684	646.44
335.912	636.44
336.14	648.44
336.369	614.44
336.597	584.44
336.825	568.44
337.053	625.44
337.281	641.44
337.51	660.44
337.738	685.44
337.966	648.44
338.194	576.44
338.422	598.44
338.65	601.44
338.878	593.44
339.106	573.44
339.334	557.44
339.562	533.44
339.79	574.44
340.018	604.44
340.246	627.44
340.474	629.44
340.702	632.44
340.93	641.44
341.158	615.44
341.386	607.44
341.614	611.44
341.842	593.44
342.07	598.44
342.298	586.44
342.526	600.44
342.754	582.44
342.981	578.44
343.209	569.44
343.437	613.44
343.665	594.44
343.893	605.44
344.12	644.44
344.348	620.44
344.576	592.44
344.804	583.44
345.031	612.44
345.259	589.44
345.487	559.44
345.714	551.44
345.942	529.44
346.17	545.44
346.397	536.44
346.625	568.44
346.853	533.44
347.08	546.44
347.308	539.44
347.535	552.44
347.763	583.44
347.99	579.44
348.218	551.44
348.445	564.44
348.673	554.44
348.9	584.44
349.128	601.44
349.355	621.44
349.583	603.44
349.81	559.44
350.037	515.44
350.265	539.44
350.492	539.44
350.72	557.44
350.947	575.44
351.174	579.44
351.402	540.44
351.629	516.44
351.856	529.44
352.083	542.44
352.311	533.44
352.538	549.44
352.765	564.44
352.992	577.44
353.22	555.44
353.447	552.44
353.674	581.44
353.901	555.44
354.128	542.44
354.355	535.44
354.583	605.44
354.81	591.44
355.037	565.44
355.264	565.44
355.491	555.44
355.718	570.44
355.945	549.44
356.172	533.44
356.399	533.44
356.626	543.44
356.853	584.44
357.08	630.44
357.307	649.44
357.534	643.44
357.761	558.44
357.988	542.44
358.215	535.44
358.441	541.44
358.668	552.44
358.895	568.44
359.122	604.44
359.349	623.44
359.576	593.44
359.802	539.44
360.029	548.44
360.256	549.44
360.483	545.44
360.709	583.44
360.936	595.44
361.163	617.44
361.39	689.44
361.616	719.44
361.843	685.44
362.07	631.44
362.296	578.44
362.523	555.44
362.749	561.44
362.976	571.44
363.203	591.44
363.429	557.44
363.656	558.44
363.882	597.44
364.109	646.44
364.335	677.44
364.562	626.44
364.788	575.44
365.015	555.44
365.241	555.44
365.468	577.44
365.694	616.44
365.92	604.44
366.147	566.44
366.373	523.44
366.599	535.44
366.826	571.44
367.052	573.44
367.278	580.44
367.505	597.44
367.731	589.44
367.957	605.44
368.184	627.44
368.41	666.44
368.636	670.44
368.862	685.44
369.089	678.44
369.315	641.44
369.541	613.44
369.767	582.44
369.993	582.44
370.219	596.44
370.445	598.44
370.672	649.44
370.898	686.44
371.124	636.44
371.35	610.44
371.576	643.44
371.802	669.44
372.028	623.44
372.254	607.44
372.48	591.44
372.706	585.44
372.932	587.44
373.158	602.44
373.384	612.44
373.61	633.44
373.835	646.44
374.061	629.44
374.287	617.44
374.513	637.44
374.739	614.44
374.965	629.44
375.191	663.44
375.416	637.44
375.642	642.44
375.868	693.44
376.094	719.44
376.319	668.44
376.545	625.44
376.771	651.44
376.997	695.44
377.222	687.44
377.448	674.44
377.674	652.44
377.899	696.44
378.125	720.44
378.35	692.44
378.576	632.44
378.802	604.44
379.027	603.44
379.253	614.44
379.478	608.44
379.704	640.44
379.929	638.44
380.155	653.44
380.38	640.44
380.606	658.44
380.831	657.44
381.057	691.44
381.282	705.44
381.507	707.44
381.733	763.44
381.958	729.44
382.184	686.44
382.409	667.44
382.634	668.44
382.86	689.44
383.085	670.44
383.31	729.44
383.535	778.44
383.761	803.44
383.986	759.44
384.211	731.44
384.436	722.44
384.662	768.44
384.887	747.44
385.112	712.44
385.337	728.44
385.562	732.44
385.787	726.44
386.013	776.44
386.238	763.44
386.463	761.44
386.688	807.44
386.913	863.44
387.138	814.44
387.363	756.44
387.588	781.44
387.813	778.44
388.038	781.44
388.263	814.44
388.488	761.44
388.713	719.44
388.938	749.44
389.163	731.44
389.387	712.44
389.612	726.44
389.837	739.44
390.062	742.44
390.287	752.44
390.512	752.44
390.736	702.44
390.961	711.44
391.186	732.44
391.411	716.44
391.636	732.44
391.86	729.44
392.085	747.44
392.31	741.44
392.534	736.44
392.759	765.44
392.984	769.44
393.208	784.44
393.433	793.44
393.658	823.44
393.882	806.44
394.107	754.44
394.331	736.44
394.556	735.44
394.78	783.44
395.005	793.44
395.229	861.44
395.454	877.44
395.678	857.44
395.903	819.44
396.127	805.44
396.352	796.44
396.576	841.44
396.801	835.44
397.025	823.44
397.249	813.44
397.474	824.44
397.698	804.44
397.922	858.44
398.147	883.44
398.371	923.44
398.595	875.44
398.82	864.44
399.044	881.44
399.268	927.44
399.492	930.44
399.717	983.44
399.941	1000.44
400.165	954.44
400.389	941.44
400.613	983.44
400.837	1125.44
401.062	1199.44
401.286	1017.44
401.51	969.44
401.734	982.44
401.958	931.44
402.182	860.44
402.406	853.44
402.63	889.44
402.854	871.44
403.078	868.44
403.302	872.44
403.526	883.44
403.75	925.44
403.974	916.44
404.198	932.44
404.422	967.44
404.645	1015.44
404.869	961.44
405.093	925.44
405.317	899.44
405.541	906.44
405.765	933.44
405.988	901.44
406.212	940.44
406.436	966.44
406.66	991.44
406.883	1053.44
407.107	1131.44
407.331	1208.44
407.555	1261.44
407.778	1109.44
408.002	974.44
408.226	969.44
408.449	947.44
408.673	911.44
408.896	936.44
409.12	933.44
409.344	913.44
409.567	944.44
409.791	939.44
410.014	972.44
410.238	1018.44
410.461	1041.44
410.685	967.44
410.908	928.44
411.132	963.44
411.355	913.44
411.578	944.44
411.802	933.44
412.025	945.44
412.249	906.44
412.472	892.44
412.695	925.44
412.919	907.44
413.142	935.44
413.365	933.44
413.589	974.44
413.812	983.44
414.035	994.44
414.258	920.44
414.482	916.44
414.705	914.44
414.928	912.44
415.151	901.44
415.374	935.44
415.597	912.44
415.821	927.44
416.044	975.44
416.267	946.44
416.49	893.44
416.713	885.44
416.936	951.44
417.159	975.44
417.382	926.44
417.605	912.44
417.828	935.44
418.051	954.44
418.274	933.44
418.497	904.44
418.72	932.44
418.943	926.44
419.166	968.44
419.389	956.44
419.611	929.44
419.834	906.44
420.057	922.44
420.28	913.44
420.503	911.44
420.726	965.44
420.948	945.44
421.171	897.44
421.394	899.44
421.617	983.44
421.839	948.44
422.062	988.44
422.285	900.44
422.507	905.44
422.73	924.44
422.953	887.44
423.175	882.44
423.398	917.44
423.621	897.44
423.843	936.44
424.066	1005.44
424.288	992.44
424.511	1039.44
424.733	985.44
424.956	897.44
425.178	926.44
425.401	922.44
425.623	956.44
425.846	936.44
426.068	979.44
426.291	977.44
426.513	960.44
426.735	967.44
426.958	1031.44
427.18	1056.44
427.402	1013.44
427.625	1007.44
427.847	971.44
428.069	925.44
428.292	913.44
428.514	875.44
428.736	889.44
428.958	893.44
429.181	900.44
429.403	1071.44
429.625	1250.44
429.847	1021.44
430.069	953.44
430.292	1065.44
430.514	1044.44
430.736	969.44
430.958	985.44
431.18	915.44
431.402	887.44
431.624	848.44
431.846	783.44
432.068	711.44
432.29	754.44
432.512	793.44
432.734	867.44
432.956	908.44
433.178	954.44
433.4	931.44
433.622	952.44
433.844	902.44
434.066	835.44
434.287	805.44
434.509	794.44
434.731	839.44
434.953	911.44
435.175	922.44
435.397	907.44
435.618	901.44
435.84	824.44
436.062	838.44
436.284	901.44
436.505	919.44
436.727	989.44
436.949	917.44
437.17	905.44
437.392	883.44
437.614	864.44
437.835	820.44
438.057	823.44
438.278	835.44
438.5	864.44
438.721	915.44
438.943	945.44
439.165	929.44
439.386	889.44
439.608	952.44
439.829	951.44
440.05	942.44
440.272	957.44
440.493	972.44
440.715	950.44
440.936	1008.44
441.158	1075.44
441.379	1031.44
441.6	1016.44
441.822	991.44
442.043	998.44
442.264	982.44
442.486	954.44
442.707	939.44
442.928	944.44
443.149	947.44
443.371	985.44
443.592	1008.44
443.813	994.44
444.034	977.44
444.255	998.44
444.476	1022.44
444.698	1063.44
444.919	1036.44
445.14	1155.44
445.361	1099.44
445.582	1063.44
445.803	1054.44
446.024	1016.44
446.245	1068.44
446.466	1040.44
446.687	1020.44
446.908	1027.44
447.129	1046.44
447.35	1007.44
447.571	977.44
447.792	949.44
448.013	971.44
448.234	952.44
448.455	973.44
448.675	983.44
448.896	896.44
449.117	923.44
449.338	896.44
449.559	965.44
449.779	984.44
450	1017.44
450.221	1061.44
450.442	1013.44
450.662	930.44
450.883	851.44
451.104	857.44
451.324	872.44
451.545	875.44
451.766	851.44
451.986	813.44
452.207	829.44
452.428	825.44
452.648	806.44
452.869	775.44
453.089	772.44
453.31	816.44
453.53	776.44
453.751	730.44
453.971	723.44
454.192	713.44
454.412	799.44
454.633	787.44
454.853	817.44
455.073	765.44
455.294	762.44
455.514	748.44
455.734	775.44
455.955	729.44
456.175	747.44
456.395	730.44
456.616	725.44
456.836	739.44
457.056	740.44
457.276	704.44
457.497	701.44
457.717	704.44
457.937	699.44
458.157	727.44
458.377	693.44
458.598	668.44
458.818	679.44
459.038	678.44
459.258	692.44
459.478	708.44
459.698	712.44
459.918	722.44
460.138	774.44
460.358	827.44
460.578	847.44
460.798	837.44
461.018	899.44
461.238	857.44
461.458	854.44
461.678	857.44
461.898	816.44
462.118	820.44
462.338	823.44
462.558	842.44
462.777	858.44
462.997	868.44
463.217	887.44
463.437	895.44
463.657	837.44
463.876	823.44
464.096	815.44
464.316	864.44
464.536	835.44
464.755	893.44
464.975	863.44
465.195	880.44
465.414	870.44
465.634	883.44
465.854	883.44
466.073	968.44
466.293	929.44
466.512	877.44
466.732	862.44
466.951	876.44
467.171	897.44
467.391	857.44
467.61	887.44
467.829	888.44
468.049	975.44
468.268	1051.44
468.488	955.44
468.707	931.44
468.927	913.44
469.146	878.44
469.365	916.44
469.585	919.44
469.804	915.44
470.023	933.44
470.243	959.44
470.462	931.44
470.681	928.44
470.901	928.44
471.12	916.44
471.339	913.44
471.558	880.44
471.777	895.44
471.997	865.44
472.216	861.44
472.435	762.44
472.654	762.44
472.873	777.44
473.092	808.44
473.311	823.44
473.53	801.44
473.749	810.44
473.968	845.44
474.187	809.44
474.406	852.44
474.625	843.44
474.844	893.44
475.063	893.44
475.282	851.44
475.501	827.44
475.72	848.44
475.939	893.44
476.158	865.44
476.377	873.44
476.596	841.44
476.814	836.44
477.033	791.44
477.252	840.44
477.471	909.44
477.69	915.44
477.908	932.44
478.127	971.44
478.346	1031.44
478.564	1020.44
478.783	1005.44
479.002	1027.44
479.22	990.44
479.439	1028.44
479.658	1056.44
479.876	1003.44
480.095	907.44
480.313	865.44
480.532	887.44
480.751	864.44
480.969	821.44
481.188	787.44
481.406	758.44
481.624	752.44
481.843	808.44
482.061	826.44
482.28	905.44
482.498	900.44
482.717	833.44
482.935	897.44
483.153	981.44
483.372	1017.44
483.59	980.44
483.808	962.44
484.027	947.44
484.245	999.44
484.463	1223.44
484.681	1295.44
484.9	1029.44
485.118	956.44
485.336	935.44
485.554	925.44
485.772	893.44
485.99	889.44
486.209	889.44
486.427	902.44
486.645	932.44
486.863	1000.44
487.081	1032.44
487.299	990.44
487.517	1013.44
487.735	1112.44
487.953	1229.44
488.171	1184.44
488.389	1133.44
488.607	1088.44
488.825	1117.44
489.043	1015.44
489.261	971.44
489.479	1047.44
489.696	1056.44
489.914	1055.44
490.132	1035.44
490.35	1076.44
490.568	1171.44
490.786	1157.44
491.003	1195.44
491.221	1243.44
491.439	1279.44
491.657	1303.44
491.874	1369.44
492.092	1415.44
492.31	1528.44
492.527	1452.44
492.745	1363.44
492.963	1337.44
493.18	1300.44
493.398	1364.44
493.615	1340.44
493.833	1280.44
494.05	1230.44
494.268	1205.44
494.485	1221.44
494.703	1209.44
494.92	1232.44
495.138	1214.44
495.355	1220.44
495.573	1242.44
495.79	1311.44
496.008	1267.44
496.225	1212.44
496.442	1245.44
496.66	1234.44
496.877	1179.44
497.094	1233.44
497.312	1203.44
497.529	1183.44
497.746	1167.44
497.963	1251.44
498.181	1337.44
498.398	1220.44
498.615	1186.44
498.832	1171.44
499.049	1137.44
499.267	1186.44
499.484	1258.44
499.701	1365.44
499.918	1349.44
500.135	1463.44
500.352	1568.44
