Data from WStandard_LampEnergy5.5LIBS07252019.E.O._I.C._HRD10591_16-07-24-920.txt Node
Date: Thu Jul 25 16:07:24 EDT 2019
User: cochatt
Spectrometer: HR+D1059
Trigger mode: 1
Integration Time (sec): 1.000000E-1
Scans to average: 1
Electric dark correction enabled: true
Nonlinearity correction enabled: false
Boxcar width: 0
XAxis mode: Wavelengths
Number of Pixels in Spectrum: 2048
>>>>>Begin Spectral Data<<<<<
223.165	-19.94
223.4	-19.94
223.635	-19.94
223.869	-21.94
224.104	-16.94
224.338	-9.94
224.573	-14.94
224.808	-19.94
225.042	-1.94
225.277	-1.94
225.511	-0.94
225.746	-18.94
225.98	8.06
226.215	16.06
226.449	20.06
226.683	33.06
226.918	27.06
227.152	23.06
227.387	31.06
227.621	55.06
227.856	47.06
228.09	54.06
228.324	54.06
228.559	54.06
228.793	149.06
229.027	366.06
229.262	368.06
229.496	392.06
229.73	410.06
229.964	431.06
230.199	462.06
230.433	491.06
230.667	503.06
230.901	536.06
231.136	514.06
231.37	471.06
231.604	466.06
231.838	476.06
232.072	508.06
232.306	447.06
232.541	491.06
232.775	563.06
233.009	598.06
233.243	598.06
233.477	542.06
233.711	550.06
233.945	587.06
234.179	550.06
234.413	603.06
234.647	658.06
234.881	608.06
235.115	573.06
235.349	581.06
235.583	586.06
235.817	595.06
236.051	553.06
236.285	567.06
236.519	618.06
236.753	667.06
236.987	731.06
237.221	684.06
237.455	780.06
237.689	762.06
237.922	702.06
238.156	682.06
238.39	680.06
238.624	733.06
238.858	771.06
239.091	798.06
239.325	783.06
239.559	940.06
239.793	978.06
240.027	1069.06
240.26	1058.06
240.494	792.06
240.728	727.06
240.961	783.06
241.195	780.06
241.429	836.06
241.662	837.06
241.896	768.06
242.13	778.06
242.363	841.06
242.597	934.06
242.83	900.06
243.064	905.06
243.298	959.06
243.531	973.06
243.765	964.06
243.998	952.06
244.232	834.06
244.465	812.06
244.699	808.06
244.932	933.06
245.166	1066.06
245.399	1020.06
245.633	910.06
245.866	901.06
246.099	952.06
246.333	977.06
246.566	994.06
246.8	1090.06
247.033	1207.06
247.266	1096.06
247.5	1078.06
247.733	1095.06
247.966	1144.06
248.2	1286.06
248.433	1251.06
248.666	1272.06
248.899	1326.06
249.133	1588.06
249.366	1780.06
249.599	1490.06
249.832	1263.06
250.066	1326.06
250.299	1327.06
250.532	1247.06
250.765	1120.06
250.998	1194.06
251.231	1229.06
251.465	1299.06
251.698	1215.06
251.931	1207.06
252.164	1233.06
252.397	1296.06
252.63	1300.06
252.863	1134.06
253.096	1127.06
253.329	1174.06
253.562	1216.06
253.795	1335.06
254.028	1307.06
254.261	1190.06
254.494	1220.06
254.727	1143.06
254.96	1172.06
255.193	1262.06
255.426	1432.06
255.659	1680.06
255.892	1734.06
256.124	1385.06
256.357	1355.06
256.59	1469.06
256.823	1480.06
257.056	1433.06
257.289	1763.06
257.521	1956.06
257.754	1732.06
257.987	1647.06
258.22	1835.06
258.452	1799.06
258.685	1454.06
258.918	1417.06
259.151	1446.06
259.383	1374.06
259.616	1205.06
259.849	1259.06
260.081	1458.06
260.314	1633.06
260.547	1735.06
260.779	1789.06
261.012	1640.06
261.244	1483.06
261.477	1383.06
261.71	1450.06
261.942	1432.06
262.175	1377.06
262.407	1522.06
262.64	1420.06
262.872	1304.06
263.105	1286.06
263.337	1325.06
263.57	1326.06
263.802	1327.06
264.035	1255.06
264.267	1165.06
264.499	1145.06
264.732	1250.06
264.964	1302.06
265.197	1383.06
265.429	1467.06
265.661	1607.06
265.894	1773.06
266.126	1861.06
266.358	1635.06
266.591	1675.06
266.823	1850.06
267.055	1657.06
267.287	1637.06
267.52	1606.06
267.752	1609.06
267.984	1574.06
268.216	1706.06
268.448	1694.06
268.681	1672.06
268.913	1556.06
269.145	1480.06
269.377	1428.06
269.609	1538.06
269.841	1819.06
270.073	2066.06
270.306	2315.06
270.538	2531.06
270.77	2116.06
271.002	1796.06
271.234	1706.06
271.466	1694.06
271.698	1888.06
271.93	2265.06
272.162	2256.06
272.394	2056.06
272.626	1966.06
272.858	1711.06
273.09	1501.06
273.322	1511.06
273.553	1392.06
273.785	1452.06
274.017	1470.06
274.249	1618.06
274.481	1634.06
274.713	1472.06
274.945	1456.06
275.176	1449.06
275.408	1459.06
275.64	1416.06
275.872	1411.06
276.104	1442.06
276.335	1672.06
276.567	1939.06
276.799	1976.06
277.031	1770.06
277.262	1658.06
277.494	1712.06
277.726	1933.06
277.957	1880.06
278.189	1732.06
278.421	1620.06
278.652	1542.06
278.884	1534.06
279.115	1511.06
279.347	1536.06
279.579	1508.06
279.81	1480.06
280.042	1651.06
280.273	1819.06
280.505	1796.06
280.736	1913.06
280.968	1773.06
281.199	1566.06
281.431	1455.06
281.662	1497.06
281.894	1465.06
282.125	1492.06
282.356	1580.06
282.588	1608.06
282.819	1581.06
283.051	1676.06
283.282	1833.06
283.513	1810.06
283.745	1552.06
283.976	1448.06
284.207	1483.06
284.439	1499.06
284.67	1492.06
284.901	1607.06
285.132	1617.06
285.364	1592.06
285.595	1602.06
285.826	1571.06
286.057	1537.06
286.288	1504.06
286.52	1591.06
286.751	1701.06
286.982	1793.06
287.213	1665.06
287.444	1534.06
287.675	1499.06
287.906	1590.06
288.138	1670.06
288.369	1620.06
288.6	1564.06
288.831	1509.06
289.062	1522.06
289.293	1559.06
289.524	1556.06
289.755	1614.06
289.986	1615.06
290.217	1490.06
290.448	1533.06
290.679	1570.06
290.91	1536.06
291.141	1586.06
291.371	1702.06
291.602	1627.06
291.833	1688.06
292.064	1674.06
292.295	1660.06
292.526	1677.06
292.757	1791.06
292.987	1732.06
293.218	1602.06
293.449	1723.06
293.68	1964.06
293.91	2086.06
294.141	1940.06
294.372	1790.06
294.603	1854.06
294.833	1965.06
295.064	1842.06
295.295	1724.06
295.525	1652.06
295.756	1553.06
295.987	1430.06
296.217	1463.06
296.448	1544.06
296.679	1544.06
296.909	1558.06
297.14	1548.06
297.37	1570.06
297.601	1628.06
297.831	1766.06
298.062	1779.06
298.292	1632.06
298.523	1508.06
298.753	1509.06
298.984	1591.06
299.214	1558.06
299.445	1603.06
299.675	1652.06
299.905	1622.06
300.136	1635.06
300.366	1574.06
300.597	1516.06
300.827	1487.06
301.057	1564.06
301.288	1652.06
301.518	1653.06
301.748	1657.06
301.979	1793.06
302.209	1785.06
302.439	1899.06
302.669	2024.06
302.9	1848.06
303.13	1666.06
303.36	1685.06
303.59	1705.06
303.82	1701.06
304.051	1661.06
304.281	1659.06
304.511	1656.06
304.741	1765.06
304.971	1985.06
305.201	2162.06
305.431	1992.06
305.661	1656.06
305.891	1496.06
306.121	1459.06
306.352	1529.06
306.582	1591.06
306.812	1712.06
307.042	1860.06
307.272	1880.06
307.502	1957.06
307.731	2042.06
307.961	2222.06
308.191	2032.06
308.421	1728.06
308.651	1645.06
308.881	1628.06
309.111	1644.06
309.341	1586.06
309.571	1609.06
309.8	1605.06
310.03	1587.06
310.26	1581.06
310.49	1624.06
310.72	1646.06
310.949	1706.06
311.179	1770.06
311.409	1703.06
311.639	1637.06
311.868	1618.06
312.098	1669.06
312.328	1622.06
312.557	1641.06
312.787	1626.06
313.017	1719.06
313.246	1690.06
313.476	1720.06
313.706	1776.06
313.935	1715.06
314.165	1745.06
314.394	1734.06
314.624	1857.06
314.853	1962.06
315.083	2050.06
315.312	2126.06
315.542	1994.06
315.771	1743.06
316.001	1698.06
316.23	1812.06
316.46	1836.06
316.689	1829.06
316.919	1738.06
317.148	1668.06
317.377	1636.06
317.607	1794.06
317.836	1997.06
318.065	2104.06
318.295	1957.06
318.524	1945.06
318.753	1828.06
318.983	1846.06
319.212	1820.06
319.441	1752.06
319.67	1739.06
319.9	1746.06
320.129	1890.06
320.358	1910.06
320.587	2001.06
320.816	1953.06
321.046	1950.06
321.275	1772.06
321.504	1789.06
321.733	1954.06
321.962	1934.06
322.191	1773.06
322.42	1769.06
322.649	1778.06
322.878	1742.06
323.108	1802.06
323.337	1862.06
323.566	1834.06
323.795	1820.06
324.024	1884.06
324.253	1798.06
324.482	1809.06
324.71	1756.06
324.939	1639.06
325.168	1676.06
325.397	1702.06
325.626	1823.06
325.855	1852.06
326.084	1771.06
326.313	1772.06
326.542	1804.06
326.77	1832.06
326.999	1839.06
327.228	1765.06
327.457	1685.06
327.686	1672.06
327.914	1691.06
328.143	1772.06
328.372	1770.06
328.6	1763.06
328.829	1767.06
329.058	1698.06
329.287	1717.06
329.515	1817.06
329.744	1784.06
329.972	1907.06
330.201	1949.06
330.43	1937.06
330.658	1868.06
330.887	1861.06
331.115	1852.06
331.344	1898.06
331.572	1847.06
331.801	1843.06
332.03	1861.06
332.258	1875.06
332.486	1894.06
332.715	1893.06
332.943	1894.06
333.172	1829.06
333.4	1902.06
333.629	1947.06
333.857	2010.06
334.085	2218.06
334.314	2469.06
334.542	2794.06
334.771	2534.06
334.999	2251.06
335.227	2114.06
335.455	2027.06
335.684	1947.06
335.912	2011.06
336.14	2102.06
336.369	2046.06
336.597	1911.06
336.825	1858.06
337.053	1950.06
337.281	2034.06
337.51	2123.06
337.738	2236.06
337.966	2104.06
338.194	1938.06
338.422	1879.06
338.65	1845.06
338.878	1862.06
339.106	1774.06
339.334	1795.06
339.562	1701.06
339.79	1775.06
340.018	1908.06
340.246	1960.06
340.474	1962.06
340.702	1905.06
340.93	1937.06
341.158	1937.06
341.386	1885.06
341.614	1862.06
341.842	1799.06
342.07	1838.06
342.298	1888.06
342.526	1893.06
342.754	1854.06
342.981	1824.06
343.209	1862.06
343.437	1812.06
343.665	1804.06
343.893	1894.06
344.12	1946.06
344.348	1972.06
344.576	1871.06
344.804	1861.06
345.031	1825.06
345.259	1840.06
345.487	1813.06
345.714	1723.06
345.942	1702.06
346.17	1675.06
346.397	1714.06
346.625	1781.06
346.853	1671.06
347.08	1629.06
347.308	1627.06
347.535	1676.06
347.763	1796.06
347.99	1747.06
348.218	1651.06
348.445	1640.06
348.673	1703.06
348.9	1727.06
349.128	1803.06
349.355	1914.06
349.583	1839.06
349.81	1718.06
350.037	1628.06
350.265	1592.06
350.492	1660.06
350.72	1688.06
350.947	1714.06
351.174	1769.06
351.402	1671.06
351.629	1583.06
351.856	1574.06
352.083	1560.06
352.311	1571.06
352.538	1655.06
352.765	1703.06
352.992	1776.06
353.22	1723.06
353.447	1622.06
353.674	1666.06
353.901	1719.06
354.128	1675.06
354.355	1680.06
354.583	1730.06
354.81	1802.06
355.037	1765.06
355.264	1773.06
355.491	1715.06
355.718	1714.06
355.945	1695.06
356.172	1664.06
356.399	1630.06
356.626	1650.06
356.853	1678.06
357.08	1798.06
357.307	2009.06
357.534	2025.06
357.761	1809.06
357.988	1641.06
358.215	1596.06
358.441	1608.06
358.668	1611.06
358.895	1629.06
359.122	1748.06
359.349	1882.06
359.576	1875.06
359.802	1701.06
360.029	1640.06
360.256	1639.06
360.483	1666.06
360.709	1712.06
360.936	1758.06
361.163	1806.06
361.39	1954.06
361.616	2144.06
361.843	2042.06
362.07	1990.06
362.296	1703.06
362.523	1659.06
362.749	1647.06
362.976	1702.06
363.203	1765.06
363.429	1694.06
363.656	1596.06
363.882	1705.06
364.109	1818.06
364.335	2023.06
364.562	1874.06
364.788	1815.06
365.015	1693.06
365.241	1631.06
365.468	1659.06
365.694	1772.06
365.92	1839.06
366.147	1748.06
366.373	1640.06
366.599	1620.06
366.826	1613.06
367.052	1656.06
367.278	1655.06
367.505	1703.06
367.731	1701.06
367.957	1718.06
368.184	1753.06
368.41	1872.06
368.636	1883.06
368.862	1886.06
369.089	1926.06
369.315	1828.06
369.541	1801.06
369.767	1729.06
369.993	1642.06
370.219	1651.06
370.445	1698.06
370.672	1801.06
370.898	1902.06
371.124	1889.06
371.35	1753.06
371.576	1807.06
371.802	1928.06
372.028	1813.06
372.254	1748.06
372.48	1687.06
372.706	1676.06
372.932	1663.06
373.158	1674.06
373.384	1708.06
373.61	1794.06
373.835	1878.06
374.061	1773.06
374.287	1731.06
374.513	1747.06
374.739	1776.06
374.965	1812.06
375.191	1778.06
375.416	1838.06
375.642	1781.06
375.868	1890.06
376.094	2014.06
376.319	1921.06
376.545	1782.06
376.771	1808.06
376.997	1877.06
377.222	1893.06
377.448	1804.06
377.674	1821.06
377.899	1833.06
378.125	1947.06
378.35	1964.06
378.576	1781.06
378.802	1710.06
379.027	1678.06
379.253	1755.06
379.478	1751.06
379.704	1744.06
379.929	1747.06
380.155	1741.06
380.38	1768.06
380.606	1792.06
380.831	1796.06
381.057	1868.06
381.282	1898.06
381.507	1836.06
381.733	1908.06
381.958	2027.06
382.184	1861.06
382.409	1798.06
382.634	1836.06
382.86	1848.06
383.085	1830.06
383.31	1871.06
383.535	1978.06
383.761	2172.06
383.986	2068.06
384.211	1972.06
384.436	1969.06
384.662	2050.06
384.887	2155.06
385.112	2020.06
385.337	2040.06
385.562	2014.06
385.787	2036.06
386.013	2083.06
386.238	2077.06
386.463	2062.06
386.688	2171.06
386.913	2302.06
387.138	2274.06
387.363	2057.06
387.588	2089.06
387.813	2080.06
388.038	2100.06
388.263	2167.06
388.488	2075.06
388.713	1910.06
388.938	1921.06
389.163	1957.06
389.387	1965.06
389.612	2022.06
389.837	2031.06
390.062	2063.06
390.287	2055.06
390.512	2010.06
390.736	2005.06
390.961	1952.06
391.186	1887.06
391.411	1961.06
391.636	1979.06
391.86	1999.06
392.085	1996.06
392.31	1995.06
392.534	2036.06
392.759	2060.06
392.984	1996.06
393.208	2062.06
393.433	2112.06
393.658	2159.06
393.882	2227.06
394.107	2041.06
394.331	2011.06
394.556	1980.06
394.78	2062.06
395.005	2108.06
395.229	2148.06
395.454	2293.06
395.678	2362.06
395.903	2262.06
396.127	2112.06
396.352	2139.06
396.576	2209.06
396.801	2218.06
397.025	2185.06
397.249	2178.06
397.474	2152.06
397.698	2155.06
397.922	2235.06
398.147	2318.06
398.371	2402.06
398.595	2419.06
398.82	2340.06
399.044	2332.06
399.268	2466.06
399.492	2610.06
399.717	2665.06
399.941	2680.06
400.165	2687.06
400.389	2555.06
400.613	2588.06
400.837	2802.06
401.062	3190.06
401.286	2773.06
401.51	2487.06
401.734	2663.06
401.958	2566.06
402.182	2387.06
402.406	2275.06
402.63	2276.06
402.854	2280.06
403.078	2313.06
403.302	2358.06
403.526	2374.06
403.75	2398.06
403.974	2405.06
404.198	2419.06
404.422	2447.06
404.645	2582.06
404.869	2524.06
405.093	2314.06
405.317	2323.06
405.541	2357.06
405.765	2459.06
405.988	2422.06
406.212	2467.06
406.436	2489.06
406.66	2537.06
406.883	2510.06
407.107	2843.06
407.331	3110.06
407.555	3297.06
407.778	3122.06
408.002	2567.06
408.226	2539.06
408.449	2517.06
408.673	2449.06
408.896	2446.06
409.12	2535.06
409.344	2436.06
409.567	2370.06
409.791	2406.06
410.014	2411.06
410.238	2568.06
410.461	2663.06
410.685	2394.06
410.908	2287.06
411.132	2412.06
411.355	2370.06
411.578	2322.06
411.802	2394.06
412.025	2438.06
412.249	2316.06
412.472	2274.06
412.695	2254.06
412.919	2270.06
413.142	2248.06
413.365	2329.06
413.589	2381.06
413.812	2432.06
414.035	2540.06
414.258	2383.06
414.482	2270.06
414.705	2263.06
414.928	2254.06
415.151	2287.06
415.374	2264.06
415.597	2333.06
415.821	2356.06
416.044	2414.06
416.267	2437.06
416.49	2204.06
416.713	2189.06
416.936	2239.06
417.159	2377.06
417.382	2388.06
417.605	2251.06
417.828	2319.06
418.051	2347.06
418.274	2263.06
418.497	2210.06
418.72	2184.06
418.943	2177.06
419.166	2345.06
419.389	2458.06
419.611	2291.06
419.834	2251.06
420.057	2310.06
420.28	2227.06
420.503	2224.06
420.726	2246.06
420.948	2255.06
421.171	2188.06
421.394	2166.06
421.617	2288.06
421.839	2266.06
422.062	2238.06
422.285	2165.06
422.507	2194.06
422.73	2134.06
422.953	2071.06
423.175	2120.06
423.398	2182.06
423.621	2172.06
423.843	2237.06
424.066	2240.06
424.288	2295.06
424.511	2353.06
424.733	2299.06
424.956	2124.06
425.178	2112.06
425.401	2152.06
425.623	2157.06
425.846	2118.06
426.068	2245.06
426.291	2342.06
426.513	2267.06
426.735	2276.06
426.958	2385.06
427.18	2545.06
427.402	2330.06
427.625	2367.06
427.847	2394.06
428.069	2244.06
428.292	2122.06
428.514	2113.06
428.736	2121.06
428.958	2132.06
429.181	2136.06
429.403	2383.06
429.625	2988.06
429.847	2613.06
430.069	2196.06
430.292	2415.06
430.514	2508.06
430.736	2288.06
430.958	2429.06
431.18	2340.06
431.402	2145.06
431.624	2118.06
431.846	2133.06
432.068	2072.06
432.29	2098.06
432.512	2122.06
432.734	2178.06
432.956	2193.06
433.178	2357.06
433.4	2313.06
433.622	2243.06
433.844	2193.06
434.066	2114.06
434.287	2108.06
434.509	2183.06
434.731	2304.06
434.953	2472.06
435.175	2412.06
435.397	2204.06
435.618	2199.06
435.84	2253.06
436.062	2191.06
436.284	2238.06
436.505	2236.06
436.727	2325.06
436.949	2224.06
437.17	2116.06
437.392	2128.06
437.614	2118.06
437.835	2098.06
438.057	2214.06
438.278	2297.06
438.5	2168.06
438.721	2106.06
438.943	2142.06
439.165	2087.06
439.386	2082.06
439.608	2102.06
439.829	2143.06
440.05	2126.06
440.272	2070.06
440.493	2053.06
440.715	2083.06
440.936	2225.06
441.158	2466.06
441.379	2420.06
441.6	2395.06
441.822	2310.06
442.043	2297.06
442.264	2214.06
442.486	2124.06
442.707	2085.06
442.928	2115.06
443.149	2153.06
443.371	2331.06
443.592	2403.06
443.813	2333.06
444.034	2343.06
444.255	2309.06
444.476	2355.06
444.698	2428.06
444.919	2414.06
445.14	2475.06
445.361	2505.06
445.582	2557.06
445.803	2400.06
446.024	2346.06
446.245	2436.06
446.466	2296.06
446.687	2280.06
446.908	2234.06
447.129	2154.06
447.35	2196.06
447.571	2162.06
447.792	2086.06
448.013	2052.06
448.234	2114.06
448.455	2234.06
448.675	2266.06
448.896	2075.06
449.117	2002.06
449.338	2107.06
449.559	2145.06
449.779	2268.06
450	2549.06
450.221	2720.06
450.442	2622.06
450.662	2280.06
450.883	2043.06
451.104	1992.06
451.324	2007.06
451.545	2121.06
451.766	2080.06
451.986	1976.06
452.207	1970.06
452.428	1919.06
452.648	1881.06
452.869	1928.06
453.089	2078.06
453.31	2089.06
453.53	2138.06
453.751	2102.06
453.971	1967.06
454.192	1978.06
454.412	2104.06
454.633	2025.06
454.853	1986.06
455.073	1870.06
455.294	1854.06
455.514	1870.06
455.734	1856.06
455.955	1926.06
456.175	1938.06
456.395	1924.06
456.616	1961.06
456.836	1999.06
457.056	1943.06
457.276	1994.06
457.497	1892.06
457.717	1804.06
457.937	1867.06
458.157	1936.06
458.377	1897.06
458.598	1922.06
458.818	1894.06
459.038	2065.06
459.258	2156.06
459.478	2158.06
459.698	2062.06
459.918	2134.06
460.138	2217.06
460.358	2304.06
460.578	2259.06
460.798	2399.06
461.018	2514.06
461.238	2368.06
461.458	2281.06
461.678	2319.06
461.898	2222.06
462.118	2171.06
462.338	2258.06
462.558	2338.06
462.777	2288.06
462.997	2389.06
463.217	2476.06
463.437	2508.06
463.657	2306.06
463.876	2308.06
464.096	2246.06
464.316	2291.06
464.536	2350.06
464.755	2360.06
464.975	2426.06
465.195	2296.06
465.414	2396.06
465.634	2358.06
465.854	2252.06
466.073	2422.06
466.293	2354.06
466.512	2096.06
466.732	2050.06
466.951	2178.06
467.171	2166.06
467.391	2092.06
467.61	2034.06
467.829	2063.06
468.049	2221.06
468.268	2498.06
468.488	2337.06
468.707	2182.06
468.927	2145.06
469.146	2121.06
469.365	2065.06
469.585	2089.06
469.804	2049.06
470.023	2041.06
470.243	2118.06
470.462	2065.06
470.681	2038.06
470.901	2071.06
471.12	2103.06
471.339	2088.06
471.558	2015.06
471.777	1970.06
471.997	2034.06
472.216	2061.06
472.435	2010.06
472.654	2091.06
472.873	2095.06
473.092	2192.06
473.311	2131.06
473.53	2026.06
473.749	1980.06
473.968	2054.06
474.187	2168.06
474.406	2266.06
474.625	2141.06
474.844	2086.06
475.063	2073.06
475.282	2174.06
475.501	2117.06
475.72	2135.06
475.939	2266.06
476.158	2161.06
476.377	2090.06
476.596	2151.06
476.814	2195.06
477.033	2214.06
477.252	2315.06
477.471	2306.06
477.69	2228.06
477.908	2202.06
478.127	2330.06
478.346	2540.06
478.564	2548.06
478.783	2467.06
479.002	2547.06
479.22	2517.06
479.439	2568.06
479.658	2965.06
479.876	2923.06
480.095	2508.06
480.313	2424.06
480.532	2304.06
480.751	2333.06
480.969	2430.06
481.188	2367.06
481.406	2321.06
481.624	2314.06
481.843	2317.06
482.061	2343.06
482.28	2378.06
482.498	2476.06
482.717	2437.06
482.935	2324.06
483.153	2294.06
483.372	2311.06
483.59	2283.06
483.808	2306.06
484.027	2360.06
484.245	2512.06
484.463	2880.06
484.681	3342.06
484.9	2587.06
485.118	2399.06
485.336	2368.06
485.554	2483.06
485.772	2591.06
485.99	2518.06
486.209	2510.06
486.427	2504.06
486.645	2484.06
486.863	2419.06
487.081	2512.06
487.299	2590.06
