Data from WStandard_LampEnergy8_LIBS07252019.E.O._I.C._HRD10591_15-59-44-930.txt Node
Date: Thu Jul 25 15:59:44 EDT 2019
User: cochatt
Spectrometer: HR+D1059
Trigger mode: 1
Integration Time (sec): 1.000000E-1
Scans to average: 1
Electric dark correction enabled: true
Nonlinearity correction enabled: false
Boxcar width: 0
XAxis mode: Wavelengths
Number of Pixels in Spectrum: 2048
>>>>>Begin Spectral Data<<<<<
223.165	-12.81
223.4	-12.81
223.635	-12.81
223.869	-14.81
224.104	-10.81
224.338	-17.81
224.573	0.19
224.808	-7.81
225.042	-9.81
225.277	0.19
225.511	2.19
225.746	-0.81
225.98	5.19
226.215	7.19
226.449	11.19
226.683	16.19
226.918	3.19
227.152	29.19
227.387	41.19
227.621	24.19
227.856	39.19
228.09	52.19
228.324	60.19
228.559	51.19
228.793	95.19
229.027	211.19
229.262	212.19
229.496	210.19
229.73	237.19
229.964	252.19
230.199	250.19
230.433	263.19
230.667	251.19
230.901	286.19
231.136	274.19
231.37	280.19
231.604	266.19
231.838	262.19
232.072	271.19
232.306	251.19
232.541	257.19
232.775	298.19
233.009	326.19
233.243	310.19
233.477	277.19
233.711	292.19
233.945	288.19
234.179	305.19
234.413	306.19
234.647	306.19
234.881	320.19
235.115	289.19
235.349	297.19
235.583	302.19
235.817	310.19
236.051	276.19
236.285	281.19
236.519	319.19
236.753	357.19
236.987	350.19
237.221	351.19
237.455	372.19
237.689	359.19
237.922	342.19
238.156	348.19
238.39	348.19
238.624	352.19
238.858	377.19
239.091	396.19
239.325	399.19
239.559	454.19
239.793	486.19
240.027	506.19
240.26	488.19
240.494	416.19
240.728	371.19
240.961	388.19
241.195	393.19
241.429	423.19
241.662	402.19
241.896	392.19
242.13	392.19
242.363	426.19
242.597	455.19
242.83	436.19
243.064	430.19
243.298	458.19
243.531	475.19
243.765	446.19
243.998	455.19
244.232	407.19
244.465	403.19
244.699	419.19
244.932	465.19
245.166	494.19
245.399	484.19
245.633	464.19
245.866	439.19
246.099	468.19
246.333	464.19
246.566	485.19
246.8	531.19
247.033	604.19
247.266	540.19
247.5	533.19
247.733	533.19
247.966	551.19
248.2	606.19
248.433	582.19
248.666	600.19
248.899	690.19
249.133	729.19
249.366	793.19
249.599	663.19
249.832	597.19
250.066	624.19
250.299	619.19
250.532	586.19
250.765	532.19
250.998	562.19
251.231	573.19
251.465	593.19
251.698	550.19
251.931	576.19
252.164	595.19
252.397	610.19
252.63	610.19
252.863	545.19
253.096	540.19
253.329	571.19
253.562	592.19
253.795	605.19
254.028	595.19
254.261	563.19
254.494	559.19
254.727	538.19
254.96	579.19
255.193	601.19
255.426	695.19
255.659	777.19
255.892	776.19
256.124	663.19
256.357	644.19
256.59	686.19
256.823	685.19
257.056	699.19
257.289	824.19
257.521	876.19
257.754	827.19
257.987	772.19
258.22	849.19
258.452	837.19
258.685	689.19
258.918	670.19
259.151	652.19
259.383	652.19
259.616	597.19
259.849	619.19
260.081	696.19
260.314	780.19
260.547	808.19
260.779	811.19
261.012	756.19
261.244	650.19
261.477	671.19
261.71	702.19
261.942	673.19
262.175	677.19
262.407	687.19
262.64	640.19
262.872	628.19
263.105	611.19
263.337	618.19
263.57	632.19
263.802	635.19
264.035	605.19
264.267	546.19
264.499	556.19
264.732	617.19
264.964	650.19
265.197	659.19
265.429	688.19
265.661	764.19
265.894	857.19
266.126	867.19
266.358	771.19
266.591	795.19
266.823	870.19
267.055	788.19
267.287	758.19
267.52	747.19
267.752	743.19
267.984	757.19
268.216	774.19
268.448	776.19
268.681	778.19
268.913	703.19
269.145	662.19
269.377	661.19
269.609	762.19
269.841	862.19
270.073	997.19
270.306	1098.19
270.538	1091.19
270.77	932.19
271.002	849.19
271.234	809.19
271.466	813.19
271.698	904.19
271.93	1028.19
272.162	1011.19
272.394	926.19
272.626	874.19
272.858	804.19
273.09	709.19
273.322	696.19
273.553	672.19
273.785	659.19
274.017	686.19
274.249	748.19
274.481	731.19
274.713	696.19
274.945	665.19
275.176	690.19
275.408	701.19
275.64	679.19
275.872	686.19
276.104	710.19
276.335	824.19
276.567	913.19
276.799	902.19
277.031	826.19
277.262	790.19
277.494	835.19
277.726	901.19
277.957	892.19
278.189	802.19
278.421	731.19
278.652	735.19
278.884	730.19
279.115	722.19
279.347	735.19
279.579	718.19
279.81	753.19
280.042	794.19
280.273	878.19
280.505	851.19
280.736	884.19
280.968	807.19
281.199	726.19
281.431	681.19
281.662	719.19
281.894	726.19
282.125	761.19
282.356	758.19
282.588	756.19
282.819	772.19
283.051	825.19
283.282	880.19
283.513	868.19
283.745	747.19
283.976	700.19
284.207	716.19
284.439	738.19
284.67	746.19
284.901	784.19
285.132	754.19
285.364	763.19
285.595	756.19
285.826	758.19
286.057	738.19
286.288	766.19
286.52	799.19
286.751	838.19
286.982	848.19
287.213	772.19
287.444	713.19
287.675	752.19
287.906	787.19
288.138	818.19
288.369	784.19
288.6	739.19
288.831	718.19
289.062	717.19
289.293	753.19
289.524	790.19
289.755	766.19
289.986	768.19
290.217	739.19
290.448	739.19
290.679	778.19
290.91	790.19
291.141	786.19
291.371	831.19
291.602	825.19
291.833	828.19
292.064	849.19
292.295	830.19
292.526	832.19
292.757	863.19
292.987	821.19
293.218	784.19
293.449	876.19
293.68	962.19
293.91	1020.19
294.141	944.19
294.372	896.19
294.603	955.19
294.833	947.19
295.064	904.19
295.295	826.19
295.525	784.19
295.756	727.19
295.987	726.19
296.217	766.19
296.448	750.19
296.679	767.19
296.909	772.19
297.14	767.19
297.37	777.19
297.601	832.19
297.831	852.19
298.062	843.19
298.292	787.19
298.523	788.19
298.753	784.19
298.984	767.19
299.214	794.19
299.445	832.19
299.675	804.19
299.905	808.19
300.136	780.19
300.366	789.19
300.597	789.19
300.827	779.19
301.057	802.19
301.288	851.19
301.518	835.19
301.748	862.19
301.979	884.19
302.209	906.19
302.439	976.19
302.669	961.19
302.9	907.19
303.13	827.19
303.36	852.19
303.59	844.19
303.82	860.19
304.051	858.19
304.281	862.19
304.511	854.19
304.741	927.19
304.971	1028.19
305.201	1062.19
305.431	967.19
305.661	814.19
305.891	760.19
306.121	751.19
306.352	809.19
306.582	836.19
306.812	896.19
307.042	928.19
307.272	947.19
307.502	965.19
307.731	1037.19
307.961	1072.19
308.191	966.19
308.421	863.19
308.651	840.19
308.881	828.19
309.111	849.19
309.341	824.19
309.571	794.19
309.8	805.19
310.03	816.19
310.26	812.19
310.49	835.19
310.72	834.19
310.949	886.19
311.179	886.19
311.409	856.19
311.639	812.19
311.868	839.19
312.098	861.19
312.328	843.19
312.557	855.19
312.787	878.19
313.017	871.19
313.246	886.19
313.476	856.19
313.706	883.19
313.935	890.19
314.165	904.19
314.394	911.19
314.624	968.19
314.853	1000.19
315.083	1016.19
315.312	1020.19
315.542	954.19
315.771	885.19
316.001	883.19
316.23	950.19
316.46	937.19
316.689	932.19
316.919	880.19
317.148	861.19
317.377	900.19
317.607	954.19
317.836	1035.19
318.065	1050.19
318.295	1002.19
318.524	986.19
318.753	928.19
318.983	933.19
319.212	934.19
319.441	906.19
319.67	944.19
319.9	935.19
320.129	970.19
320.358	1059.19
320.587	1018.19
320.816	1013.19
321.046	1012.19
321.275	954.19
321.504	961.19
321.733	1037.19
321.962	977.19
322.191	929.19
322.42	952.19
322.649	933.19
322.878	917.19
323.108	947.19
323.337	962.19
323.566	929.19
323.795	918.19
324.024	954.19
324.253	922.19
324.482	935.19
324.71	882.19
324.939	861.19
325.168	886.19
325.397	904.19
325.626	936.19
325.855	961.19
326.084	897.19
326.313	917.19
326.542	931.19
326.77	942.19
326.999	952.19
327.228	917.19
327.457	867.19
327.686	873.19
327.914	906.19
328.143	926.19
328.372	927.19
328.6	903.19
328.829	875.19
329.058	917.19
329.287	915.19
329.515	921.19
329.744	957.19
329.972	1015.19
330.201	1038.19
330.43	1022.19
330.658	961.19
330.887	1008.19
331.115	995.19
331.344	979.19
331.572	948.19
331.801	953.19
332.03	977.19
332.258	988.19
332.486	993.19
332.715	986.19
332.943	983.19
333.172	964.19
333.4	990.19
333.629	1016.19
333.857	1088.19
334.085	1201.19
334.314	1371.19
334.542	1420.19
334.771	1313.19
334.999	1119.19
335.227	1072.19
335.455	1004.19
335.684	1053.19
335.912	1078.19
336.14	1093.19
336.369	1032.19
336.597	984.19
336.825	990.19
337.053	1041.19
337.281	1082.19
337.51	1104.19
337.738	1155.19
337.966	1070.19
338.194	992.19
338.422	974.19
338.65	971.19
338.878	969.19
339.106	958.19
339.334	924.19
339.562	947.19
339.79	926.19
340.018	1036.19
340.246	1044.19
340.474	1027.19
340.702	996.19
340.93	1034.19
341.158	999.19
341.386	976.19
341.614	979.19
341.842	967.19
342.07	953.19
342.298	982.19
342.526	994.19
342.754	974.19
342.981	957.19
343.209	931.19
343.437	966.19
343.665	970.19
343.893	1019.19
344.12	1067.19
344.348	1035.19
344.576	1013.19
344.804	983.19
345.031	986.19
345.259	971.19
345.487	936.19
345.714	900.19
345.942	890.19
346.17	927.19
346.397	922.19
346.625	950.19
346.853	891.19
347.08	867.19
347.308	872.19
347.535	952.19
347.763	960.19
347.99	901.19
348.218	889.19
348.445	857.19
348.673	913.19
348.9	896.19
349.128	996.19
349.355	1007.19
349.583	980.19
349.81	933.19
350.037	864.19
350.265	874.19
350.492	884.19
350.72	902.19
350.947	932.19
351.174	962.19
351.402	876.19
351.629	880.19
351.856	850.19
352.083	825.19
352.311	847.19
352.538	894.19
352.765	919.19
352.992	953.19
353.22	916.19
353.447	886.19
353.674	917.19
353.901	904.19
354.128	891.19
354.355	903.19
354.583	944.19
354.81	977.19
355.037	933.19
355.264	960.19
355.491	918.19
355.718	911.19
355.945	915.19
356.172	861.19
356.399	873.19
356.626	896.19
356.853	930.19
357.08	1033.19
357.307	1125.19
357.534	1007.19
357.761	930.19
357.988	882.19
358.215	881.19
358.441	867.19
358.668	864.19
358.895	883.19
359.122	946.19
359.349	1037.19
359.576	963.19
359.802	884.19
360.029	897.19
360.256	874.19
360.483	916.19
360.709	946.19
360.936	966.19
361.163	1008.19
361.39	1078.19
361.616	1154.19
361.843	1131.19
362.07	1042.19
362.296	919.19
362.523	884.19
362.749	902.19
362.976	946.19
363.203	950.19
363.429	911.19
363.656	885.19
363.882	951.19
364.109	1054.19
364.335	1094.19
364.562	1018.19
364.788	965.19
365.015	934.19
365.241	891.19
365.468	926.19
365.694	1009.19
365.92	987.19
366.147	943.19
366.373	874.19
366.599	874.19
366.826	873.19
367.052	869.19
367.278	911.19
367.505	938.19
367.731	939.19
367.957	942.19
368.184	999.19
368.41	1036.19
368.636	1040.19
368.862	1062.19
369.089	1021.19
369.315	988.19
369.541	937.19
369.767	913.19
369.993	943.19
370.219	930.19
370.445	951.19
370.672	1028.19
370.898	1060.19
371.124	999.19
371.35	959.19
371.576	993.19
371.802	1061.19
372.028	986.19
372.254	954.19
372.48	924.19
372.706	936.19
372.932	943.19
373.158	949.19
373.384	946.19
373.61	982.19
373.835	1029.19
374.061	970.19
374.287	969.19
374.513	961.19
374.739	961.19
374.965	968.19
375.191	1006.19
375.416	1000.19
375.642	1012.19
375.868	1079.19
376.094	1083.19
376.319	1039.19
376.545	976.19
376.771	990.19
376.997	1095.19
377.222	1062.19
377.448	1019.19
377.674	1026.19
377.899	1030.19
378.125	1094.19
378.35	1068.19
378.576	1022.19
378.802	935.19
379.027	946.19
379.253	979.19
379.478	989.19
379.704	976.19
379.929	973.19
380.155	988.19
380.38	1015.19
380.606	1006.19
380.831	1012.19
381.057	1055.19
381.282	1058.19
381.507	1032.19
381.733	1092.19
381.958	1145.19
382.184	1046.19
382.409	1028.19
382.634	1004.19
382.86	1026.19
383.085	1025.19
383.31	1087.19
383.535	1179.19
383.761	1192.19
383.986	1152.19
384.211	1098.19
384.436	1105.19
384.662	1168.19
384.887	1156.19
385.112	1124.19
385.337	1092.19
385.562	1105.19
385.787	1118.19
386.013	1144.19
386.238	1121.19
386.463	1159.19
386.688	1208.19
386.913	1284.19
387.138	1228.19
387.363	1154.19
387.588	1150.19
387.813	1140.19
388.038	1158.19
388.263	1188.19
388.488	1152.19
388.713	1084.19
388.938	1056.19
389.163	1086.19
389.387	1138.19
389.612	1128.19
389.837	1104.19
390.062	1137.19
390.287	1134.19
390.512	1109.19
390.736	1093.19
390.961	1079.19
391.186	1058.19
391.411	1071.19
391.636	1135.19
391.86	1114.19
392.085	1121.19
392.31	1070.19
392.534	1092.19
392.759	1132.19
392.984	1139.19
393.208	1144.19
393.433	1170.19
393.658	1178.19
393.882	1185.19
394.107	1179.19
394.331	1112.19
394.556	1132.19
394.78	1149.19
395.005	1185.19
395.229	1245.19
395.454	1300.19
395.678	1273.19
395.903	1222.19
396.127	1208.19
396.352	1185.19
396.576	1242.19
396.801	1246.19
397.025	1273.19
397.249	1220.19
397.474	1227.19
397.698	1228.19
397.922	1250.19
398.147	1277.19
398.371	1351.19
398.595	1343.19
398.82	1291.19
399.044	1302.19
399.268	1380.19
399.492	1419.19
399.717	1482.19
399.941	1487.19
400.165	1462.19
400.389	1421.19
400.613	1433.19
400.837	1620.19
401.062	1796.19
401.286	1488.19
401.51	1413.19
401.734	1432.19
401.958	1352.19
402.182	1319.19
402.406	1313.19
402.63	1265.19
402.854	1255.19
403.078	1308.19
403.302	1286.19
403.526	1314.19
403.75	1348.19
403.974	1311.19
404.198	1345.19
404.422	1431.19
404.645	1490.19
404.869	1435.19
405.093	1321.19
405.317	1269.19
405.541	1339.19
405.765	1348.19
405.988	1342.19
406.212	1366.19
406.436	1407.19
406.66	1443.19
406.883	1488.19
407.107	1647.19
407.331	1753.19
407.555	1844.19
407.778	1697.19
408.002	1441.19
408.226	1381.19
408.449	1385.19
408.673	1359.19
408.896	1390.19
409.12	1395.19
409.344	1373.19
409.567	1307.19
409.791	1326.19
410.014	1374.19
410.238	1444.19
410.461	1484.19
410.685	1365.19
410.908	1316.19
411.132	1369.19
411.355	1298.19
411.578	1309.19
411.802	1323.19
412.025	1328.19
412.249	1306.19
412.472	1286.19
412.695	1273.19
412.919	1290.19
413.142	1286.19
413.365	1294.19
413.589	1342.19
413.812	1382.19
414.035	1423.19
414.258	1338.19
414.482	1305.19
414.705	1281.19
414.928	1296.19
415.151	1284.19
415.374	1293.19
415.597	1292.19
415.821	1317.19
416.044	1335.19
416.267	1334.19
416.49	1274.19
416.713	1272.19
416.936	1332.19
417.159	1358.19
417.382	1339.19
417.605	1306.19
417.828	1310.19
418.051	1303.19
418.274	1300.19
418.497	1284.19
418.72	1298.19
418.943	1223.19
419.166	1328.19
419.389	1375.19
419.611	1283.19
419.834	1281.19
420.057	1312.19
420.28	1279.19
420.503	1295.19
420.726	1320.19
420.948	1324.19
421.171	1247.19
421.394	1250.19
421.617	1323.19
421.839	1344.19
422.062	1307.19
422.285	1258.19
422.507	1252.19
422.73	1249.19
422.953	1216.19
423.175	1225.19
423.398	1280.19
423.621	1257.19
423.843	1280.19
424.066	1320.19
424.288	1390.19
424.511	1374.19
424.733	1334.19
424.956	1210.19
425.178	1254.19
425.401	1239.19
425.623	1276.19
425.846	1242.19
426.068	1326.19
426.291	1335.19
426.513	1303.19
426.735	1283.19
426.958	1438.19
427.18	1463.19
427.402	1391.19
427.625	1402.19
427.847	1374.19
428.069	1273.19
428.292	1248.19
428.514	1198.19
428.736	1255.19
428.958	1256.19
429.181	1259.19
429.403	1438.19
429.625	1728.19
429.847	1433.19
430.069	1297.19
430.292	1435.19
430.514	1438.19
430.736	1325.19
430.958	1353.19
431.18	1290.19
431.402	1199.19
431.624	1178.19
431.846	1139.19
432.068	1102.19
432.29	1129.19
432.512	1176.19
432.734	1252.19
432.956	1305.19
433.178	1311.19
433.4	1306.19
433.622	1296.19
433.844	1236.19
434.066	1208.19
434.287	1183.19
434.509	1202.19
434.731	1245.19
434.953	1365.19
435.175	1330.19
435.397	1266.19
435.618	1246.19
435.84	1211.19
436.062	1208.19
436.284	1252.19
436.505	1292.19
436.727	1324.19
436.949	1235.19
437.17	1231.19
437.392	1249.19
437.614	1216.19
437.835	1143.19
438.057	1191.19
438.278	1233.19
438.5	1208.19
438.721	1200.19
438.943	1247.19
439.165	1235.19
439.386	1213.19
439.608	1232.19
439.829	1234.19
440.05	1253.19
440.272	1242.19
440.493	1233.19
440.715	1270.19
440.936	1312.19
441.158	1370.19
441.379	1368.19
441.6	1365.19
441.822	1354.19
442.043	1318.19
442.264	1287.19
442.486	1227.19
442.707	1257.19
442.928	1253.19
443.149	1285.19
443.371	1334.19
443.592	1407.19
443.813	1378.19
444.034	1340.19
444.255	1331.19
444.476	1371.19
444.698	1370.19
444.919	1375.19
445.14	1488.19
445.361	1448.19
445.582	1472.19
445.803	1399.19
446.024	1376.19
446.245	1408.19
446.466	1327.19
446.687	1313.19
446.908	1327.19
447.129	1315.19
447.35	1318.19
447.571	1304.19
447.792	1272.19
448.013	1236.19
448.234	1276.19
448.455	1305.19
448.675	1301.19
448.896	1193.19
449.117	1183.19
449.338	1208.19
449.559	1244.19
449.779	1317.19
450	1410.19
450.221	1483.19
450.442	1369.19
450.662	1256.19
450.883	1158.19
451.104	1168.19
451.324	1177.19
451.545	1196.19
451.766	1182.19
451.986	1143.19
452.207	1120.19
452.428	1083.19
452.648	1076.19
452.869	1087.19
453.089	1154.19
453.31	1137.19
453.53	1135.19
453.751	1104.19
453.971	1034.19
454.192	1067.19
454.412	1163.19
454.633	1129.19
454.853	1096.19
455.073	1063.19
455.294	1059.19
455.514	1039.19
455.734	1062.19
455.955	1091.19
456.175	1066.19
456.395	1044.19
456.616	1093.19
456.836	1078.19
457.056	1056.19
457.276	1060.19
457.497	1049.19
457.717	1011.19
457.937	1034.19
458.157	1016.19
458.377	1012.19
458.598	1041.19
458.818	1075.19
459.038	1094.19
459.258	1118.19
459.478	1137.19
459.698	1094.19
459.918	1168.19
460.138	1177.19
460.358	1190.19
460.578	1225.19
460.798	1252.19
461.018	1307.19
461.238	1290.19
461.458	1263.19
461.678	1270.19
461.898	1246.19
462.118	1200.19
462.338	1256.19
462.558	1255.19
462.777	1230.19
462.997	1302.19
463.217	1349.19
463.437	1307.19
463.657	1265.19
463.876	1238.19
464.096	1253.19
464.316	1245.19
464.536	1287.19
464.755	1305.19
464.975	1272.19
465.195	1287.19
465.414	1307.19
465.634	1268.19
465.854	1262.19
466.073	1371.19
466.293	1346.19
466.512	1186.19
466.732	1188.19
466.951	1285.19
467.171	1243.19
467.391	1188.19
467.61	1172.19
467.829	1217.19
468.049	1306.19
468.268	1406.19
468.488	1315.19
468.707	1234.19
468.927	1210.19
469.146	1176.19
469.365	1187.19
469.585	1250.19
469.804	1210.19
470.023	1255.19
470.243	1255.19
470.462	1243.19
470.681	1174.19
470.901	1191.19
471.12	1233.19
471.339	1206.19
471.558	1203.19
471.777	1169.19
471.997	1182.19
472.216	1170.19
472.435	1121.19
472.654	1106.19
472.873	1150.19
473.092	1239.19
473.311	1155.19
473.53	1126.19
473.749	1134.19
473.968	1161.19
474.187	1192.19
474.406	1243.19
474.625	1205.19
474.844	1180.19
475.063	1191.19
475.282	1234.19
475.501	1191.19
475.72	1184.19
475.939	1290.19
476.158	1209.19
476.377	1207.19
476.596	1194.19
476.814	1204.19
477.033	1227.19
477.252	1298.19
477.471	1250.19
477.69	1290.19
477.908	1289.19
478.127	1345.19
478.346	1397.19
478.564	1399.19
478.783	1400.19
479.002	1428.19
479.22	1407.19
479.439	1461.19
479.658	1588.19
479.876	1529.19
480.095	1371.19
480.313	1306.19
480.532	1296.19
480.751	1320.19
480.969	1298.19
481.188	1219.19
481.406	1232.19
481.624	1225.19
481.843	1262.19
482.061	1270.19
482.28	1312.19
482.498	1300.19
482.717	1268.19
482.935	1304.19
483.153	1323.19
483.372	1331.19
483.59	1374.19
483.808	1348.19
484.027	1356.19
484.245	1443.19
484.463	1720.19
484.681	1855.19
484.9	1463.19
485.118	1368.19
485.336	1292.19
485.554	1352.19
485.772	1393.19
485.99	1392.19
486.209	1375.19
486.427	1372.19
486.645	1358.19
486.863	1371.19
487.081	1454.19
487.299	1469.19
487.517	1414.19
487.735	1467.19
487.953	1518.19
488.171	1458.19
488.389	1477.19
488.607	1448.19
488.825	1593.19
489.043	1519.19
489.261	1409.19
489.479	1458.19
489.696	1475.19
489.914	1441.19
490.132	1411.19
490.35	1465.19
490.568	1516.19
490.786	1494.19
491.003	1420.19
491.221	1521.19
491.439	1574.19
491.657	1604.19
491.874	1571.19
492.092	1679.19
492.31	1690.19
492.527	1630.19
492.745	1603.19
492.963	1571.19
493.18	1599.19
493.398	1651.19
493.615	1659.19
493.833	1558.19
