Data from WStandard_LampEnergy10_LIBS07252019.E.O._I.C._HRD10591_15-53-04-928.txt Node
Date: Thu Jul 25 15:53:04 EDT 2019
User: cochatt
Spectrometer: HR+D1059
Trigger mode: 1
Integration Time (sec): 1.000000E-1
Scans to average: 1
Electric dark correction enabled: true
Nonlinearity correction enabled: false
Boxcar width: 0
XAxis mode: Wavelengths
Number of Pixels in Spectrum: 2048
>>>>>Begin Spectral Data<<<<<
223.165	-21.31
223.4	-21.31
223.635	-21.31
223.869	-18.31
224.104	-20.31
224.338	-20.31
224.573	-12.31
224.808	-7.31
225.042	-16.31
225.277	-5.31
225.511	-5.31
225.746	-8.31
225.98	14.69
226.215	17.69
226.449	25.69
226.683	21.69
226.918	23.69
227.152	31.69
227.387	48.69
227.621	45.69
227.856	39.69
228.09	52.69
228.324	69.69
228.559	52.69
228.793	97.69
229.027	135.69
229.262	135.69
229.496	160.69
229.73	147.69
229.964	167.69
230.199	166.69
230.433	180.69
230.667	180.69
230.901	212.69
231.136	175.69
231.37	171.69
231.604	189.69
231.838	185.69
232.072	196.69
232.306	171.69
232.541	177.69
232.775	200.69
233.009	222.69
233.243	212.69
233.477	197.69
233.711	211.69
233.945	207.69
234.179	192.69
234.413	215.69
234.647	220.69
234.881	214.69
235.115	202.69
235.349	207.69
235.583	224.69
235.817	208.69
236.051	201.69
236.285	209.69
236.519	222.69
236.753	229.69
236.987	234.69
237.221	224.69
237.455	248.69
237.689	236.69
237.922	234.69
238.156	229.69
238.39	236.69
238.624	247.69
238.858	250.69
239.091	248.69
239.325	265.69
239.559	293.69
239.793	292.69
240.027	312.69
240.26	308.69
240.494	230.69
240.728	232.69
240.961	240.69
241.195	241.69
241.429	265.69
241.662	251.69
241.896	261.69
242.13	256.69
242.363	274.69
242.597	288.69
242.83	291.69
243.064	291.69
243.298	299.69
243.531	292.69
243.765	291.69
243.998	294.69
244.232	259.69
244.465	257.69
244.699	255.69
244.932	285.69
245.166	301.69
245.399	317.69
245.633	284.69
245.866	304.69
246.099	307.69
246.333	297.69
246.566	331.69
246.8	337.69
247.033	342.69
247.266	347.69
247.5	329.69
247.733	331.69
247.966	352.69
248.2	369.69
248.433	356.69
248.666	368.69
248.899	377.69
249.133	426.69
249.366	476.69
249.599	394.69
249.832	373.69
250.066	393.69
250.299	367.69
250.532	351.69
250.765	327.69
250.998	336.69
251.231	360.69
251.465	359.69
251.698	356.69
251.931	355.69
252.164	360.69
252.397	352.69
252.63	358.69
252.863	318.69
253.096	340.69
253.329	355.69
253.562	351.69
253.795	400.69
254.028	377.69
254.261	351.69
254.494	360.69
254.727	337.69
254.96	355.69
255.193	389.69
255.426	416.69
255.659	470.69
255.892	459.69
256.124	407.69
256.357	382.69
256.59	436.69
256.823	429.69
257.056	422.69
257.289	509.69
257.521	522.69
257.754	471.69
257.987	475.69
258.22	492.69
258.452	461.69
258.685	398.69
258.918	409.69
259.151	400.69
259.383	404.69
259.616	353.69
259.849	371.69
260.081	437.69
260.314	456.69
260.547	496.69
260.779	480.69
261.012	462.69
261.244	428.69
261.477	421.69
261.71	416.69
261.942	410.69
262.175	409.69
262.407	422.69
262.64	414.69
262.872	395.69
263.105	378.69
263.337	371.69
263.57	395.69
263.802	404.69
264.035	373.69
264.267	345.69
264.499	349.69
264.732	375.69
264.964	409.69
265.197	398.69
265.429	422.69
265.661	482.69
265.894	497.69
266.126	503.69
266.358	465.69
266.591	485.69
266.823	513.69
267.055	454.69
267.287	442.69
267.52	462.69
267.752	464.69
267.984	455.69
268.216	474.69
268.448	467.69
268.681	457.69
268.913	426.69
269.145	441.69
269.377	416.69
269.609	447.69
269.841	540.69
270.073	613.69
270.306	601.69
270.538	630.69
270.77	548.69
271.002	484.69
271.234	474.69
271.466	499.69
271.698	546.69
271.93	632.69
272.162	588.69
272.394	576.69
272.626	507.69
272.858	456.69
273.09	407.69
273.322	416.69
273.553	401.69
273.785	425.69
274.017	439.69
274.249	465.69
274.481	454.69
274.713	423.69
274.945	403.69
275.176	400.69
275.408	409.69
275.64	406.69
275.872	438.69
276.104	449.69
276.335	524.69
276.567	527.69
276.799	544.69
277.031	507.69
277.262	476.69
277.494	507.69
277.726	532.69
277.957	521.69
278.189	483.69
278.421	452.69
278.652	433.69
278.884	463.69
279.115	449.69
279.347	453.69
279.579	440.69
279.81	470.69
280.042	491.69
280.273	520.69
280.505	525.69
280.736	528.69
280.968	503.69
281.199	458.69
281.431	443.69
281.662	437.69
281.894	429.69
282.125	463.69
282.356	464.69
282.588	479.69
282.819	478.69
283.051	511.69
283.282	523.69
283.513	510.69
283.745	445.69
283.976	433.69
284.207	448.69
284.439	440.69
284.67	457.69
284.901	456.69
285.132	468.69
285.364	461.69
285.595	475.69
285.826	454.69
286.057	466.69
286.288	467.69
286.52	474.69
286.751	528.69
286.982	520.69
287.213	473.69
287.444	435.69
287.675	459.69
287.906	482.69
288.138	496.69
288.369	489.69
288.6	468.69
288.831	463.69
289.062	464.69
289.293	445.69
289.524	462.69
289.755	493.69
289.986	486.69
290.217	435.69
290.448	460.69
290.679	474.69
290.91	465.69
291.141	455.69
291.371	480.69
291.602	501.69
291.833	504.69
292.064	525.69
292.295	508.69
292.526	525.69
292.757	533.69
292.987	494.69
293.218	493.69
293.449	552.69
293.68	606.69
293.91	612.69
294.141	585.69
294.372	573.69
294.603	576.69
294.833	581.69
295.064	549.69
295.295	503.69
295.525	488.69
295.756	460.69
295.987	439.69
296.217	449.69
296.448	486.69
296.679	466.69
296.909	477.69
297.14	477.69
297.37	492.69
297.601	533.69
297.831	544.69
298.062	538.69
298.292	496.69
298.523	486.69
298.753	485.69
298.984	483.69
299.214	464.69
299.445	517.69
299.675	523.69
299.905	531.69
300.136	500.69
300.366	474.69
300.597	477.69
300.827	470.69
301.057	505.69
301.288	509.69
301.518	529.69
301.748	538.69
301.979	554.69
302.209	582.69
302.439	600.69
302.669	587.69
302.9	579.69
303.13	528.69
303.36	523.69
303.59	543.69
303.82	538.69
304.051	532.69
304.281	533.69
304.511	555.69
304.741	565.69
304.971	646.69
305.201	667.69
305.431	588.69
305.661	515.69
305.891	478.69
306.121	459.69
306.352	504.69
306.582	510.69
306.812	564.69
307.042	573.69
307.272	584.69
307.502	603.69
307.731	643.69
307.961	654.69
308.191	597.69
308.421	519.69
308.651	487.69
308.881	548.69
309.111	515.69
309.341	527.69
309.571	504.69
309.8	486.69
310.03	489.69
310.26	506.69
310.49	537.69
310.72	528.69
310.949	539.69
311.179	562.69
311.409	515.69
311.639	517.69
311.868	513.69
312.098	502.69
312.328	507.69
312.557	521.69
312.787	528.69
313.017	546.69
313.246	536.69
313.476	509.69
313.706	523.69
313.935	551.69
314.165	550.69
314.394	584.69
314.624	596.69
314.853	638.69
315.083	670.69
315.312	635.69
315.542	586.69
315.771	542.69
316.001	561.69
316.23	584.69
316.46	583.69
316.689	582.69
316.919	557.69
317.148	538.69
317.377	558.69
317.607	600.69
317.836	645.69
318.065	667.69
318.295	660.69
318.524	608.69
318.753	592.69
318.983	605.69
319.212	559.69
319.441	567.69
319.67	566.69
319.9	560.69
320.129	612.69
320.358	633.69
320.587	656.69
320.816	648.69
321.046	615.69
321.275	609.69
321.504	619.69
321.733	655.69
321.962	599.69
322.191	588.69
322.42	564.69
322.649	560.69
322.878	563.69
323.108	565.69
323.337	593.69
323.566	594.69
323.795	613.69
324.024	568.69
324.253	559.69
324.482	569.69
324.71	554.69
324.939	531.69
325.168	559.69
325.397	607.69
325.626	591.69
325.855	581.69
326.084	576.69
326.313	587.69
326.542	593.69
326.77	606.69
326.999	621.69
327.228	572.69
327.457	537.69
327.686	559.69
327.914	586.69
328.143	582.69
328.372	571.69
328.6	579.69
328.829	569.69
329.058	567.69
329.287	566.69
329.515	579.69
329.744	597.69
329.972	645.69
330.201	628.69
330.43	597.69
330.658	607.69
330.887	620.69
331.115	613.69
331.344	597.69
331.572	592.69
331.801	596.69
332.03	618.69
332.258	591.69
332.486	624.69
332.715	635.69
332.943	631.69
333.172	623.69
333.4	623.69
333.629	601.69
333.857	644.69
334.085	767.69
334.314	852.69
334.542	851.69
334.771	792.69
334.999	725.69
335.227	675.69
335.455	653.69
335.684	654.69
335.912	662.69
336.14	674.69
336.369	655.69
336.597	631.69
336.825	630.69
337.053	638.69
337.281	705.69
337.51	718.69
337.738	732.69
337.966	672.69
338.194	613.69
338.422	604.69
338.65	596.69
338.878	593.69
339.106	573.69
339.334	565.69
339.562	563.69
339.79	596.69
340.018	638.69
340.246	634.69
340.474	647.69
340.702	629.69
340.93	637.69
341.158	622.69
341.386	595.69
341.614	608.69
341.842	635.69
342.07	605.69
342.298	606.69
342.526	617.69
342.754	597.69
342.981	618.69
343.209	606.69
343.437	559.69
343.665	604.69
343.893	618.69
344.12	635.69
344.348	653.69
344.576	637.69
344.804	612.69
345.031	613.69
345.259	592.69
345.487	566.69
345.714	588.69
345.942	571.69
346.17	560.69
346.397	575.69
346.625	591.69
346.853	556.69
347.08	586.69
347.308	586.69
347.535	573.69
347.763	592.69
347.99	567.69
348.218	564.69
348.445	543.69
348.673	571.69
348.9	604.69
349.128	647.69
349.355	615.69
349.583	604.69
349.81	570.69
350.037	573.69
350.265	545.69
350.492	542.69
350.72	565.69
350.947	601.69
351.174	579.69
351.402	545.69
351.629	515.69
351.856	535.69
352.083	544.69
352.311	551.69
352.538	564.69
352.765	575.69
352.992	578.69
353.22	556.69
353.447	562.69
353.674	578.69
353.901	571.69
354.128	548.69
354.355	560.69
354.583	598.69
354.81	608.69
355.037	589.69
355.264	575.69
355.491	575.69
355.718	602.69
355.945	569.69
356.172	585.69
356.399	550.69
356.626	567.69
356.853	616.69
357.08	659.69
357.307	685.69
357.534	658.69
357.761	590.69
357.988	546.69
358.215	546.69
358.441	565.69
358.668	559.69
358.895	581.69
359.122	617.69
359.349	645.69
359.576	609.69
359.802	579.69
360.029	544.69
360.256	549.69
360.483	595.69
360.709	583.69
360.936	591.69
361.163	636.69
361.39	711.69
361.616	724.69
361.843	691.69
362.07	673.69
362.296	590.69
362.523	575.69
362.749	573.69
362.976	594.69
363.203	619.69
363.429	589.69
363.656	579.69
363.882	619.69
364.109	660.69
364.335	677.69
364.562	656.69
364.788	608.69
365.015	610.69
365.241	564.69
365.468	594.69
365.694	629.69
365.92	641.69
366.147	580.69
366.373	577.69
366.599	581.69
366.826	569.69
367.052	554.69
367.278	585.69
367.505	613.69
367.731	615.69
367.957	599.69
368.184	650.69
368.41	693.69
368.636	676.69
368.862	686.69
369.089	688.69
369.315	654.69
369.541	641.69
369.767	605.69
369.993	603.69
370.219	606.69
370.445	635.69
370.672	677.69
370.898	670.69
371.124	655.69
371.35	639.69
371.576	655.69
371.802	668.69
372.028	657.69
372.254	637.69
372.48	624.69
372.706	624.69
372.932	613.69
373.158	605.69
373.384	621.69
373.61	658.69
373.835	679.69
374.061	647.69
374.287	630.69
374.513	634.69
374.739	646.69
374.965	660.69
375.191	647.69
375.416	685.69
375.642	695.69
375.868	701.69
376.094	732.69
376.319	707.69
376.545	669.69
376.771	703.69
376.997	710.69
377.222	676.69
377.448	677.69
377.674	695.69
377.899	693.69
378.125	749.69
378.35	723.69
378.576	655.69
378.802	645.69
379.027	645.69
379.253	644.69
379.478	638.69
379.704	656.69
379.929	664.69
380.155	655.69
380.38	654.69
380.606	659.69
380.831	666.69
381.057	725.69
381.282	730.69
381.507	715.69
381.733	746.69
381.958	795.69
382.184	710.69
382.409	693.69
382.634	694.69
382.86	691.69
383.085	718.69
383.31	768.69
383.535	800.69
383.761	807.69
383.986	791.69
384.211	743.69
384.436	739.69
384.662	763.69
384.887	813.69
385.112	762.69
385.337	749.69
385.562	756.69
385.787	759.69
386.013	797.69
386.238	771.69
386.463	774.69
386.688	838.69
386.913	885.69
387.138	847.69
387.363	793.69
387.588	795.69
387.813	775.69
388.038	808.69
388.263	835.69
388.488	762.69
388.713	731.69
388.938	714.69
389.163	729.69
389.387	771.69
389.612	739.69
389.837	790.69
390.062	775.69
390.287	768.69
390.512	742.69
390.736	776.69
390.961	747.69
391.186	709.69
391.411	748.69
391.636	753.69
391.86	747.69
392.085	767.69
392.31	770.69
392.534	759.69
392.759	773.69
392.984	784.69
393.208	747.69
393.433	829.69
393.658	837.69
393.882	847.69
394.107	784.69
394.331	782.69
394.556	772.69
394.78	788.69
395.005	822.69
395.229	867.69
395.454	887.69
395.678	869.69
395.903	859.69
396.127	871.69
396.352	856.69
396.576	844.69
396.801	857.69
397.025	861.69
397.249	855.69
397.474	867.69
397.698	849.69
397.922	854.69
398.147	920.69
398.371	930.69
398.595	936.69
398.82	901.69
399.044	934.69
399.268	944.69
399.492	955.69
399.717	1005.69
399.941	990.69
400.165	986.69
400.389	955.69
400.613	1022.69
400.837	1149.69
401.062	1191.69
401.286	1028.69
401.51	997.69
401.734	1005.69
401.958	973.69
402.182	910.69
402.406	901.69
402.63	868.69
402.854	908.69
403.078	903.69
403.302	913.69
403.526	929.69
403.75	918.69
403.974	958.69
404.198	937.69
404.422	990.69
404.645	998.69
404.869	971.69
405.093	931.69
405.317	945.69
405.541	954.69
405.765	943.69
405.988	936.69
406.212	942.69
406.436	962.69
406.66	983.69
406.883	1070.69
407.107	1134.69
407.331	1244.69
407.555	1323.69
407.778	1159.69
408.002	1032.69
408.226	965.69
408.449	986.69
408.673	959.69
408.896	967.69
409.12	1003.69
409.344	968.69
409.567	928.69
409.791	959.69
410.014	960.69
410.238	1054.69
410.461	1065.69
410.685	960.69
410.908	957.69
411.132	965.69
411.355	976.69
411.578	936.69
411.802	950.69
412.025	970.69
412.249	937.69
412.472	937.69
412.695	893.69
412.919	939.69
413.142	916.69
413.365	962.69
413.589	970.69
413.812	1029.69
414.035	1021.69
414.258	964.69
414.482	949.69
414.705	947.69
414.928	911.69
415.151	939.69
415.374	979.69
415.597	975.69
415.821	969.69
416.044	960.69
416.267	962.69
416.49	923.69
416.713	911.69
416.936	962.69
417.159	981.69
417.382	949.69
417.605	944.69
417.828	940.69
418.051	981.69
418.274	950.69
418.497	949.69
418.72	991.69
418.943	963.69
419.166	983.69
419.389	1027.69
419.611	971.69
419.834	952.69
420.057	989.69
420.28	960.69
420.503	952.69
420.726	986.69
420.948	995.69
421.171	928.69
421.394	944.69
421.617	980.69
421.839	1036.69
422.062	975.69
422.285	968.69
422.507	966.69
422.73	935.69
422.953	927.69
423.175	902.69
423.398	924.69
423.621	961.69
423.843	951.69
424.066	980.69
424.288	1032.69
424.511	1055.69
424.733	1038.69
424.956	974.69
425.178	971.69
425.401	940.69
425.623	959.69
425.846	935.69
426.068	995.69
426.291	1005.69
426.513	998.69
426.735	993.69
426.958	1083.69
427.18	1077.69
427.402	1017.69
427.625	1067.69
427.847	995.69
428.069	944.69
428.292	911.69
428.514	915.69
428.736	906.69
428.958	921.69
429.181	956.69
429.403	1113.69
429.625	1282.69
429.847	1059.69
430.069	978.69
430.292	1103.69
430.514	1057.69
430.736	995.69
430.958	1015.69
431.18	948.69
431.402	897.69
431.624	869.69
431.846	813.69
432.068	764.69
432.29	765.69
432.512	832.69
432.734	909.69
432.956	934.69
433.178	973.69
433.4	975.69
433.622	980.69
433.844	925.69
434.066	863.69
434.287	824.69
434.509	799.69
434.731	843.69
434.953	908.69
435.175	943.69
435.397	951.69
435.618	886.69
435.84	839.69
436.062	847.69
436.284	943.69
436.505	943.69
436.727	956.69
436.949	931.69
437.17	895.69
437.392	904.69
437.614	865.69
437.835	830.69
438.057	857.69
438.278	835.69
438.5	880.69
438.721	919.69
438.943	929.69
439.165	968.69
439.386	971.69
439.608	998.69
439.829	974.69
440.05	992.69
440.272	975.69
440.493	985.69
440.715	969.69
440.936	1039.69
441.158	1085.69
441.379	1051.69
441.6	1091.69
441.822	1057.69
442.043	1052.69
442.264	1016.69
442.486	1005.69
442.707	944.69
442.928	998.69
443.149	986.69
443.371	1019.69
443.592	1063.69
443.813	1056.69
444.034	1028.69
444.255	1025.69
444.476	1059.69
444.698	1054.69
444.919	1055.69
445.14	1161.69
445.361	1139.69
445.582	1110.69
445.803	1083.69
446.024	1073.69
446.245	1110.69
446.466	1107.69
446.687	1062.69
446.908	1079.69
447.129	1042.69
447.35	1043.69
447.571	1035.69
447.792	998.69
448.013	975.69
448.234	969.69
448.455	1011.69
448.675	1011.69
448.896	947.69
449.117	927.69
449.338	908.69
449.559	969.69
449.779	977.69
450	1029.69
450.221	1048.69
450.442	1038.69
450.662	998.69
450.883	893.69
451.104	896.69
451.324	912.69
451.545	937.69
451.766	882.69
451.986	854.69
452.207	837.69
452.428	797.69
452.648	825.69
452.869	785.69
453.089	804.69
453.31	808.69
453.53	784.69
453.751	749.69
453.971	730.69
454.192	750.69
454.412	783.69
454.633	802.69
454.853	803.69
455.073	781.69
455.294	789.69
455.514	770.69
455.734	784.69
455.955	807.69
456.175	766.69
456.395	750.69
456.616	766.69
456.836	751.69
457.056	759.69
457.276	732.69
457.497	719.69
457.717	701.69
457.937	717.69
458.157	737.69
458.377	708.69
458.598	720.69
458.818	684.69
459.038	727.69
459.258	716.69
459.478	729.69
459.698	737.69
459.918	770.69
460.138	821.69
460.358	849.69
460.578	843.69
460.798	891.69
461.018	911.69
461.238	865.69
461.458	876.69
461.678	869.69
461.898	853.69
462.118	810.69
462.338	865.69
462.558	863.69
462.777	870.69
462.997	897.69
463.217	923.69
463.437	872.69
463.657	836.69
463.876	856.69
464.096	845.69
464.316	877.69
464.536	887.69
464.755	889.69
464.975	906.69
465.195	894.69
465.414	891.69
465.634	902.69
465.854	913.69
466.073	990.69
466.293	945.69
466.512	892.69
466.732	895.69
466.951	959.69
467.171	910.69
467.391	923.69
467.61	917.69
467.829	912.69
468.049	999.69
468.268	1071.69
468.488	972.69
468.707	914.69
468.927	955.69
469.146	913.69
469.365	928.69
469.585	944.69
469.804	951.69
470.023	944.69
470.243	961.69
470.462	990.69
470.681	965.69
470.901	937.69
471.12	953.69
471.339	968.69
471.558	955.69
471.777	915.69
471.997	919.69
472.216	880.69
472.435	783.69
472.654	780.69
472.873	800.69
473.092	876.69
473.311	835.69
473.53	837.69
473.749	872.69
473.968	871.69
474.187	854.69
474.406	861.69
474.625	887.69
474.844	879.69
475.063	895.69
475.282	881.69
475.501	852.69
475.72	854.69
475.939	942.69
476.158	943.69
476.377	911.69
476.596	894.69
476.814	844.69
477.033	783.69
477.252	867.69
477.471	887.69
477.69	954.69
477.908	959.69
478.127	998.69
478.346	1035.69
478.564	1016.69
478.783	999.69
479.002	1039.69
479.22	1081.69
479.439	1059.69
479.658	1068.69
479.876	1020.69
480.095	924.69
480.313	908.69
480.532	918.69
480.751	900.69
480.969	834.69
481.188	811.69
481.406	805.69
481.624	811.69
481.843	808.69
482.061	838.69
482.28	892.69
482.498	923.69
482.717	910.69
482.935	917.69
483.153	997.69
483.372	1056.69
483.59	1035.69
483.808	1008.69
484.027	974.69
484.245	1018.69
484.463	1264.69
484.681	1379.69
484.9	1091.69
485.118	973.69
485.336	954.69
485.554	928.69
485.772	941.69
485.99	899.69
486.209	929.69
486.427	906.69
486.645	957.69
486.863	1029.69
487.081	1068.69
487.299	1060.69
487.517	1031.69
487.735	1128.69
487.953	1218.69
488.171	1201.69
488.389	1167.69
488.607	1093.69
488.825	1187.69
489.043	1086.69
489.261	1019.69
489.479	1102.69
489.696	1093.69
489.914	1063.69
490.132	1061.69
490.35	1076.69
490.568	1180.69
490.786	1207.69
491.003	1207.69
491.221	1289.69
491.439	1323.69
491.657	1323.69
491.874	1388.69
492.092	1499.69
492.31	1559.69
492.527	1473.69
492.745	1399.69
492.963	1324.69
493.18	1348.69
493.398	1388.69
493.615	1329.69
493.833	1301.69
494.05	1260.69
494.268	1287.69
494.485	1262.69
494.703	1229.69
494.92	1244.69
495.138	1254.69
495.355	1278.69
495.573	1283.69
495.79	1333.69
496.008	1309.69
496.225	1259.69
496.442	1293.69
496.66	1228.69
496.877	1235.69
497.094	1243.69
497.312	1269.69
497.529	1207.69
497.746	1236.69
497.963	1283.69
498.181	1324.69
498.398	1271.69
498.615	1223.69
498.832	1161.69
499.049	1188.69
499.267	1164.69
499.484	1239.69
499.701	1340.69
499.918	1395.69
500.135	1477.69
