Data from WStandard_LampEnergy8_LIBS07252019.E.O._I.C._HRD10591_15-58-32-928.txt Node
Date: Thu Jul 25 15:58:32 EDT 2019
User: cochatt
Spectrometer: HR+D1059
Trigger mode: 1
Integration Time (sec): 1.000000E-1
Scans to average: 1
Electric dark correction enabled: true
Nonlinearity correction enabled: false
Boxcar width: 0
XAxis mode: Wavelengths
Number of Pixels in Spectrum: 2048
>>>>>Begin Spectral Data<<<<<
223.165	-28.69
223.4	-28.69
223.635	-28.69
223.869	-15.69
224.104	-13.69
224.338	-19.69
224.573	-11.69
224.808	-8.69
225.042	-12.69
225.277	-22.69
225.511	3.31
225.746	11.31
225.98	3.31
226.215	11.31
226.449	23.31
226.683	23.31
226.918	22.31
227.152	35.31
227.387	42.31
227.621	39.31
227.856	44.31
228.09	49.31
228.324	57.31
228.559	53.31
228.793	108.31
229.027	211.31
229.262	217.31
229.496	229.31
229.73	244.31
229.964	245.31
230.199	260.31
230.433	269.31
230.667	291.31
230.901	285.31
231.136	285.31
231.37	265.31
231.604	272.31
231.838	290.31
232.072	280.31
232.306	249.31
232.541	279.31
232.775	310.31
233.009	315.31
233.243	310.31
233.477	299.31
233.711	321.31
233.945	322.31
234.179	300.31
234.413	328.31
234.647	325.31
234.881	319.31
235.115	289.31
235.349	321.31
235.583	311.31
235.817	286.31
236.051	296.31
236.285	310.31
236.519	336.31
236.753	370.31
236.987	374.31
237.221	358.31
237.455	382.31
237.689	378.31
237.922	362.31
238.156	370.31
238.39	363.31
238.624	375.31
238.858	409.31
239.091	399.31
239.325	433.31
239.559	469.31
239.793	504.31
240.027	512.31
240.26	503.31
240.494	398.31
240.728	386.31
240.961	388.31
241.195	406.31
241.429	441.31
241.662	422.31
241.896	398.31
242.13	417.31
242.363	459.31
242.597	456.31
242.83	469.31
243.064	485.31
243.298	500.31
243.531	469.31
243.765	463.31
243.998	470.31
244.232	426.31
244.465	411.31
244.699	411.31
244.932	467.31
245.166	541.31
245.399	477.31
245.633	467.31
245.866	474.31
246.099	476.31
246.333	472.31
246.566	511.31
246.8	550.31
247.033	594.31
247.266	557.31
247.5	549.31
247.733	541.31
247.966	557.31
248.2	625.31
248.433	619.31
248.666	631.31
248.899	663.31
249.133	784.31
249.366	830.31
249.599	709.31
249.832	640.31
250.066	641.31
250.299	628.31
250.532	612.31
250.765	557.31
250.998	580.31
251.231	586.31
251.465	617.31
251.698	599.31
251.931	584.31
252.164	603.31
252.397	627.31
252.63	599.31
252.863	576.31
253.096	554.31
253.329	576.31
253.562	619.31
253.795	627.31
254.028	632.31
254.261	569.31
254.494	571.31
254.727	569.31
254.96	611.31
255.193	643.31
255.426	741.31
255.659	810.31
255.892	795.31
256.124	701.31
256.357	641.31
256.59	694.31
256.823	709.31
257.056	743.31
257.289	853.31
257.521	909.31
257.754	815.31
257.987	790.31
258.22	867.31
258.452	805.31
258.685	682.31
258.918	682.31
259.151	710.31
259.383	655.31
259.616	590.31
259.849	637.31
260.081	717.31
260.314	757.31
260.547	838.31
260.779	821.31
261.012	767.31
261.244	706.31
261.477	678.31
261.71	701.31
261.942	663.31
262.175	674.31
262.407	717.31
262.64	697.31
262.872	643.31
263.105	618.31
263.337	639.31
263.57	650.31
263.802	636.31
264.035	600.31
264.267	585.31
264.499	606.31
264.732	643.31
264.964	666.31
265.197	695.31
265.429	725.31
265.661	807.31
265.894	882.31
266.126	883.31
266.358	793.31
266.591	831.31
266.823	863.31
267.055	806.31
267.287	783.31
267.52	769.31
267.752	782.31
267.984	775.31
268.216	830.31
268.448	859.31
268.681	818.31
268.913	737.31
269.145	706.31
269.377	712.31
269.609	781.31
269.841	898.31
270.073	1041.31
270.306	1133.31
270.538	1129.31
270.77	966.31
271.002	851.31
271.234	831.31
271.466	837.31
271.698	955.31
271.93	1107.31
272.162	1053.31
272.394	949.31
272.626	906.31
272.858	814.31
273.09	733.31
273.322	706.31
273.553	686.31
273.785	699.31
274.017	707.31
274.249	780.31
274.481	737.31
274.713	712.31
274.945	703.31
275.176	741.31
275.408	696.31
275.64	685.31
275.872	687.31
276.104	747.31
276.335	858.31
276.567	956.31
276.799	915.31
277.031	836.31
277.262	823.31
277.494	860.31
277.726	926.31
277.957	915.31
278.189	804.31
278.421	750.31
278.652	759.31
278.884	745.31
279.115	757.31
279.347	754.31
279.579	739.31
279.81	763.31
280.042	805.31
280.273	878.31
280.505	869.31
280.736	878.31
280.968	846.31
281.199	753.31
281.431	707.31
281.662	744.31
281.894	709.31
282.125	763.31
282.356	782.31
282.588	778.31
282.819	779.31
283.051	824.31
283.282	881.31
283.513	866.31
283.745	755.31
283.976	726.31
284.207	753.31
284.439	741.31
284.67	771.31
284.901	776.31
285.132	826.31
285.364	791.31
285.595	791.31
285.826	759.31
286.057	780.31
286.288	748.31
286.52	807.31
286.751	859.31
286.982	855.31
287.213	805.31
287.444	731.31
287.675	753.31
287.906	811.31
288.138	799.31
288.369	816.31
288.6	761.31
288.831	776.31
289.062	744.31
289.293	750.31
289.524	775.31
289.755	797.31
289.986	808.31
290.217	747.31
290.448	761.31
290.679	782.31
290.91	795.31
291.141	829.31
291.371	840.31
291.602	867.31
291.833	859.31
292.064	862.31
292.295	863.31
292.526	874.31
292.757	870.31
292.987	855.31
293.218	824.31
293.449	879.31
293.68	973.31
293.91	1021.31
294.141	967.31
294.372	930.31
294.603	954.31
294.833	999.31
295.064	953.31
295.295	863.31
295.525	828.31
295.756	790.31
295.987	748.31
296.217	740.31
296.448	789.31
296.679	797.31
296.909	802.31
297.14	771.31
297.37	820.31
297.601	853.31
297.831	893.31
298.062	881.31
298.292	829.31
298.523	780.31
298.753	793.31
298.984	817.31
299.214	805.31
299.445	843.31
299.675	865.31
299.905	851.31
300.136	822.31
300.366	774.31
300.597	779.31
300.827	787.31
301.057	853.31
301.288	837.31
301.518	881.31
301.748	887.31
301.979	950.31
302.209	981.31
302.439	991.31
302.669	1029.31
302.9	945.31
303.13	893.31
303.36	904.31
303.59	892.31
303.82	854.31
304.051	877.31
304.281	855.31
304.511	902.31
304.741	946.31
304.971	1034.31
305.201	1129.31
305.431	994.31
305.661	835.31
305.891	769.31
306.121	788.31
306.352	824.31
306.582	872.31
306.812	908.31
307.042	975.31
307.272	973.31
307.502	1001.31
307.731	1086.31
307.961	1089.31
308.191	995.31
308.421	910.31
308.651	850.31
308.881	851.31
309.111	859.31
309.341	834.31
309.571	847.31
309.8	843.31
310.03	808.31
310.26	851.31
310.49	853.31
310.72	877.31
310.949	922.31
311.179	901.31
311.409	862.31
311.639	871.31
311.868	856.31
312.098	874.31
312.328	853.31
312.557	839.31
312.787	852.31
313.017	924.31
313.246	911.31
313.476	885.31
313.706	925.31
313.935	886.31
314.165	911.31
314.394	940.31
314.624	1026.31
314.853	1044.31
315.083	1080.31
315.312	1085.31
315.542	986.31
315.771	910.31
316.001	941.31
316.23	997.31
316.46	980.31
316.689	942.31
316.919	874.31
317.148	866.31
317.377	919.31
317.607	975.31
317.836	1085.31
318.065	1128.31
318.295	1029.31
318.524	1031.31
318.753	974.31
318.983	963.31
319.212	953.31
319.441	919.31
319.67	925.31
319.9	952.31
320.129	1014.31
320.358	1039.31
320.587	1051.31
320.816	1043.31
321.046	1020.31
321.275	973.31
321.504	996.31
321.733	1059.31
321.962	1038.31
322.191	956.31
322.42	947.31
322.649	922.31
322.878	917.31
323.108	952.31
323.337	979.31
323.566	990.31
323.795	982.31
324.024	997.31
324.253	917.31
324.482	954.31
324.71	897.31
324.939	882.31
325.168	900.31
325.397	918.31
325.626	966.31
325.855	938.31
326.084	965.31
326.313	948.31
326.542	980.31
326.77	1002.31
326.999	972.31
327.228	918.31
327.457	873.31
327.686	873.31
327.914	917.31
328.143	941.31
328.372	926.31
328.6	943.31
328.829	949.31
329.058	927.31
329.287	914.31
329.515	947.31
329.744	970.31
329.972	1011.31
330.201	1033.31
330.43	1036.31
330.658	1035.31
330.887	993.31
331.115	1016.31
331.344	1009.31
331.572	999.31
331.801	985.31
332.03	996.31
332.258	980.31
332.486	1003.31
332.715	1022.31
332.943	1035.31
333.172	993.31
333.4	1041.31
333.629	1059.31
333.857	1107.31
334.085	1250.31
334.314	1413.31
334.542	1441.31
334.771	1345.31
334.999	1178.31
335.227	1105.31
335.455	1061.31
335.684	1121.31
335.912	1110.31
336.14	1123.31
336.369	1089.31
336.597	1035.31
336.825	1007.31
337.053	1089.31
337.281	1117.31
337.51	1180.31
337.738	1190.31
337.966	1104.31
338.194	1024.31
338.422	1013.31
338.65	982.31
338.878	978.31
339.106	966.31
339.334	962.31
339.562	957.31
339.79	978.31
340.018	1053.31
340.246	1075.31
340.474	1057.31
340.702	1025.31
340.93	1033.31
341.158	1020.31
341.386	1038.31
341.614	1022.31
341.842	979.31
342.07	1009.31
342.298	1024.31
342.526	1005.31
342.754	972.31
342.981	977.31
343.209	1010.31
343.437	979.31
343.665	997.31
343.893	1031.31
344.12	1076.31
344.348	1083.31
344.576	1042.31
344.804	1005.31
345.031	1027.31
345.259	1000.31
345.487	948.31
345.714	939.31
345.942	917.31
346.17	957.31
346.397	949.31
346.625	947.31
346.853	915.31
347.08	930.31
347.308	933.31
347.535	938.31
347.763	965.31
347.99	922.31
348.218	933.31
348.445	941.31
348.673	961.31
348.9	991.31
349.128	1000.31
349.355	1013.31
349.583	954.31
349.81	930.31
350.037	905.31
350.265	891.31
350.492	916.31
350.72	905.31
350.947	965.31
351.174	947.31
351.402	922.31
351.629	898.31
351.856	883.31
352.083	850.31
352.311	883.31
352.538	929.31
352.765	970.31
352.992	992.31
353.22	955.31
353.447	893.31
353.674	941.31
353.901	942.31
354.128	929.31
354.355	923.31
354.583	959.31
354.81	952.31
355.037	972.31
355.264	965.31
355.491	931.31
355.718	926.31
355.945	920.31
356.172	900.31
356.399	908.31
356.626	914.31
356.853	969.31
357.08	1043.31
357.307	1147.31
357.534	1118.31
357.761	974.31
357.988	921.31
358.215	903.31
358.441	900.31
358.668	908.31
358.895	909.31
359.122	952.31
359.349	1058.31
359.576	1032.31
359.802	942.31
360.029	913.31
360.256	913.31
360.483	932.31
360.709	958.31
360.936	1010.31
361.163	1011.31
361.39	1116.31
361.616	1173.31
361.843	1142.31
362.07	1065.31
362.296	949.31
362.523	915.31
362.749	939.31
362.976	950.31
363.203	963.31
363.429	902.31
363.656	900.31
363.882	976.31
364.109	1055.31
364.335	1134.31
364.562	1037.31
364.788	993.31
365.015	958.31
365.241	927.31
365.468	948.31
365.694	981.31
365.92	1010.31
366.147	947.31
366.373	929.31
366.599	914.31
366.826	919.31
367.052	924.31
367.278	931.31
367.505	938.31
367.731	958.31
367.957	974.31
368.184	1039.31
368.41	1083.31
368.636	1090.31
368.862	1076.31
369.089	1066.31
369.315	1021.31
369.541	990.31
369.767	961.31
369.993	931.31
370.219	945.31
370.445	993.31
370.672	1036.31
370.898	1063.31
371.124	1055.31
371.35	1021.31
371.576	1003.31
371.802	1027.31
372.028	1008.31
372.254	995.31
372.48	958.31
372.706	947.31
372.932	959.31
373.158	982.31
373.384	1001.31
373.61	1052.31
373.835	1074.31
374.061	1023.31
374.287	999.31
374.513	991.31
374.739	1011.31
374.965	1021.31
375.191	1030.31
375.416	1027.31
375.642	1032.31
375.868	1110.31
376.094	1134.31
376.319	1084.31
376.545	991.31
376.771	1036.31
376.997	1101.31
377.222	1088.31
377.448	1040.31
377.674	1054.31
377.899	1079.31
378.125	1133.31
378.35	1098.31
378.576	1037.31
378.802	975.31
379.027	975.31
379.253	975.31
379.478	980.31
379.704	968.31
379.929	989.31
380.155	1001.31
380.38	1041.31
380.606	1018.31
380.831	1055.31
381.057	1092.31
381.282	1086.31
381.507	1085.31
381.733	1128.31
381.958	1162.31
382.184	1073.31
382.409	1061.31
382.634	1062.31
382.86	1054.31
383.085	1045.31
383.31	1101.31
383.535	1205.31
383.761	1262.31
383.986	1209.31
384.211	1132.31
384.436	1148.31
384.662	1222.31
384.887	1205.31
385.112	1157.31
385.337	1201.31
385.562	1149.31
385.787	1172.31
386.013	1186.31
386.238	1182.31
386.463	1189.31
386.688	1255.31
386.913	1314.31
387.138	1281.31
387.363	1177.31
387.588	1205.31
387.813	1190.31
388.038	1189.31
388.263	1226.31
388.488	1185.31
388.713	1090.31
388.938	1101.31
389.163	1131.31
389.387	1132.31
389.612	1117.31
389.837	1159.31
390.062	1159.31
390.287	1143.31
390.512	1158.31
390.736	1116.31
390.961	1115.31
391.186	1070.31
391.411	1110.31
391.636	1165.31
391.86	1149.31
392.085	1150.31
392.31	1123.31
392.534	1137.31
392.759	1153.31
392.984	1141.31
393.208	1167.31
393.433	1209.31
393.658	1241.31
393.882	1277.31
394.107	1185.31
394.331	1168.31
394.556	1151.31
394.78	1215.31
395.005	1198.31
395.229	1265.31
395.454	1324.31
395.678	1321.31
395.903	1242.31
396.127	1207.31
396.352	1209.31
396.576	1272.31
396.801	1252.31
397.025	1281.31
397.249	1246.31
397.474	1245.31
397.698	1254.31
397.922	1290.31
398.147	1340.31
398.371	1373.31
398.595	1400.31
398.82	1307.31
399.044	1332.31
399.268	1397.31
399.492	1464.31
399.717	1509.31
399.941	1537.31
400.165	1502.31
400.389	1462.31
400.613	1494.31
400.837	1674.31
401.062	1820.31
401.286	1557.31
401.51	1463.31
401.734	1461.31
401.958	1398.31
402.182	1335.31
402.406	1293.31
402.63	1301.31
402.854	1281.31
403.078	1337.31
403.302	1368.31
403.526	1351.31
403.75	1377.31
403.974	1383.31
404.198	1391.31
404.422	1438.31
404.645	1498.31
404.869	1428.31
405.093	1342.31
405.317	1363.31
405.541	1381.31
405.765	1390.31
405.988	1396.31
406.212	1393.31
406.436	1419.31
406.66	1516.31
406.883	1506.31
407.107	1708.31
407.331	1866.31
407.555	1964.31
407.778	1708.31
408.002	1475.31
408.226	1393.31
408.449	1455.31
408.673	1382.31
408.896	1393.31
409.12	1417.31
409.344	1381.31
409.567	1389.31
409.791	1365.31
410.014	1432.31
410.238	1517.31
410.461	1538.31
410.685	1393.31
410.908	1307.31
411.132	1408.31
411.355	1357.31
411.578	1356.31
411.802	1352.31
412.025	1391.31
412.249	1353.31
412.472	1292.31
412.695	1324.31
412.919	1320.31
413.142	1323.31
413.365	1364.31
413.589	1359.31
413.812	1445.31
414.035	1478.31
414.258	1341.31
414.482	1326.31
414.705	1374.31
414.928	1307.31
415.151	1349.31
415.374	1345.31
415.597	1340.31
415.821	1343.31
416.044	1387.31
416.267	1348.31
416.49	1286.31
416.713	1272.31
416.936	1347.31
417.159	1414.31
417.382	1383.31
417.605	1303.31
417.828	1376.31
418.051	1333.31
418.274	1311.31
418.497	1289.31
418.72	1300.31
418.943	1293.31
419.166	1377.31
419.389	1386.31
419.611	1316.31
419.834	1341.31
420.057	1323.31
420.28	1313.31
420.503	1307.31
420.726	1334.31
420.948	1309.31
421.171	1292.31
421.394	1306.31
421.617	1338.31
421.839	1338.31
422.062	1355.31
422.285	1256.31
422.507	1299.31
422.73	1251.31
422.953	1251.31
423.175	1275.31
423.398	1317.31
423.621	1249.31
423.843	1345.31
424.066	1343.31
424.288	1379.31
424.511	1460.31
424.733	1359.31
424.956	1265.31
425.178	1281.31
425.401	1286.31
425.623	1283.31
425.846	1277.31
426.068	1388.31
426.291	1390.31
426.513	1349.31
426.735	1350.31
426.958	1491.31
427.18	1485.31
427.402	1381.31
427.625	1425.31
427.847	1411.31
428.069	1306.31
428.292	1275.31
428.514	1265.31
428.736	1275.31
428.958	1274.31
429.181	1287.31
429.403	1481.31
429.625	1764.31
429.847	1504.31
430.069	1321.31
430.292	1493.31
430.514	1468.31
430.736	1411.31
430.958	1421.31
431.18	1306.31
431.402	1237.31
431.624	1235.31
431.846	1188.31
432.068	1149.31
432.29	1143.31
432.512	1206.31
432.734	1255.31
432.956	1286.31
433.178	1363.31
433.4	1311.31
433.622	1321.31
433.844	1285.31
434.066	1224.31
434.287	1214.31
434.509	1228.31
434.731	1292.31
434.953	1376.31
435.175	1354.31
435.397	1295.31
435.618	1281.31
435.84	1274.31
436.062	1231.31
436.284	1284.31
436.505	1305.31
436.727	1326.31
436.949	1311.31
437.17	1269.31
437.392	1228.31
437.614	1220.31
437.835	1212.31
438.057	1271.31
438.278	1269.31
438.5	1249.31
438.721	1248.31
438.943	1262.31
439.165	1255.31
439.386	1251.31
439.608	1254.31
439.829	1283.31
440.05	1277.31
440.272	1246.31
440.493	1267.31
440.715	1287.31
440.936	1336.31
441.158	1484.31
441.379	1429.31
441.6	1401.31
441.822	1385.31
442.043	1355.31
442.264	1322.31
442.486	1262.31
442.707	1242.31
442.928	1287.31
443.149	1301.31
443.371	1358.31
443.592	1417.31
443.813	1393.31
444.034	1373.31
444.255	1374.31
444.476	1411.31
444.698	1447.31
444.919	1415.31
445.14	1520.31
445.361	1483.31
445.582	1475.31
445.803	1450.31
446.024	1393.31
446.245	1428.31
446.466	1396.31
446.687	1378.31
446.908	1404.31
447.129	1340.31
447.35	1333.31
447.571	1306.31
447.792	1276.31
448.013	1277.31
448.234	1295.31
448.455	1293.31
448.675	1335.31
448.896	1212.31
449.117	1204.31
449.338	1258.31
449.559	1261.31
449.779	1378.31
450	1428.31
450.221	1505.31
450.442	1430.31
450.662	1316.31
450.883	1246.31
451.104	1188.31
451.324	1218.31
451.545	1249.31
451.766	1211.31
451.986	1156.31
452.207	1153.31
452.428	1073.31
452.648	1076.31
452.869	1134.31
453.089	1153.31
453.31	1171.31
453.53	1194.31
453.751	1135.31
453.971	1082.31
454.192	1102.31
454.412	1191.31
454.633	1150.31
454.853	1108.31
455.073	1044.31
455.294	1104.31
455.514	1087.31
455.734	1053.31
455.955	1110.31
456.175	1099.31
456.395	1085.31
456.616	1123.31
456.836	1091.31
457.056	1105.31
457.276	1101.31
457.497	1065.31
457.717	1029.31
457.937	1049.31
458.157	1087.31
458.377	1091.31
458.598	1047.31
458.818	1017.31
459.038	1103.31
459.258	1151.31
459.478	1164.31
459.698	1125.31
459.918	1163.31
460.138	1235.31
460.358	1242.31
460.578	1245.31
460.798	1316.31
461.018	1365.31
461.238	1302.31
461.458	1273.31
461.678	1294.31
461.898	1248.31
462.118	1217.31
462.338	1275.31
462.558	1272.31
462.777	1299.31
462.997	1353.31
463.217	1383.31
463.437	1375.31
463.657	1283.31
463.876	1292.31
464.096	1265.31
464.316	1245.31
464.536	1344.31
464.755	1325.31
464.975	1300.31
465.195	1301.31
465.414	1330.31
465.634	1309.31
465.854	1313.31
466.073	1401.31
466.293	1359.31
466.512	1205.31
466.732	1227.31
466.951	1266.31
467.171	1269.31
467.391	1221.31
467.61	1202.31
467.829	1242.31
468.049	1363.31
468.268	1478.31
468.488	1370.31
468.707	1259.31
468.927	1261.31
469.146	1230.31
469.365	1224.31
469.585	1248.31
469.804	1229.31
470.023	1227.31
470.243	1253.31
470.462	1260.31
470.681	1235.31
470.901	1278.31
471.12	1269.31
471.339	1250.31
471.558	1231.31
471.777	1212.31
471.997	1221.31
472.216	1179.31
472.435	1141.31
472.654	1145.31
472.873	1202.31
473.092	1253.31
473.311	1191.31
473.53	1141.31
473.749	1167.31
473.968	1188.31
474.187	1233.31
474.406	1231.31
474.625	1225.31
474.844	1216.31
475.063	1213.31
475.282	1244.31
475.501	1227.31
475.72	1210.31
475.939	1334.31
476.158	1285.31
476.377	1249.31
476.596	1229.31
476.814	1255.31
477.033	1242.31
477.252	1317.31
477.471	1335.31
477.69	1294.31
477.908	1289.31
478.127	1383.31
478.346	1459.31
478.564	1439.31
478.783	1416.31
479.002	1445.31
479.22	1411.31
479.439	1484.31
479.658	1577.31
479.876	1571.31
480.095	1399.31
480.313	1337.31
480.532	1348.31
480.751	1315.31
480.969	1345.31
481.188	1307.31
481.406	1293.31
481.624	1265.31
481.843	1265.31
482.061	1285.31
482.28	1347.31
482.498	1331.31
482.717	1320.31
482.935	1328.31
483.153	1379.31
483.372	1388.31
483.59	1366.31
483.808	1368.31
484.027	1385.31
484.245	1458.31
484.463	1742.31
484.681	1922.31
484.9	1513.31
485.118	1414.31
485.336	1357.31
485.554	1405.31
485.772	1418.31
485.99	1352.31
486.209	1391.31
486.427	1411.31
486.645	1453.31
486.863	1432.31
487.081	1480.31
487.299	1477.31
487.517	1470.31
487.735	1488.31
487.953	1531.31
488.171	1495.31
488.389	1462.31
488.607	1485.31
488.825	1629.31
489.043	1570.31
489.261	1438.31
489.479	1506.31
489.696	1516.31
489.914	1513.31
490.132	1461.31
490.35	1482.31
490.568	1576.31
490.786	1493.31
491.003	1517.31
491.221	1578.31
491.439	1633.31
491.657	1622.31
491.874	1649.31
492.092	1679.31
492.31	1686.31
492.527	1668.31
492.745	1622.31
492.963	1566.31
493.18	1628.31
