Data from WStandard_LampEnergy5.5LIBS07252019.E.O._I.C._HRD10591_16-08-48-920.txt Node
Date: Thu Jul 25 16:08:48 EDT 2019
User: cochatt
Spectrometer: HR+D1059
Trigger mode: 1
Integration Time (sec): 1.000000E-1
Scans to average: 1
Electric dark correction enabled: true
Nonlinearity correction enabled: false
Boxcar width: 0
XAxis mode: Wavelengths
Number of Pixels in Spectrum: 2048
>>>>>Begin Spectral Data<<<<<
223.165	-17.44
223.4	-17.44
223.635	-17.44
223.869	-6.44
224.104	-16.44
224.338	-26.44
224.573	-12.44
224.808	-12.44
225.042	-9.44
225.277	-13.44
225.511	-2.44
225.746	-6.44
225.98	-0.44
226.215	19.56
226.449	29.56
226.683	12.56
226.918	29.56
227.152	32.56
227.387	47.56
227.621	37.56
227.856	37.56
228.09	38.56
228.324	28.56
228.559	47.56
228.793	158.56
229.027	350.56
229.262	372.56
229.496	379.56
229.73	404.56
229.964	424.56
230.199	432.56
230.433	449.56
230.667	474.56
230.901	497.56
231.136	458.56
231.37	441.56
231.604	439.56
231.838	441.56
232.072	455.56
232.306	422.56
232.541	448.56
232.775	521.56
233.009	570.56
233.243	564.56
233.477	494.56
233.711	516.56
233.945	519.56
234.179	480.56
234.413	571.56
234.647	604.56
234.881	577.56
235.115	534.56
235.349	531.56
235.583	530.56
235.817	517.56
236.051	498.56
236.285	526.56
236.519	565.56
236.753	638.56
236.987	688.56
237.221	654.56
237.455	714.56
237.689	703.56
237.922	657.56
238.156	635.56
238.39	623.56
238.624	685.56
238.858	708.56
239.091	718.56
239.325	761.56
239.559	860.56
239.793	921.56
240.027	1007.56
240.26	1008.56
240.494	758.56
240.728	694.56
240.961	673.56
241.195	707.56
241.429	786.56
241.662	790.56
241.896	708.56
242.13	733.56
242.363	838.56
242.597	889.56
242.83	871.56
243.064	846.56
243.298	906.56
243.531	884.56
243.765	900.56
243.998	912.56
244.232	792.56
244.465	753.56
244.699	766.56
244.932	876.56
245.166	1016.56
245.399	952.56
245.633	889.56
245.866	873.56
246.099	891.56
246.333	894.56
246.566	935.56
246.8	1023.56
247.033	1126.56
247.266	1052.56
247.5	1004.56
247.733	986.56
247.966	1076.56
248.2	1206.56
248.433	1115.56
248.666	1157.56
248.899	1287.56
249.133	1444.56
249.366	1656.56
249.599	1332.56
249.832	1192.56
250.066	1186.56
250.299	1226.56
250.532	1136.56
250.765	1027.56
250.998	1113.56
251.231	1144.56
251.465	1176.56
251.698	1103.56
251.931	1092.56
252.164	1148.56
252.397	1198.56
252.63	1202.56
252.863	1087.56
253.096	1030.56
253.329	1088.56
253.562	1155.56
253.795	1238.56
254.028	1211.56
254.261	1141.56
254.494	1152.56
254.727	1060.56
254.96	1130.56
255.193	1189.56
255.426	1369.56
255.659	1546.56
255.892	1606.56
256.124	1329.56
256.357	1278.56
256.59	1353.56
256.823	1381.56
257.056	1342.56
257.289	1637.56
257.521	1796.56
257.754	1616.56
257.987	1538.56
258.22	1689.56
258.452	1686.56
258.685	1332.56
258.918	1312.56
259.151	1326.56
259.383	1279.56
259.616	1110.56
259.849	1219.56
260.081	1338.56
260.314	1460.56
260.547	1643.56
260.779	1613.56
261.012	1506.56
261.244	1406.56
261.477	1281.56
261.71	1344.56
261.942	1320.56
262.175	1288.56
262.407	1392.56
262.64	1310.56
262.872	1227.56
263.105	1164.56
263.337	1221.56
263.57	1219.56
263.802	1238.56
264.035	1165.56
264.267	1095.56
264.499	1040.56
264.732	1115.56
264.964	1210.56
265.197	1291.56
265.429	1320.56
265.661	1468.56
265.894	1666.56
266.126	1737.56
266.358	1543.56
266.591	1585.56
266.823	1768.56
267.055	1552.56
267.287	1506.56
267.52	1516.56
267.752	1509.56
267.984	1472.56
268.216	1535.56
268.448	1588.56
268.681	1558.56
268.913	1453.56
269.145	1352.56
269.377	1397.56
269.609	1426.56
269.841	1666.56
270.073	1913.56
270.306	2182.56
270.538	2338.56
270.77	1952.56
271.002	1631.56
271.234	1588.56
271.466	1570.56
271.698	1726.56
271.93	2116.56
272.162	2117.56
272.394	1903.56
272.626	1808.56
272.858	1576.56
273.09	1382.56
273.322	1370.56
273.553	1340.56
273.785	1333.56
274.017	1349.56
274.249	1489.56
274.481	1502.56
274.713	1384.56
274.945	1328.56
275.176	1375.56
275.408	1349.56
275.64	1281.56
275.872	1324.56
276.104	1405.56
276.335	1564.56
276.567	1794.56
276.799	1808.56
277.031	1614.56
277.262	1568.56
277.494	1590.56
277.726	1781.56
277.957	1768.56
278.189	1610.56
278.421	1450.56
278.652	1412.56
278.884	1410.56
279.115	1381.56
279.347	1424.56
279.579	1380.56
279.81	1398.56
280.042	1536.56
280.273	1708.56
280.505	1692.56
280.736	1703.56
280.968	1642.56
281.199	1462.56
281.431	1395.56
281.662	1357.56
281.894	1366.56
282.125	1411.56
282.356	1448.56
282.588	1481.56
282.819	1458.56
283.051	1586.56
283.282	1735.56
283.513	1680.56
283.745	1495.56
283.976	1353.56
284.207	1380.56
284.439	1388.56
284.67	1431.56
284.901	1471.56
285.132	1522.56
285.364	1461.56
285.595	1458.56
285.826	1421.56
286.057	1418.56
286.288	1412.56
286.52	1444.56
286.751	1616.56
286.982	1674.56
287.213	1532.56
287.444	1396.56
287.675	1393.56
287.906	1445.56
288.138	1606.56
288.369	1547.56
288.6	1455.56
288.831	1400.56
289.062	1425.56
289.293	1433.56
289.524	1453.56
289.755	1505.56
289.986	1517.56
290.217	1394.56
290.448	1433.56
290.679	1443.56
290.91	1454.56
291.141	1512.56
291.371	1573.56
291.602	1570.56
291.833	1507.56
292.064	1590.56
292.295	1547.56
292.526	1590.56
292.757	1684.56
292.987	1598.56
293.218	1492.56
293.449	1614.56
293.68	1812.56
293.91	1920.56
294.141	1810.56
294.372	1697.56
294.603	1747.56
294.833	1815.56
295.064	1721.56
295.295	1569.56
295.525	1512.56
295.756	1415.56
295.987	1340.56
296.217	1378.56
296.448	1417.56
296.679	1443.56
296.909	1442.56
297.14	1422.56
297.37	1448.56
297.601	1534.56
297.831	1652.56
298.062	1645.56
298.292	1511.56
298.523	1440.56
298.753	1433.56
298.984	1443.56
299.214	1442.56
299.445	1519.56
299.675	1551.56
299.905	1558.56
300.136	1546.56
300.366	1472.56
300.597	1443.56
300.827	1403.56
301.057	1454.56
301.288	1548.56
301.518	1553.56
301.748	1589.56
301.979	1678.56
302.209	1695.56
302.439	1769.56
302.669	1856.56
302.9	1731.56
303.13	1566.56
303.36	1594.56
303.59	1583.56
303.82	1604.56
304.051	1581.56
304.281	1564.56
304.511	1552.56
304.741	1645.56
304.971	1808.56
305.201	1968.56
305.431	1820.56
305.661	1503.56
305.891	1360.56
306.121	1366.56
306.352	1406.56
306.582	1472.56
306.812	1613.56
307.042	1714.56
307.272	1718.56
307.502	1808.56
307.731	1927.56
307.961	2061.56
308.191	1903.56
308.421	1644.56
308.651	1537.56
308.881	1471.56
309.111	1523.56
309.341	1490.56
309.571	1516.56
309.8	1492.56
310.03	1483.56
310.26	1477.56
310.49	1480.56
310.72	1512.56
310.949	1591.56
311.179	1628.56
311.409	1577.56
311.639	1529.56
311.868	1493.56
312.098	1582.56
312.328	1541.56
312.557	1524.56
312.787	1547.56
313.017	1648.56
313.246	1557.56
313.476	1565.56
313.706	1606.56
313.935	1624.56
314.165	1612.56
314.394	1625.56
314.624	1729.56
314.853	1844.56
315.083	1879.56
315.312	1972.56
315.542	1870.56
315.771	1624.56
316.001	1610.56
316.23	1746.56
316.46	1725.56
316.689	1703.56
316.919	1607.56
317.148	1542.56
317.377	1518.56
317.607	1664.56
317.836	1864.56
318.065	1937.56
318.295	1925.56
318.524	1792.56
318.753	1728.56
318.983	1675.56
319.212	1684.56
319.441	1686.56
319.67	1638.56
319.9	1686.56
320.129	1754.56
320.358	1812.56
320.587	1843.56
320.816	1848.56
321.046	1811.56
321.275	1669.56
321.504	1720.56
321.733	1873.56
321.962	1842.56
322.191	1655.56
322.42	1640.56
322.649	1604.56
322.878	1626.56
323.108	1632.56
323.337	1733.56
323.566	1749.56
323.795	1695.56
324.024	1717.56
324.253	1657.56
324.482	1687.56
324.71	1625.56
324.939	1551.56
325.168	1561.56
325.397	1616.56
325.626	1672.56
325.855	1721.56
326.084	1631.56
326.313	1636.56
326.542	1665.56
326.77	1731.56
326.999	1717.56
327.228	1673.56
327.457	1567.56
327.686	1575.56
327.914	1594.56
328.143	1623.56
328.372	1648.56
328.6	1679.56
328.829	1664.56
329.058	1598.56
329.287	1610.56
329.515	1666.56
329.744	1678.56
329.972	1759.56
330.201	1843.56
330.43	1786.56
330.658	1781.56
330.887	1719.56
331.115	1752.56
331.344	1788.56
331.572	1734.56
331.801	1697.56
332.03	1735.56
332.258	1736.56
332.486	1807.56
332.715	1734.56
332.943	1801.56
333.172	1698.56
333.4	1747.56
333.629	1788.56
333.857	1903.56
334.085	2071.56
334.314	2316.56
334.542	2606.56
334.771	2400.56
334.999	2113.56
335.227	1972.56
335.455	1869.56
335.684	1870.56
335.912	1899.56
336.14	1982.56
336.369	1902.56
336.597	1808.56
336.825	1766.56
337.053	1844.56
337.281	1904.56
337.51	2017.56
337.738	2106.56
337.966	1980.56
338.194	1816.56
338.422	1748.56
338.65	1731.56
338.878	1718.56
339.106	1666.56
339.334	1681.56
339.562	1623.56
339.79	1699.56
340.018	1764.56
340.246	1828.56
340.474	1871.56
340.702	1772.56
340.93	1801.56
341.158	1761.56
341.386	1699.56
341.614	1752.56
341.842	1722.56
342.07	1685.56
342.298	1742.56
342.526	1747.56
342.754	1662.56
342.981	1679.56
343.209	1730.56
343.437	1710.56
343.665	1665.56
343.893	1731.56
344.12	1812.56
344.348	1860.56
344.576	1802.56
344.804	1730.56
345.031	1727.56
345.259	1751.56
345.487	1664.56
345.714	1596.56
345.942	1574.56
346.17	1593.56
346.397	1640.56
346.625	1664.56
346.853	1587.56
347.08	1543.56
347.308	1542.56
347.535	1600.56
347.763	1626.56
347.99	1606.56
348.218	1509.56
348.445	1526.56
348.673	1602.56
348.9	1645.56
349.128	1672.56
349.355	1724.56
349.583	1674.56
349.81	1649.56
350.037	1527.56
350.265	1489.56
350.492	1472.56
350.72	1553.56
350.947	1617.56
351.174	1683.56
351.402	1558.56
351.629	1481.56
351.856	1502.56
352.083	1453.56
352.311	1508.56
352.538	1550.56
352.765	1607.56
352.992	1649.56
353.22	1592.56
353.447	1506.56
353.674	1571.56
353.901	1583.56
354.128	1558.56
354.355	1509.56
354.583	1606.56
354.81	1669.56
355.037	1642.56
355.264	1635.56
355.491	1579.56
355.718	1630.56
355.945	1570.56
356.172	1577.56
356.399	1526.56
356.626	1550.56
356.853	1581.56
357.08	1685.56
357.307	1852.56
357.534	1893.56
357.761	1662.56
357.988	1575.56
358.215	1474.56
358.441	1538.56
358.668	1476.56
358.895	1518.56
359.122	1635.56
359.349	1768.56
359.576	1763.56
359.802	1582.56
360.029	1513.56
360.256	1492.56
360.483	1537.56
360.709	1591.56
360.936	1659.56
361.163	1685.56
361.39	1851.56
361.616	1940.56
361.843	1924.56
362.07	1853.56
362.296	1591.56
362.523	1560.56
362.749	1568.56
362.976	1569.56
363.203	1601.56
363.429	1568.56
363.656	1511.56
363.882	1553.56
364.109	1738.56
364.335	1858.56
364.562	1785.56
364.788	1665.56
365.015	1605.56
365.241	1547.56
365.468	1587.56
365.694	1624.56
365.92	1692.56
366.147	1670.56
366.373	1522.56
366.599	1530.56
366.826	1529.56
367.052	1515.56
367.278	1553.56
367.505	1593.56
367.731	1602.56
367.957	1605.56
368.184	1634.56
368.41	1701.56
368.636	1733.56
368.862	1777.56
369.089	1788.56
369.315	1704.56
369.541	1672.56
369.767	1602.56
369.993	1560.56
370.219	1542.56
370.445	1584.56
370.672	1668.56
370.898	1747.56
371.124	1754.56
371.35	1709.56
371.576	1728.56
371.802	1789.56
372.028	1685.56
372.254	1602.56
372.48	1586.56
372.706	1565.56
372.932	1549.56
373.158	1606.56
373.384	1634.56
373.61	1657.56
373.835	1777.56
374.061	1669.56
374.287	1666.56
374.513	1680.56
374.739	1689.56
374.965	1685.56
375.191	1699.56
375.416	1705.56
375.642	1727.56
375.868	1792.56
376.094	1861.56
376.319	1774.56
376.545	1658.56
376.771	1688.56
376.997	1783.56
377.222	1775.56
377.448	1691.56
377.674	1729.56
377.899	1729.56
378.125	1845.56
378.35	1821.56
378.576	1656.56
378.802	1580.56
379.027	1583.56
379.253	1628.56
379.478	1666.56
379.704	1641.56
379.929	1658.56
380.155	1651.56
380.38	1697.56
380.606	1668.56
380.831	1641.56
381.057	1763.56
381.282	1794.56
381.507	1728.56
381.733	1813.56
381.958	1922.56
382.184	1799.56
382.409	1714.56
382.634	1721.56
382.86	1736.56
383.085	1745.56
383.31	1788.56
383.535	1846.56
383.761	2044.56
383.986	1948.56
384.211	1886.56
384.436	1801.56
384.662	1952.56
384.887	1976.56
385.112	1904.56
385.337	1945.56
385.562	1834.56
385.787	1849.56
386.013	1932.56
386.238	1932.56
386.463	1918.56
386.688	2069.56
386.913	2133.56
387.138	2124.56
387.363	1972.56
387.588	1967.56
387.813	1941.56
388.038	1961.56
388.263	2022.56
388.488	1976.56
388.713	1812.56
388.938	1831.56
389.163	1808.56
389.387	1884.56
389.612	1829.56
389.837	1901.56
390.062	1932.56
390.287	1904.56
390.512	1916.56
390.736	1847.56
390.961	1872.56
391.186	1800.56
391.411	1822.56
391.636	1867.56
391.86	1887.56
392.085	1944.56
392.31	1875.56
392.534	1920.56
392.759	1928.56
392.984	1872.56
393.208	1904.56
393.433	1932.56
393.658	2009.56
393.882	2023.56
394.107	1898.56
394.331	1884.56
394.556	1862.56
394.78	1883.56
395.005	1974.56
395.229	2052.56
395.454	2228.56
395.678	2170.56
395.903	2118.56
396.127	2040.56
396.352	2012.56
396.576	2056.56
396.801	2100.56
397.025	2056.56
397.249	2068.56
397.474	2074.56
397.698	2056.56
397.922	2087.56
398.147	2145.56
398.371	2221.56
398.595	2247.56
398.82	2187.56
399.044	2191.56
399.268	2255.56
399.492	2405.56
399.717	2545.56
399.941	2537.56
400.165	2398.56
400.389	2416.56
400.613	2376.56
400.837	2606.56
401.062	3030.56
401.286	2608.56
401.51	2365.56
401.734	2460.56
401.958	2400.56
402.182	2195.56
402.406	2158.56
402.63	2137.56
402.854	2150.56
403.078	2172.56
403.302	2232.56
403.526	2233.56
403.75	2247.56
403.974	2267.56
404.198	2198.56
404.422	2300.56
404.645	2415.56
404.869	2390.56
405.093	2214.56
405.317	2140.56
405.541	2218.56
405.765	2298.56
405.988	2219.56
406.212	2309.56
406.436	2325.56
406.66	2407.56
406.883	2438.56
407.107	2688.56
407.331	2910.56
407.555	3119.56
407.778	2879.56
408.002	2456.56
408.226	2385.56
408.449	2378.56
408.673	2271.56
408.896	2336.56
409.12	2346.56
409.344	2274.56
409.567	2244.56
409.791	2280.56
410.014	2366.56
410.238	2418.56
410.461	2568.56
410.685	2254.56
410.908	2204.56
411.132	2260.56
411.355	2224.56
411.578	2173.56
411.802	2204.56
412.025	2240.56
412.249	2215.56
412.472	2138.56
412.695	2122.56
412.919	2132.56
413.142	2117.56
413.365	2169.56
413.589	2193.56
413.812	2316.56
414.035	2363.56
414.258	2188.56
414.482	2123.56
414.705	2181.56
414.928	2117.56
415.151	2135.56
415.374	2152.56
415.597	2178.56
415.821	2175.56
416.044	2264.56
416.267	2301.56
416.49	2111.56
416.713	2037.56
416.936	2106.56
417.159	2190.56
417.382	2244.56
417.605	2102.56
417.828	2161.56
418.051	2216.56
418.274	2112.56
418.497	2092.56
418.72	2067.56
418.943	2074.56
419.166	2201.56
419.389	2252.56
419.611	2150.56
419.834	2144.56
420.057	2191.56
420.28	2102.56
420.503	2078.56
420.726	2075.56
420.948	2141.56
421.171	2065.56
421.394	2052.56
421.617	2139.56
421.839	2127.56
422.062	2070.56
422.285	2064.56
422.507	2076.56
422.73	2011.56
422.953	2004.56
423.175	1986.56
423.398	2081.56
423.621	2081.56
423.843	2101.56
424.066	2108.56
424.288	2175.56
424.511	2206.56
424.733	2206.56
424.956	1999.56
425.178	1955.56
425.401	1976.56
425.623	2022.56
425.846	2018.56
426.068	2122.56
426.291	2139.56
426.513	2124.56
426.735	2102.56
426.958	2179.56
427.18	2348.56
427.402	2173.56
427.625	2182.56
427.847	2214.56
428.069	2106.56
428.292	2028.56
428.514	1972.56
428.736	1970.56
428.958	1991.56
429.181	2017.56
429.403	2227.56
429.625	2791.56
429.847	2439.56
430.069	2058.56
430.292	2238.56
430.514	2379.56
430.736	2194.56
430.958	2263.56
431.18	2192.56
431.402	2012.56
431.624	2005.56
431.846	1971.56
432.068	1980.56
432.29	1985.56
432.512	2036.56
432.734	2010.56
432.956	2059.56
433.178	2162.56
433.4	2154.56
433.622	2138.56
433.844	2055.56
434.066	1980.56
434.287	1980.56
434.509	2011.56
434.731	2180.56
434.953	2297.56
435.175	2262.56
435.397	2112.56
435.618	2112.56
435.84	2160.56
436.062	2109.56
436.284	2137.56
436.505	2119.56
436.727	2135.56
436.949	2053.56
437.17	1995.56
437.392	2034.56
437.614	2046.56
437.835	1941.56
438.057	2098.56
438.278	2204.56
438.5	2021.56
438.721	1934.56
438.943	1998.56
439.165	1965.56
439.386	1950.56
439.608	1973.56
439.829	1990.56
440.05	2017.56
440.272	2004.56
440.493	1950.56
440.715	1992.56
440.936	2145.56
441.158	2345.56
441.379	2265.56
441.6	2242.56
441.822	2183.56
442.043	2151.56
442.264	2080.56
442.486	1966.56
442.707	1977.56
442.928	1966.56
443.149	2028.56
443.371	2227.56
443.592	2258.56
443.813	2209.56
444.034	2150.56
444.255	2173.56
444.476	2246.56
444.698	2268.56
444.919	2268.56
445.14	2353.56
445.361	2340.56
445.582	2400.56
445.803	2263.56
446.024	2196.56
446.245	2290.56
446.466	2157.56
446.687	2110.56
446.908	2076.56
447.129	1993.56
447.35	2041.56
447.571	2004.56
447.792	1912.56
448.013	1959.56
448.234	1993.56
448.455	2086.56
448.675	2090.56
448.896	1896.56
449.117	1900.56
449.338	1914.56
449.559	2017.56
449.779	2153.56
450	2346.56
450.221	2548.56
450.442	2421.56
450.662	2152.56
450.883	1936.56
451.104	1841.56
451.324	1883.56
451.545	1982.56
451.766	1937.56
451.986	1845.56
452.207	1859.56
452.428	1776.56
452.648	1757.56
452.869	1836.56
453.089	1942.56
453.31	1990.56
453.53	1977.56
453.751	1919.56
453.971	1808.56
454.192	1845.56
454.412	2008.56
454.633	1944.56
454.853	1853.56
455.073	1728.56
455.294	1680.56
455.514	1718.56
455.734	1756.56
455.955	1796.56
456.175	1765.56
456.395	1809.56
456.616	1862.56
456.836	1890.56
457.056	1844.56
457.276	1817.56
457.497	1824.56
457.717	1698.56
457.937	1762.56
458.157	1856.56
458.377	1797.56
458.598	1801.56
458.818	1791.56
459.038	1910.56
459.258	2036.56
459.478	2059.56
459.698	1940.56
459.918	1981.56
460.138	2066.56
460.358	2147.56
460.578	2142.56
460.798	2188.56
461.018	2319.56
461.238	2234.56
461.458	2153.56
461.678	2184.56
461.898	2088.56
462.118	2042.56
462.338	2173.56
462.558	2154.56
462.777	2147.56
462.997	2226.56
463.217	2355.56
463.437	2355.56
463.657	2174.56
463.876	2145.56
464.096	2121.56
464.316	2101.56
464.536	2203.56
464.755	2166.56
464.975	2263.56
465.195	2204.56
465.414	2239.56
465.634	2266.56
465.854	2121.56
466.073	2247.56
466.293	2230.56
466.512	1988.56
466.732	1938.56
466.951	2027.56
467.171	2050.56
467.391	1930.56
467.61	1878.56
467.829	1931.56
468.049	2082.56
468.268	2296.56
468.488	2191.56
468.707	2047.56
468.927	1978.56
469.146	1972.56
469.365	1913.56
469.585	1930.56
469.804	1894.56
470.023	1953.56
470.243	1961.56
470.462	1968.56
470.681	1901.56
470.901	1985.56
471.12	1936.56
471.339	1935.56
471.558	1866.56
471.777	1912.56
471.997	1919.56
472.216	1896.56
472.435	1837.56
472.654	1859.56
472.873	1956.56
473.092	2068.56
473.311	1970.56
473.53	1886.56
473.749	1904.56
473.968	1912.56
474.187	2006.56
474.406	2129.56
474.625	1991.56
474.844	1954.56
475.063	1957.56
475.282	2013.56
475.501	2000.56
475.72	1975.56
475.939	2087.56
476.158	2056.56
476.377	1987.56
476.596	2019.56
476.814	2036.56
477.033	2048.56
477.252	2124.56
477.471	2174.56
477.69	2100.56
477.908	2061.56
478.127	2193.56
478.346	2398.56
478.564	2372.56
478.783	2332.56
479.002	2430.56
479.22	2358.56
479.439	2484.56
479.658	2757.56
479.876	2721.56
480.095	2396.56
480.313	2272.56
480.532	2160.56
480.751	2209.56
480.969	2271.56
481.188	2228.56
481.406	2235.56
481.624	2150.56
481.843	2190.56
482.061	2192.56
482.28	2265.56
482.498	2304.56
482.717	2237.56
482.935	2162.56
483.153	2230.56
483.372	2208.56
483.59	2152.56
483.808	2190.56
484.027	2215.56
484.245	2365.56
484.463	2709.56
484.681	3071.56
484.9	2424.56
485.118	2273.56
485.336	2224.56
485.554	2324.56
485.772	2404.56
485.99	2381.56
486.209	2387.56
486.427	2377.56
486.645	2360.56
486.863	2313.56
487.081	2366.56
487.299	2455.56
