Data from WStandard_LampEnergy5.5LIBS07252019.E.O._I.C._HRD10591_16-09-36-921.txt Node
Date: Thu Jul 25 16:09:36 EDT 2019
User: cochatt
Spectrometer: HR+D1059
Trigger mode: 1
Integration Time (sec): 1.000000E-1
Scans to average: 1
Electric dark correction enabled: true
Nonlinearity correction enabled: false
Boxcar width: 0
XAxis mode: Wavelengths
Number of Pixels in Spectrum: 2048
>>>>>Begin Spectral Data<<<<<
223.165	-25.44
223.4	-25.44
223.635	-25.44
223.869	-16.44
224.104	-11.44
224.338	-5.44
224.573	-10.44
224.808	-9.44
225.042	-9.44
225.277	-5.44
225.511	6.56
225.746	8.56
225.98	7.56
226.215	-0.44
226.449	-4.44
226.683	19.56
226.918	34.56
227.152	21.56
227.387	36.56
227.621	37.56
227.856	35.56
228.09	29.56
228.324	51.56
228.559	41.56
228.793	145.56
229.027	344.56
229.262	365.56
229.496	357.56
229.73	391.56
229.964	417.56
230.199	441.56
230.433	435.56
230.667	461.56
230.901	488.56
231.136	479.56
231.37	451.56
231.604	443.56
231.838	434.56
232.072	442.56
232.306	424.56
232.541	447.56
232.775	525.56
233.009	569.56
233.243	558.56
233.477	506.56
233.711	528.56
233.945	550.56
234.179	522.56
234.413	541.56
234.647	613.56
234.881	574.56
235.115	517.56
235.349	543.56
235.583	546.56
235.817	521.56
236.051	534.56
236.285	526.56
236.519	579.56
236.753	624.56
236.987	651.56
237.221	631.56
237.455	699.56
237.689	697.56
237.922	669.56
238.156	647.56
238.39	649.56
238.624	682.56
238.858	697.56
239.091	746.56
239.325	802.56
239.559	871.56
239.793	901.56
240.027	1019.56
240.26	1002.56
240.494	744.56
240.728	691.56
240.961	722.56
241.195	718.56
241.429	789.56
241.662	777.56
241.896	729.56
242.13	760.56
242.363	805.56
242.597	842.56
242.83	835.56
243.064	862.56
243.298	903.56
243.531	897.56
243.765	893.56
243.998	894.56
244.232	773.56
244.465	747.56
244.699	767.56
244.932	861.56
245.166	995.56
245.399	958.56
245.633	871.56
245.866	889.56
246.099	909.56
246.333	911.56
246.566	907.56
246.8	1009.56
247.033	1131.56
247.266	1059.56
247.5	994.56
247.733	1022.56
247.966	1077.56
248.2	1175.56
248.433	1130.56
248.666	1174.56
248.899	1263.56
249.133	1487.56
249.366	1661.56
249.599	1385.56
249.832	1211.56
250.066	1222.56
250.299	1229.56
250.532	1142.56
250.765	1041.56
250.998	1095.56
251.231	1169.56
251.465	1195.56
251.698	1155.56
251.931	1108.56
252.164	1149.56
252.397	1197.56
252.63	1204.56
252.863	1042.56
253.096	1069.56
253.329	1126.56
253.562	1149.56
253.795	1197.56
254.028	1207.56
254.261	1141.56
254.494	1121.56
254.727	1069.56
254.96	1110.56
255.193	1221.56
255.426	1339.56
255.659	1572.56
255.892	1613.56
256.124	1335.56
256.357	1268.56
256.59	1350.56
256.823	1410.56
257.056	1350.56
257.289	1601.56
257.521	1837.56
257.754	1657.56
257.987	1509.56
258.22	1708.56
258.452	1691.56
258.685	1338.56
258.918	1295.56
259.151	1338.56
259.383	1249.56
259.616	1122.56
259.849	1205.56
260.081	1326.56
260.314	1499.56
260.547	1640.56
260.779	1642.56
261.012	1519.56
261.244	1390.56
261.477	1319.56
261.71	1377.56
261.942	1363.56
262.175	1295.56
262.407	1444.56
262.64	1339.56
262.872	1268.56
263.105	1206.56
263.337	1224.56
263.57	1312.56
263.802	1246.56
264.035	1196.56
264.267	1122.56
264.499	1120.56
264.732	1189.56
264.964	1241.56
265.197	1294.56
265.429	1375.56
265.661	1506.56
265.894	1685.56
266.126	1704.56
266.358	1512.56
266.591	1601.56
266.823	1766.56
267.055	1574.56
267.287	1528.56
267.52	1522.56
267.752	1507.56
267.984	1493.56
268.216	1569.56
268.448	1578.56
268.681	1574.56
268.913	1445.56
269.145	1437.56
269.377	1373.56
269.609	1432.56
269.841	1687.56
270.073	1941.56
270.306	2165.56
270.538	2310.56
270.77	1990.56
271.002	1664.56
271.234	1627.56
271.466	1585.56
271.698	1738.56
271.93	2107.56
272.162	2097.56
272.394	1912.56
272.626	1817.56
272.858	1640.56
273.09	1405.56
273.322	1417.56
273.553	1329.56
273.785	1385.56
274.017	1424.56
274.249	1512.56
274.481	1554.56
274.713	1372.56
274.945	1362.56
275.176	1375.56
275.408	1388.56
275.64	1356.56
275.872	1318.56
276.104	1397.56
276.335	1573.56
276.567	1813.56
276.799	1857.56
277.031	1642.56
277.262	1557.56
277.494	1618.56
277.726	1808.56
277.957	1784.56
278.189	1665.56
278.421	1528.56
278.652	1462.56
278.884	1407.56
279.115	1406.56
279.347	1445.56
279.579	1428.56
279.81	1419.56
280.042	1525.56
280.273	1752.56
280.505	1700.56
280.736	1742.56
280.968	1693.56
281.199	1473.56
281.431	1424.56
281.662	1407.56
281.894	1419.56
282.125	1423.56
282.356	1485.56
282.588	1528.56
282.819	1475.56
283.051	1610.56
283.282	1776.56
283.513	1702.56
283.745	1510.56
283.976	1357.56
284.207	1395.56
284.439	1415.56
284.67	1485.56
284.901	1485.56
285.132	1529.56
285.364	1457.56
285.595	1491.56
285.826	1483.56
286.057	1450.56
286.288	1457.56
286.52	1489.56
286.751	1637.56
286.982	1721.56
287.213	1556.56
287.444	1407.56
287.675	1411.56
287.906	1487.56
288.138	1600.56
288.369	1620.56
288.6	1479.56
288.831	1434.56
289.062	1431.56
289.293	1490.56
289.524	1480.56
289.755	1512.56
289.986	1571.56
290.217	1401.56
290.448	1457.56
290.679	1508.56
290.91	1492.56
291.141	1585.56
291.371	1618.56
291.602	1578.56
291.833	1570.56
292.064	1615.56
292.295	1565.56
292.526	1583.56
292.757	1699.56
292.987	1601.56
293.218	1524.56
293.449	1611.56
293.68	1845.56
293.91	1994.56
294.141	1864.56
294.372	1750.56
294.603	1817.56
294.833	1894.56
295.064	1802.56
295.295	1595.56
295.525	1567.56
295.756	1474.56
295.987	1368.56
296.217	1418.56
296.448	1459.56
296.679	1446.56
296.909	1446.56
297.14	1425.56
297.37	1440.56
297.601	1547.56
297.831	1665.56
298.062	1744.56
298.292	1557.56
298.523	1486.56
298.753	1496.56
298.984	1514.56
299.214	1510.56
299.445	1545.56
299.675	1610.56
299.905	1558.56
300.136	1528.56
300.366	1534.56
300.597	1473.56
300.827	1443.56
301.057	1523.56
301.288	1601.56
301.518	1562.56
301.748	1601.56
301.979	1715.56
302.209	1725.56
302.439	1850.56
302.669	1938.56
302.9	1801.56
303.13	1601.56
303.36	1587.56
303.59	1639.56
303.82	1635.56
304.051	1634.56
304.281	1622.56
304.511	1610.56
304.741	1731.56
304.971	1878.56
305.201	2034.56
305.431	1874.56
305.661	1575.56
305.891	1455.56
306.121	1414.56
306.352	1497.56
306.582	1570.56
306.812	1656.56
307.042	1779.56
307.272	1768.56
307.502	1801.56
307.731	1968.56
307.961	2095.56
308.191	1954.56
308.421	1678.56
308.651	1589.56
308.881	1547.56
309.111	1567.56
309.341	1508.56
309.571	1566.56
309.8	1587.56
310.03	1565.56
310.26	1530.56
310.49	1533.56
310.72	1581.56
310.949	1657.56
311.179	1654.56
311.409	1639.56
311.639	1583.56
311.868	1552.56
312.098	1587.56
312.328	1596.56
312.557	1578.56
312.787	1581.56
313.017	1639.56
313.246	1645.56
313.476	1583.56
313.706	1631.56
313.935	1633.56
314.165	1682.56
314.394	1672.56
314.624	1770.56
314.853	1910.56
315.083	1910.56
315.312	2026.56
315.542	1865.56
315.771	1696.56
316.001	1671.56
316.23	1764.56
316.46	1745.56
316.689	1743.56
316.919	1659.56
317.148	1567.56
317.377	1606.56
317.607	1687.56
317.836	1922.56
318.065	2017.56
318.295	1921.56
318.524	1839.56
318.753	1801.56
318.983	1748.56
319.212	1714.56
319.441	1691.56
319.67	1699.56
319.9	1706.56
320.129	1798.56
320.358	1827.56
320.587	1893.56
320.816	1894.56
321.046	1885.56
321.275	1751.56
321.504	1752.56
321.733	1921.56
321.962	1851.56
322.191	1725.56
322.42	1721.56
322.649	1678.56
322.878	1631.56
323.108	1696.56
323.337	1779.56
323.566	1780.56
323.795	1745.56
324.024	1748.56
324.253	1681.56
324.482	1722.56
324.71	1735.56
324.939	1649.56
325.168	1647.56
325.397	1681.56
325.626	1730.56
325.855	1760.56
326.084	1721.56
326.313	1734.56
326.542	1764.56
326.77	1807.56
326.999	1818.56
327.228	1717.56
327.457	1627.56
327.686	1611.56
327.914	1701.56
328.143	1679.56
328.372	1690.56
328.6	1681.56
328.829	1677.56
329.058	1689.56
329.287	1647.56
329.515	1700.56
329.744	1719.56
329.972	1827.56
330.201	1919.56
330.43	1877.56
330.658	1789.56
330.887	1779.56
331.115	1809.56
331.344	1836.56
331.572	1769.56
331.801	1793.56
332.03	1759.56
332.258	1802.56
332.486	1824.56
332.715	1823.56
332.943	1879.56
333.172	1860.56
333.4	1845.56
333.629	1838.56
333.857	1951.56
334.085	2101.56
334.314	2437.56
334.542	2642.56
334.771	2449.56
334.999	2166.56
335.227	2011.56
335.455	1918.56
335.684	1887.56
335.912	2003.56
336.14	2059.56
336.369	2006.56
336.597	1855.56
336.825	1849.56
337.053	1866.56
337.281	1950.56
337.51	2015.56
337.738	2153.56
337.966	2066.56
338.194	1849.56
338.422	1798.56
338.65	1800.56
338.878	1789.56
339.106	1736.56
339.334	1758.56
339.562	1682.56
339.79	1680.56
340.018	1797.56
340.246	1870.56
340.474	1876.56
340.702	1832.56
340.93	1872.56
341.158	1813.56
341.386	1820.56
341.614	1803.56
341.842	1762.56
342.07	1767.56
342.298	1815.56
342.526	1817.56
342.754	1765.56
342.981	1760.56
343.209	1791.56
343.437	1748.56
343.665	1759.56
343.893	1826.56
344.12	1894.56
344.348	1904.56
344.576	1835.56
344.804	1761.56
345.031	1797.56
345.259	1805.56
345.487	1785.56
345.714	1675.56
345.942	1622.56
346.17	1669.56
346.397	1692.56
346.625	1730.56
346.853	1662.56
347.08	1623.56
347.308	1598.56
347.535	1647.56
347.763	1691.56
347.99	1685.56
348.218	1606.56
348.445	1619.56
348.673	1653.56
348.9	1687.56
349.128	1747.56
349.355	1811.56
349.583	1743.56
349.81	1682.56
350.037	1571.56
350.265	1545.56
350.492	1566.56
350.72	1609.56
350.947	1703.56
351.174	1724.56
351.402	1641.56
351.629	1522.56
351.856	1551.56
352.083	1525.56
352.311	1545.56
352.538	1577.56
352.765	1677.56
352.992	1685.56
353.22	1639.56
353.447	1592.56
353.674	1648.56
353.901	1681.56
354.128	1601.56
354.355	1578.56
354.583	1667.56
354.81	1708.56
355.037	1693.56
355.264	1686.56
355.491	1640.56
355.718	1674.56
355.945	1609.56
356.172	1599.56
356.399	1564.56
356.626	1609.56
356.853	1648.56
357.08	1747.56
357.307	1907.56
357.534	1965.56
357.761	1744.56
357.988	1581.56
358.215	1547.56
358.441	1580.56
358.668	1578.56
358.895	1598.56
359.122	1640.56
359.349	1874.56
359.576	1811.56
359.802	1671.56
360.029	1595.56
360.256	1553.56
360.483	1621.56
360.709	1634.56
360.936	1701.56
361.163	1741.56
361.39	1889.56
361.616	2018.56
361.843	2017.56
362.07	1881.56
362.296	1655.56
362.523	1587.56
362.749	1603.56
362.976	1647.56
363.203	1717.56
363.429	1623.56
363.656	1607.56
363.882	1629.56
364.109	1804.56
364.335	1910.56
364.562	1807.56
364.788	1731.56
365.015	1713.56
365.241	1608.56
365.468	1684.56
365.694	1712.56
365.92	1764.56
366.147	1693.56
366.373	1626.56
366.599	1609.56
366.826	1569.56
367.052	1583.56
367.278	1598.56
367.505	1699.56
367.731	1685.56
367.957	1688.56
368.184	1710.56
368.41	1821.56
368.636	1837.56
368.862	1826.56
369.089	1854.56
369.315	1791.56
369.541	1704.56
369.767	1667.56
369.993	1641.56
370.219	1633.56
370.445	1684.56
370.672	1750.56
370.898	1819.56
371.124	1812.56
371.35	1718.56
371.576	1742.56
371.802	1847.56
372.028	1737.56
372.254	1704.56
372.48	1685.56
372.706	1653.56
372.932	1700.56
373.158	1645.56
373.384	1660.56
373.61	1735.56
373.835	1834.56
374.061	1724.56
374.287	1706.56
374.513	1746.56
374.739	1730.56
374.965	1754.56
375.191	1798.56
375.416	1776.56
375.642	1768.56
375.868	1881.56
376.094	1937.56
376.319	1848.56
376.545	1743.56
376.771	1789.56
376.997	1843.56
377.222	1817.56
377.448	1795.56
377.674	1745.56
377.899	1777.56
378.125	1921.56
378.35	1929.56
378.576	1766.56
378.802	1683.56
379.027	1659.56
379.253	1682.56
379.478	1729.56
379.704	1697.56
379.929	1726.56
380.155	1722.56
380.38	1709.56
380.606	1759.56
380.831	1742.56
381.057	1809.56
381.282	1849.56
381.507	1789.56
381.733	1862.56
381.958	1957.56
382.184	1821.56
382.409	1793.56
382.634	1801.56
382.86	1787.56
383.085	1769.56
383.31	1783.56
383.535	1980.56
383.761	2053.56
383.986	2027.56
384.211	1913.56
384.436	1890.56
384.662	1983.56
384.887	2097.56
385.112	1967.56
385.337	1999.56
385.562	1949.56
385.787	1937.56
386.013	2045.56
386.238	2009.56
386.463	2001.56
386.688	2085.56
386.913	2250.56
387.138	2163.56
387.363	2032.56
387.588	2022.56
387.813	1989.56
388.038	1990.56
388.263	2126.56
388.488	2051.56
388.713	1882.56
388.938	1913.56
389.163	1889.56
389.387	1953.56
389.612	1935.56
389.837	1966.56
390.062	2021.56
390.287	1973.56
390.512	1983.56
390.736	1924.56
390.961	1929.56
391.186	1837.56
391.411	1921.56
391.636	1980.56
391.86	1982.56
392.085	1992.56
392.31	1936.56
392.534	1952.56
392.759	2014.56
392.984	1949.56
393.208	1976.56
393.433	1984.56
393.658	2112.56
393.882	2112.56
394.107	2020.56
394.331	1981.56
394.556	1968.56
394.78	1962.56
395.005	2114.56
395.229	2065.56
395.454	2247.56
395.678	2305.56
395.903	2159.56
396.127	2043.56
396.352	2095.56
396.576	2128.56
396.801	2171.56
397.025	2142.56
397.249	2167.56
397.474	2102.56
397.698	2075.56
397.922	2186.56
398.147	2265.56
398.371	2334.56
398.595	2349.56
398.82	2246.56
399.044	2303.56
399.268	2392.56
399.492	2530.56
399.717	2693.56
399.941	2648.56
400.165	2597.56
400.389	2502.56
400.613	2470.56
400.837	2718.56
401.062	3191.56
401.286	2800.56
401.51	2463.56
401.734	2545.56
401.958	2500.56
402.182	2340.56
402.406	2269.56
402.63	2217.56
402.854	2214.56
403.078	2269.56
403.302	2321.56
403.526	2339.56
403.75	2343.56
403.974	2342.56
404.198	2357.56
404.422	2393.56
404.645	2526.56
404.869	2486.56
405.093	2299.56
405.317	2301.56
405.541	2371.56
405.765	2414.56
405.988	2376.56
406.212	2417.56
406.436	2517.56
406.66	2524.56
406.883	2490.56
407.107	2794.56
407.331	3037.56
407.555	3312.56
407.778	3089.56
408.002	2611.56
408.226	2457.56
408.449	2461.56
408.673	2406.56
408.896	2389.56
409.12	2449.56
409.344	2355.56
409.567	2290.56
409.791	2378.56
410.014	2385.56
410.238	2515.56
410.461	2635.56
410.685	2394.56
410.908	2273.56
411.132	2371.56
411.355	2355.56
411.578	2270.56
411.802	2260.56
412.025	2359.56
412.249	2283.56
412.472	2201.56
412.695	2232.56
412.919	2283.56
413.142	2223.56
413.365	2302.56
413.589	2293.56
413.812	2376.56
414.035	2468.56
414.258	2290.56
414.482	2223.56
414.705	2263.56
414.928	2242.56
415.151	2177.56
415.374	2286.56
415.597	2270.56
415.821	2327.56
416.044	2387.56
416.267	2382.56
416.49	2155.56
416.713	2163.56
416.936	2190.56
417.159	2339.56
417.382	2335.56
417.605	2174.56
417.828	2244.56
418.051	2295.56
418.274	2239.56
418.497	2122.56
418.72	2100.56
418.943	2127.56
419.166	2299.56
419.389	2383.56
419.611	2293.56
419.834	2207.56
420.057	2252.56
420.28	2177.56
420.503	2146.56
420.726	2204.56
420.948	2204.56
421.171	2141.56
421.394	2137.56
421.617	2194.56
421.839	2201.56
422.062	2187.56
422.285	2096.56
422.507	2151.56
422.73	2088.56
422.953	2070.56
423.175	2062.56
423.398	2135.56
423.621	2194.56
423.843	2125.56
424.066	2212.56
424.288	2307.56
424.511	2272.56
424.733	2245.56
424.956	2062.56
425.178	2059.56
425.401	2077.56
425.623	2079.56
425.846	2045.56
426.068	2163.56
426.291	2223.56
426.513	2174.56
426.735	2191.56
426.958	2312.56
427.18	2458.56
427.402	2257.56
427.625	2321.56
427.847	2338.56
428.069	2168.56
428.292	2090.56
428.514	2038.56
428.736	2021.56
428.958	2099.56
429.181	2080.56
429.403	2330.56
429.625	2954.56
429.847	2609.56
430.069	2159.56
430.292	2287.56
430.514	2455.56
430.736	2231.56
430.958	2343.56
431.18	2272.56
431.402	2061.56
431.624	2065.56
431.846	2066.56
432.068	2058.56
432.29	2070.56
432.512	2077.56
432.734	2101.56
432.956	2152.56
433.178	2253.56
433.4	2251.56
433.622	2256.56
433.844	2159.56
434.066	2065.56
434.287	2074.56
434.509	2098.56
434.731	2247.56
434.953	2385.56
435.175	2339.56
435.397	2181.56
435.618	2146.56
435.84	2233.56
436.062	2162.56
436.284	2143.56
436.505	2182.56
436.727	2235.56
436.949	2177.56
437.17	2072.56
437.392	2080.56
437.614	2081.56
437.835	2059.56
438.057	2166.56
438.278	2276.56
438.5	2135.56
438.721	1994.56
438.943	2083.56
439.165	2059.56
439.386	2039.56
439.608	2061.56
439.829	2114.56
440.05	2070.56
440.272	2024.56
440.493	2019.56
440.715	2072.56
440.936	2202.56
441.158	2452.56
441.379	2375.56
441.6	2288.56
441.822	2270.56
442.043	2211.56
442.264	2176.56
442.486	2071.56
442.707	2057.56
442.928	2050.56
443.149	2128.56
443.371	2286.56
443.592	2290.56
443.813	2285.56
444.034	2227.56
444.255	2261.56
444.476	2302.56
444.698	2384.56
444.919	2357.56
445.14	2449.56
445.361	2393.56
445.582	2451.56
445.803	2327.56
446.024	2242.56
446.245	2392.56
446.466	2274.56
446.687	2174.56
446.908	2165.56
447.129	2079.56
447.35	2177.56
447.571	2115.56
447.792	2038.56
448.013	2053.56
448.234	2059.56
448.455	2144.56
448.675	2141.56
448.896	1958.56
449.117	1981.56
449.338	2037.56
449.559	2113.56
449.779	2242.56
450	2402.56
450.221	2632.56
450.442	2468.56
450.662	2223.56
450.883	1997.56
451.104	1965.56
451.324	1957.56
451.545	2054.56
451.766	1967.56
451.986	1933.56
452.207	1953.56
452.428	1898.56
452.648	1842.56
452.869	1907.56
453.089	2029.56
453.31	2013.56
453.53	2111.56
453.751	1962.56
453.971	1869.56
454.192	1917.56
454.412	2039.56
454.633	1947.56
454.853	1932.56
455.073	1824.56
455.294	1806.56
455.514	1808.56
455.734	1823.56
455.955	1913.56
456.175	1828.56
456.395	1820.56
456.616	1917.56
456.836	1937.56
457.056	1883.56
457.276	1886.56
457.497	1823.56
457.717	1778.56
457.937	1804.56
458.157	1847.56
458.377	1846.56
458.598	1871.56
458.818	1904.56
459.038	1955.56
459.258	2142.56
459.478	2051.56
459.698	2061.56
459.918	2078.56
460.138	2208.56
460.358	2224.56
460.578	2185.56
460.798	2280.56
461.018	2415.56
461.238	2346.56
461.458	2221.56
461.678	2183.56
461.898	2203.56
462.118	2098.56
462.338	2254.56
462.558	2246.56
462.777	2232.56
462.997	2373.56
463.217	2522.56
463.437	2415.56
463.657	2317.56
463.876	2251.56
464.096	2227.56
464.316	2208.56
464.536	2314.56
464.755	2304.56
464.975	2304.56
465.195	2261.56
465.414	2329.56
465.634	2321.56
465.854	2227.56
466.073	2366.56
466.293	2321.56
466.512	2024.56
466.732	2033.56
466.951	2122.56
467.171	2101.56
467.391	2009.56
467.61	1935.56
467.829	1978.56
468.049	2132.56
468.268	2368.56
468.488	2191.56
468.707	2138.56
468.927	2067.56
469.146	1978.56
469.365	1973.56
469.585	2013.56
469.804	2021.56
470.023	2006.56
470.243	2064.56
470.462	2041.56
470.681	1976.56
470.901	2017.56
471.12	2028.56
471.339	1991.56
471.558	1970.56
471.777	1924.56
471.997	1965.56
472.216	1986.56
472.435	1949.56
472.654	1978.56
472.873	2065.56
473.092	2189.56
473.311	2056.56
473.53	1923.56
473.749	1894.56
473.968	1983.56
474.187	2111.56
474.406	2204.56
474.625	2055.56
474.844	2011.56
475.063	2019.56
475.282	2092.56
475.501	2034.56
475.72	2019.56
475.939	2150.56
476.158	2101.56
476.377	2036.56
476.596	2030.56
476.814	2098.56
477.033	2131.56
477.252	2205.56
477.471	2254.56
477.69	2163.56
477.908	2134.56
478.127	2279.56
478.346	2476.56
478.564	2456.56
478.783	2393.56
479.002	2501.56
479.22	2431.56
479.439	2504.56
479.658	2888.56
479.876	2812.56
480.095	2487.56
480.313	2342.56
480.532	2241.56
480.751	2286.56
480.969	2366.56
481.188	2309.56
481.406	2282.56
481.624	2214.56
481.843	2252.56
482.061	2325.56
482.28	2365.56
482.498	2381.56
482.717	2328.56
482.935	2243.56
483.153	2253.56
483.372	2272.56
483.59	2265.56
483.808	2292.56
484.027	2329.56
484.245	2495.56
484.463	2823.56
484.681	3250.56
484.9	2536.56
485.118	2338.56
485.336	2309.56
485.554	2401.56
485.772	2470.56
485.99	2435.56
486.209	2461.56
486.427	2512.56
486.645	2495.56
486.863	2420.56
487.081	2459.56
487.299	2560.56
487.517	2532.56
