Data from WStandard_LampEnergy10_LIBS07252019.E.O._I.C._HRD10591_15-52-46-927.txt Node
Date: Thu Jul 25 15:52:46 EDT 2019
User: cochatt
Spectrometer: HR+D1059
Trigger mode: 1
Integration Time (sec): 1.000000E-1
Scans to average: 1
Electric dark correction enabled: true
Nonlinearity correction enabled: false
Boxcar width: 0
XAxis mode: Wavelengths
Number of Pixels in Spectrum: 2048
>>>>>Begin Spectral Data<<<<<
223.165	-12.44
223.4	-12.44
223.635	-12.44
223.869	-13.44
224.104	-20.44
224.338	-25.44
224.573	-18.44
224.808	-3.44
225.042	-10.44
225.277	-9.44
225.511	-6.44
225.746	12.56
225.98	0.56
226.215	6.56
226.449	19.56
226.683	22.56
226.918	26.56
227.152	31.56
227.387	31.56
227.621	21.56
227.856	39.56
228.09	38.56
228.324	44.56
228.559	40.56
228.793	79.56
229.027	123.56
229.262	120.56
229.496	125.56
229.73	154.56
229.964	148.56
230.199	140.56
230.433	156.56
230.667	161.56
230.901	157.56
231.136	137.56
231.37	146.56
231.604	159.56
231.838	151.56
232.072	163.56
232.306	160.56
232.541	159.56
232.775	166.56
233.009	182.56
233.243	180.56
233.477	184.56
233.711	173.56
233.945	162.56
234.179	161.56
234.413	176.56
234.647	182.56
234.881	180.56
235.115	174.56
235.349	171.56
235.583	160.56
235.817	182.56
236.051	160.56
236.285	165.56
236.519	177.56
236.753	204.56
236.987	186.56
237.221	200.56
237.455	207.56
237.689	202.56
237.922	193.56
238.156	199.56
238.39	197.56
238.624	200.56
238.858	206.56
239.091	212.56
239.325	224.56
239.559	237.56
239.793	258.56
240.027	260.56
240.26	254.56
240.494	210.56
240.728	193.56
240.961	208.56
241.195	219.56
241.429	236.56
241.662	240.56
241.896	212.56
242.13	216.56
242.363	210.56
242.597	231.56
242.83	225.56
243.064	245.56
243.298	262.56
243.531	250.56
243.765	235.56
243.998	231.56
244.232	225.56
244.465	212.56
244.699	224.56
244.932	250.56
245.166	257.56
245.399	246.56
245.633	242.56
245.866	252.56
246.099	248.56
246.333	242.56
246.566	244.56
246.8	288.56
247.033	282.56
247.266	268.56
247.5	278.56
247.733	254.56
247.966	285.56
248.2	312.56
248.433	314.56
248.666	308.56
248.899	335.56
249.133	344.56
249.366	391.56
249.599	326.56
249.832	306.56
250.066	322.56
250.299	315.56
250.532	296.56
250.765	272.56
250.998	288.56
251.231	286.56
251.465	299.56
251.698	307.56
251.931	293.56
252.164	291.56
252.397	304.56
252.63	293.56
252.863	279.56
253.096	276.56
253.329	300.56
253.562	302.56
253.795	315.56
254.028	313.56
254.261	289.56
254.494	299.56
254.727	272.56
254.96	304.56
255.193	328.56
255.426	348.56
255.659	386.56
255.892	378.56
256.124	329.56
256.357	316.56
256.59	329.56
256.823	342.56
257.056	364.56
257.289	402.56
257.521	419.56
257.754	409.56
257.987	377.56
258.22	406.56
258.452	374.56
258.685	353.56
258.918	348.56
259.151	322.56
259.383	320.56
259.616	310.56
259.849	307.56
260.081	338.56
260.314	374.56
260.547	382.56
260.779	404.56
261.012	346.56
261.244	334.56
261.477	335.56
261.71	337.56
261.942	339.56
262.175	347.56
262.407	343.56
262.64	338.56
262.872	334.56
263.105	292.56
263.337	305.56
263.57	314.56
263.802	326.56
264.035	315.56
264.267	289.56
264.499	295.56
264.732	310.56
264.964	310.56
265.197	334.56
265.429	362.56
265.661	374.56
265.894	411.56
266.126	416.56
266.358	402.56
266.591	391.56
266.823	422.56
267.055	401.56
267.287	373.56
267.52	380.56
267.752	372.56
267.984	380.56
268.216	393.56
268.448	384.56
268.681	390.56
268.913	339.56
269.145	352.56
269.377	387.56
269.609	403.56
269.841	452.56
270.073	508.56
270.306	530.56
270.538	542.56
270.77	454.56
271.002	385.56
271.234	368.56
271.466	408.56
271.698	447.56
271.93	511.56
272.162	475.56
272.394	456.56
272.626	445.56
272.858	373.56
273.09	335.56
273.322	358.56
273.553	333.56
273.785	330.56
274.017	362.56
274.249	366.56
274.481	365.56
274.713	342.56
274.945	338.56
275.176	342.56
275.408	355.56
275.64	341.56
275.872	347.56
276.104	375.56
276.335	428.56
276.567	456.56
276.799	444.56
277.031	371.56
277.262	407.56
277.494	443.56
277.726	450.56
277.957	434.56
278.189	403.56
278.421	358.56
278.652	378.56
278.884	353.56
279.115	368.56
279.347	390.56
279.579	360.56
279.81	380.56
280.042	403.56
280.273	434.56
280.505	449.56
280.736	423.56
280.968	388.56
281.199	368.56
281.431	360.56
281.662	362.56
281.894	351.56
282.125	390.56
282.356	386.56
282.588	384.56
282.819	392.56
283.051	411.56
283.282	409.56
283.513	405.56
283.745	385.56
283.976	354.56
284.207	372.56
284.439	374.56
284.67	371.56
284.901	383.56
285.132	401.56
285.364	400.56
285.595	382.56
285.826	386.56
286.057	388.56
286.288	399.56
286.52	401.56
286.751	404.56
286.982	420.56
287.213	392.56
287.444	375.56
287.675	374.56
287.906	384.56
288.138	398.56
288.369	390.56
288.6	373.56
288.831	373.56
289.062	365.56
289.293	380.56
289.524	377.56
289.755	397.56
289.986	384.56
290.217	352.56
290.448	371.56
290.679	390.56
290.91	400.56
291.141	408.56
291.371	404.56
291.602	397.56
291.833	400.56
292.064	416.56
292.295	405.56
292.526	423.56
292.757	428.56
292.987	418.56
293.218	421.56
293.449	424.56
293.68	495.56
293.91	499.56
294.141	469.56
294.372	451.56
294.603	454.56
294.833	479.56
295.064	434.56
295.295	415.56
295.525	404.56
295.756	378.56
295.987	374.56
296.217	377.56
296.448	379.56
296.679	402.56
296.909	399.56
297.14	396.56
297.37	406.56
297.601	433.56
297.831	451.56
298.062	427.56
298.292	413.56
298.523	384.56
298.753	401.56
298.984	413.56
299.214	398.56
299.445	406.56
299.675	428.56
299.905	430.56
300.136	388.56
300.366	402.56
300.597	388.56
300.827	392.56
301.057	418.56
301.288	421.56
301.518	436.56
301.748	443.56
301.979	481.56
302.209	478.56
302.439	487.56
302.669	481.56
302.9	453.56
303.13	424.56
303.36	443.56
303.59	420.56
303.82	440.56
304.051	426.56
304.281	445.56
304.511	448.56
304.741	490.56
304.971	505.56
305.201	538.56
305.431	479.56
305.661	423.56
305.891	400.56
306.121	373.56
306.352	405.56
306.582	430.56
306.812	450.56
307.042	490.56
307.272	483.56
307.502	512.56
307.731	532.56
307.961	554.56
308.191	476.56
308.421	451.56
308.651	430.56
308.881	446.56
309.111	422.56
309.341	423.56
309.571	430.56
309.8	422.56
310.03	416.56
310.26	418.56
310.49	426.56
310.72	414.56
310.949	458.56
311.179	435.56
311.409	445.56
311.639	420.56
311.868	442.56
312.098	415.56
312.328	434.56
312.557	410.56
312.787	406.56
313.017	436.56
313.246	440.56
313.476	444.56
313.706	444.56
313.935	461.56
314.165	474.56
314.394	472.56
314.624	501.56
314.853	524.56
315.083	508.56
315.312	534.56
315.542	503.56
315.771	452.56
316.001	465.56
316.23	498.56
316.46	470.56
316.689	458.56
316.919	448.56
317.148	428.56
317.377	455.56
317.607	503.56
317.836	562.56
318.065	538.56
318.295	514.56
318.524	505.56
318.753	500.56
318.983	487.56
319.212	462.56
319.441	449.56
319.67	476.56
319.9	478.56
320.129	513.56
320.358	520.56
320.587	545.56
320.816	511.56
321.046	499.56
321.275	475.56
321.504	498.56
321.733	526.56
321.962	484.56
322.191	453.56
322.42	469.56
322.649	472.56
322.878	484.56
323.108	484.56
323.337	496.56
323.566	503.56
323.795	484.56
324.024	485.56
324.253	481.56
324.482	493.56
324.71	444.56
324.939	434.56
325.168	453.56
325.397	493.56
325.626	493.56
325.855	477.56
326.084	458.56
326.313	472.56
326.542	475.56
326.77	499.56
326.999	484.56
327.228	471.56
327.457	461.56
327.686	450.56
327.914	469.56
328.143	456.56
328.372	473.56
328.6	462.56
328.829	465.56
329.058	463.56
329.287	446.56
329.515	488.56
329.744	487.56
329.972	522.56
330.201	524.56
330.43	520.56
330.658	502.56
330.887	491.56
331.115	529.56
331.344	511.56
331.572	494.56
331.801	496.56
332.03	496.56
332.258	480.56
332.486	496.56
332.715	532.56
332.943	493.56
333.172	484.56
333.4	518.56
333.629	520.56
333.857	584.56
334.085	641.56
334.314	713.56
334.542	687.56
334.771	664.56
334.999	595.56
335.227	547.56
335.455	546.56
335.684	543.56
335.912	575.56
336.14	563.56
336.369	529.56
336.597	503.56
336.825	509.56
337.053	526.56
337.281	561.56
337.51	605.56
337.738	592.56
337.966	547.56
338.194	506.56
338.422	478.56
338.65	503.56
338.878	491.56
339.106	490.56
339.334	467.56
339.562	479.56
339.79	490.56
340.018	525.56
340.246	538.56
340.474	528.56
340.702	525.56
340.93	546.56
341.158	527.56
341.386	524.56
341.614	521.56
341.842	502.56
342.07	521.56
342.298	506.56
342.526	532.56
342.754	480.56
342.981	492.56
343.209	487.56
343.437	510.56
343.665	486.56
343.893	523.56
344.12	548.56
344.348	527.56
344.576	510.56
344.804	510.56
345.031	503.56
345.259	509.56
345.487	482.56
345.714	457.56
345.942	470.56
346.17	480.56
346.397	500.56
346.625	481.56
346.853	476.56
347.08	472.56
347.308	463.56
347.535	478.56
347.763	477.56
347.99	479.56
348.218	471.56
348.445	478.56
348.673	460.56
348.9	500.56
349.128	523.56
349.355	531.56
349.583	503.56
349.81	466.56
350.037	452.56
350.265	434.56
350.492	445.56
350.72	452.56
350.947	475.56
351.174	481.56
351.402	467.56
351.629	449.56
351.856	431.56
352.083	441.56
352.311	448.56
352.538	467.56
352.765	496.56
352.992	502.56
353.22	469.56
353.447	478.56
353.674	465.56
353.901	472.56
354.128	468.56
354.355	458.56
354.583	508.56
354.81	498.56
355.037	478.56
355.264	510.56
355.491	481.56
355.718	480.56
355.945	478.56
356.172	454.56
356.399	479.56
356.626	482.56
356.853	514.56
357.08	545.56
357.307	579.56
357.534	531.56
357.761	487.56
357.988	483.56
358.215	451.56
358.441	454.56
358.668	452.56
358.895	458.56
359.122	519.56
359.349	532.56
359.576	520.56
359.802	476.56
360.029	481.56
360.256	460.56
360.483	492.56
360.709	512.56
360.936	512.56
361.163	519.56
361.39	595.56
361.616	606.56
361.843	582.56
362.07	524.56
362.296	498.56
362.523	478.56
362.749	473.56
362.976	479.56
363.203	509.56
363.429	493.56
363.656	470.56
363.882	508.56
364.109	585.56
364.335	572.56
364.562	531.56
364.788	517.56
365.015	482.56
365.241	478.56
365.468	478.56
365.694	502.56
365.92	528.56
366.147	509.56
366.373	505.56
366.599	493.56
366.826	478.56
367.052	469.56
367.278	490.56
367.505	507.56
367.731	538.56
367.957	515.56
368.184	546.56
368.41	569.56
368.636	574.56
368.862	583.56
369.089	585.56
369.315	554.56
369.541	511.56
369.767	509.56
369.993	511.56
370.219	507.56
370.445	533.56
370.672	571.56
370.898	578.56
371.124	581.56
371.35	538.56
371.576	574.56
371.802	576.56
372.028	540.56
372.254	519.56
372.48	537.56
372.706	518.56
372.932	518.56
373.158	517.56
373.384	540.56
373.61	552.56
373.835	564.56
374.061	532.56
374.287	539.56
374.513	552.56
374.739	561.56
374.965	558.56
375.191	562.56
375.416	565.56
375.642	567.56
375.868	600.56
376.094	630.56
376.319	579.56
376.545	559.56
376.771	592.56
376.997	591.56
377.222	624.56
377.448	599.56
377.674	562.56
377.899	619.56
378.125	608.56
378.35	588.56
378.576	531.56
378.802	516.56
379.027	526.56
379.253	543.56
379.478	556.56
379.704	532.56
379.929	570.56
380.155	568.56
380.38	558.56
380.606	579.56
380.831	567.56
381.057	618.56
381.282	597.56
381.507	596.56
381.733	630.56
381.958	640.56
382.184	596.56
382.409	587.56
382.634	598.56
382.86	579.56
383.085	570.56
383.31	612.56
383.535	668.56
383.761	700.56
383.986	645.56
384.211	636.56
384.436	654.56
384.662	696.56
384.887	670.56
385.112	606.56
385.337	629.56
385.562	632.56
385.787	641.56
386.013	660.56
386.238	644.56
386.463	652.56
386.688	726.56
386.913	717.56
387.138	703.56
387.363	663.56
387.588	661.56
387.813	671.56
388.038	694.56
388.263	722.56
388.488	653.56
388.713	622.56
388.938	626.56
389.163	648.56
389.387	619.56
389.612	640.56
389.837	680.56
390.062	674.56
390.287	668.56
390.512	657.56
390.736	647.56
390.961	616.56
391.186	640.56
391.411	642.56
391.636	659.56
391.86	660.56
392.085	676.56
392.31	668.56
392.534	668.56
392.759	656.56
392.984	677.56
393.208	680.56
393.433	718.56
393.658	714.56
393.882	707.56
394.107	676.56
394.331	687.56
394.556	676.56
394.78	688.56
395.005	668.56
395.229	740.56
395.454	751.56
395.678	746.56
395.903	723.56
396.127	698.56
396.352	725.56
396.576	754.56
396.801	720.56
397.025	730.56
397.249	731.56
397.474	727.56
397.698	709.56
397.922	765.56
398.147	778.56
398.371	787.56
398.595	748.56
398.82	761.56
399.044	759.56
399.268	806.56
399.492	849.56
399.717	868.56
399.941	887.56
400.165	867.56
400.389	848.56
400.613	862.56
400.837	955.56
401.062	1048.56
401.286	903.56
401.51	855.56
401.734	867.56
401.958	846.56
402.182	784.56
402.406	782.56
402.63	784.56
402.854	774.56
403.078	791.56
403.302	802.56
403.526	792.56
403.75	785.56
403.974	818.56
404.198	846.56
404.422	888.56
404.645	894.56
404.869	850.56
405.093	818.56
405.317	790.56
405.541	797.56
405.765	827.56
405.988	820.56
406.212	838.56
406.436	838.56
406.66	879.56
406.883	901.56
407.107	994.56
407.331	1067.56
407.555	1087.56
407.778	987.56
408.002	880.56
408.226	862.56
408.449	846.56
408.673	847.56
408.896	830.56
409.12	835.56
409.344	821.56
409.567	815.56
409.791	841.56
410.014	847.56
410.238	909.56
410.461	947.56
410.685	843.56
410.908	835.56
411.132	839.56
411.355	822.56
411.578	820.56
411.802	840.56
412.025	848.56
412.249	843.56
412.472	823.56
412.695	808.56
412.919	824.56
413.142	796.56
413.365	826.56
413.589	854.56
413.812	906.56
414.035	884.56
414.258	818.56
414.482	807.56
414.705	833.56
414.928	842.56
415.151	825.56
415.374	816.56
415.597	834.56
415.821	829.56
416.044	862.56
416.267	830.56
416.49	812.56
416.713	829.56
416.936	856.56
417.159	871.56
417.382	865.56
417.605	839.56
417.828	840.56
418.051	843.56
418.274	861.56
418.497	840.56
418.72	821.56
418.943	791.56
419.166	862.56
419.389	866.56
419.611	874.56
419.834	869.56
420.057	874.56
420.28	844.56
420.503	880.56
420.726	844.56
420.948	855.56
421.171	838.56
421.394	835.56
421.617	870.56
421.839	893.56
422.062	848.56
422.285	842.56
422.507	846.56
422.73	793.56
422.953	808.56
423.175	816.56
423.398	806.56
423.621	824.56
423.843	866.56
424.066	888.56
424.288	917.56
424.511	964.56
424.733	930.56
424.956	846.56
425.178	838.56
425.401	860.56
425.623	880.56
425.846	855.56
426.068	870.56
426.291	862.56
426.513	849.56
426.735	883.56
426.958	942.56
427.18	954.56
427.402	902.56
427.625	923.56
427.847	879.56
428.069	843.56
428.292	819.56
428.514	790.56
428.736	817.56
428.958	832.56
429.181	818.56
429.403	952.56
429.625	1054.56
429.847	933.56
430.069	858.56
430.292	935.56
430.514	905.56
430.736	883.56
430.958	882.56
431.18	832.56
431.402	799.56
431.624	738.56
431.846	709.56
432.068	615.56
432.29	646.56
432.512	691.56
432.734	794.56
432.956	818.56
433.178	868.56
433.4	856.56
433.622	862.56
433.844	790.56
434.066	748.56
434.287	710.56
434.509	669.56
434.731	738.56
434.953	814.56
435.175	819.56
435.397	826.56
435.618	781.56
435.84	736.56
436.062	732.56
436.284	818.56
436.505	807.56
436.727	883.56
436.949	845.56
437.17	812.56
437.392	802.56
437.614	772.56
437.835	726.56
438.057	730.56
438.278	754.56
438.5	784.56
438.721	800.56
438.943	839.56
439.165	862.56
439.386	859.56
439.608	863.56
439.829	865.56
440.05	885.56
440.272	861.56
440.493	882.56
440.715	900.56
440.936	918.56
441.158	942.56
441.379	966.56
441.6	925.56
441.822	908.56
442.043	908.56
442.264	891.56
442.486	887.56
442.707	868.56
442.928	867.56
443.149	893.56
443.371	931.56
443.592	899.56
443.813	907.56
444.034	911.56
444.255	921.56
444.476	930.56
444.698	958.56
444.919	948.56
445.14	1030.56
445.361	990.56
445.582	979.56
445.803	980.56
446.024	948.56
446.245	943.56
446.466	1005.56
446.687	978.56
446.908	966.56
447.129	924.56
447.35	912.56
447.571	922.56
447.792	855.56
448.013	872.56
448.234	870.56
448.455	897.56
448.675	898.56
448.896	851.56
449.117	848.56
449.338	841.56
449.559	859.56
449.779	895.56
450	914.56
450.221	946.56
450.442	906.56
450.662	848.56
450.883	778.56
451.104	792.56
451.324	803.56
451.545	797.56
451.766	803.56
451.986	742.56
452.207	737.56
452.428	744.56
452.648	704.56
452.869	700.56
453.089	708.56
453.31	697.56
453.53	673.56
453.751	642.56
453.971	602.56
454.192	660.56
454.412	683.56
454.633	681.56
454.853	712.56
455.073	695.56
455.294	698.56
455.514	700.56
455.734	706.56
455.955	685.56
456.175	660.56
456.395	650.56
456.616	641.56
456.836	644.56
457.056	653.56
457.276	640.56
457.497	633.56
457.717	615.56
457.937	626.56
458.157	614.56
458.377	609.56
458.598	597.56
458.818	590.56
459.038	613.56
459.258	589.56
459.478	625.56
459.698	619.56
459.918	625.56
460.138	674.56
460.358	736.56
460.578	737.56
460.798	727.56
461.018	759.56
461.238	782.56
461.458	762.56
461.678	726.56
461.898	700.56
462.118	717.56
462.338	736.56
462.558	748.56
462.777	737.56
462.997	743.56
463.217	779.56
463.437	778.56
463.657	741.56
463.876	733.56
464.096	723.56
464.316	751.56
464.536	779.56
464.755	770.56
464.975	775.56
465.195	768.56
465.414	791.56
465.634	791.56
465.854	783.56
466.073	835.56
466.293	835.56
466.512	768.56
466.732	780.56
466.951	838.56
467.171	808.56
467.391	786.56
467.61	801.56
467.829	812.56
468.049	907.56
468.268	917.56
468.488	876.56
468.707	826.56
468.927	836.56
469.146	807.56
469.365	830.56
469.585	852.56
469.804	827.56
470.023	859.56
470.243	862.56
470.462	831.56
470.681	812.56
470.901	859.56
471.12	850.56
471.339	863.56
471.558	863.56
471.777	825.56
471.997	827.56
472.216	760.56
472.435	687.56
472.654	662.56
472.873	683.56
473.092	735.56
473.311	735.56
473.53	726.56
473.749	747.56
473.968	762.56
474.187	781.56
474.406	780.56
474.625	772.56
474.844	792.56
475.063	786.56
475.282	790.56
475.501	740.56
475.72	763.56
475.939	792.56
476.158	808.56
476.377	782.56
476.596	764.56
476.814	714.56
477.033	710.56
477.252	747.56
477.471	760.56
477.69	811.56
477.908	875.56
478.127	888.56
478.346	894.56
478.564	906.56
478.783	896.56
479.002	920.56
479.22	938.56
479.439	929.56
479.658	933.56
479.876	852.56
480.095	784.56
480.313	748.56
480.532	760.56
480.751	750.56
480.969	707.56
481.188	675.56
481.406	645.56
481.624	638.56
481.843	661.56
482.061	724.56
482.28	765.56
482.498	773.56
482.717	748.56
482.935	790.56
483.153	871.56
483.372	925.56
483.59	934.56
483.808	881.56
484.027	836.56
484.245	900.56
484.463	1090.56
484.681	1171.56
484.9	917.56
485.118	851.56
485.336	823.56
485.554	774.56
485.772	762.56
485.99	736.56
486.209	783.56
486.427	794.56
486.645	836.56
486.863	901.56
487.081	913.56
487.299	868.56
487.517	883.56
487.735	1024.56
487.953	1130.56
488.171	1071.56
488.389	1007.56
488.607	990.56
488.825	1036.56
489.043	914.56
489.261	878.56
489.479	935.56
489.696	942.56
489.914	915.56
490.132	953.56
490.35	1010.56
490.568	1058.56
490.786	1100.56
491.003	1074.56
491.221	1154.56
491.439	1205.56
491.657	1207.56
491.874	1248.56
492.092	1338.56
492.31	1413.56
492.527	1386.56
492.745	1321.56
492.963	1208.56
493.18	1218.56
493.398	1234.56
493.615	1258.56
493.833	1196.56
494.05	1151.56
494.268	1130.56
494.485	1144.56
494.703	1137.56
494.92	1158.56
495.138	1150.56
495.355	1146.56
495.573	1154.56
495.79	1154.56
496.008	1190.56
496.225	1164.56
496.442	1137.56
496.66	1128.56
496.877	1082.56
497.094	1124.56
497.312	1120.56
497.529	1104.56
497.746	1060.56
497.963	1131.56
498.181	1134.56
498.398	1108.56
498.615	1067.56
498.832	1030.56
499.049	1013.56
499.267	1005.56
499.484	1077.56
499.701	1179.56
499.918	1230.56
500.135	1311.56
500.352	1346.56
500.569	1396.56
500.786	1528.56
501.003	1354.56
501.22	1271.56
