Data from WStandard_LampEnergy10_LIBS07252019.E.O._I.C._HRD10591_15-53-37-928.txt Node
Date: Thu Jul 25 15:53:37 EDT 2019
User: cochatt
Spectrometer: HR+D1059
Trigger mode: 1
Integration Time (sec): 1.000000E-1
Scans to average: 1
Electric dark correction enabled: true
Nonlinearity correction enabled: false
Boxcar width: 0
XAxis mode: Wavelengths
Number of Pixels in Spectrum: 2048
>>>>>Begin Spectral Data<<<<<
223.165	-4.94
223.4	-4.94
223.635	-4.94
223.869	-5.94
224.104	-8.94
224.338	-27.94
224.573	-11.94
224.808	-15.94
225.042	-12.94
225.277	-9.94
225.511	-12.94
225.746	4.06
225.98	2.06
226.215	12.06
226.449	13.06
226.683	23.06
226.918	24.06
227.152	33.06
227.387	32.06
227.621	43.06
227.856	33.06
228.09	45.06
228.324	50.06
228.559	53.06
228.793	84.06
229.027	146.06
229.262	139.06
229.496	156.06
229.73	148.06
229.964	160.06
230.199	164.06
230.433	164.06
230.667	178.06
230.901	186.06
231.136	185.06
231.37	179.06
231.604	165.06
231.838	177.06
232.072	178.06
232.306	182.06
232.541	184.06
232.775	203.06
233.009	212.06
233.243	198.06
233.477	182.06
233.711	183.06
233.945	200.06
234.179	200.06
234.413	185.06
234.647	210.06
234.881	190.06
235.115	202.06
235.349	190.06
235.583	193.06
235.817	197.06
236.051	190.06
236.285	195.06
236.519	199.06
236.753	223.06
236.987	233.06
237.221	216.06
237.455	238.06
237.689	231.06
237.922	204.06
238.156	215.06
238.39	224.06
238.624	215.06
238.858	243.06
239.091	245.06
239.325	244.06
239.559	291.06
239.793	297.06
240.027	310.06
240.26	292.06
240.494	240.06
240.728	241.06
240.961	224.06
241.195	225.06
241.429	241.06
241.662	235.06
241.896	238.06
242.13	250.06
242.363	284.06
242.597	292.06
242.83	285.06
243.064	260.06
243.298	278.06
243.531	270.06
243.765	278.06
243.998	288.06
244.232	242.06
244.465	262.06
244.699	267.06
244.932	280.06
245.166	301.06
245.399	283.06
245.633	278.06
245.866	279.06
246.099	293.06
246.333	286.06
246.566	284.06
246.8	315.06
247.033	341.06
247.266	301.06
247.5	308.06
247.733	327.06
247.966	347.06
248.2	368.06
248.433	360.06
248.666	358.06
248.899	412.06
249.133	432.06
249.366	462.06
249.599	396.06
249.832	370.06
250.066	362.06
250.299	363.06
250.532	345.06
250.765	312.06
250.998	335.06
251.231	337.06
251.465	342.06
251.698	340.06
251.931	336.06
252.164	333.06
252.397	362.06
252.63	360.06
252.863	306.06
253.096	316.06
253.329	332.06
253.562	341.06
253.795	364.06
254.028	342.06
254.261	340.06
254.494	341.06
254.727	337.06
254.96	357.06
255.193	393.06
255.426	392.06
255.659	445.06
255.892	457.06
256.124	380.06
256.357	376.06
256.59	412.06
256.823	411.06
257.056	429.06
257.289	474.06
257.521	502.06
257.754	454.06
257.987	437.06
258.22	468.06
258.452	446.06
258.685	414.06
258.918	396.06
259.151	386.06
259.383	376.06
259.616	348.06
259.849	346.06
260.081	408.06
260.314	451.06
260.547	458.06
260.779	464.06
261.012	443.06
261.244	418.06
261.477	386.06
261.71	418.06
261.942	406.06
262.175	393.06
262.407	404.06
262.64	384.06
262.872	358.06
263.105	360.06
263.337	365.06
263.57	352.06
263.802	369.06
264.035	347.06
264.267	338.06
264.499	342.06
264.732	368.06
264.964	374.06
265.197	390.06
265.429	408.06
265.661	451.06
265.894	474.06
266.126	467.06
266.358	451.06
266.591	457.06
266.823	481.06
267.055	456.06
267.287	458.06
267.52	452.06
267.752	438.06
267.984	441.06
268.216	453.06
268.448	441.06
268.681	460.06
268.913	423.06
269.145	416.06
269.377	420.06
269.609	449.06
269.841	527.06
270.073	577.06
270.306	598.06
270.538	618.06
270.77	536.06
271.002	481.06
271.234	461.06
271.466	483.06
271.698	528.06
271.93	582.06
272.162	605.06
272.394	533.06
272.626	524.06
272.858	469.06
273.09	432.06
273.322	408.06
273.553	399.06
273.785	394.06
274.017	447.06
274.249	448.06
274.481	428.06
274.713	418.06
274.945	413.06
275.176	395.06
275.408	411.06
275.64	386.06
275.872	398.06
276.104	431.06
276.335	472.06
276.567	512.06
276.799	520.06
277.031	480.06
277.262	465.06
277.494	477.06
277.726	524.06
277.957	500.06
278.189	462.06
278.421	437.06
278.652	423.06
278.884	427.06
279.115	425.06
279.347	441.06
279.579	422.06
279.81	433.06
280.042	465.06
280.273	480.06
280.505	499.06
280.736	514.06
280.968	483.06
281.199	448.06
281.431	429.06
281.662	421.06
281.894	420.06
282.125	446.06
282.356	446.06
282.588	449.06
282.819	450.06
283.051	507.06
283.282	507.06
283.513	485.06
283.745	416.06
283.976	422.06
284.207	416.06
284.439	429.06
284.67	437.06
284.901	454.06
285.132	459.06
285.364	449.06
285.595	459.06
285.826	434.06
286.057	452.06
286.288	446.06
286.52	465.06
286.751	492.06
286.982	515.06
287.213	459.06
287.444	443.06
287.675	442.06
287.906	456.06
288.138	482.06
288.369	453.06
288.6	438.06
288.831	439.06
289.062	421.06
289.293	446.06
289.524	469.06
289.755	471.06
289.986	462.06
290.217	445.06
290.448	446.06
290.679	453.06
290.91	468.06
291.141	474.06
291.371	475.06
291.602	474.06
291.833	491.06
292.064	476.06
292.295	476.06
292.526	499.06
292.757	490.06
292.987	484.06
293.218	486.06
293.449	520.06
293.68	563.06
293.91	570.06
294.141	542.06
294.372	527.06
294.603	548.06
294.833	573.06
295.064	540.06
295.295	496.06
295.525	469.06
295.756	465.06
295.987	438.06
296.217	442.06
296.448	452.06
296.679	472.06
296.909	469.06
297.14	448.06
297.37	477.06
297.601	474.06
297.831	509.06
298.062	510.06
298.292	492.06
298.523	457.06
298.753	436.06
298.984	470.06
299.214	454.06
299.445	485.06
299.675	481.06
299.905	515.06
300.136	454.06
300.366	457.06
300.597	446.06
300.827	467.06
301.057	505.06
301.288	503.06
301.518	496.06
301.748	502.06
301.979	525.06
302.209	555.06
302.439	578.06
302.669	583.06
302.9	555.06
303.13	523.06
303.36	512.06
303.59	486.06
303.82	505.06
304.051	523.06
304.281	512.06
304.511	523.06
304.741	558.06
304.971	612.06
305.201	615.06
305.431	532.06
305.661	473.06
305.891	449.06
306.121	477.06
306.352	456.06
306.582	494.06
306.812	510.06
307.042	574.06
307.272	566.06
307.502	581.06
307.731	620.06
307.961	635.06
308.191	594.06
308.421	524.06
308.651	489.06
308.881	522.06
309.111	486.06
309.341	485.06
309.571	503.06
309.8	492.06
310.03	485.06
310.26	489.06
310.49	492.06
310.72	518.06
310.949	544.06
311.179	535.06
311.409	516.06
311.639	503.06
311.868	501.06
312.098	490.06
312.328	491.06
312.557	493.06
312.787	507.06
313.017	514.06
313.246	518.06
313.476	536.06
313.706	524.06
313.935	542.06
314.165	520.06
314.394	580.06
314.624	578.06
314.853	622.06
315.083	621.06
315.312	609.06
315.542	590.06
315.771	534.06
316.001	530.06
316.23	560.06
316.46	569.06
316.689	532.06
316.919	541.06
317.148	507.06
317.377	540.06
317.607	594.06
317.836	644.06
318.065	646.06
318.295	604.06
318.524	570.06
318.753	569.06
318.983	565.06
319.212	553.06
319.441	554.06
319.67	536.06
319.9	564.06
320.129	570.06
320.358	604.06
320.587	608.06
320.816	615.06
321.046	617.06
321.275	564.06
321.504	595.06
321.733	616.06
321.962	597.06
322.191	568.06
322.42	544.06
322.649	554.06
322.878	561.06
323.108	576.06
323.337	585.06
323.566	582.06
323.795	580.06
324.024	554.06
324.253	563.06
324.482	548.06
324.71	539.06
324.939	510.06
325.168	551.06
325.397	552.06
325.626	583.06
325.855	566.06
326.084	538.06
326.313	550.06
326.542	566.06
326.77	580.06
326.999	574.06
327.228	531.06
327.457	528.06
327.686	541.06
327.914	554.06
328.143	553.06
328.372	524.06
328.6	553.06
328.829	548.06
329.058	565.06
329.287	550.06
329.515	570.06
329.744	567.06
329.972	606.06
330.201	616.06
330.43	602.06
330.658	590.06
330.887	596.06
331.115	595.06
331.344	590.06
331.572	570.06
331.801	580.06
332.03	570.06
332.258	606.06
332.486	602.06
332.715	598.06
332.943	611.06
333.172	616.06
333.4	605.06
333.629	623.06
333.857	654.06
334.085	744.06
334.314	810.06
334.542	826.06
334.771	732.06
334.999	661.06
335.227	650.06
335.455	636.06
335.684	651.06
335.912	656.06
336.14	664.06
336.369	610.06
336.597	605.06
336.825	600.06
337.053	628.06
337.281	662.06
337.51	695.06
337.738	678.06
337.966	647.06
338.194	602.06
338.422	602.06
338.65	573.06
338.878	566.06
339.106	578.06
339.334	560.06
339.562	546.06
339.79	571.06
340.018	604.06
340.246	626.06
340.474	632.06
340.702	628.06
340.93	603.06
341.158	605.06
341.386	608.06
341.614	596.06
341.842	586.06
342.07	585.06
342.298	590.06
342.526	617.06
342.754	583.06
342.981	588.06
343.209	590.06
343.437	604.06
343.665	573.06
343.893	605.06
344.12	637.06
344.348	635.06
344.576	604.06
344.804	584.06
345.031	580.06
345.259	595.06
345.487	559.06
345.714	554.06
345.942	564.06
346.17	548.06
346.397	546.06
346.625	596.06
346.853	549.06
347.08	539.06
347.308	544.06
347.535	561.06
347.763	580.06
347.99	556.06
348.218	523.06
348.445	560.06
348.673	560.06
348.9	568.06
349.128	583.06
349.355	619.06
349.583	591.06
349.81	552.06
350.037	513.06
350.265	538.06
350.492	535.06
350.72	570.06
350.947	587.06
351.174	577.06
351.402	551.06
351.629	520.06
351.856	527.06
352.083	534.06
352.311	514.06
352.538	566.06
352.765	563.06
352.992	570.06
353.22	550.06
353.447	547.06
353.674	574.06
353.901	576.06
354.128	546.06
354.355	564.06
354.583	594.06
354.81	605.06
355.037	587.06
355.264	561.06
355.491	561.06
355.718	554.06
355.945	572.06
356.172	546.06
356.399	530.06
356.626	544.06
356.853	565.06
357.08	640.06
357.307	696.06
357.534	616.06
357.761	580.06
357.988	538.06
358.215	533.06
358.441	554.06
358.668	535.06
358.895	564.06
359.122	594.06
359.349	600.06
359.576	600.06
359.802	555.06
360.029	539.06
360.256	562.06
360.483	549.06
360.709	580.06
360.936	602.06
361.163	629.06
361.39	678.06
361.616	700.06
361.843	704.06
362.07	640.06
362.296	576.06
362.523	566.06
362.749	555.06
362.976	584.06
363.203	557.06
363.429	572.06
363.656	554.06
363.882	594.06
364.109	634.06
364.335	672.06
364.562	621.06
364.788	573.06
365.015	549.06
365.241	549.06
365.468	565.06
365.694	597.06
365.92	595.06
366.147	559.06
366.373	549.06
366.599	562.06
366.826	573.06
367.052	583.06
367.278	583.06
367.505	581.06
367.731	602.06
367.957	598.06
368.184	632.06
368.41	651.06
368.636	651.06
368.862	649.06
369.089	647.06
369.315	631.06
369.541	613.06
369.767	580.06
369.993	571.06
370.219	577.06
370.445	606.06
370.672	642.06
370.898	662.06
371.124	652.06
371.35	627.06
371.576	624.06
371.802	653.06
372.028	631.06
372.254	625.06
372.48	607.06
372.706	605.06
372.932	601.06
373.158	601.06
373.384	638.06
373.61	637.06
373.835	647.06
374.061	645.06
374.287	642.06
374.513	629.06
374.739	659.06
374.965	642.06
375.191	646.06
375.416	650.06
375.642	666.06
375.868	700.06
376.094	718.06
376.319	646.06
376.545	650.06
376.771	694.06
376.997	704.06
377.222	668.06
377.448	668.06
377.674	671.06
377.899	668.06
378.125	701.06
378.35	686.06
378.576	649.06
378.802	627.06
379.027	615.06
379.253	623.06
379.478	613.06
379.704	633.06
379.929	647.06
380.155	631.06
380.38	653.06
380.606	672.06
380.831	670.06
381.057	682.06
381.282	692.06
381.507	708.06
381.733	745.06
381.958	736.06
382.184	702.06
382.409	683.06
382.634	666.06
382.86	656.06
383.085	686.06
383.31	715.06
383.535	765.06
383.761	801.06
383.986	745.06
384.211	721.06
384.436	741.06
384.662	736.06
384.887	768.06
385.112	726.06
385.337	734.06
385.562	729.06
385.787	730.06
386.013	739.06
386.238	750.06
386.463	756.06
386.688	811.06
386.913	852.06
387.138	822.06
387.363	781.06
387.588	756.06
387.813	752.06
388.038	785.06
388.263	804.06
388.488	768.06
388.713	702.06
388.938	716.06
389.163	718.06
389.387	745.06
389.612	726.06
389.837	788.06
390.062	759.06
390.287	732.06
390.512	748.06
390.736	727.06
390.961	711.06
391.186	714.06
391.411	729.06
391.636	752.06
391.86	742.06
392.085	717.06
392.31	734.06
392.534	752.06
392.759	745.06
392.984	771.06
393.208	752.06
393.433	796.06
393.658	822.06
393.882	811.06
394.107	772.06
394.331	762.06
394.556	720.06
394.78	746.06
395.005	801.06
395.229	825.06
395.454	867.06
395.678	848.06
395.903	832.06
396.127	803.06
396.352	833.06
396.576	843.06
396.801	844.06
397.025	843.06
397.249	837.06
397.474	833.06
397.698	844.06
397.922	844.06
398.147	912.06
398.371	910.06
398.595	861.06
398.82	850.06
399.044	891.06
399.268	939.06
399.492	965.06
399.717	956.06
399.941	985.06
400.165	944.06
400.389	941.06
400.613	977.06
400.837	1131.06
401.062	1172.06
401.286	1010.06
401.51	970.06
401.734	956.06
401.958	940.06
402.182	915.06
402.406	891.06
402.63	884.06
402.854	880.06
403.078	893.06
403.302	877.06
403.526	892.06
403.75	898.06
403.974	933.06
404.198	929.06
404.422	971.06
404.645	996.06
404.869	974.06
405.093	914.06
405.317	932.06
405.541	894.06
405.765	920.06
405.988	926.06
406.212	934.06
406.436	956.06
406.66	990.06
406.883	992.06
407.107	1142.06
407.331	1225.06
407.555	1280.06
407.778	1122.06
408.002	977.06
408.226	946.06
408.449	962.06
408.673	934.06
408.896	922.06
409.12	946.06
409.344	950.06
409.567	925.06
409.791	928.06
410.014	951.06
410.238	1019.06
410.461	1017.06
410.685	930.06
410.908	934.06
411.132	931.06
411.355	908.06
411.578	956.06
411.802	941.06
412.025	946.06
412.249	929.06
412.472	909.06
412.695	897.06
412.919	897.06
413.142	905.06
413.365	916.06
413.589	933.06
413.812	997.06
414.035	997.06
414.258	932.06
414.482	942.06
414.705	928.06
414.928	900.06
415.151	922.06
415.374	920.06
415.597	924.06
415.821	933.06
416.044	936.06
416.267	944.06
416.49	902.06
416.713	915.06
416.936	939.06
417.159	966.06
417.382	934.06
417.605	936.06
417.828	937.06
418.051	938.06
418.274	927.06
418.497	889.06
418.72	947.06
418.943	924.06
419.166	966.06
419.389	987.06
419.611	962.06
419.834	945.06
420.057	919.06
420.28	929.06
420.503	914.06
420.726	953.06
420.948	941.06
421.171	925.06
421.394	918.06
421.617	955.06
421.839	995.06
422.062	963.06
422.285	931.06
422.507	944.06
422.73	899.06
422.953	885.06
423.175	881.06
423.398	896.06
423.621	932.06
423.843	938.06
424.066	954.06
424.288	1051.06
424.511	1028.06
424.733	987.06
424.956	954.06
425.178	934.06
425.401	932.06
425.623	930.06
425.846	913.06
426.068	992.06
426.291	978.06
426.513	955.06
426.735	954.06
426.958	1030.06
427.18	1030.06
427.402	954.06
427.625	1008.06
427.847	974.06
428.069	914.06
428.292	925.06
428.514	918.06
428.736	893.06
428.958	910.06
429.181	936.06
429.403	1079.06
429.625	1192.06
429.847	1042.06
430.069	936.06
430.292	1011.06
430.514	1009.06
430.736	976.06
430.958	982.06
431.18	937.06
431.402	881.06
431.624	841.06
431.846	806.06
432.068	718.06
432.29	747.06
432.512	805.06
432.734	870.06
432.956	893.06
433.178	986.06
433.4	933.06
433.622	960.06
433.844	905.06
434.066	835.06
434.287	794.06
434.509	742.06
434.731	801.06
434.953	886.06
435.175	953.06
435.397	931.06
435.618	892.06
435.84	843.06
436.062	834.06
436.284	900.06
436.505	916.06
436.727	973.06
436.949	918.06
437.17	904.06
437.392	873.06
437.614	846.06
437.835	786.06
438.057	818.06
438.278	842.06
438.5	865.06
438.721	886.06
438.943	937.06
439.165	938.06
439.386	938.06
439.608	948.06
439.829	946.06
440.05	961.06
440.272	987.06
440.493	947.06
440.715	934.06
440.936	1018.06
441.158	1032.06
441.379	1074.06
441.6	1050.06
441.822	1021.06
442.043	1039.06
442.264	962.06
442.486	945.06
442.707	939.06
442.928	945.06
443.149	985.06
443.371	998.06
443.592	1024.06
443.813	1013.06
444.034	1024.06
444.255	1011.06
444.476	1024.06
444.698	1044.06
444.919	1054.06
445.14	1152.06
445.361	1083.06
445.582	1063.06
445.803	1064.06
446.024	1042.06
446.245	1085.06
446.466	1016.06
446.687	1023.06
446.908	1070.06
447.129	1021.06
447.35	1010.06
447.571	1012.06
447.792	965.06
448.013	960.06
448.234	953.06
448.455	1003.06
448.675	963.06
448.896	895.06
449.117	916.06
449.338	925.06
449.559	955.06
449.779	971.06
450	1045.06
450.221	1036.06
450.442	1020.06
450.662	921.06
450.883	892.06
451.104	869.06
451.324	880.06
451.545	884.06
451.766	867.06
451.986	835.06
452.207	822.06
452.428	792.06
452.648	767.06
452.869	789.06
453.089	793.06
453.31	743.06
453.53	749.06
453.751	744.06
453.971	681.06
454.192	719.06
454.412	751.06
454.633	772.06
454.853	784.06
455.073	741.06
455.294	761.06
455.514	773.06
455.734	777.06
455.955	757.06
456.175	736.06
456.395	744.06
456.616	748.06
456.836	721.06
457.056	732.06
457.276	709.06
457.497	729.06
457.717	688.06
457.937	708.06
458.157	701.06
458.377	713.06
458.598	680.06
458.818	666.06
459.038	702.06
459.258	711.06
459.478	704.06
459.698	689.06
459.918	707.06
460.138	788.06
460.358	836.06
460.578	813.06
460.798	872.06
461.018	856.06
461.238	866.06
461.458	834.06
461.678	835.06
461.898	822.06
462.118	798.06
462.338	847.06
462.558	822.06
462.777	806.06
462.997	880.06
463.217	886.06
463.437	886.06
463.657	861.06
463.876	830.06
464.096	825.06
464.316	819.06
464.536	876.06
464.755	857.06
464.975	869.06
465.195	853.06
465.414	870.06
465.634	862.06
465.854	883.06
466.073	982.06
466.293	935.06
466.512	877.06
466.732	893.06
466.951	919.06
467.171	894.06
467.391	888.06
467.61	883.06
467.829	898.06
468.049	987.06
468.268	1015.06
468.488	947.06
468.707	916.06
468.927	922.06
469.146	885.06
469.365	911.06
469.585	934.06
469.804	930.06
470.023	909.06
470.243	924.06
470.462	926.06
470.681	915.06
470.901	906.06
471.12	915.06
471.339	934.06
471.558	900.06
471.777	882.06
471.997	885.06
472.216	850.06
472.435	776.06
472.654	748.06
472.873	792.06
473.092	855.06
473.311	837.06
473.53	818.06
473.749	820.06
473.968	847.06
474.187	843.06
474.406	860.06
474.625	839.06
474.844	890.06
475.063	884.06
475.282	852.06
475.501	816.06
475.72	844.06
475.939	891.06
476.158	884.06
476.377	851.06
476.596	840.06
476.814	852.06
477.033	810.06
477.252	867.06
477.471	910.06
477.69	888.06
477.908	926.06
478.127	970.06
478.346	1018.06
478.564	1012.06
478.783	1005.06
479.002	1012.06
479.22	1003.06
479.439	1026.06
479.658	1034.06
479.876	1002.06
480.095	899.06
480.313	913.06
480.532	866.06
480.751	875.06
480.969	828.06
481.188	767.06
481.406	770.06
481.624	774.06
481.843	817.06
482.061	808.06
482.28	855.06
482.498	891.06
482.717	854.06
482.935	881.06
483.153	946.06
483.372	1021.06
483.59	999.06
483.808	986.06
484.027	945.06
484.245	1003.06
484.463	1202.06
484.681	1289.06
484.9	1037.06
485.118	964.06
485.336	937.06
485.554	901.06
485.772	893.06
485.99	886.06
486.209	901.06
486.427	883.06
486.645	956.06
486.863	981.06
487.081	1032.06
487.299	1028.06
487.517	1002.06
487.735	1110.06
487.953	1178.06
488.171	1175.06
488.389	1139.06
488.607	1086.06
488.825	1111.06
489.043	1065.06
489.261	984.06
489.479	1040.06
489.696	1043.06
489.914	1028.06
490.132	1046.06
490.35	1077.06
490.568	1158.06
490.786	1189.06
491.003	1175.06
491.221	1241.06
491.439	1275.06
491.657	1305.06
491.874	1381.06
492.092	1450.06
492.31	1498.06
492.527	1408.06
492.745	1368.06
492.963	1290.06
493.18	1333.06
493.398	1349.06
493.615	1352.06
493.833	1272.06
494.05	1264.06
494.268	1229.06
494.485	1243.06
494.703	1227.06
494.92	1229.06
495.138	1232.06
495.355	1247.06
495.573	1221.06
495.79	1297.06
496.008	1280.06
496.225	1227.06
496.442	1224.06
496.66	1209.06
496.877	1203.06
497.094	1230.06
497.312	1192.06
497.529	1191.06
497.746	1196.06
497.963	1257.06
498.181	1312.06
498.398	1249.06
498.615	1178.06
498.832	1166.06
499.049	1130.06
499.267	1174.06
499.484	1226.06
499.701	1350.06
499.918	1370.06
500.135	1466.06
500.352	1574.06
