Data from WStandard_LampEnergy5.5LIBS07252019.E.O._I.C._HRD10591_16-08-08-920.txt Node
Date: Thu Jul 25 16:08:08 EDT 2019
User: cochatt
Spectrometer: HR+D1059
Trigger mode: 1
Integration Time (sec): 1.000000E-1
Scans to average: 1
Electric dark correction enabled: true
Nonlinearity correction enabled: false
Boxcar width: 0
XAxis mode: Wavelengths
Number of Pixels in Spectrum: 2048
>>>>>Begin Spectral Data<<<<<
223.165	-17.19
223.4	-17.19
223.635	-17.19
223.869	-15.19
224.104	-24.19
224.338	-16.19
224.573	-18.19
224.808	-6.19
225.042	-4.19
225.277	-8.19
225.511	5.81
225.746	0.81
225.98	10.81
226.215	13.81
226.449	7.81
226.683	8.81
226.918	25.81
227.152	35.81
227.387	32.81
227.621	35.81
227.856	42.81
228.09	59.81
228.324	61.81
228.559	60.81
228.793	147.81
229.027	374.81
229.262	379.81
229.496	396.81
229.73	408.81
229.964	448.81
230.199	451.81
230.433	466.81
230.667	507.81
230.901	543.81
231.136	495.81
231.37	479.81
231.604	453.81
231.838	475.81
232.072	484.81
232.306	465.81
232.541	487.81
232.775	554.81
233.009	613.81
233.243	603.81
233.477	537.81
233.711	557.81
233.945	587.81
234.179	550.81
234.413	599.81
234.647	664.81
234.881	613.81
235.115	562.81
235.349	590.81
235.583	587.81
235.817	574.81
236.051	539.81
236.285	552.81
236.519	587.81
236.753	669.81
236.987	705.81
237.221	696.81
237.455	768.81
237.689	736.81
237.922	666.81
238.156	659.81
238.39	693.81
238.624	695.81
238.858	771.81
239.091	769.81
239.325	826.81
239.559	944.81
239.793	999.81
240.027	1036.81
240.26	1064.81
240.494	769.81
240.728	743.81
240.961	745.81
241.195	739.81
241.429	829.81
241.662	845.81
241.896	788.81
242.13	770.81
242.363	889.81
242.597	938.81
242.83	905.81
243.064	900.81
243.298	984.81
243.531	957.81
243.765	939.81
243.998	926.81
244.232	826.81
244.465	781.81
244.699	840.81
244.932	932.81
245.166	1045.81
245.399	984.81
245.633	914.81
245.866	927.81
246.099	952.81
246.333	1004.81
246.566	952.81
246.8	1059.81
247.033	1197.81
247.266	1092.81
247.5	1081.81
247.733	1054.81
247.966	1150.81
248.2	1234.81
248.433	1220.81
248.666	1255.81
248.899	1347.81
249.133	1528.81
249.366	1805.81
249.599	1467.81
249.832	1265.81
250.066	1267.81
250.299	1328.81
250.532	1222.81
250.765	1092.81
250.998	1147.81
251.231	1229.81
251.465	1268.81
251.698	1215.81
251.931	1185.81
252.164	1244.81
252.397	1284.81
252.63	1264.81
252.863	1122.81
253.096	1116.81
253.329	1156.81
253.562	1207.81
253.795	1313.81
254.028	1301.81
254.261	1180.81
254.494	1181.81
254.727	1123.81
254.96	1165.81
255.193	1299.81
255.426	1433.81
255.659	1653.81
255.892	1739.81
256.124	1411.81
256.357	1327.81
256.59	1457.81
256.823	1462.81
257.056	1429.81
257.289	1692.81
257.521	1955.81
257.754	1749.81
257.987	1602.81
258.22	1817.81
258.452	1783.81
258.685	1417.81
258.918	1379.81
259.151	1413.81
259.383	1355.81
259.616	1193.81
259.849	1253.81
260.081	1409.81
260.314	1565.81
260.547	1727.81
260.779	1764.81
261.012	1665.81
261.244	1452.81
261.477	1388.81
261.71	1435.81
261.942	1450.81
262.175	1419.81
262.407	1495.81
262.64	1414.81
262.872	1339.81
263.105	1264.81
263.337	1314.81
263.57	1324.81
263.802	1365.81
264.035	1255.81
264.267	1198.81
264.499	1134.81
264.732	1253.81
264.964	1327.81
265.197	1373.81
265.429	1428.81
265.661	1608.81
265.894	1752.81
266.126	1849.81
266.358	1638.81
266.591	1683.81
266.823	1888.81
267.055	1657.81
267.287	1653.81
267.52	1618.81
267.752	1519.81
267.984	1576.81
268.216	1665.81
268.448	1731.81
268.681	1639.81
268.913	1537.81
269.145	1436.81
269.377	1423.81
269.609	1548.81
269.841	1795.81
270.073	2090.81
270.306	2331.81
270.538	2512.81
270.77	2111.81
271.002	1761.81
271.234	1649.81
271.466	1645.81
271.698	1831.81
271.93	2280.81
272.162	2243.81
272.394	2053.81
272.626	1932.81
272.858	1702.81
273.09	1495.81
273.322	1449.81
273.553	1402.81
273.785	1417.81
274.017	1459.81
274.249	1611.81
274.481	1621.81
274.713	1478.81
274.945	1422.81
275.176	1451.81
275.408	1432.81
275.64	1380.81
275.872	1368.81
276.104	1466.81
276.335	1673.81
276.567	1907.81
276.799	1938.81
277.031	1739.81
277.262	1623.81
277.494	1687.81
277.726	1866.81
277.957	1889.81
278.189	1725.81
278.421	1572.81
278.652	1501.81
278.884	1540.81
279.115	1516.81
279.347	1576.81
279.579	1522.81
279.81	1499.81
280.042	1644.81
280.273	1838.81
280.505	1834.81
280.736	1853.81
280.968	1697.81
281.199	1524.81
281.431	1475.81
281.662	1475.81
281.894	1464.81
282.125	1494.81
282.356	1571.81
282.588	1569.81
282.819	1523.81
283.051	1691.81
283.282	1833.81
283.513	1791.81
283.745	1583.81
283.976	1449.81
284.207	1438.81
284.439	1517.81
284.67	1498.81
284.901	1585.81
285.132	1613.81
285.364	1559.81
285.595	1588.81
285.826	1537.81
286.057	1530.81
286.288	1512.81
286.52	1586.81
286.751	1733.81
286.982	1753.81
287.213	1603.81
287.444	1471.81
287.675	1473.81
287.906	1547.81
288.138	1662.81
288.369	1624.81
288.6	1521.81
288.831	1516.81
289.062	1493.81
289.293	1522.81
289.524	1542.81
289.755	1609.81
289.986	1632.81
290.217	1441.81
290.448	1499.81
290.679	1549.81
290.91	1517.81
291.141	1579.81
291.371	1645.81
291.602	1659.81
291.833	1621.81
292.064	1700.81
292.295	1635.81
292.526	1661.81
292.757	1771.81
292.987	1676.81
293.218	1557.81
293.449	1689.81
293.68	1916.81
293.91	2062.81
294.141	1907.81
294.372	1810.81
294.603	1841.81
294.833	1998.81
295.064	1860.81
295.295	1698.81
295.525	1627.81
295.756	1509.81
295.987	1403.81
296.217	1462.81
296.448	1524.81
296.679	1563.81
296.909	1527.81
297.14	1512.81
297.37	1529.81
297.601	1601.81
297.831	1733.81
298.062	1773.81
298.292	1618.81
298.523	1563.81
298.753	1563.81
298.984	1553.81
299.214	1533.81
299.445	1606.81
299.675	1609.81
299.905	1615.81
300.136	1590.81
300.366	1562.81
300.597	1508.81
300.827	1504.81
301.057	1587.81
301.288	1656.81
301.518	1639.81
301.748	1676.81
301.979	1772.81
302.209	1771.81
302.439	1912.81
302.669	2015.81
302.9	1847.81
303.13	1656.81
303.36	1683.81
303.59	1740.81
303.82	1674.81
304.051	1683.81
304.281	1669.81
304.511	1693.81
304.741	1744.81
304.971	1942.81
305.201	2083.81
305.431	1932.81
305.661	1651.81
305.891	1429.81
306.121	1436.81
306.352	1472.81
306.582	1601.81
306.812	1723.81
307.042	1823.81
307.272	1840.81
307.502	1912.81
307.731	2009.81
307.961	2186.81
308.191	2009.81
308.421	1734.81
308.651	1621.81
308.881	1623.81
309.111	1651.81
309.341	1577.81
309.571	1602.81
309.8	1597.81
310.03	1559.81
310.26	1527.81
310.49	1606.81
310.72	1560.81
310.949	1727.81
311.179	1735.81
311.409	1692.81
311.639	1610.81
311.868	1576.81
312.098	1609.81
312.328	1623.81
312.557	1583.81
312.787	1644.81
313.017	1693.81
313.246	1687.81
313.476	1648.81
313.706	1706.81
313.935	1713.81
314.165	1667.81
314.394	1763.81
314.624	1856.81
314.853	1971.81
315.083	1991.81
315.312	2035.81
315.542	1961.81
315.771	1708.81
316.001	1739.81
316.23	1832.81
316.46	1845.81
316.689	1800.81
316.919	1690.81
317.148	1638.81
317.377	1668.81
317.607	1777.81
317.836	1957.81
318.065	2031.81
318.295	2029.81
318.524	1887.81
318.753	1811.81
318.983	1819.81
319.212	1810.81
319.441	1717.81
319.67	1727.81
319.9	1770.81
320.129	1831.81
320.358	1906.81
320.587	1947.81
320.816	1939.81
321.046	1894.81
321.275	1822.81
321.504	1795.81
321.733	1975.81
321.962	1925.81
322.191	1760.81
322.42	1784.81
322.649	1741.81
322.878	1706.81
323.108	1765.81
323.337	1805.81
323.566	1835.81
323.795	1817.81
324.024	1812.81
324.253	1768.81
324.482	1756.81
324.71	1755.81
324.939	1613.81
325.168	1667.81
325.397	1728.81
325.626	1832.81
325.855	1856.81
326.084	1762.81
326.313	1769.81
326.542	1760.81
326.77	1815.81
326.999	1835.81
327.228	1747.81
327.457	1666.81
327.686	1631.81
327.914	1714.81
328.143	1725.81
328.372	1735.81
328.6	1771.81
328.829	1719.81
329.058	1738.81
329.287	1697.81
329.515	1779.81
329.744	1785.81
329.972	1855.81
330.201	1958.81
330.43	1923.81
330.658	1853.81
330.887	1855.81
331.115	1857.81
331.344	1890.81
331.572	1817.81
331.801	1857.81
332.03	1850.81
332.258	1888.81
332.486	1905.81
332.715	1928.81
332.943	1863.81
333.172	1785.81
333.4	1883.81
333.629	1936.81
333.857	2011.81
334.085	2203.81
334.314	2492.81
334.542	2786.81
334.771	2562.81
334.999	2214.81
335.227	2098.81
335.455	1951.81
335.684	1976.81
335.912	1991.81
336.14	2092.81
336.369	2028.81
336.597	1916.81
336.825	1888.81
337.053	1934.81
337.281	1987.81
337.51	2131.81
337.738	2235.81
337.966	2135.81
338.194	1931.81
338.422	1828.81
338.65	1858.81
338.878	1822.81
339.106	1753.81
339.334	1779.81
339.562	1715.81
339.79	1744.81
340.018	1893.81
340.246	1968.81
340.474	1987.81
340.702	1876.81
340.93	1916.81
341.158	1865.81
341.386	1841.81
341.614	1844.81
341.842	1823.81
342.07	1835.81
342.298	1894.81
342.526	1859.81
342.754	1807.81
342.981	1793.81
343.209	1757.81
343.437	1853.81
343.665	1832.81
343.893	1880.81
344.12	1972.81
344.348	2004.81
344.576	1907.81
344.804	1845.81
345.031	1840.81
345.259	1832.81
345.487	1777.81
345.714	1709.81
345.942	1669.81
346.17	1689.81
346.397	1757.81
346.625	1783.81
346.853	1651.81
347.08	1639.81
347.308	1639.81
347.535	1696.81
347.763	1762.81
347.99	1704.81
348.218	1634.81
348.445	1634.81
348.673	1672.81
348.9	1760.81
349.128	1727.81
349.355	1867.81
349.583	1798.81
349.81	1725.81
350.037	1593.81
350.265	1592.81
350.492	1596.81
350.72	1644.81
350.947	1707.81
351.174	1755.81
351.402	1672.81
351.629	1610.81
351.856	1588.81
352.083	1536.81
352.311	1581.81
352.538	1627.81
352.765	1703.81
352.992	1740.81
353.22	1672.81
353.447	1600.81
353.674	1657.81
353.901	1690.81
354.128	1652.81
354.355	1613.81
354.583	1701.81
354.81	1752.81
355.037	1727.81
355.264	1745.81
355.491	1641.81
355.718	1705.81
355.945	1681.81
356.172	1658.81
356.399	1625.81
356.626	1608.81
356.853	1669.81
357.08	1802.81
357.307	1960.81
357.534	1995.81
357.761	1757.81
357.988	1641.81
358.215	1574.81
358.441	1618.81
358.668	1609.81
358.895	1620.81
359.122	1735.81
359.349	1877.81
359.576	1904.81
359.802	1692.81
360.029	1598.81
360.256	1593.81
360.483	1646.81
360.709	1684.81
360.936	1741.81
361.163	1778.81
361.39	1945.81
361.616	2128.81
361.843	2053.81
362.07	1942.81
362.296	1735.81
362.523	1631.81
362.749	1659.81
362.976	1670.81
363.203	1711.81
363.429	1647.81
363.656	1600.81
363.882	1669.81
364.109	1795.81
364.335	2023.81
364.562	1896.81
364.788	1808.81
365.015	1711.81
365.241	1597.81
365.468	1640.81
365.694	1753.81
365.92	1862.81
366.147	1779.81
366.373	1636.81
366.599	1608.81
366.826	1611.81
367.052	1619.81
367.278	1605.81
367.505	1649.81
367.731	1719.81
367.957	1728.81
368.184	1736.81
368.41	1888.81
368.636	1879.81
368.862	1837.81
369.089	1916.81
369.315	1814.81
369.541	1747.81
369.767	1694.81
369.993	1644.81
370.219	1673.81
370.445	1686.81
370.672	1778.81
370.898	1878.81
371.124	1892.81
371.35	1787.81
371.576	1815.81
371.802	1858.81
372.028	1787.81
372.254	1733.81
372.48	1688.81
372.706	1702.81
372.932	1677.81
373.158	1705.81
373.384	1704.81
373.61	1753.81
373.835	1877.81
374.061	1782.81
374.287	1724.81
374.513	1792.81
374.739	1744.81
374.965	1776.81
375.191	1801.81
375.416	1785.81
375.642	1802.81
375.868	1912.81
376.094	1961.81
376.319	1868.81
376.545	1738.81
376.771	1790.81
376.997	1875.81
377.222	1883.81
377.448	1791.81
377.674	1839.81
377.899	1791.81
378.125	1942.81
378.35	1951.81
378.576	1728.81
378.802	1721.81
379.027	1684.81
379.253	1696.81
379.478	1718.81
379.704	1730.81
379.929	1730.81
380.155	1729.81
380.38	1762.81
380.606	1771.81
380.831	1763.81
381.057	1825.81
381.282	1819.81
381.507	1799.81
381.733	1899.81
381.958	2023.81
382.184	1843.81
382.409	1801.81
382.634	1814.81
382.86	1785.81
383.085	1813.81
383.31	1872.81
383.535	2012.81
383.761	2103.81
383.986	2044.81
384.211	1933.81
384.436	1941.81
384.662	2013.81
384.887	2130.81
385.112	2010.81
385.337	2059.81
385.562	2016.81
385.787	1962.81
386.013	2055.81
386.238	2058.81
386.463	1981.81
386.688	2159.81
386.913	2261.81
387.138	2263.81
387.363	2067.81
387.588	2063.81
387.813	2082.81
388.038	2079.81
388.263	2100.81
388.488	2136.81
388.713	1926.81
388.938	1878.81
389.163	1924.81
389.387	1979.81
389.612	1930.81
389.837	2028.81
390.062	2040.81
390.287	1989.81
390.512	1972.81
390.736	1969.81
390.961	1951.81
391.186	1900.81
391.411	1925.81
391.636	1936.81
391.86	2009.81
392.085	1981.81
392.31	1951.81
392.534	1979.81
392.759	2029.81
392.984	2030.81
393.208	2007.81
393.433	2043.81
393.658	2112.81
393.882	2160.81
394.107	2008.81
394.331	1986.81
394.556	1979.81
394.78	2011.81
395.005	2057.81
395.229	2138.81
395.454	2274.81
395.678	2315.81
395.903	2210.81
396.127	2122.81
396.352	2135.81
396.576	2195.81
396.801	2177.81
397.025	2161.81
397.249	2178.81
397.474	2118.81
397.698	2138.81
397.922	2223.81
398.147	2249.81
398.371	2338.81
398.595	2390.81
398.82	2336.81
399.044	2305.81
399.268	2391.81
399.492	2580.81
399.717	2664.81
399.941	2711.81
400.165	2624.81
400.389	2588.81
400.613	2518.81
400.837	2731.81
401.062	3167.81
401.286	2784.81
401.51	2501.81
401.734	2608.81
401.958	2532.81
402.182	2386.81
402.406	2307.81
402.63	2271.81
402.854	2261.81
403.078	2331.81
403.302	2422.81
403.526	2463.81
403.75	2381.81
403.974	2436.81
404.198	2367.81
404.422	2440.81
404.645	2581.81
404.869	2509.81
405.093	2389.81
405.317	2297.81
405.541	2380.81
405.765	2421.81
405.988	2357.81
406.212	2432.81
406.436	2495.81
406.66	2521.81
406.883	2560.81
407.107	2818.81
407.331	3102.81
407.555	3312.81
407.778	3133.81
408.002	2585.81
408.226	2495.81
408.449	2530.81
408.673	2458.81
408.896	2447.81
409.12	2527.81
409.344	2400.81
409.567	2349.81
409.791	2348.81
410.014	2453.81
410.238	2540.81
410.461	2676.81
410.685	2393.81
410.908	2330.81
411.132	2386.81
411.355	2408.81
411.578	2324.81
411.802	2349.81
412.025	2373.81
412.249	2335.81
412.472	2244.81
412.695	2204.81
412.919	2252.81
413.142	2247.81
413.365	2290.81
413.589	2343.81
413.812	2399.81
414.035	2556.81
414.258	2326.81
414.482	2287.81
414.705	2280.81
414.928	2291.81
415.151	2265.81
415.374	2263.81
415.597	2314.81
415.821	2339.81
416.044	2440.81
416.267	2421.81
416.49	2171.81
416.713	2162.81
416.936	2213.81
417.159	2333.81
417.382	2338.81
417.605	2204.81
417.828	2271.81
418.051	2346.81
418.274	2249.81
418.497	2146.81
418.72	2197.81
418.943	2165.81
419.166	2314.81
419.389	2426.81
419.611	2284.81
419.834	2271.81
420.057	2303.81
420.28	2220.81
420.503	2150.81
420.726	2239.81
420.948	2241.81
421.171	2167.81
421.394	2184.81
421.617	2274.81
421.839	2249.81
422.062	2228.81
422.285	2185.81
422.507	2140.81
422.73	2096.81
422.953	2049.81
423.175	2040.81
423.398	2176.81
423.621	2144.81
423.843	2176.81
424.066	2220.81
424.288	2298.81
424.511	2345.81
424.733	2308.81
424.956	2102.81
425.178	2053.81
425.401	2083.81
425.623	2148.81
425.846	2085.81
426.068	2240.81
426.291	2302.81
426.513	2227.81
426.735	2240.81
426.958	2381.81
427.18	2507.81
427.402	2318.81
427.625	2385.81
427.847	2405.81
428.069	2247.81
428.292	2112.81
428.514	2075.81
428.736	2088.81
428.958	2129.81
429.181	2117.81
429.403	2410.81
429.625	3019.81
429.847	2576.81
430.069	2185.81
430.292	2399.81
430.514	2467.81
430.736	2262.81
430.958	2443.81
431.18	2335.81
431.402	2137.81
431.624	2110.81
431.846	2095.81
432.068	2061.81
432.29	2124.81
432.512	2118.81
432.734	2168.81
432.956	2199.81
433.178	2297.81
433.4	2293.81
433.622	2324.81
433.844	2209.81
434.066	2085.81
434.287	2067.81
434.509	2156.81
434.731	2298.81
434.953	2457.81
435.175	2345.81
435.397	2259.81
435.618	2248.81
435.84	2252.81
436.062	2226.81
436.284	2221.81
436.505	2172.81
436.727	2241.81
436.949	2185.81
437.17	2159.81
437.392	2122.81
437.614	2123.81
437.835	2107.81
438.057	2255.81
438.278	2358.81
438.5	2113.81
438.721	2084.81
438.943	2173.81
439.165	2100.81
439.386	2008.81
439.608	2088.81
439.829	2076.81
440.05	2072.81
440.272	2060.81
440.493	2034.81
440.715	2082.81
440.936	2259.81
441.158	2466.81
441.379	2370.81
441.6	2303.81
441.822	2321.81
442.043	2269.81
442.264	2214.81
442.486	2109.81
442.707	2082.81
442.928	2101.81
443.149	2155.81
443.371	2353.81
443.592	2379.81
443.813	2311.81
444.034	2248.81
444.255	2290.81
444.476	2395.81
444.698	2419.81
444.919	2389.81
445.14	2425.81
445.361	2499.81
445.582	2526.81
445.803	2444.81
446.024	2292.81
446.245	2435.81
446.466	2299.81
446.687	2230.81
446.908	2210.81
447.129	2107.81
447.35	2187.81
447.571	2174.81
447.792	2077.81
448.013	2073.81
448.234	2063.81
448.455	2179.81
448.675	2228.81
448.896	2035.81
449.117	1970.81
449.338	2041.81
449.559	2175.81
449.779	2264.81
450	2487.81
450.221	2705.81
450.442	2642.81
450.662	2313.81
450.883	2017.81
451.104	1959.81
451.324	2015.81
451.545	2112.81
451.766	2065.81
451.986	1938.81
452.207	1962.81
452.428	1887.81
452.648	1839.81
452.869	1946.81
453.089	2083.81
453.31	2085.81
453.53	2141.81
453.751	2046.81
453.971	1879.81
454.192	1994.81
454.412	2097.81
454.633	2025.81
454.853	1972.81
455.073	1877.81
455.294	1836.81
455.514	1821.81
455.734	1871.81
455.955	1907.81
456.175	1875.81
456.395	1923.81
456.616	1937.81
456.836	1988.81
457.056	1914.81
457.276	1943.81
457.497	1878.81
457.717	1849.81
457.937	1867.81
458.157	1915.81
458.377	1874.81
458.598	1883.81
458.818	1845.81
459.038	1991.81
459.258	2120.81
459.478	2135.81
459.698	2087.81
459.918	2100.81
460.138	2210.81
460.358	2252.81
460.578	2268.81
460.798	2339.81
461.018	2477.81
461.238	2361.81
461.458	2259.81
461.678	2259.81
461.898	2232.81
462.118	2154.81
462.338	2289.81
462.558	2253.81
462.777	2306.81
462.997	2389.81
463.217	2528.81
463.437	2489.81
463.657	2316.81
463.876	2301.81
464.096	2235.81
464.316	2215.81
464.536	2355.81
464.755	2373.81
464.975	2390.81
465.195	2291.81
465.414	2389.81
465.634	2327.81
465.854	2229.81
466.073	2391.81
466.293	2343.81
466.512	2101.81
466.732	2051.81
466.951	2189.81
467.171	2161.81
467.391	2075.81
467.61	1977.81
467.829	2017.81
468.049	2181.81
468.268	2425.81
468.488	2316.81
468.707	2189.81
468.927	2118.81
469.146	2052.81
469.365	2025.81
469.585	2081.81
469.804	2027.81
470.023	2075.81
470.243	2106.81
470.462	2059.81
470.681	2011.81
470.901	2041.81
471.12	2052.81
471.339	2068.81
471.558	1955.81
471.777	1942.81
471.997	2051.81
472.216	2010.81
472.435	1935.81
472.654	2005.81
472.873	2020.81
473.092	2206.81
473.311	2134.81
473.53	1929.81
473.749	1935.81
473.968	2035.81
474.187	2135.81
474.406	2192.81
474.625	2127.81
474.844	2126.81
475.063	2069.81
475.282	2166.81
475.501	2069.81
475.72	2053.81
475.939	2207.81
476.158	2161.81
476.377	2082.81
476.596	2098.81
476.814	2183.81
477.033	2164.81
477.252	2279.81
477.471	2319.81
477.69	2177.81
477.908	2216.81
478.127	2291.81
478.346	2498.81
478.564	2465.81
478.783	2437.81
479.002	2568.81
479.22	2487.81
479.439	2566.81
479.658	2876.81
479.876	2901.81
480.095	2523.81
480.313	2404.81
480.532	2315.81
480.751	2375.81
480.969	2377.81
481.188	2389.81
481.406	2287.81
481.624	2249.81
481.843	2287.81
482.061	2336.81
482.28	2391.81
482.498	2394.81
482.717	2425.81
482.935	2314.81
483.153	2298.81
483.372	2303.81
483.59	2274.81
483.808	2243.81
484.027	2354.81
484.245	2485.81
484.463	2864.81
484.681	3320.81
484.9	2607.81
485.118	2420.81
485.336	2317.81
485.554	2406.81
485.772	2602.81
485.99	2443.81
486.209	2536.81
486.427	2499.81
486.645	2472.81
486.863	2444.81
487.081	2474.81
487.299	2588.81
487.517	2543.81
