Data from WStandard_LampEnergy10_LIBS07252019.E.O._I.C._HRD10591_15-54-13-928.txt Node
Date: Thu Jul 25 15:54:13 EDT 2019
User: cochatt
Spectrometer: HR+D1059
Trigger mode: 1
Integration Time (sec): 1.000000E-1
Scans to average: 1
Electric dark correction enabled: true
Nonlinearity correction enabled: false
Boxcar width: 0
XAxis mode: Wavelengths
Number of Pixels in Spectrum: 2048
>>>>>Begin Spectral Data<<<<<
223.165	-20.5
223.4	-20.5
223.635	-20.5
223.869	-29.5
224.104	-15.5
224.338	-8.5
224.573	-3.5
224.808	-4.5
225.042	-13.5
225.277	2.5
225.511	-0.5
225.746	1.5
225.98	3.5
226.215	3.5
226.449	12.5
226.683	24.5
226.918	22.5
227.152	25.5
227.387	23.5
227.621	29.5
227.856	40.5
228.09	48.5
228.324	54.5
228.559	61.5
228.793	73.5
229.027	136.5
229.262	127.5
229.496	141.5
229.73	152.5
229.964	166.5
230.199	174.5
230.433	187.5
230.667	180.5
230.901	195.5
231.136	181.5
231.37	182.5
231.604	165.5
231.838	174.5
232.072	161.5
232.306	180.5
232.541	177.5
232.775	207.5
233.009	232.5
233.243	204.5
233.477	183.5
233.711	205.5
233.945	210.5
234.179	196.5
234.413	217.5
234.647	206.5
234.881	212.5
235.115	211.5
235.349	204.5
235.583	193.5
235.817	204.5
236.051	193.5
236.285	193.5
236.519	217.5
236.753	214.5
236.987	229.5
237.221	217.5
237.455	241.5
237.689	227.5
237.922	221.5
238.156	215.5
238.39	231.5
238.624	238.5
238.858	245.5
239.091	228.5
239.325	266.5
239.559	302.5
239.793	293.5
240.027	316.5
240.26	308.5
240.494	244.5
240.728	242.5
240.961	219.5
241.195	249.5
241.429	245.5
241.662	250.5
241.896	241.5
242.13	236.5
242.363	290.5
242.597	284.5
242.83	295.5
243.064	273.5
243.298	316.5
243.531	286.5
243.765	288.5
243.998	283.5
244.232	287.5
244.465	254.5
244.699	265.5
244.932	286.5
245.166	313.5
245.399	276.5
245.633	298.5
245.866	285.5
246.099	297.5
246.333	315.5
246.566	308.5
246.8	325.5
247.033	350.5
247.266	342.5
247.5	341.5
247.733	342.5
247.966	327.5
248.2	338.5
248.433	380.5
248.666	380.5
248.899	414.5
249.133	443.5
249.366	482.5
249.599	404.5
249.832	367.5
250.066	376.5
250.299	370.5
250.532	353.5
250.765	326.5
250.998	344.5
251.231	352.5
251.465	350.5
251.698	340.5
251.931	349.5
252.164	357.5
252.397	355.5
252.63	371.5
252.863	350.5
253.096	348.5
253.329	342.5
253.562	374.5
253.795	375.5
254.028	385.5
254.261	344.5
254.494	342.5
254.727	331.5
254.96	336.5
255.193	390.5
255.426	424.5
255.659	465.5
255.892	454.5
256.124	406.5
256.357	369.5
256.59	421.5
256.823	421.5
257.056	429.5
257.289	496.5
257.521	520.5
257.754	466.5
257.987	470.5
258.22	475.5
258.452	453.5
258.685	402.5
258.918	384.5
259.151	389.5
259.383	386.5
259.616	360.5
259.849	354.5
260.081	426.5
260.314	436.5
260.547	464.5
260.779	491.5
261.012	454.5
261.244	408.5
261.477	407.5
261.71	419.5
261.942	423.5
262.175	397.5
262.407	429.5
262.64	394.5
262.872	375.5
263.105	371.5
263.337	376.5
263.57	376.5
263.802	374.5
264.035	363.5
264.267	351.5
264.499	341.5
264.732	354.5
264.964	386.5
265.197	411.5
265.429	422.5
265.661	466.5
265.894	492.5
266.126	508.5
266.358	464.5
266.591	479.5
266.823	503.5
267.055	463.5
267.287	466.5
267.52	461.5
267.752	468.5
267.984	444.5
268.216	466.5
268.448	480.5
268.681	461.5
268.913	433.5
269.145	419.5
269.377	418.5
269.609	461.5
269.841	537.5
270.073	600.5
270.306	625.5
270.538	632.5
270.77	548.5
271.002	490.5
271.234	498.5
271.466	476.5
271.698	539.5
271.93	621.5
272.162	637.5
272.394	566.5
272.626	536.5
272.858	466.5
273.09	404.5
273.322	431.5
273.553	413.5
273.785	425.5
274.017	415.5
274.249	451.5
274.481	458.5
274.713	443.5
274.945	410.5
275.176	432.5
275.408	410.5
275.64	414.5
275.872	426.5
276.104	442.5
276.335	492.5
276.567	542.5
276.799	542.5
277.031	493.5
277.262	482.5
277.494	507.5
277.726	516.5
277.957	501.5
278.189	467.5
278.421	434.5
278.652	460.5
278.884	454.5
279.115	446.5
279.347	443.5
279.579	448.5
279.81	464.5
280.042	472.5
280.273	534.5
280.505	514.5
280.736	516.5
280.968	485.5
281.199	413.5
281.431	428.5
281.662	398.5
281.894	448.5
282.125	452.5
282.356	483.5
282.588	471.5
282.819	464.5
283.051	497.5
283.282	509.5
283.513	485.5
283.745	449.5
283.976	442.5
284.207	445.5
284.439	436.5
284.67	445.5
284.901	439.5
285.132	478.5
285.364	469.5
285.595	483.5
285.826	446.5
286.057	455.5
286.288	466.5
286.52	466.5
286.751	486.5
286.982	516.5
287.213	469.5
287.444	449.5
287.675	460.5
287.906	482.5
288.138	489.5
288.369	465.5
288.6	457.5
288.831	435.5
289.062	466.5
289.293	465.5
289.524	455.5
289.755	471.5
289.986	482.5
290.217	443.5
290.448	461.5
290.679	444.5
290.91	477.5
291.141	475.5
291.371	493.5
291.602	486.5
291.833	490.5
292.064	513.5
292.295	501.5
292.526	513.5
292.757	506.5
292.987	491.5
293.218	480.5
293.449	525.5
293.68	589.5
293.91	610.5
294.141	555.5
294.372	568.5
294.603	581.5
294.833	592.5
295.064	540.5
295.295	519.5
295.525	456.5
295.756	474.5
295.987	436.5
296.217	444.5
296.448	474.5
296.679	461.5
296.909	452.5
297.14	448.5
297.37	480.5
297.601	513.5
297.831	527.5
298.062	544.5
298.292	493.5
298.523	461.5
298.753	459.5
298.984	481.5
299.214	498.5
299.445	486.5
299.675	508.5
299.905	519.5
300.136	500.5
300.366	482.5
300.597	455.5
300.827	481.5
301.057	500.5
301.288	520.5
301.518	539.5
301.748	531.5
301.979	543.5
302.209	551.5
302.439	590.5
302.669	604.5
302.9	560.5
303.13	516.5
303.36	532.5
303.59	540.5
303.82	536.5
304.051	518.5
304.281	531.5
304.511	553.5
304.741	592.5
304.971	619.5
305.201	648.5
305.431	564.5
305.661	485.5
305.891	452.5
306.121	479.5
306.352	518.5
306.582	534.5
306.812	548.5
307.042	561.5
307.272	599.5
307.502	613.5
307.731	629.5
307.961	640.5
308.191	605.5
308.421	516.5
308.651	549.5
308.881	521.5
309.111	512.5
309.341	510.5
309.571	500.5
309.8	501.5
310.03	510.5
310.26	511.5
310.49	508.5
310.72	532.5
310.949	523.5
311.179	565.5
311.409	515.5
311.639	496.5
311.868	493.5
312.098	528.5
312.328	522.5
312.557	518.5
312.787	519.5
313.017	532.5
313.246	537.5
313.476	546.5
313.706	550.5
313.935	520.5
314.165	573.5
314.394	581.5
314.624	605.5
314.853	649.5
315.083	642.5
315.312	642.5
315.542	571.5
315.771	543.5
316.001	564.5
316.23	582.5
316.46	580.5
316.689	564.5
316.919	537.5
317.148	532.5
317.377	547.5
317.607	597.5
317.836	631.5
318.065	640.5
318.295	603.5
318.524	610.5
318.753	611.5
318.983	545.5
319.212	549.5
319.441	560.5
319.67	554.5
319.9	577.5
320.129	602.5
320.358	627.5
320.587	632.5
320.816	613.5
321.046	596.5
321.275	606.5
321.504	599.5
321.733	619.5
321.962	606.5
322.191	595.5
322.42	541.5
322.649	568.5
322.878	555.5
323.108	571.5
323.337	593.5
323.566	570.5
323.795	595.5
324.024	565.5
324.253	584.5
324.482	556.5
324.71	542.5
324.939	540.5
325.168	553.5
325.397	563.5
325.626	598.5
325.855	578.5
326.084	576.5
326.313	565.5
326.542	590.5
326.77	603.5
326.999	568.5
327.228	582.5
327.457	540.5
327.686	541.5
327.914	542.5
328.143	555.5
328.372	573.5
328.6	536.5
328.829	576.5
329.058	566.5
329.287	555.5
329.515	591.5
329.744	608.5
329.972	618.5
330.201	624.5
330.43	619.5
330.658	617.5
330.887	600.5
331.115	590.5
331.344	595.5
331.572	576.5
331.801	592.5
332.03	595.5
332.258	616.5
332.486	609.5
332.715	643.5
332.943	602.5
333.172	587.5
333.4	602.5
333.629	611.5
333.857	684.5
334.085	761.5
334.314	843.5
334.542	855.5
334.771	818.5
334.999	710.5
335.227	678.5
335.455	632.5
335.684	675.5
335.912	652.5
336.14	670.5
336.369	658.5
336.597	623.5
336.825	595.5
337.053	665.5
337.281	683.5
337.51	707.5
337.738	683.5
337.966	659.5
338.194	598.5
338.422	597.5
338.65	584.5
338.878	596.5
339.106	589.5
339.334	587.5
339.562	568.5
339.79	599.5
340.018	654.5
340.246	628.5
340.474	632.5
340.702	628.5
340.93	634.5
341.158	608.5
341.386	629.5
341.614	602.5
341.842	624.5
342.07	624.5
342.298	605.5
342.526	600.5
342.754	601.5
342.981	600.5
343.209	590.5
343.437	588.5
343.665	583.5
343.893	621.5
344.12	677.5
344.348	656.5
344.576	614.5
344.804	599.5
345.031	610.5
345.259	619.5
345.487	572.5
345.714	548.5
345.942	556.5
346.17	581.5
346.397	586.5
346.625	594.5
346.853	560.5
347.08	550.5
347.308	557.5
347.535	580.5
347.763	596.5
347.99	565.5
348.218	544.5
348.445	566.5
348.673	562.5
348.9	584.5
349.128	632.5
349.355	634.5
349.583	593.5
349.81	590.5
350.037	546.5
350.265	529.5
350.492	562.5
350.72	576.5
350.947	589.5
351.174	586.5
351.402	542.5
351.629	536.5
351.856	546.5
352.083	532.5
352.311	536.5
352.538	568.5
352.765	584.5
352.992	586.5
353.22	555.5
353.447	558.5
353.674	577.5
353.901	566.5
354.128	543.5
354.355	555.5
354.583	585.5
354.81	611.5
355.037	591.5
355.264	585.5
355.491	572.5
355.718	565.5
355.945	554.5
356.172	578.5
356.399	560.5
356.626	544.5
356.853	571.5
357.08	662.5
357.307	718.5
357.534	669.5
357.761	565.5
357.988	533.5
358.215	543.5
358.441	558.5
358.668	545.5
358.895	566.5
359.122	616.5
359.349	665.5
359.576	618.5
359.802	589.5
360.029	537.5
360.256	539.5
360.483	569.5
360.709	595.5
360.936	612.5
361.163	634.5
361.39	700.5
361.616	727.5
361.843	706.5
362.07	644.5
362.296	555.5
362.523	560.5
362.749	578.5
362.976	590.5
363.203	601.5
363.429	583.5
363.656	566.5
363.882	632.5
364.109	678.5
364.335	684.5
364.562	637.5
364.788	611.5
365.015	582.5
365.241	588.5
365.468	600.5
365.694	621.5
365.92	608.5
366.147	578.5
366.373	571.5
366.599	564.5
366.826	572.5
367.052	558.5
367.278	576.5
367.505	584.5
367.731	608.5
367.957	581.5
368.184	642.5
368.41	664.5
368.636	675.5
368.862	698.5
369.089	674.5
369.315	622.5
369.541	634.5
369.767	605.5
369.993	591.5
370.219	602.5
370.445	603.5
370.672	644.5
370.898	666.5
371.124	647.5
371.35	632.5
371.576	659.5
371.802	656.5
372.028	631.5
372.254	621.5
372.48	600.5
372.706	608.5
372.932	608.5
373.158	608.5
373.384	645.5
373.61	670.5
373.835	688.5
374.061	676.5
374.287	634.5
374.513	655.5
374.739	633.5
374.965	640.5
375.191	645.5
375.416	649.5
375.642	667.5
375.868	726.5
376.094	751.5
376.319	662.5
376.545	648.5
376.771	688.5
376.997	710.5
377.222	686.5
377.448	635.5
377.674	666.5
377.899	693.5
378.125	714.5
378.35	708.5
378.576	666.5
378.802	630.5
379.027	646.5
379.253	632.5
379.478	644.5
379.704	662.5
379.929	643.5
380.155	647.5
380.38	655.5
380.606	668.5
380.831	666.5
381.057	681.5
381.282	708.5
381.507	732.5
381.733	753.5
381.958	741.5
382.184	715.5
382.409	694.5
382.634	685.5
382.86	710.5
383.085	674.5
383.31	709.5
383.535	785.5
383.761	805.5
383.986	772.5
384.211	742.5
384.436	736.5
384.662	774.5
384.887	764.5
385.112	749.5
385.337	730.5
385.562	732.5
385.787	740.5
386.013	766.5
386.238	760.5
386.463	774.5
386.688	851.5
386.913	868.5
387.138	849.5
387.363	783.5
387.588	785.5
387.813	788.5
388.038	794.5
388.263	809.5
388.488	773.5
388.713	715.5
388.938	738.5
389.163	733.5
389.387	728.5
389.612	740.5
389.837	741.5
390.062	778.5
390.287	797.5
390.512	789.5
390.736	764.5
390.961	754.5
391.186	712.5
391.411	762.5
391.636	766.5
391.86	745.5
392.085	749.5
392.31	766.5
392.534	750.5
392.759	761.5
392.984	771.5
393.208	770.5
393.433	819.5
393.658	849.5
393.882	808.5
394.107	788.5
394.331	774.5
394.556	782.5
394.78	765.5
395.005	833.5
395.229	859.5
395.454	871.5
395.678	885.5
395.903	824.5
396.127	793.5
396.352	813.5
396.576	841.5
396.801	866.5
397.025	829.5
397.249	844.5
397.474	832.5
397.698	854.5
397.922	866.5
398.147	903.5
398.371	924.5
398.595	939.5
398.82	877.5
399.044	906.5
399.268	942.5
399.492	981.5
399.717	997.5
399.941	1012.5
400.165	960.5
400.389	956.5
400.613	1022.5
400.837	1134.5
401.062	1200.5
401.286	1028.5
401.51	974.5
401.734	1027.5
401.958	943.5
402.182	894.5
402.406	883.5
402.63	860.5
402.854	881.5
403.078	908.5
403.302	889.5
403.526	938.5
403.75	924.5
403.974	925.5
404.198	940.5
404.422	982.5
404.645	1032.5
404.869	1000.5
405.093	901.5
405.317	910.5
405.541	927.5
405.765	939.5
405.988	932.5
406.212	958.5
406.436	954.5
406.66	1005.5
406.883	1055.5
407.107	1165.5
407.331	1234.5
407.555	1299.5
407.778	1150.5
408.002	974.5
408.226	954.5
408.449	944.5
408.673	936.5
408.896	948.5
409.12	970.5
409.344	934.5
409.567	945.5
409.791	910.5
410.014	984.5
410.238	1044.5
410.461	1044.5
410.685	948.5
410.908	964.5
411.132	956.5
411.355	908.5
411.578	945.5
411.802	938.5
412.025	970.5
412.249	929.5
412.472	897.5
412.695	931.5
412.919	919.5
413.142	928.5
413.365	969.5
413.589	954.5
413.812	1003.5
414.035	1009.5
414.258	933.5
414.482	911.5
414.705	928.5
414.928	931.5
415.151	904.5
415.374	932.5
415.597	956.5
415.821	941.5
416.044	962.5
416.267	936.5
416.49	914.5
416.713	911.5
416.936	962.5
417.159	990.5
417.382	962.5
417.605	928.5
417.828	962.5
418.051	946.5
418.274	945.5
418.497	936.5
418.72	934.5
418.943	936.5
419.166	982.5
419.389	996.5
419.611	971.5
419.834	925.5
420.057	965.5
420.28	937.5
420.503	931.5
420.726	978.5
420.948	974.5
421.171	916.5
421.394	948.5
421.617	992.5
421.839	1000.5
422.062	972.5
422.285	944.5
422.507	916.5
422.73	914.5
422.953	880.5
423.175	866.5
423.398	932.5
423.621	912.5
423.843	939.5
424.066	973.5
424.288	1028.5
424.511	1040.5
424.733	1013.5
424.956	954.5
425.178	929.5
425.401	952.5
425.623	960.5
425.846	949.5
426.068	978.5
426.291	969.5
426.513	981.5
426.735	959.5
426.958	1032.5
427.18	1059.5
427.402	996.5
427.625	1040.5
427.847	1010.5
428.069	913.5
428.292	932.5
428.514	925.5
428.736	896.5
428.958	917.5
429.181	924.5
429.403	1102.5
429.625	1256.5
429.847	1088.5
430.069	965.5
430.292	1059.5
430.514	1046.5
430.736	988.5
430.958	967.5
431.18	944.5
431.402	897.5
431.624	862.5
431.846	808.5
432.068	729.5
432.29	765.5
432.512	810.5
432.734	880.5
432.956	964.5
433.178	977.5
433.4	984.5
433.622	965.5
433.844	938.5
434.066	867.5
434.287	808.5
434.509	784.5
434.731	832.5
434.953	952.5
435.175	941.5
435.397	922.5
435.618	899.5
435.84	869.5
436.062	848.5
436.284	910.5
436.505	918.5
436.727	936.5
436.949	918.5
437.17	889.5
437.392	879.5
437.614	873.5
437.835	822.5
438.057	820.5
438.278	828.5
438.5	847.5
438.721	903.5
438.943	952.5
439.165	901.5
439.386	930.5
439.608	965.5
439.829	962.5
440.05	990.5
440.272	949.5
440.493	968.5
440.715	996.5
440.936	1034.5
441.158	1084.5
441.379	1042.5
441.6	1024.5
441.822	1022.5
442.043	1026.5
442.264	983.5
442.486	957.5
442.707	970.5
442.928	976.5
443.149	984.5
443.371	1015.5
443.592	1035.5
443.813	1043.5
444.034	1009.5
444.255	1017.5
444.476	1041.5
444.698	1060.5
444.919	1040.5
445.14	1122.5
445.361	1106.5
445.582	1082.5
445.803	1091.5
446.024	1050.5
446.245	1078.5
446.466	1062.5
446.687	1051.5
446.908	1038.5
447.129	1029.5
447.35	1006.5
447.571	1021.5
447.792	963.5
448.013	984.5
448.234	1000.5
448.455	985.5
448.675	990.5
448.896	921.5
449.117	919.5
449.338	960.5
449.559	963.5
449.779	968.5
450	1044.5
450.221	1031.5
450.442	1029.5
450.662	946.5
450.883	890.5
451.104	872.5
451.324	899.5
451.545	896.5
451.766	874.5
451.986	839.5
452.207	846.5
452.428	822.5
452.648	794.5
452.869	792.5
453.089	799.5
453.31	792.5
453.53	781.5
453.751	735.5
453.971	730.5
454.192	755.5
454.412	792.5
454.633	816.5
454.853	783.5
455.073	782.5
455.294	778.5
455.514	768.5
455.734	780.5
455.955	747.5
456.175	726.5
456.395	737.5
456.616	770.5
456.836	748.5
457.056	742.5
457.276	755.5
457.497	710.5
457.717	707.5
457.937	707.5
458.157	714.5
458.377	715.5
458.598	706.5
458.818	677.5
459.038	732.5
459.258	726.5
459.478	729.5
459.698	696.5
459.918	746.5
460.138	847.5
460.358	853.5
460.578	833.5
460.798	865.5
461.018	884.5
461.238	873.5
461.458	888.5
461.678	820.5
461.898	823.5
462.118	814.5
462.338	859.5
462.558	852.5
462.777	846.5
462.997	884.5
463.217	892.5
463.437	897.5
463.657	869.5
463.876	853.5
464.096	821.5
464.316	843.5
464.536	887.5
464.755	891.5
464.975	878.5
465.195	868.5
465.414	863.5
465.634	898.5
465.854	914.5
466.073	1011.5
466.293	944.5
466.512	865.5
466.732	896.5
466.951	916.5
467.171	900.5
467.391	887.5
467.61	866.5
467.829	926.5
468.049	971.5
468.268	1084.5
468.488	976.5
468.707	915.5
468.927	924.5
469.146	909.5
469.365	938.5
469.585	912.5
469.804	953.5
470.023	906.5
470.243	938.5
470.462	941.5
470.681	911.5
470.901	950.5
471.12	923.5
471.339	950.5
471.558	921.5
471.777	941.5
471.997	895.5
472.216	868.5
472.435	792.5
472.654	786.5
472.873	797.5
473.092	861.5
473.311	846.5
473.53	847.5
473.749	842.5
473.968	869.5
474.187	843.5
474.406	835.5
474.625	863.5
474.844	887.5
475.063	858.5
475.282	861.5
475.501	839.5
475.72	875.5
475.939	922.5
476.158	930.5
476.377	898.5
476.596	844.5
476.814	845.5
477.033	828.5
477.252	842.5
477.471	900.5
477.69	924.5
477.908	944.5
478.127	997.5
478.346	1013.5
478.564	1004.5
478.783	995.5
479.002	1013.5
479.22	1000.5
479.439	1016.5
479.658	1064.5
479.876	1012.5
480.095	932.5
480.313	903.5
480.532	884.5
480.751	886.5
480.969	870.5
481.188	823.5
481.406	792.5
481.624	806.5
481.843	799.5
482.061	822.5
482.28	877.5
482.498	897.5
482.717	870.5
482.935	894.5
483.153	973.5
483.372	1029.5
483.59	1030.5
483.808	1015.5
484.027	935.5
484.245	1017.5
484.463	1233.5
484.681	1344.5
484.9	1038.5
485.118	972.5
485.336	955.5
485.554	889.5
485.772	884.5
485.99	884.5
486.209	932.5
486.427	901.5
486.645	946.5
486.863	998.5
487.081	1042.5
487.299	1013.5
487.517	1035.5
487.735	1129.5
487.953	1166.5
488.171	1200.5
488.389	1162.5
488.607	1137.5
488.825	1176.5
489.043	1096.5
489.261	1016.5
489.479	1070.5
489.696	1064.5
489.914	1066.5
490.132	1037.5
490.35	1113.5
490.568	1176.5
490.786	1176.5
491.003	1205.5
491.221	1244.5
491.439	1322.5
491.657	1344.5
491.874	1369.5
492.092	1424.5
492.31	1528.5
492.527	1485.5
492.745	1348.5
492.963	1342.5
493.18	1323.5
493.398	1369.5
493.615	1378.5
493.833	1274.5
494.05	1265.5
494.268	1238.5
494.485	1267.5
494.703	1261.5
494.92	1227.5
495.138	1225.5
495.355	1235.5
495.573	1266.5
495.79	1273.5
496.008	1277.5
496.225	1236.5
496.442	1230.5
496.66	1254.5
496.877	1225.5
497.094	1234.5
497.312	1221.5
497.529	1237.5
497.746	1189.5
497.963	1293.5
498.181	1329.5
498.398	1272.5
498.615	1222.5
498.832	1165.5
499.049	1153.5
499.267	1208.5
499.484	1260.5
499.701	1338.5
499.918	1396.5
500.135	1453.5
500.352	1572.5
500.569	1613.5
500.786	1715.5
501.003	1569.5
501.22	1460.5
501.437	1453.5
501.654	1424.5
501.871	1338.5
502.088	1214.5
502.305	1181.5
502.522	1145.5
502.739	1114.5
502.956	1112.5
503.172	1063.5
503.389	1022.5
503.606	1026.5
503.823	1012.5
504.04	1013.5
504.256	1020.5
504.473	997.5
504.69	1027.5
504.907	984.5
505.123	952.5
505.34	1089.5
505.557	1362.5
505.773	1176.5
505.99	982.5
506.207	932.5
506.423	914.5
506.64	923.5
506.856	909.5
507.073	1063.5
507.289	1107.5
507.506	1029.5
507.722	893.5
507.939	878.5
508.155	908.5
508.372	864.5
508.588	827.5
508.805	808.5
509.021	786.5
509.238	794.5
509.454	766.5
509.67	771.5
509.887	739.5
510.103	740.5
510.319	765.5
510.536	771.5
510.752	809.5
510.968	776.5
511.184	808.5
511.401	780.5
511.617	714.5
511.833	698.5
512.049	721.5
512.265	722.5
512.481	712.5
512.698	757.5
512.914	753.5
513.13	758.5
513.346	721.5
513.562	714.5
513.778	694.5
513.994	758.5
514.21	777.5
514.426	782.5
514.642	831.5
514.858	790.5
515.074	720.5
515.29	723.5
515.506	738.5
515.721	740.5
515.937	760.5
516.153	788.5
516.369	808.5
516.585	748.5
516.801	724.5
517.016	741.5
517.232	767.5
517.448	780.5
517.664	803.5
