Data from WStandard_LampEnergy10_LIBS07252019.E.O._I.C._HRD10591_15-54-37-928.txt Node
Date: Thu Jul 25 15:54:37 EDT 2019
User: cochatt
Spectrometer: HR+D1059
Trigger mode: 1
Integration Time (sec): 1.000000E-1
Scans to average: 1
Electric dark correction enabled: true
Nonlinearity correction enabled: false
Boxcar width: 0
XAxis mode: Wavelengths
Number of Pixels in Spectrum: 2048
>>>>>Begin Spectral Data<<<<<
223.165	-12.44
223.4	-12.44
223.635	-12.44
223.869	-25.44
224.104	-11.44
224.338	-16.44
224.573	-14.44
224.808	-15.44
225.042	1.56
225.277	-16.44
225.511	-7.44
225.746	-6.44
225.98	6.56
226.215	13.56
226.449	26.56
226.683	19.56
226.918	25.56
227.152	32.56
227.387	33.56
227.621	31.56
227.856	48.56
228.09	34.56
228.324	44.56
228.559	48.56
228.793	78.56
229.027	133.56
229.262	134.56
229.496	140.56
229.73	148.56
229.964	153.56
230.199	152.56
230.433	179.56
230.667	196.56
230.901	193.56
231.136	170.56
231.37	173.56
231.604	158.56
231.838	169.56
232.072	168.56
232.306	166.56
232.541	176.56
232.775	186.56
233.009	216.56
233.243	205.56
233.477	200.56
233.711	210.56
233.945	200.56
234.179	205.56
234.413	206.56
234.647	205.56
234.881	197.56
235.115	186.56
235.349	177.56
235.583	191.56
235.817	186.56
236.051	191.56
236.285	212.56
236.519	216.56
236.753	214.56
236.987	204.56
237.221	208.56
237.455	233.56
237.689	222.56
237.922	222.56
238.156	198.56
238.39	212.56
238.624	236.56
238.858	241.56
239.091	250.56
239.325	245.56
239.559	271.56
239.793	268.56
240.027	318.56
240.26	286.56
240.494	240.56
240.728	232.56
240.961	238.56
241.195	238.56
241.429	272.56
241.662	244.56
241.896	246.56
242.13	230.56
242.363	265.56
242.597	274.56
242.83	272.56
243.064	296.56
243.298	272.56
243.531	277.56
243.765	260.56
243.998	294.56
244.232	254.56
244.465	242.56
244.699	253.56
244.932	287.56
245.166	309.56
245.399	289.56
245.633	281.56
245.866	270.56
246.099	269.56
246.333	292.56
246.566	288.56
246.8	316.56
247.033	354.56
247.266	318.56
247.5	305.56
247.733	316.56
247.966	318.56
248.2	361.56
248.433	356.56
248.666	370.56
248.899	386.56
249.133	452.56
249.366	464.56
249.599	359.56
249.832	370.56
250.066	351.56
250.299	364.56
250.532	349.56
250.765	316.56
250.998	337.56
251.231	347.56
251.465	338.56
251.698	344.56
251.931	327.56
252.164	344.56
252.397	360.56
252.63	354.56
252.863	320.56
253.096	318.56
253.329	326.56
253.562	343.56
253.795	364.56
254.028	347.56
254.261	335.56
254.494	301.56
254.727	327.56
254.96	335.56
255.193	370.56
255.426	390.56
255.659	428.56
255.892	418.56
256.124	398.56
256.357	380.56
256.59	396.56
256.823	402.56
257.056	414.56
257.289	455.56
257.521	505.56
257.754	481.56
257.987	440.56
258.22	473.56
258.452	449.56
258.685	406.56
258.918	390.56
259.151	407.56
259.383	369.56
259.616	349.56
259.849	378.56
260.081	392.56
260.314	436.56
260.547	438.56
260.779	465.56
261.012	429.56
261.244	409.56
261.477	396.56
261.71	385.56
261.942	385.56
262.175	376.56
262.407	386.56
262.64	373.56
262.872	354.56
263.105	345.56
263.337	357.56
263.57	360.56
263.802	364.56
264.035	359.56
264.267	328.56
264.499	331.56
264.732	353.56
264.964	374.56
265.197	392.56
265.429	427.56
265.661	461.56
265.894	468.56
266.126	471.56
266.358	456.56
266.591	478.56
266.823	486.56
267.055	452.56
267.287	440.56
267.52	425.56
267.752	435.56
267.984	451.56
268.216	456.56
268.448	481.56
268.681	443.56
268.913	412.56
269.145	411.56
269.377	412.56
269.609	423.56
269.841	519.56
270.073	570.56
270.306	616.56
270.538	606.56
270.77	544.56
271.002	497.56
271.234	458.56
271.466	461.56
271.698	536.56
271.93	605.56
272.162	599.56
272.394	545.56
272.626	502.56
272.858	451.56
273.09	403.56
273.322	407.56
273.553	396.56
273.785	386.56
274.017	419.56
274.249	412.56
274.481	420.56
274.713	400.56
274.945	404.56
275.176	429.56
275.408	385.56
275.64	394.56
275.872	400.56
276.104	443.56
276.335	477.56
276.567	523.56
276.799	515.56
277.031	481.56
277.262	462.56
277.494	500.56
277.726	529.56
277.957	518.56
278.189	460.56
278.421	439.56
278.652	419.56
278.884	439.56
279.115	427.56
279.347	415.56
279.579	410.56
279.81	438.56
280.042	461.56
280.273	518.56
280.505	501.56
280.736	496.56
280.968	459.56
281.199	435.56
281.431	407.56
281.662	422.56
281.894	405.56
282.125	440.56
282.356	451.56
282.588	447.56
282.819	438.56
283.051	494.56
283.282	512.56
283.513	514.56
283.745	446.56
283.976	409.56
284.207	419.56
284.439	425.56
284.67	443.56
284.901	468.56
285.132	462.56
285.364	458.56
285.595	452.56
285.826	450.56
286.057	459.56
286.288	441.56
286.52	464.56
286.751	493.56
286.982	500.56
287.213	454.56
287.444	440.56
287.675	431.56
287.906	456.56
288.138	475.56
288.369	482.56
288.6	440.56
288.831	439.56
289.062	453.56
289.293	458.56
289.524	451.56
289.755	470.56
289.986	454.56
290.217	455.56
290.448	454.56
290.679	445.56
290.91	477.56
291.141	482.56
291.371	488.56
291.602	487.56
291.833	462.56
292.064	502.56
292.295	506.56
292.526	505.56
292.757	515.56
292.987	486.56
293.218	484.56
293.449	512.56
293.68	565.56
293.91	572.56
294.141	547.56
294.372	545.56
294.603	564.56
294.833	554.56
295.064	518.56
295.295	486.56
295.525	476.56
295.756	460.56
295.987	431.56
296.217	453.56
296.448	444.56
296.679	458.56
296.909	469.56
297.14	440.56
297.37	468.56
297.601	487.56
297.831	520.56
298.062	519.56
298.292	466.56
298.523	474.56
298.753	449.56
298.984	462.56
299.214	486.56
299.445	480.56
299.675	518.56
299.905	516.56
300.136	462.56
300.366	462.56
300.597	463.56
300.827	472.56
301.057	492.56
301.288	512.56
301.518	528.56
301.748	547.56
301.979	556.56
302.209	576.56
302.439	604.56
302.669	577.56
302.9	561.56
303.13	506.56
303.36	508.56
303.59	516.56
303.82	515.56
304.051	511.56
304.281	530.56
304.511	530.56
304.741	566.56
304.971	608.56
305.201	601.56
305.431	558.56
305.661	487.56
305.891	473.56
306.121	437.56
306.352	465.56
306.582	516.56
306.812	538.56
307.042	584.56
307.272	575.56
307.502	605.56
307.731	638.56
307.961	648.56
308.191	605.56
308.421	533.56
308.651	510.56
308.881	512.56
309.111	512.56
309.341	513.56
309.571	492.56
309.8	494.56
310.03	485.56
310.26	487.56
310.49	481.56
310.72	524.56
310.949	533.56
311.179	507.56
311.409	516.56
311.639	508.56
311.868	481.56
312.098	514.56
312.328	504.56
312.557	498.56
312.787	517.56
313.017	527.56
313.246	512.56
313.476	528.56
313.706	517.56
313.935	506.56
314.165	532.56
314.394	554.56
314.624	596.56
314.853	614.56
315.083	624.56
315.312	620.56
315.542	573.56
315.771	536.56
316.001	542.56
316.23	588.56
316.46	577.56
316.689	560.56
316.919	522.56
317.148	546.56
317.377	538.56
317.607	591.56
317.836	644.56
318.065	620.56
318.295	598.56
318.524	576.56
318.753	556.56
318.983	576.56
319.212	563.56
319.441	557.56
319.67	562.56
319.9	579.56
320.129	602.56
320.358	617.56
320.587	620.56
320.816	601.56
321.046	596.56
321.275	606.56
321.504	585.56
321.733	626.56
321.962	590.56
322.191	553.56
322.42	542.56
322.649	549.56
322.878	536.56
323.108	575.56
323.337	583.56
323.566	579.56
323.795	565.56
324.024	574.56
324.253	570.56
324.482	551.56
324.71	523.56
324.939	518.56
325.168	558.56
325.397	558.56
325.626	604.56
325.855	563.56
326.084	550.56
326.313	574.56
326.542	597.56
326.77	600.56
326.999	563.56
327.228	557.56
327.457	532.56
327.686	540.56
327.914	530.56
328.143	561.56
328.372	551.56
328.6	554.56
328.829	566.56
329.058	545.56
329.287	554.56
329.515	572.56
329.744	576.56
329.972	600.56
330.201	617.56
330.43	614.56
330.658	578.56
330.887	599.56
331.115	595.56
331.344	607.56
331.572	596.56
331.801	570.56
332.03	594.56
332.258	600.56
332.486	592.56
332.715	616.56
332.943	593.56
333.172	589.56
333.4	610.56
333.629	613.56
333.857	644.56
334.085	748.56
334.314	817.56
334.542	841.56
334.771	735.56
334.999	700.56
335.227	656.56
335.455	626.56
335.684	630.56
335.912	670.56
336.14	650.56
336.369	634.56
336.597	605.56
336.825	589.56
337.053	640.56
337.281	660.56
337.51	725.56
337.738	685.56
337.966	651.56
338.194	613.56
338.422	616.56
338.65	604.56
338.878	588.56
339.106	580.56
339.334	568.56
339.562	593.56
339.79	573.56
340.018	646.56
340.246	635.56
340.474	629.56
340.702	622.56
340.93	633.56
341.158	607.56
341.386	582.56
341.614	608.56
341.842	608.56
342.07	621.56
342.298	609.56
342.526	584.56
342.754	576.56
342.981	597.56
343.209	568.56
343.437	578.56
343.665	597.56
343.893	624.56
344.12	628.56
344.348	642.56
344.576	593.56
344.804	622.56
345.031	603.56
345.259	597.56
345.487	589.56
345.714	556.56
345.942	561.56
346.17	578.56
346.397	590.56
346.625	594.56
346.853	524.56
347.08	530.56
347.308	553.56
347.535	567.56
347.763	589.56
347.99	568.56
348.218	584.56
348.445	556.56
348.673	601.56
348.9	586.56
349.128	607.56
349.355	610.56
349.583	570.56
349.81	541.56
350.037	541.56
350.265	543.56
350.492	533.56
350.72	578.56
350.947	592.56
351.174	574.56
351.402	552.56
351.629	536.56
351.856	531.56
352.083	518.56
352.311	534.56
352.538	534.56
352.765	576.56
352.992	568.56
353.22	537.56
353.447	541.56
353.674	573.56
353.901	549.56
354.128	546.56
354.355	566.56
354.583	581.56
354.81	598.56
355.037	585.56
355.264	576.56
355.491	585.56
355.718	549.56
355.945	576.56
356.172	538.56
356.399	535.56
356.626	528.56
356.853	600.56
357.08	634.56
357.307	693.56
357.534	663.56
357.761	572.56
357.988	549.56
358.215	545.56
358.441	556.56
358.668	516.56
358.895	564.56
359.122	627.56
359.349	634.56
359.576	624.56
359.802	568.56
360.029	560.56
360.256	543.56
360.483	564.56
360.709	598.56
360.936	629.56
361.163	608.56
361.39	672.56
361.616	707.56
361.843	704.56
362.07	653.56
362.296	577.56
362.523	564.56
362.749	592.56
362.976	576.56
363.203	569.56
363.429	570.56
363.656	560.56
363.882	600.56
364.109	647.56
364.335	677.56
364.562	596.56
364.788	604.56
365.015	578.56
365.241	542.56
365.468	568.56
365.694	611.56
365.92	626.56
366.147	596.56
366.373	554.56
366.599	573.56
366.826	564.56
367.052	548.56
367.278	572.56
367.505	598.56
367.731	597.56
367.957	593.56
368.184	633.56
368.41	686.56
368.636	654.56
368.862	677.56
369.089	673.56
369.315	633.56
369.541	614.56
369.767	584.56
369.993	576.56
370.219	583.56
370.445	617.56
370.672	645.56
370.898	674.56
371.124	649.56
371.35	626.56
371.576	669.56
371.802	678.56
372.028	653.56
372.254	623.56
372.48	616.56
372.706	634.56
372.932	599.56
373.158	590.56
373.384	622.56
373.61	656.56
373.835	669.56
374.061	613.56
374.287	635.56
374.513	638.56
374.739	634.56
374.965	655.56
375.191	650.56
375.416	664.56
375.642	682.56
375.868	710.56
376.094	701.56
376.319	639.56
376.545	638.56
376.771	654.56
376.997	692.56
377.222	679.56
377.448	652.56
377.674	652.56
377.899	695.56
378.125	735.56
378.35	695.56
378.576	647.56
378.802	623.56
379.027	634.56
379.253	637.56
379.478	647.56
379.704	651.56
379.929	644.56
380.155	654.56
380.38	638.56
380.606	672.56
380.831	676.56
381.057	686.56
381.282	692.56
381.507	712.56
381.733	720.56
381.958	744.56
382.184	721.56
382.409	691.56
382.634	692.56
382.86	672.56
383.085	680.56
383.31	741.56
383.535	768.56
383.761	800.56
383.986	750.56
384.211	757.56
384.436	749.56
384.662	760.56
384.887	762.56
385.112	717.56
385.337	710.56
385.562	749.56
385.787	756.56
386.013	754.56
386.238	758.56
386.463	753.56
386.688	841.56
386.913	870.56
387.138	804.56
387.363	784.56
387.588	773.56
387.813	784.56
388.038	773.56
388.263	796.56
388.488	780.56
388.713	727.56
388.938	711.56
389.163	728.56
389.387	754.56
389.612	757.56
389.837	724.56
390.062	766.56
390.287	758.56
390.512	732.56
390.736	740.56
390.961	734.56
391.186	709.56
391.411	749.56
391.636	749.56
391.86	764.56
392.085	770.56
392.31	758.56
392.534	744.56
392.759	778.56
392.984	768.56
393.208	780.56
393.433	790.56
393.658	838.56
393.882	815.56
394.107	757.56
394.331	764.56
394.556	752.56
394.78	790.56
395.005	805.56
395.229	825.56
395.454	876.56
395.678	877.56
395.903	817.56
396.127	787.56
396.352	824.56
396.576	863.56
396.801	854.56
397.025	863.56
397.249	857.56
397.474	845.56
397.698	829.56
397.922	865.56
398.147	906.56
398.371	922.56
398.595	897.56
398.82	882.56
399.044	892.56
399.268	938.56
399.492	963.56
399.717	995.56
399.941	989.56
400.165	981.56
400.389	954.56
400.613	1015.56
400.837	1143.56
401.062	1191.56
401.286	1026.56
401.51	976.56
401.734	997.56
401.958	937.56
402.182	895.56
402.406	887.56
402.63	859.56
402.854	886.56
403.078	889.56
403.302	912.56
403.526	914.56
403.75	924.56
403.974	919.56
404.198	924.56
404.422	981.56
404.645	1005.56
404.869	972.56
405.093	914.56
405.317	929.56
405.541	952.56
405.765	927.56
405.988	928.56
406.212	951.56
406.436	954.56
406.66	996.56
406.883	1032.56
407.107	1135.56
407.331	1201.56
407.555	1270.56
407.778	1159.56
408.002	993.56
408.226	965.56
408.449	977.56
408.673	961.56
408.896	957.56
409.12	968.56
409.344	948.56
409.567	926.56
409.791	969.56
410.014	981.56
410.238	1048.56
410.461	1052.56
410.685	950.56
410.908	935.56
411.132	953.56
411.355	949.56
411.578	892.56
411.802	949.56
412.025	928.56
412.249	940.56
412.472	905.56
412.695	924.56
412.919	911.56
413.142	920.56
413.365	924.56
413.589	961.56
413.812	987.56
414.035	1003.56
414.258	935.56
414.482	910.56
414.705	915.56
414.928	949.56
415.151	923.56
415.374	926.56
415.597	956.56
415.821	930.56
416.044	928.56
416.267	959.56
416.49	889.56
416.713	923.56
416.936	965.56
417.159	981.56
417.382	968.56
417.605	925.56
417.828	908.56
418.051	954.56
418.274	935.56
418.497	932.56
418.72	926.56
418.943	935.56
419.166	950.56
419.389	1017.56
419.611	952.56
419.834	969.56
420.057	940.56
420.28	916.56
420.503	943.56
420.726	967.56
420.948	974.56
421.171	928.56
421.394	944.56
421.617	1004.56
421.839	989.56
422.062	995.56
422.285	940.56
422.507	927.56
422.73	892.56
422.953	903.56
423.175	886.56
423.398	902.56
423.621	952.56
423.843	969.56
424.066	997.56
424.288	1019.56
424.511	1037.56
424.733	989.56
424.956	916.56
425.178	936.56
425.401	925.56
425.623	928.56
425.846	947.56
426.068	1004.56
426.291	975.56
426.513	951.56
426.735	956.56
426.958	1047.56
427.18	1071.56
427.402	992.56
427.625	1031.56
427.847	1000.56
428.069	940.56
428.292	916.56
428.514	892.56
428.736	912.56
428.958	914.56
429.181	964.56
429.403	1062.56
429.625	1214.56
429.847	1028.56
430.069	960.56
430.292	1034.56
430.514	1034.56
430.736	990.56
430.958	969.56
431.18	931.56
431.402	889.56
431.624	869.56
431.846	795.56
432.068	750.56
432.29	737.56
432.512	805.56
432.734	894.56
432.956	930.56
433.178	974.56
433.4	987.56
433.622	940.56
433.844	914.56
434.066	837.56
434.287	807.56
434.509	829.56
434.731	832.56
434.953	919.56
435.175	918.56
435.397	909.56
435.618	885.56
435.84	860.56
436.062	850.56
436.284	888.56
436.505	940.56
436.727	956.56
436.949	899.56
437.17	882.56
437.392	900.56
437.614	864.56
437.835	814.56
438.057	845.56
438.278	868.56
438.5	839.56
438.721	888.56
438.943	921.56
439.165	917.56
439.386	934.56
439.608	969.56
439.829	956.56
440.05	936.56
440.272	964.56
440.493	951.56
440.715	974.56
440.936	1032.56
441.158	1079.56
441.379	1053.56
441.6	1026.56
441.822	1018.56
442.043	1000.56
442.264	990.56
442.486	966.56
442.707	953.56
442.928	943.56
443.149	960.56
443.371	1013.56
443.592	1015.56
443.813	1015.56
444.034	1002.56
444.255	1008.56
444.476	1034.56
444.698	1033.56
444.919	1045.56
445.14	1139.56
445.361	1113.56
445.582	1058.56
445.803	1072.56
446.024	1037.56
446.245	1057.56
446.466	1030.56
446.687	1026.56
446.908	1050.56
447.129	1029.56
447.35	1010.56
447.571	1009.56
447.792	953.56
448.013	954.56
448.234	959.56
448.455	1002.56
448.675	991.56
448.896	946.56
449.117	906.56
449.338	909.56
449.559	948.56
449.779	948.56
450	1018.56
450.221	1041.56
450.442	1005.56
450.662	933.56
450.883	871.56
451.104	896.56
451.324	887.56
451.545	892.56
451.766	859.56
451.986	840.56
452.207	830.56
452.428	796.56
452.648	789.56
452.869	806.56
453.089	774.56
453.31	778.56
453.53	791.56
453.751	725.56
453.971	699.56
454.192	741.56
454.412	772.56
454.633	795.56
454.853	788.56
455.073	779.56
455.294	770.56
455.514	768.56
455.734	768.56
455.955	764.56
456.175	738.56
456.395	738.56
456.616	738.56
456.836	744.56
457.056	720.56
457.276	713.56
457.497	713.56
457.717	710.56
457.937	722.56
458.157	719.56
458.377	709.56
458.598	704.56
458.818	677.56
459.038	705.56
459.258	712.56
459.478	687.56
459.698	689.56
459.918	716.56
460.138	801.56
460.358	848.56
460.578	815.56
460.798	872.56
461.018	907.56
461.238	886.56
461.458	846.56
461.678	822.56
461.898	809.56
462.118	770.56
462.338	855.56
462.558	848.56
462.777	843.56
462.997	875.56
463.217	916.56
463.437	864.56
463.657	859.56
463.876	841.56
464.096	846.56
464.316	835.56
464.536	892.56
464.755	882.56
464.975	895.56
465.195	868.56
465.414	907.56
465.634	870.56
465.854	904.56
466.073	945.56
466.293	952.56
466.512	884.56
466.732	911.56
466.951	915.56
467.171	880.56
467.391	877.56
467.61	872.56
467.829	882.56
468.049	997.56
468.268	1072.56
468.488	984.56
468.707	926.56
468.927	897.56
469.146	877.56
469.365	926.56
469.585	944.56
469.804	947.56
470.023	959.56
470.243	964.56
470.462	906.56
470.681	927.56
470.901	905.56
471.12	904.56
471.339	938.56
471.558	909.56
471.777	894.56
471.997	902.56
472.216	869.56
472.435	768.56
472.654	746.56
472.873	772.56
473.092	828.56
473.311	839.56
473.53	823.56
473.749	844.56
473.968	848.56
474.187	829.56
474.406	877.56
474.625	860.56
474.844	884.56
475.063	865.56
475.282	860.56
475.501	828.56
475.72	830.56
475.939	897.56
476.158	871.56
476.377	860.56
476.596	854.56
476.814	837.56
477.033	827.56
477.252	831.56
477.471	915.56
477.69	914.56
477.908	950.56
478.127	981.56
478.346	1020.56
478.564	997.56
478.783	993.56
479.002	1022.56
479.22	1011.56
479.439	1027.56
479.658	1049.56
479.876	1000.56
480.095	924.56
480.313	900.56
480.532	896.56
480.751	871.56
480.969	819.56
481.188	781.56
481.406	784.56
481.624	777.56
481.843	800.56
482.061	821.56
482.28	876.56
482.498	904.56
482.717	861.56
482.935	896.56
483.153	984.56
483.372	1052.56
483.59	1022.56
483.808	969.56
484.027	970.56
484.245	1030.56
484.463	1249.56
484.681	1299.56
484.9	1052.56
485.118	959.56
485.336	958.56
485.554	926.56
485.772	917.56
485.99	906.56
486.209	936.56
486.427	926.56
486.645	947.56
486.863	1018.56
487.081	1040.56
487.299	1037.56
487.517	1034.56
487.735	1120.56
487.953	1209.56
488.171	1174.56
488.389	1132.56
488.607	1102.56
488.825	1148.56
489.043	1085.56
489.261	978.56
489.479	1015.56
489.696	1044.56
489.914	1040.56
490.132	1063.56
490.35	1068.56
490.568	1176.56
490.786	1200.56
491.003	1188.56
491.221	1265.56
491.439	1286.56
491.657	1330.56
491.874	1355.56
492.092	1433.56
492.31	1517.56
492.527	1466.56
492.745	1379.56
492.963	1343.56
493.18	1298.56
493.398	1369.56
493.615	1302.56
493.833	1286.56
494.05	1237.56
494.268	1216.56
494.485	1225.56
494.703	1225.56
494.92	1211.56
495.138	1228.56
495.355	1216.56
495.573	1274.56
495.79	1313.56
496.008	1282.56
496.225	1249.56
496.442	1206.56
496.66	1246.56
496.877	1206.56
497.094	1241.56
497.312	1226.56
497.529	1211.56
497.746	1187.56
497.963	1289.56
498.181	1336.56
498.398	1256.56
498.615	1204.56
498.832	1184.56
499.049	1164.56
499.267	1190.56
499.484	1278.56
499.701	1367.56
499.918	1384.56
500.135	1479.56
