Data from WStandard_LampEnergy10_LIBS07252019.E.O._I.C._HRD10591_15-54-31-928.txt Node
Date: Thu Jul 25 15:54:31 EDT 2019
User: cochatt
Spectrometer: HR+D1059
Trigger mode: 1
Integration Time (sec): 1.000000E-1
Scans to average: 1
Electric dark correction enabled: true
Nonlinearity correction enabled: false
Boxcar width: 0
XAxis mode: Wavelengths
Number of Pixels in Spectrum: 2048
>>>>>Begin Spectral Data<<<<<
223.165	-21.19
223.4	-21.19
223.635	-21.19
223.869	-17.19
224.104	-8.19
224.338	-21.19
224.573	-14.19
224.808	-12.19
225.042	-27.19
225.277	-6.19
225.511	-0.19
225.746	-11.19
225.98	15.81
226.215	18.81
226.449	19.81
226.683	33.81
226.918	19.81
227.152	30.81
227.387	19.81
227.621	29.81
227.856	40.81
228.09	47.81
228.324	58.81
228.559	43.81
228.793	77.81
229.027	140.81
229.262	149.81
229.496	134.81
229.73	146.81
229.964	162.81
230.199	168.81
230.433	176.81
230.667	191.81
230.901	201.81
231.136	180.81
231.37	158.81
231.604	167.81
231.838	159.81
232.072	176.81
232.306	174.81
232.541	206.81
232.775	210.81
233.009	220.81
233.243	195.81
233.477	190.81
233.711	184.81
233.945	212.81
234.179	185.81
234.413	190.81
234.647	204.81
234.881	203.81
235.115	194.81
235.349	194.81
235.583	185.81
235.817	192.81
236.051	196.81
236.285	206.81
236.519	205.81
236.753	229.81
236.987	222.81
237.221	220.81
237.455	214.81
237.689	220.81
237.922	246.81
238.156	217.81
238.39	214.81
238.624	227.81
238.858	242.81
239.091	254.81
239.325	271.81
239.559	282.81
239.793	304.81
240.027	295.81
240.26	291.81
240.494	242.81
240.728	225.81
240.961	244.81
241.195	256.81
241.429	257.81
241.662	261.81
241.896	253.81
242.13	245.81
242.363	289.81
242.597	287.81
242.83	275.81
243.064	274.81
243.298	293.81
243.531	283.81
243.765	307.81
243.998	277.81
244.232	253.81
244.465	251.81
244.699	262.81
244.932	286.81
245.166	306.81
245.399	290.81
245.633	280.81
245.866	277.81
246.099	286.81
246.333	301.81
246.566	289.81
246.8	341.81
247.033	334.81
247.266	329.81
247.5	322.81
247.733	313.81
247.966	333.81
248.2	362.81
248.433	357.81
248.666	365.81
248.899	396.81
249.133	414.81
249.366	452.81
249.599	400.81
249.832	362.81
250.066	372.81
250.299	372.81
250.532	377.81
250.765	324.81
250.998	335.81
251.231	342.81
251.465	347.81
251.698	342.81
251.931	355.81
252.164	353.81
252.397	376.81
252.63	355.81
252.863	338.81
253.096	338.81
253.329	350.81
253.562	362.81
253.795	369.81
254.028	358.81
254.261	331.81
254.494	354.81
254.727	336.81
254.96	349.81
255.193	368.81
255.426	426.81
255.659	442.81
255.892	460.81
256.124	396.81
256.357	378.81
256.59	408.81
256.823	406.81
257.056	417.81
257.289	480.81
257.521	513.81
257.754	477.81
257.987	444.81
258.22	480.81
258.452	482.81
258.685	414.81
258.918	393.81
259.151	409.81
259.383	384.81
259.616	351.81
259.849	365.81
260.081	425.81
260.314	455.81
260.547	453.81
260.779	478.81
261.012	438.81
261.244	408.81
261.477	398.81
261.71	392.81
261.942	407.81
262.175	394.81
262.407	425.81
262.64	381.81
262.872	386.81
263.105	364.81
263.337	380.81
263.57	384.81
263.802	398.81
264.035	377.81
264.267	357.81
264.499	332.81
264.732	357.81
264.964	385.81
265.197	414.81
265.429	427.81
265.661	478.81
265.894	489.81
266.126	499.81
266.358	454.81
266.591	471.81
266.823	499.81
267.055	478.81
267.287	471.81
267.52	418.81
267.752	437.81
267.984	444.81
268.216	470.81
268.448	454.81
268.681	452.81
268.913	426.81
269.145	405.81
269.377	407.81
269.609	450.81
269.841	520.81
270.073	578.81
270.306	621.81
270.538	642.81
270.77	536.81
271.002	477.81
271.234	483.81
271.466	484.81
271.698	538.81
271.93	598.81
272.162	585.81
272.394	543.81
272.626	498.81
272.858	458.81
273.09	414.81
273.322	410.81
273.553	409.81
273.785	407.81
274.017	434.81
274.249	446.81
274.481	424.81
274.713	428.81
274.945	397.81
275.176	423.81
275.408	405.81
275.64	438.81
275.872	402.81
276.104	429.81
276.335	489.81
276.567	549.81
276.799	545.81
277.031	475.81
277.262	467.81
277.494	496.81
277.726	524.81
277.957	504.81
278.189	465.81
278.421	432.81
278.652	409.81
278.884	428.81
279.115	439.81
279.347	469.81
279.579	442.81
279.81	452.81
280.042	482.81
280.273	518.81
280.505	511.81
280.736	504.81
280.968	468.81
281.199	435.81
281.431	402.81
281.662	420.81
281.894	423.81
282.125	421.81
282.356	462.81
282.588	443.81
282.819	466.81
283.051	494.81
283.282	506.81
283.513	504.81
283.745	455.81
283.976	437.81
284.207	413.81
284.439	444.81
284.67	438.81
284.901	470.81
285.132	461.81
285.364	474.81
285.595	466.81
285.826	473.81
286.057	467.81
286.288	451.81
286.52	479.81
286.751	524.81
286.982	504.81
287.213	456.81
287.444	427.81
287.675	446.81
287.906	477.81
288.138	482.81
288.369	476.81
288.6	438.81
288.831	412.81
289.062	459.81
289.293	450.81
289.524	445.81
289.755	459.81
289.986	473.81
290.217	434.81
290.448	436.81
290.679	473.81
290.91	467.81
291.141	477.81
291.371	488.81
291.602	489.81
291.833	482.81
292.064	477.81
292.295	499.81
292.526	498.81
292.757	529.81
292.987	473.81
293.218	483.81
293.449	530.81
293.68	592.81
293.91	597.81
294.141	541.81
294.372	545.81
294.603	565.81
294.833	576.81
295.064	550.81
295.295	505.81
295.525	477.81
295.756	447.81
295.987	436.81
296.217	445.81
296.448	492.81
296.679	478.81
296.909	458.81
297.14	462.81
297.37	488.81
297.601	516.81
297.831	532.81
298.062	520.81
298.292	487.81
298.523	476.81
298.753	475.81
298.984	485.81
299.214	491.81
299.445	501.81
299.675	500.81
299.905	482.81
300.136	486.81
300.366	458.81
300.597	468.81
300.827	470.81
301.057	502.81
301.288	504.81
301.518	504.81
301.748	508.81
301.979	572.81
302.209	576.81
302.439	576.81
302.669	587.81
302.9	560.81
303.13	509.81
303.36	527.81
303.59	532.81
303.82	506.81
304.051	525.81
304.281	532.81
304.511	524.81
304.741	597.81
304.971	618.81
305.201	639.81
305.431	548.81
305.661	494.81
305.891	462.81
306.121	465.81
306.352	500.81
306.582	518.81
306.812	532.81
307.042	586.81
307.272	569.81
307.502	581.81
307.731	618.81
307.961	619.81
308.191	583.81
308.421	528.81
308.651	514.81
308.881	493.81
309.111	498.81
309.341	512.81
309.571	499.81
309.8	496.81
310.03	481.81
310.26	496.81
310.49	504.81
310.72	525.81
310.949	531.81
311.179	508.81
311.409	514.81
311.639	504.81
311.868	487.81
312.098	525.81
312.328	514.81
312.557	490.81
312.787	525.81
313.017	537.81
313.246	501.81
313.476	518.81
313.706	536.81
313.935	536.81
314.165	550.81
314.394	568.81
314.624	588.81
314.853	639.81
315.083	621.81
315.312	644.81
315.542	557.81
315.771	534.81
316.001	550.81
316.23	563.81
316.46	554.81
316.689	556.81
316.919	522.81
317.148	524.81
317.377	538.81
317.607	591.81
317.836	656.81
318.065	640.81
318.295	591.81
318.524	589.81
318.753	583.81
318.983	562.81
319.212	543.81
319.441	545.81
319.67	560.81
319.9	578.81
320.129	615.81
320.358	613.81
320.587	614.81
320.816	616.81
321.046	597.81
321.275	600.81
321.504	606.81
321.733	636.81
321.962	589.81
322.191	553.81
322.42	558.81
322.649	551.81
322.878	536.81
323.108	567.81
323.337	597.81
323.566	582.81
323.795	564.81
324.024	593.81
324.253	564.81
324.482	551.81
324.71	532.81
324.939	532.81
325.168	527.81
325.397	571.81
325.626	570.81
325.855	565.81
326.084	560.81
326.313	570.81
326.542	573.81
326.77	600.81
326.999	572.81
327.228	546.81
327.457	553.81
327.686	527.81
327.914	529.81
328.143	570.81
328.372	553.81
328.6	576.81
328.829	547.81
329.058	544.81
329.287	583.81
329.515	590.81
329.744	612.81
329.972	609.81
330.201	592.81
330.43	597.81
330.658	583.81
330.887	606.81
331.115	609.81
331.344	590.81
331.572	577.81
331.801	596.81
332.03	576.81
332.258	603.81
332.486	620.81
332.715	617.81
332.943	609.81
333.172	620.81
333.4	615.81
333.629	612.81
333.857	669.81
334.085	746.81
334.314	818.81
334.542	854.81
334.771	756.81
334.999	704.81
335.227	666.81
335.455	641.81
335.684	628.81
335.912	668.81
336.14	640.81
336.369	637.81
336.597	620.81
336.825	624.81
337.053	636.81
337.281	666.81
337.51	695.81
337.738	697.81
337.966	654.81
338.194	632.81
338.422	602.81
338.65	596.81
338.878	584.81
339.106	568.81
339.334	558.81
339.562	582.81
339.79	585.81
340.018	621.81
340.246	647.81
340.474	634.81
340.702	622.81
340.93	631.81
341.158	612.81
341.386	588.81
341.614	619.81
341.842	590.81
342.07	623.81
342.298	617.81
342.526	605.81
342.754	597.81
342.981	595.81
343.209	600.81
343.437	579.81
343.665	592.81
343.893	619.81
344.12	633.81
344.348	633.81
344.576	612.81
344.804	590.81
345.031	601.81
345.259	596.81
345.487	581.81
345.714	560.81
345.942	556.81
346.17	576.81
346.397	590.81
346.625	539.81
346.853	551.81
347.08	544.81
347.308	556.81
347.535	571.81
347.763	574.81
347.99	552.81
348.218	550.81
348.445	557.81
348.673	561.81
348.9	576.81
349.128	606.81
349.355	624.81
349.583	614.81
349.81	595.81
350.037	523.81
350.265	534.81
350.492	538.81
350.72	566.81
350.947	583.81
351.174	574.81
351.402	542.81
351.629	517.81
351.856	527.81
352.083	516.81
352.311	552.81
352.538	553.81
352.765	580.81
352.992	579.81
353.22	563.81
353.447	547.81
353.674	570.81
353.901	589.81
354.128	569.81
354.355	555.81
354.583	562.81
354.81	584.81
355.037	584.81
355.264	582.81
355.491	550.81
355.718	586.81
355.945	564.81
356.172	555.81
356.399	549.81
356.626	535.81
356.853	582.81
357.08	656.81
357.307	680.81
357.534	647.81
357.761	585.81
357.988	550.81
358.215	544.81
358.441	542.81
358.668	536.81
358.895	572.81
359.122	603.81
359.349	637.81
359.576	609.81
359.802	574.81
360.029	568.81
360.256	557.81
360.483	576.81
360.709	582.81
360.936	610.81
361.163	652.81
361.39	682.81
361.616	744.81
361.843	699.81
362.07	646.81
362.296	592.81
362.523	574.81
362.749	564.81
362.976	561.81
363.203	578.81
363.429	576.81
363.656	572.81
363.882	610.81
364.109	682.81
364.335	656.81
364.562	637.81
364.788	603.81
365.015	557.81
365.241	585.81
365.468	594.81
365.694	622.81
365.92	621.81
366.147	597.81
366.373	570.81
366.599	534.81
366.826	578.81
367.052	553.81
367.278	548.81
367.505	578.81
367.731	582.81
367.957	617.81
368.184	639.81
368.41	658.81
368.636	672.81
368.862	679.81
369.089	668.81
369.315	666.81
369.541	611.81
369.767	610.81
369.993	603.81
370.219	609.81
370.445	627.81
370.672	651.81
370.898	678.81
371.124	670.81
371.35	622.81
371.576	667.81
371.802	656.81
372.028	652.81
372.254	635.81
372.48	622.81
372.706	612.81
372.932	613.81
373.158	620.81
373.384	628.81
373.61	661.81
373.835	651.81
374.061	650.81
374.287	650.81
374.513	637.81
374.739	632.81
374.965	655.81
375.191	642.81
375.416	650.81
375.642	678.81
375.868	699.81
376.094	724.81
376.319	679.81
376.545	635.81
376.771	667.81
376.997	710.81
377.222	676.81
377.448	680.81
377.674	666.81
377.899	673.81
378.125	713.81
378.35	698.81
378.576	645.81
378.802	627.81
379.027	608.81
379.253	638.81
379.478	649.81
379.704	647.81
379.929	651.81
380.155	646.81
380.38	636.81
380.606	665.81
380.831	646.81
381.057	718.81
381.282	692.81
381.507	711.81
381.733	730.81
381.958	745.81
382.184	710.81
382.409	676.81
382.634	706.81
382.86	678.81
383.085	661.81
383.31	722.81
383.535	803.81
383.761	792.81
383.986	746.81
384.211	722.81
384.436	741.81
384.662	753.81
384.887	794.81
385.112	745.81
385.337	733.81
385.562	723.81
385.787	740.81
386.013	763.81
386.238	794.81
386.463	786.81
386.688	826.81
386.913	854.81
387.138	832.81
387.363	786.81
387.588	780.81
387.813	773.81
388.038	782.81
388.263	817.81
388.488	737.81
388.713	724.81
388.938	709.81
389.163	738.81
389.387	728.81
389.612	754.81
389.837	777.81
390.062	738.81
390.287	755.81
390.512	748.81
390.736	748.81
390.961	738.81
391.186	745.81
391.411	740.81
391.636	760.81
391.86	752.81
392.085	758.81
392.31	763.81
392.534	739.81
392.759	786.81
392.984	748.81
393.208	775.81
393.433	804.81
393.658	833.81
393.882	822.81
394.107	780.81
394.331	776.81
394.556	758.81
394.78	798.81
395.005	839.81
395.229	865.81
395.454	898.81
395.678	846.81
395.903	833.81
396.127	814.81
396.352	845.81
396.576	862.81
396.801	836.81
397.025	838.81
397.249	847.81
397.474	858.81
397.698	835.81
397.922	876.81
398.147	879.81
398.371	908.81
398.595	903.81
398.82	873.81
399.044	870.81
399.268	929.81
399.492	970.81
399.717	953.81
399.941	1001.81
400.165	998.81
400.389	978.81
400.613	972.81
400.837	1156.81
401.062	1194.81
401.286	1023.81
401.51	967.81
401.734	996.81
401.958	921.81
402.182	906.81
402.406	871.81
402.63	900.81
402.854	896.81
403.078	880.81
403.302	910.81
403.526	908.81
403.75	925.81
403.974	945.81
404.198	936.81
404.422	966.81
404.645	1043.81
404.869	986.81
405.093	893.81
405.317	902.81
405.541	923.81
405.765	968.81
405.988	920.81
406.212	945.81
406.436	977.81
406.66	992.81
406.883	1012.81
407.107	1138.81
407.331	1246.81
407.555	1286.81
407.778	1114.81
408.002	980.81
408.226	972.81
408.449	955.81
408.673	973.81
408.896	936.81
409.12	982.81
409.344	964.81
409.567	920.81
409.791	950.81
410.014	944.81
410.238	1013.81
410.461	1047.81
410.685	949.81
410.908	939.81
411.132	961.81
411.355	920.81
411.578	950.81
411.802	978.81
412.025	957.81
412.249	912.81
412.472	910.81
412.695	924.81
412.919	920.81
413.142	914.81
413.365	932.81
413.589	968.81
413.812	1003.81
414.035	1014.81
414.258	954.81
414.482	898.81
414.705	936.81
414.928	917.81
415.151	910.81
415.374	914.81
415.597	946.81
415.821	952.81
416.044	971.81
416.267	953.81
416.49	907.81
416.713	916.81
416.936	954.81
417.159	994.81
417.382	984.81
417.605	932.81
417.828	946.81
418.051	954.81
418.274	932.81
418.497	918.81
418.72	936.81
418.943	933.81
419.166	960.81
419.389	998.81
419.611	969.81
419.834	937.81
420.057	964.81
420.28	948.81
420.503	956.81
420.726	941.81
420.948	950.81
421.171	953.81
421.394	930.81
421.617	997.81
421.839	988.81
422.062	998.81
422.285	964.81
422.507	957.81
422.73	904.81
422.953	878.81
423.175	902.81
423.398	944.81
423.621	918.81
423.843	928.81
424.066	999.81
424.288	1024.81
424.511	1060.81
424.733	1028.81
424.956	950.81
425.178	923.81
425.401	901.81
425.623	970.81
425.846	920.81
426.068	967.81
426.291	967.81
426.513	980.81
426.735	979.81
426.958	1048.81
427.18	1043.81
427.402	985.81
427.625	1046.81
427.847	980.81
428.069	948.81
428.292	935.81
428.514	917.81
428.736	906.81
428.958	920.81
429.181	935.81
429.403	1056.81
429.625	1235.81
429.847	1044.81
430.069	941.81
430.292	1040.81
430.514	1025.81
430.736	980.81
430.958	993.81
431.18	920.81
431.402	911.81
431.624	836.81
431.846	820.81
432.068	750.81
432.29	736.81
432.512	808.81
432.734	858.81
432.956	938.81
433.178	976.81
433.4	989.81
433.622	962.81
433.844	930.81
434.066	884.81
434.287	804.81
434.509	781.81
434.731	826.81
434.953	955.81
435.175	950.81
435.397	906.81
435.618	867.81
435.84	852.81
436.062	853.81
436.284	902.81
436.505	922.81
436.727	980.81
436.949	900.81
437.17	911.81
437.392	892.81
437.614	865.81
437.835	788.81
438.057	826.81
438.278	849.81
438.5	880.81
438.721	936.81
438.943	918.81
439.165	922.81
439.386	928.81
439.608	940.81
439.829	944.81
440.05	973.81
440.272	986.81
440.493	952.81
440.715	989.81
440.936	1004.81
441.158	1058.81
441.379	1041.81
441.6	1063.81
441.822	1006.81
442.043	989.81
442.264	1007.81
442.486	958.81
442.707	950.81
442.928	927.81
443.149	1003.81
443.371	1022.81
443.592	1067.81
443.813	1042.81
444.034	985.81
444.255	1038.81
444.476	1023.81
444.698	1042.81
444.919	1053.81
445.14	1169.81
445.361	1123.81
445.582	1084.81
445.803	1047.81
446.024	1024.81
446.245	1074.81
446.466	1077.81
446.687	1020.81
446.908	1060.81
447.129	1005.81
447.35	1015.81
447.571	995.81
447.792	978.81
448.013	964.81
448.234	987.81
448.455	987.81
448.675	1023.81
448.896	920.81
449.117	898.81
449.338	946.81
449.559	952.81
449.779	984.81
450	1042.81
450.221	1081.81
450.442	1029.81
450.662	928.81
450.883	878.81
451.104	871.81
451.324	887.81
451.545	896.81
451.766	866.81
451.986	837.81
452.207	854.81
452.428	799.81
452.648	805.81
452.869	818.81
453.089	778.81
453.31	758.81
453.53	772.81
453.751	725.81
453.971	698.81
454.192	741.81
454.412	771.81
454.633	791.81
454.853	768.81
455.073	778.81
455.294	781.81
455.514	762.81
455.734	761.81
455.955	770.81
456.175	730.81
456.395	762.81
456.616	736.81
456.836	732.81
457.056	747.81
457.276	737.81
457.497	753.81
457.717	696.81
457.937	712.81
458.157	724.81
458.377	707.81
458.598	696.81
458.818	662.81
459.038	690.81
459.258	753.81
459.478	744.81
459.698	706.81
459.918	749.81
460.138	799.81
460.358	824.81
460.578	846.81
460.798	854.81
461.018	869.81
461.238	853.81
461.458	850.81
461.678	841.81
461.898	828.81
462.118	816.81
462.338	836.81
462.558	859.81
462.777	855.81
462.997	889.81
463.217	882.81
463.437	904.81
463.657	864.81
463.876	866.81
464.096	821.81
464.316	849.81
464.536	858.81
464.755	886.81
464.975	860.81
465.195	855.81
465.414	900.81
465.634	854.81
465.854	892.81
466.073	954.81
466.293	935.81
466.512	868.81
466.732	883.81
466.951	886.81
467.171	896.81
467.391	864.81
467.61	865.81
467.829	913.81
468.049	985.81
468.268	997.81
468.488	974.81
468.707	934.81
468.927	945.81
469.146	892.81
469.365	905.81
469.585	931.81
469.804	915.81
470.023	914.81
470.243	944.81
470.462	948.81
470.681	944.81
470.901	925.81
471.12	950.81
471.339	948.81
471.558	938.81
471.777	911.81
471.997	913.81
472.216	878.81
472.435	777.81
472.654	776.81
472.873	816.81
473.092	845.81
473.311	835.81
473.53	818.81
473.749	845.81
473.968	840.81
474.187	875.81
474.406	872.81
474.625	868.81
474.844	892.81
475.063	876.81
475.282	858.81
475.501	846.81
475.72	845.81
475.939	916.81
476.158	896.81
476.377	853.81
476.596	864.81
476.814	829.81
477.033	837.81
477.252	837.81
477.471	894.81
477.69	904.81
477.908	940.81
478.127	970.81
478.346	1018.81
478.564	1006.81
478.783	997.81
479.002	1087.81
479.22	1024.81
479.439	1034.81
479.658	1062.81
479.876	995.81
480.095	922.81
480.313	920.81
480.532	902.81
480.751	862.81
480.969	829.81
481.188	790.81
481.406	798.81
481.624	779.81
481.843	793.81
482.061	818.81
482.28	858.81
482.498	892.81
482.717	876.81
482.935	911.81
483.153	976.81
483.372	1051.81
483.59	1007.81
483.808	994.81
484.027	978.81
484.245	989.81
484.463	1214.81
484.681	1272.81
484.9	1038.81
485.118	962.81
485.336	960.81
485.554	902.81
485.772	909.81
485.99	873.81
486.209	916.81
486.427	928.81
486.645	952.81
486.863	1030.81
487.081	1030.81
487.299	1026.81
487.517	1037.81
487.735	1100.81
487.953	1224.81
488.171	1210.81
488.389	1137.81
488.607	1091.81
488.825	1148.81
489.043	1049.81
489.261	944.81
489.479	1033.81
489.696	1048.81
489.914	1039.81
490.132	1058.81
490.35	1091.81
490.568	1191.81
490.786	1198.81
491.003	1184.81
491.221	1250.81
491.439	1282.81
491.657	1313.81
491.874	1380.81
492.092	1464.81
492.31	1498.81
492.527	1449.81
492.745	1378.81
492.963	1328.81
493.18	1326.81
493.398	1362.81
493.615	1333.81
493.833	1287.81
494.05	1244.81
494.268	1268.81
494.485	1253.81
494.703	1234.81
494.92	1206.81
495.138	1224.81
495.355	1246.81
495.573	1242.81
495.79	1283.81
496.008	1272.81
496.225	1282.81
496.442	1253.81
496.66	1260.81
496.877	1225.81
497.094	1241.81
497.312	1223.81
497.529	1211.81
497.746	1203.81
497.963	1293.81
498.181	1319.81
498.398	1252.81
498.615	1211.81
498.832	1172.81
499.049	1142.81
499.267	1206.81
499.484	1243.81
499.701	1380.81
499.918	1368.81
500.135	1488.81
500.352	1579.81
