Data from WStandard_LampEnergy8_LIBS07252019.E.O._I.C._HRD10591_15-57-53-929.txt Node
Date: Thu Jul 25 15:57:53 EDT 2019
User: cochatt
Spectrometer: HR+D1059
Trigger mode: 1
Integration Time (sec): 1.000000E-1
Scans to average: 1
Electric dark correction enabled: true
Nonlinearity correction enabled: false
Boxcar width: 0
XAxis mode: Wavelengths
Number of Pixels in Spectrum: 2048
>>>>>Begin Spectral Data<<<<<
223.165	-22.06
223.4	-22.06
223.635	-22.06
223.869	-16.06
224.104	-11.06
224.338	-7.06
224.573	-10.06
224.808	-9.06
225.042	-12.06
225.277	-19.06
225.511	12.94
225.746	-4.06
225.98	4.94
226.215	4.94
226.449	15.94
226.683	18.94
226.918	23.94
227.152	28.94
227.387	37.94
227.621	44.94
227.856	34.94
228.09	30.94
228.324	49.94
228.559	44.94
228.793	96.94
229.027	183.94
229.262	198.94
229.496	200.94
229.73	231.94
229.964	244.94
230.199	250.94
230.433	264.94
230.667	281.94
230.901	304.94
231.136	265.94
231.37	272.94
231.604	246.94
231.838	272.94
232.072	274.94
232.306	272.94
232.541	272.94
232.775	322.94
233.009	335.94
233.243	312.94
233.477	294.94
233.711	315.94
233.945	306.94
234.179	312.94
234.413	342.94
234.647	345.94
234.881	324.94
235.115	296.94
235.349	299.94
235.583	319.94
235.817	315.94
236.051	309.94
236.285	307.94
236.519	320.94
236.753	359.94
236.987	377.94
237.221	370.94
237.455	389.94
237.689	370.94
237.922	366.94
238.156	344.94
238.39	357.94
238.624	384.94
238.858	395.94
239.091	409.94
239.325	448.94
239.559	500.94
239.793	506.94
240.027	533.94
240.26	513.94
240.494	407.94
240.728	380.94
240.961	396.94
241.195	382.94
241.429	419.94
241.662	432.94
241.896	403.94
242.13	415.94
242.363	445.94
242.597	466.94
242.83	465.94
243.064	460.94
243.298	504.94
243.531	497.94
243.765	475.94
243.998	473.94
244.232	427.94
244.465	418.94
244.699	423.94
244.932	452.94
245.166	519.94
245.399	492.94
245.633	481.94
245.866	491.94
246.099	499.94
246.333	512.94
246.566	511.94
246.8	541.94
247.033	594.94
247.266	546.94
247.5	558.94
247.733	576.94
247.966	584.94
248.2	630.94
248.433	640.94
248.666	663.94
248.899	697.94
249.133	774.94
249.366	853.94
249.599	711.94
249.832	644.94
250.066	656.94
250.299	661.94
250.532	609.94
250.765	562.94
250.998	582.94
251.231	600.94
251.465	624.94
251.698	620.94
251.931	590.94
252.164	617.94
252.397	618.94
252.63	651.94
252.863	590.94
253.096	573.94
253.329	613.94
253.562	609.94
253.795	635.94
254.028	637.94
254.261	611.94
254.494	610.94
254.727	572.94
254.96	596.94
255.193	667.94
255.426	735.94
255.659	825.94
255.892	804.94
256.124	704.94
256.357	675.94
256.59	748.94
256.823	753.94
257.056	760.94
257.289	857.94
257.521	931.94
257.754	869.94
257.987	838.94
258.22	861.94
258.452	816.94
258.685	705.94
258.918	684.94
259.151	686.94
259.383	650.94
259.616	615.94
259.849	642.94
260.081	732.94
260.314	795.94
260.547	852.94
260.779	844.94
261.012	786.94
261.244	723.94
261.477	711.94
261.71	721.94
261.942	723.94
262.175	691.94
262.407	737.94
262.64	684.94
262.872	677.94
263.105	642.94
263.337	647.94
263.57	626.94
263.802	651.94
264.035	627.94
264.267	590.94
264.499	611.94
264.732	629.94
264.964	686.94
265.197	696.94
265.429	726.94
265.661	808.94
265.894	898.94
266.126	905.94
266.358	834.94
266.591	849.94
266.823	878.94
267.055	807.94
267.287	788.94
267.52	789.94
267.752	777.94
267.984	801.94
268.216	819.94
268.448	824.94
268.681	827.94
268.913	762.94
269.145	733.94
269.377	704.94
269.609	789.94
269.841	946.94
270.073	1063.94
270.306	1152.94
270.538	1169.94
270.77	1000.94
271.002	885.94
271.234	853.94
271.466	859.94
271.698	947.94
271.93	1099.94
272.162	1087.94
272.394	977.94
272.626	934.94
272.858	827.94
273.09	727.94
273.322	732.94
273.553	701.94
273.785	722.94
274.017	725.94
274.249	772.94
274.481	780.94
274.713	740.94
274.945	721.94
275.176	698.94
275.408	694.94
275.64	703.94
275.872	698.94
276.104	769.94
276.335	856.94
276.567	955.94
276.799	926.94
277.031	871.94
277.262	836.94
277.494	884.94
277.726	953.94
277.957	905.94
278.189	849.94
278.421	784.94
278.652	768.94
278.884	776.94
279.115	802.94
279.347	774.94
279.579	757.94
279.81	777.94
280.042	864.94
280.273	926.94
280.505	914.94
280.736	925.94
280.968	853.94
281.199	751.94
281.431	742.94
281.662	750.94
281.894	747.94
282.125	778.94
282.356	792.94
282.588	811.94
282.819	791.94
283.051	859.94
283.282	893.94
283.513	902.94
283.745	786.94
283.976	748.94
284.207	731.94
284.439	777.94
284.67	782.94
284.901	810.94
285.132	816.94
285.364	802.94
285.595	807.94
285.826	779.94
286.057	799.94
286.288	798.94
286.52	815.94
286.751	872.94
286.982	907.94
287.213	820.94
287.444	751.94
287.675	776.94
287.906	816.94
288.138	848.94
288.369	835.94
288.6	798.94
288.831	782.94
289.062	772.94
289.293	791.94
289.524	784.94
289.755	819.94
289.986	781.94
290.217	743.94
290.448	788.94
290.679	819.94
290.91	812.94
291.141	818.94
291.371	864.94
291.602	847.94
291.833	845.94
292.064	881.94
292.295	869.94
292.526	899.94
292.757	920.94
292.987	884.94
293.218	828.94
293.449	895.94
293.68	1032.94
293.91	1058.94
294.141	989.94
294.372	950.94
294.603	954.94
294.833	1009.94
295.064	962.94
295.295	863.94
295.525	844.94
295.756	773.94
295.987	755.94
296.217	775.94
296.448	806.94
296.679	791.94
296.909	802.94
297.14	800.94
297.37	844.94
297.601	878.94
297.831	936.94
298.062	911.94
298.292	832.94
298.523	817.94
298.753	824.94
298.984	822.94
299.214	848.94
299.445	850.94
299.675	884.94
299.905	853.94
300.136	844.94
300.366	820.94
300.597	771.94
300.827	794.94
301.057	869.94
301.288	882.94
301.518	874.94
301.748	915.94
301.979	931.94
302.209	960.94
302.439	1019.94
302.669	1033.94
302.9	947.94
303.13	879.94
303.36	897.94
303.59	907.94
303.82	909.94
304.051	875.94
304.281	886.94
304.511	916.94
304.741	1003.94
304.971	1056.94
305.201	1096.94
305.431	1000.94
305.661	833.94
305.891	774.94
306.121	804.94
306.352	837.94
306.582	884.94
306.812	954.94
307.042	986.94
307.272	997.94
307.502	1017.94
307.731	1076.94
307.961	1164.94
308.191	1030.94
308.421	911.94
308.651	845.94
308.881	847.94
309.111	850.94
309.341	867.94
309.571	844.94
309.8	851.94
310.03	850.94
310.26	835.94
310.49	862.94
310.72	878.94
310.949	934.94
311.179	921.94
311.409	883.94
311.639	867.94
311.868	871.94
312.098	884.94
312.328	872.94
312.557	868.94
312.787	887.94
313.017	902.94
313.246	899.94
313.476	890.94
313.706	912.94
313.935	931.94
314.165	910.94
314.394	970.94
314.624	1030.94
314.853	1050.94
315.083	1104.94
315.312	1122.94
315.542	997.94
315.771	939.94
316.001	944.94
316.23	964.94
316.46	994.94
316.689	948.94
316.919	924.94
317.148	898.94
317.377	905.94
317.607	1013.94
317.836	1105.94
318.065	1094.94
318.295	1074.94
318.524	1010.94
318.753	988.94
318.983	962.94
319.212	929.94
319.441	952.94
319.67	965.94
319.9	983.94
320.129	1006.94
320.358	1090.94
320.587	1084.94
320.816	1059.94
321.046	1022.94
321.275	1002.94
321.504	1038.94
321.733	1092.94
321.962	1043.94
322.191	972.94
322.42	966.94
322.649	919.94
322.878	938.94
323.108	947.94
323.337	991.94
323.566	1008.94
323.795	1014.94
324.024	991.94
324.253	970.94
324.482	963.94
324.71	958.94
324.939	881.94
325.168	930.94
325.397	961.94
325.626	984.94
325.855	981.94
326.084	977.94
326.313	980.94
326.542	967.94
326.77	1000.94
326.999	1001.94
327.228	933.94
327.457	907.94
327.686	892.94
327.914	927.94
328.143	936.94
328.372	946.94
328.6	952.94
328.829	978.94
329.058	932.94
329.287	922.94
329.515	987.94
329.744	998.94
329.972	1044.94
330.201	1061.94
330.43	1032.94
330.658	1011.94
330.887	999.94
331.115	1006.94
331.344	1014.94
331.572	1011.94
331.801	993.94
332.03	991.94
332.258	1020.94
332.486	1025.94
332.715	1042.94
332.943	1009.94
333.172	1028.94
333.4	1057.94
333.629	1068.94
333.857	1160.94
334.085	1310.94
334.314	1423.94
334.542	1510.94
334.771	1346.94
334.999	1200.94
335.227	1110.94
335.455	1097.94
335.684	1081.94
335.912	1153.94
336.14	1150.94
336.369	1068.94
336.597	1056.94
336.825	1037.94
337.053	1064.94
337.281	1146.94
337.51	1191.94
337.738	1200.94
337.966	1143.94
338.194	1051.94
338.422	1039.94
338.65	999.94
338.878	998.94
339.106	967.94
339.334	968.94
339.562	952.94
339.79	1013.94
340.018	1050.94
340.246	1058.94
340.474	1074.94
340.702	1086.94
340.93	1059.94
341.158	1050.94
341.386	1034.94
341.614	1049.94
341.842	994.94
342.07	1023.94
342.298	1031.94
342.526	1019.94
342.754	1018.94
342.981	995.94
343.209	996.94
343.437	985.94
343.665	1020.94
343.893	1030.94
344.12	1087.94
344.348	1083.94
344.576	1051.94
344.804	1015.94
345.031	991.94
345.259	1012.94
345.487	988.94
345.714	927.94
345.942	939.94
346.17	935.94
346.397	972.94
346.625	985.94
346.853	907.94
347.08	922.94
347.308	903.94
347.535	939.94
347.763	997.94
347.99	914.94
348.218	945.94
348.445	948.94
348.673	952.94
348.9	978.94
349.128	1026.94
349.355	1003.94
349.583	975.94
349.81	965.94
350.037	885.94
350.265	888.94
350.492	903.94
350.72	954.94
350.947	968.94
351.174	956.94
351.402	917.94
351.629	883.94
351.856	883.94
352.083	888.94
352.311	902.94
352.538	935.94
352.765	931.94
352.992	976.94
353.22	922.94
353.447	922.94
353.674	943.94
353.901	958.94
354.128	917.94
354.355	922.94
354.583	1000.94
354.81	987.94
355.037	963.94
355.264	975.94
355.491	940.94
355.718	950.94
355.945	983.94
356.172	937.94
356.399	907.94
356.626	936.94
356.853	992.94
357.08	1051.94
357.307	1164.94
357.534	1090.94
357.761	966.94
357.988	935.94
358.215	889.94
358.441	905.94
358.668	888.94
358.895	946.94
359.122	1020.94
359.349	1086.94
359.576	1020.94
359.802	961.94
360.029	907.94
360.256	928.94
360.483	942.94
360.709	952.94
360.936	999.94
361.163	1029.94
361.39	1151.94
361.616	1221.94
361.843	1190.94
362.07	1091.94
362.296	965.94
362.523	957.94
362.749	953.94
362.976	958.94
363.203	979.94
363.429	943.94
363.656	908.94
363.882	995.94
364.109	1114.94
364.335	1127.94
364.562	1063.94
364.788	986.94
365.015	980.94
365.241	918.94
365.468	964.94
365.694	1018.94
365.92	1020.94
366.147	972.94
366.373	924.94
366.599	908.94
366.826	915.94
367.052	923.94
367.278	946.94
367.505	956.94
367.731	970.94
367.957	972.94
368.184	1031.94
368.41	1088.94
368.636	1092.94
368.862	1075.94
369.089	1091.94
369.315	1041.94
369.541	978.94
369.767	961.94
369.993	924.94
370.219	954.94
370.445	1028.94
370.672	1062.94
370.898	1088.94
371.124	1058.94
371.35	999.94
371.576	1066.94
371.802	1087.94
372.028	1036.94
372.254	976.94
372.48	957.94
372.706	983.94
372.932	967.94
373.158	952.94
373.384	1008.94
373.61	1048.94
373.835	1031.94
374.061	1011.94
374.287	1010.94
374.513	999.94
374.739	1026.94
374.965	1003.94
375.191	1025.94
375.416	1063.94
375.642	1026.94
375.868	1114.94
376.094	1145.94
376.319	1086.94
376.545	1016.94
376.771	1045.94
376.997	1120.94
377.222	1103.94
377.448	1081.94
377.674	1060.94
377.899	1076.94
378.125	1120.94
378.35	1115.94
378.576	1027.94
378.802	963.94
379.027	962.94
379.253	1016.94
379.478	1011.94
379.704	1000.94
379.929	1009.94
380.155	1018.94
380.38	1035.94
380.606	1021.94
380.831	1065.94
381.057	1120.94
381.282	1096.94
381.507	1049.94
381.733	1166.94
381.958	1162.94
382.184	1088.94
382.409	1042.94
382.634	1052.94
382.86	1057.94
383.085	1079.94
383.31	1104.94
383.535	1192.94
383.761	1250.94
383.986	1197.94
384.211	1138.94
384.436	1128.94
384.662	1212.94
384.887	1237.94
385.112	1160.94
385.337	1163.94
385.562	1157.94
385.787	1158.94
386.013	1172.94
386.238	1173.94
386.463	1165.94
386.688	1275.94
386.913	1379.94
387.138	1305.94
387.363	1207.94
387.588	1165.94
387.813	1154.94
388.038	1200.94
388.263	1249.94
388.488	1166.94
388.713	1114.94
388.938	1091.94
389.163	1117.94
389.387	1135.94
389.612	1128.94
389.837	1162.94
390.062	1154.94
390.287	1164.94
390.512	1130.94
390.736	1147.94
390.961	1104.94
391.186	1097.94
391.411	1091.94
391.636	1142.94
391.86	1137.94
392.085	1147.94
392.31	1129.94
392.534	1152.94
392.759	1160.94
392.984	1157.94
393.208	1141.94
393.433	1190.94
393.658	1273.94
393.882	1269.94
394.107	1120.94
394.331	1147.94
394.556	1174.94
394.78	1202.94
395.005	1210.94
395.229	1273.94
395.454	1361.94
395.678	1360.94
395.903	1264.94
396.127	1204.94
396.352	1228.94
396.576	1287.94
396.801	1322.94
397.025	1277.94
397.249	1264.94
397.474	1286.94
397.698	1238.94
397.922	1312.94
398.147	1354.94
398.371	1412.94
398.595	1410.94
398.82	1332.94
399.044	1353.94
399.268	1389.94
399.492	1488.94
399.717	1543.94
399.941	1570.94
400.165	1548.94
400.389	1473.94
400.613	1494.94
400.837	1695.94
401.062	1862.94
401.286	1549.94
401.51	1475.94
401.734	1505.94
401.958	1462.94
402.182	1331.94
402.406	1286.94
402.63	1313.94
402.854	1272.94
403.078	1345.94
403.302	1366.94
403.526	1377.94
403.75	1367.94
403.974	1403.94
404.198	1417.94
404.422	1473.94
404.645	1538.94
404.869	1466.94
405.093	1374.94
405.317	1330.94
405.541	1379.94
405.765	1387.94
405.988	1395.94
406.212	1396.94
406.436	1446.94
406.66	1486.94
406.883	1502.94
407.107	1697.94
407.331	1858.94
407.555	2000.94
407.778	1736.94
408.002	1478.94
408.226	1419.94
408.449	1438.94
408.673	1420.94
408.896	1437.94
409.12	1418.94
409.344	1385.94
409.567	1377.94
409.791	1372.94
410.014	1426.94
410.238	1502.94
410.461	1573.94
410.685	1393.94
410.908	1352.94
411.132	1392.94
411.355	1359.94
411.578	1370.94
411.802	1346.94
412.025	1370.94
412.249	1379.94
412.472	1349.94
412.695	1315.94
412.919	1300.94
413.142	1327.94
413.365	1340.94
413.589	1408.94
413.812	1465.94
414.035	1495.94
414.258	1360.94
414.482	1320.94
414.705	1377.94
414.928	1335.94
415.151	1319.94
415.374	1360.94
415.597	1333.94
415.821	1310.94
416.044	1400.94
416.267	1370.94
416.49	1298.94
416.713	1290.94
416.936	1355.94
417.159	1424.94
417.382	1390.94
417.605	1312.94
417.828	1313.94
418.051	1359.94
418.274	1342.94
418.497	1286.94
418.72	1280.94
418.943	1312.94
419.166	1357.94
419.389	1393.94
419.611	1314.94
419.834	1321.94
420.057	1323.94
420.28	1312.94
420.503	1335.94
420.726	1367.94
420.948	1333.94
421.171	1286.94
421.394	1310.94
421.617	1375.94
421.839	1373.94
422.062	1344.94
422.285	1321.94
422.507	1305.94
422.73	1247.94
422.953	1228.94
423.175	1230.94
423.398	1292.94
423.621	1294.94
423.843	1305.94
424.066	1371.94
424.288	1414.94
424.511	1471.94
424.733	1376.94
424.956	1298.94
425.178	1276.94
425.401	1266.94
425.623	1275.94
425.846	1311.94
426.068	1409.94
426.291	1366.94
426.513	1366.94
426.735	1339.94
426.958	1472.94
427.18	1565.94
427.402	1398.94
427.625	1443.94
427.847	1433.94
428.069	1321.94
428.292	1269.94
428.514	1277.94
428.736	1286.94
428.958	1272.94
429.181	1287.94
429.403	1503.94
429.625	1790.94
429.847	1520.94
430.069	1311.94
430.292	1484.94
430.514	1509.94
430.736	1395.94
430.958	1398.94
431.18	1322.94
431.402	1249.94
431.624	1208.94
431.846	1202.94
432.068	1162.94
432.29	1193.94
432.512	1217.94
432.734	1289.94
432.956	1320.94
433.178	1394.94
433.4	1347.94
433.622	1369.94
433.844	1298.94
434.066	1244.94
434.287	1180.94
434.509	1242.94
434.731	1292.94
434.953	1371.94
435.175	1374.94
435.397	1330.94
435.618	1295.94
435.84	1292.94
436.062	1232.94
436.284	1295.94
436.505	1338.94
436.727	1365.94
436.949	1312.94
437.17	1287.94
437.392	1273.94
437.614	1248.94
437.835	1228.94
438.057	1239.94
438.278	1299.94
438.5	1215.94
438.721	1274.94
438.943	1268.94
439.165	1246.94
439.386	1257.94
439.608	1264.94
439.829	1278.94
440.05	1284.94
440.272	1257.94
440.493	1288.94
440.715	1330.94
440.936	1357.94
441.158	1461.94
441.379	1410.94
441.6	1427.94
441.822	1394.94
442.043	1354.94
442.264	1329.94
442.486	1283.94
442.707	1284.94
442.928	1289.94
443.149	1337.94
443.371	1362.94
443.592	1408.94
443.813	1397.94
444.034	1399.94
444.255	1399.94
444.476	1423.94
444.698	1418.94
444.919	1426.94
445.14	1484.94
445.361	1463.94
445.582	1502.94
445.803	1424.94
446.024	1401.94
446.245	1452.94
446.466	1374.94
446.687	1346.94
446.908	1412.94
447.129	1320.94
447.35	1312.94
447.571	1307.94
447.792	1257.94
448.013	1281.94
448.234	1303.94
448.455	1323.94
448.675	1328.94
448.896	1283.94
449.117	1210.94
449.338	1237.94
449.559	1306.94
449.779	1356.94
450	1431.94
450.221	1497.94
450.442	1447.94
450.662	1299.94
450.883	1207.94
451.104	1169.94
451.324	1217.94
451.545	1267.94
451.766	1185.94
451.986	1200.94
452.207	1157.94
452.428	1138.94
452.648	1084.94
452.869	1112.94
453.089	1176.94
453.31	1169.94
453.53	1189.94
453.751	1152.94
453.971	1104.94
454.192	1107.94
454.412	1165.94
454.633	1151.94
454.853	1162.94
455.073	1076.94
455.294	1086.94
455.514	1089.94
455.734	1079.94
455.955	1108.94
456.175	1070.94
456.395	1072.94
456.616	1107.94
456.836	1096.94
457.056	1115.94
457.276	1103.94
457.497	1097.94
457.717	1029.94
457.937	1048.94
458.157	1063.94
458.377	1036.94
458.598	1053.94
458.818	1048.94
459.038	1123.94
459.258	1189.94
459.478	1165.94
459.698	1103.94
459.918	1202.94
460.138	1218.94
460.358	1282.94
460.578	1272.94
460.798	1299.94
461.018	1386.94
461.238	1338.94
461.458	1314.94
461.678	1324.94
461.898	1269.94
462.118	1250.94
462.338	1290.94
462.558	1329.94
462.777	1287.94
462.997	1324.94
463.217	1401.94
463.437	1379.94
463.657	1307.94
463.876	1305.94
464.096	1276.94
464.316	1299.94
464.536	1321.94
464.755	1332.94
464.975	1346.94
465.195	1329.94
465.414	1286.94
465.634	1343.94
465.854	1312.94
466.073	1452.94
466.293	1367.94
466.512	1251.94
466.732	1231.94
466.951	1280.94
467.171	1285.94
467.391	1225.94
467.61	1209.94
467.829	1224.94
468.049	1339.94
468.268	1511.94
468.488	1345.94
468.707	1318.94
468.927	1220.94
469.146	1242.94
469.365	1257.94
469.585	1280.94
469.804	1283.94
470.023	1262.94
470.243	1289.94
470.462	1274.94
470.681	1228.94
470.901	1250.94
471.12	1265.94
471.339	1245.94
471.558	1211.94
471.777	1216.94
471.997	1244.94
472.216	1217.94
472.435	1139.94
472.654	1148.94
472.873	1186.94
473.092	1207.94
473.311	1226.94
473.53	1161.94
473.749	1172.94
473.968	1228.94
474.187	1214.94
474.406	1259.94
474.625	1256.94
474.844	1229.94
475.063	1214.94
475.282	1267.94
475.501	1245.94
475.72	1231.94
475.939	1310.94
476.158	1264.94
476.377	1206.94
476.596	1236.94
476.814	1234.94
477.033	1246.94
477.252	1319.94
477.471	1307.94
477.69	1278.94
477.908	1329.94
478.127	1389.94
478.346	1468.94
478.564	1444.94
478.783	1420.94
479.002	1451.94
479.22	1447.94
479.439	1503.94
479.658	1612.94
479.876	1551.94
480.095	1411.94
480.313	1366.94
480.532	1332.94
480.751	1343.94
480.969	1364.94
481.188	1282.94
481.406	1264.94
481.624	1240.94
481.843	1314.94
482.061	1321.94
482.28	1361.94
482.498	1357.94
482.717	1329.94
482.935	1306.94
483.153	1351.94
483.372	1371.94
483.59	1390.94
483.808	1397.94
484.027	1377.94
484.245	1472.94
484.463	1771.94
484.681	1972.94
484.9	1481.94
485.118	1387.94
485.336	1379.94
485.554	1418.94
485.772	1414.94
485.99	1398.94
486.209	1427.94
486.427	1400.94
486.645	1406.94
486.863	1458.94
487.081	1490.94
487.299	1505.94
487.517	1455.94
487.735	1477.94
487.953	1520.94
488.171	1493.94
488.389	1490.94
488.607	1502.94
488.825	1632.94
489.043	1581.94
489.261	1449.94
489.479	1514.94
489.696	1521.94
489.914	1478.94
490.132	1446.94
490.35	1483.94
490.568	1568.94
490.786	1515.94
491.003	1494.94
491.221	1587.94
491.439	1616.94
491.657	1620.94
491.874	1668.94
492.092	1696.94
492.31	1659.94
492.527	1687.94
492.745	1607.94
492.963	1626.94
