Data from WStandard_LampEnergy5.5LIBS07252019.E.O._I.C._HRD10591_16-06-57-920.txt Node
Date: Thu Jul 25 16:06:57 EDT 2019
User: cochatt
Spectrometer: HR+D1059
Trigger mode: 1
Integration Time (sec): 1.000000E-1
Scans to average: 1
Electric dark correction enabled: true
Nonlinearity correction enabled: false
Boxcar width: 0
XAxis mode: Wavelengths
Number of Pixels in Spectrum: 2048
>>>>>Begin Spectral Data<<<<<
223.165	-17.31
223.4	-17.31
223.635	-17.31
223.869	-10.31
224.104	-27.31
224.338	-9.31
224.573	-17.31
224.808	-7.31
225.042	2.69
225.277	-18.31
225.511	-12.31
225.746	6.69
225.98	17.69
226.215	3.69
226.449	19.69
226.683	26.69
226.918	21.69
227.152	20.69
227.387	27.69
227.621	35.69
227.856	15.69
228.09	41.69
228.324	43.69
228.559	69.69
228.793	145.69
229.027	352.69
229.262	382.69
229.496	380.69
229.73	381.69
229.964	425.69
230.199	445.69
230.433	479.69
230.667	515.69
230.901	522.69
231.136	472.69
231.37	461.69
231.604	467.69
231.838	464.69
232.072	468.69
232.306	451.69
232.541	483.69
232.775	557.69
233.009	611.69
233.243	597.69
233.477	533.69
233.711	546.69
233.945	553.69
234.179	573.69
234.413	574.69
234.647	638.69
234.881	609.69
235.115	519.69
235.349	545.69
235.583	559.69
235.817	547.69
236.051	552.69
236.285	584.69
236.519	593.69
236.753	680.69
236.987	704.69
237.221	670.69
237.455	728.69
237.689	740.69
237.922	689.69
238.156	673.69
238.39	680.69
238.624	709.69
238.858	738.69
239.091	785.69
239.325	815.69
239.559	927.69
239.793	980.69
240.027	1074.69
240.26	1057.69
240.494	771.69
240.728	730.69
240.961	705.69
241.195	752.69
241.429	837.69
241.662	836.69
241.896	782.69
242.13	763.69
242.363	853.69
242.597	922.69
242.83	905.69
243.064	914.69
243.298	1000.69
243.531	957.69
243.765	939.69
243.998	942.69
244.232	835.69
244.465	784.69
244.699	792.69
244.932	897.69
245.166	1055.69
245.399	975.69
245.633	888.69
245.866	909.69
246.099	936.69
246.333	967.69
246.566	959.69
246.8	1061.69
247.033	1179.69
247.266	1131.69
247.5	1081.69
247.733	1051.69
247.966	1157.69
248.2	1261.69
248.433	1183.69
248.666	1226.69
248.899	1350.69
249.133	1552.69
249.366	1752.69
249.599	1413.69
249.832	1271.69
250.066	1285.69
250.299	1337.69
250.532	1220.69
250.765	1092.69
250.998	1161.69
251.231	1237.69
251.465	1293.69
251.698	1213.69
251.931	1198.69
252.164	1209.69
252.397	1302.69
252.63	1271.69
252.863	1126.69
253.096	1069.69
253.329	1146.69
253.562	1191.69
253.795	1265.69
254.028	1269.69
254.261	1181.69
254.494	1156.69
254.727	1105.69
254.96	1178.69
255.193	1268.69
255.426	1396.69
255.659	1630.69
255.892	1723.69
256.124	1395.69
256.357	1331.69
256.59	1432.69
256.823	1448.69
257.056	1415.69
257.289	1720.69
257.521	1948.69
257.754	1730.69
257.987	1613.69
258.22	1819.69
258.452	1773.69
258.685	1449.69
258.918	1366.69
259.151	1424.69
259.383	1342.69
259.616	1177.69
259.849	1236.69
260.081	1412.69
260.314	1567.69
260.547	1723.69
260.779	1794.69
261.012	1592.69
261.244	1453.69
261.477	1358.69
261.71	1439.69
261.942	1411.69
262.175	1358.69
262.407	1513.69
262.64	1440.69
262.872	1301.69
263.105	1266.69
263.337	1289.69
263.57	1310.69
263.802	1321.69
264.035	1224.69
264.267	1181.69
264.499	1132.69
264.732	1199.69
264.964	1344.69
265.197	1379.69
265.429	1380.69
265.661	1601.69
265.894	1731.69
266.126	1836.69
266.358	1596.69
266.591	1652.69
266.823	1822.69
267.055	1632.69
267.287	1613.69
267.52	1623.69
267.752	1582.69
267.984	1575.69
268.216	1652.69
268.448	1683.69
268.681	1667.69
268.913	1518.69
269.145	1432.69
269.377	1404.69
269.609	1541.69
269.841	1778.69
270.073	2113.69
270.306	2312.69
270.538	2485.69
270.77	2097.69
271.002	1764.69
271.234	1701.69
271.466	1610.69
271.698	1820.69
271.93	2237.69
272.162	2203.69
272.394	2032.69
272.626	1920.69
272.858	1692.69
273.09	1458.69
273.322	1467.69
273.553	1384.69
273.785	1449.69
274.017	1473.69
274.249	1600.69
274.481	1592.69
274.713	1445.69
274.945	1400.69
275.176	1445.69
275.408	1421.69
275.64	1407.69
275.872	1359.69
276.104	1449.69
276.335	1629.69
276.567	1901.69
276.799	1957.69
277.031	1728.69
277.262	1632.69
277.494	1680.69
277.726	1904.69
277.957	1884.69
278.189	1652.69
278.421	1559.69
278.652	1485.69
278.884	1457.69
279.115	1484.69
279.347	1541.69
279.579	1471.69
279.81	1446.69
280.042	1628.69
280.273	1783.69
280.505	1764.69
280.736	1837.69
280.968	1751.69
281.199	1516.69
281.431	1449.69
281.662	1478.69
281.894	1454.69
282.125	1497.69
282.356	1561.69
282.588	1572.69
282.819	1537.69
283.051	1671.69
283.282	1790.69
283.513	1794.69
283.745	1530.69
283.976	1427.69
284.207	1459.69
284.439	1447.69
284.67	1487.69
284.901	1561.69
285.132	1556.69
285.364	1569.69
285.595	1590.69
285.826	1494.69
286.057	1508.69
286.288	1494.69
286.52	1548.69
286.751	1707.69
286.982	1745.69
287.213	1636.69
287.444	1478.69
287.675	1461.69
287.906	1531.69
288.138	1637.69
288.369	1599.69
288.6	1536.69
288.831	1479.69
289.062	1487.69
289.293	1507.69
289.524	1495.69
289.755	1592.69
289.986	1588.69
290.217	1484.69
290.448	1497.69
290.679	1548.69
290.91	1534.69
291.141	1597.69
291.371	1628.69
291.602	1620.69
291.833	1613.69
292.064	1671.69
292.295	1628.69
292.526	1638.69
292.757	1791.69
292.987	1689.69
293.218	1558.69
293.449	1637.69
293.68	1908.69
293.91	2027.69
294.141	1912.69
294.372	1760.69
294.603	1796.69
294.833	1921.69
295.064	1872.69
295.295	1687.69
295.525	1630.69
295.756	1505.69
295.987	1423.69
296.217	1460.69
296.448	1483.69
296.679	1527.69
296.909	1519.69
297.14	1503.69
297.37	1522.69
297.601	1640.69
297.831	1739.69
298.062	1751.69
298.292	1619.69
298.523	1551.69
298.753	1536.69
298.984	1567.69
299.214	1572.69
299.445	1596.69
299.675	1661.69
299.905	1615.69
300.136	1574.69
300.366	1543.69
300.597	1468.69
300.827	1503.69
301.057	1535.69
301.288	1651.69
301.518	1653.69
301.748	1621.69
301.979	1716.69
302.209	1738.69
302.439	1830.69
302.669	1979.69
302.9	1893.69
303.13	1657.69
303.36	1635.69
303.59	1700.69
303.82	1639.69
304.051	1637.69
304.281	1615.69
304.511	1646.69
304.741	1738.69
304.971	1902.69
305.201	2105.69
305.431	1933.69
305.661	1589.69
305.891	1421.69
306.121	1439.69
306.352	1477.69
306.582	1565.69
306.812	1712.69
307.042	1843.69
307.272	1799.69
307.502	1880.69
307.731	2017.69
307.961	2176.69
308.191	2029.69
308.421	1755.69
308.651	1637.69
308.881	1569.69
309.111	1620.69
309.341	1576.69
309.571	1567.69
309.8	1611.69
310.03	1588.69
310.26	1597.69
310.49	1566.69
310.72	1608.69
310.949	1687.69
311.179	1727.69
311.409	1712.69
311.639	1631.69
311.868	1585.69
312.098	1642.69
312.328	1614.69
312.557	1526.69
312.787	1613.69
313.017	1647.69
313.246	1655.69
313.476	1652.69
313.706	1681.69
313.935	1683.69
314.165	1660.69
314.394	1742.69
314.624	1877.69
314.853	1942.69
315.083	2005.69
315.312	2075.69
315.542	1949.69
315.771	1702.69
316.001	1720.69
316.23	1819.69
316.46	1805.69
316.689	1736.69
316.919	1687.69
317.148	1613.69
317.377	1633.69
317.607	1769.69
317.836	2005.69
318.065	2069.69
318.295	1983.69
318.524	1909.69
318.753	1794.69
318.983	1796.69
319.212	1726.69
319.441	1700.69
319.67	1695.69
319.9	1766.69
320.129	1815.69
320.358	1929.69
320.587	1976.69
320.816	1927.69
321.046	1887.69
321.275	1787.69
321.504	1757.69
321.733	1960.69
321.962	1913.69
322.191	1733.69
322.42	1729.69
322.649	1742.69
322.878	1748.69
323.108	1761.69
323.337	1781.69
323.566	1793.69
323.795	1789.69
324.024	1786.69
324.253	1695.69
324.482	1798.69
324.71	1725.69
324.939	1630.69
325.168	1650.69
325.397	1750.69
325.626	1773.69
325.855	1855.69
326.084	1725.69
326.313	1749.69
326.542	1742.69
326.77	1814.69
326.999	1857.69
327.228	1797.69
327.457	1656.69
327.686	1641.69
327.914	1693.69
328.143	1767.69
328.372	1741.69
328.6	1757.69
328.829	1737.69
329.058	1667.69
329.287	1669.69
329.515	1744.69
329.744	1751.69
329.972	1871.69
330.201	1962.69
330.43	1915.69
330.658	1835.69
330.887	1837.69
331.115	1852.69
331.344	1840.69
331.572	1817.69
331.801	1802.69
332.03	1793.69
332.258	1856.69
332.486	1846.69
332.715	1893.69
332.943	1884.69
333.172	1810.69
333.4	1836.69
333.629	1856.69
333.857	2005.69
334.085	2179.69
334.314	2497.69
334.542	2781.69
334.771	2505.69
334.999	2188.69
335.227	2080.69
335.455	1994.69
335.684	1946.69
335.912	1996.69
336.14	2117.69
336.369	2015.69
336.597	1927.69
336.825	1851.69
337.053	1877.69
337.281	2051.69
337.51	2105.69
337.738	2207.69
337.966	2115.69
338.194	1906.69
338.422	1800.69
338.65	1810.69
338.878	1795.69
339.106	1768.69
339.334	1749.69
339.562	1706.69
339.79	1727.69
340.018	1843.69
340.246	1939.69
340.474	1943.69
340.702	1909.69
340.93	1894.69
341.158	1863.69
341.386	1869.69
341.614	1837.69
341.842	1807.69
342.07	1773.69
342.298	1859.69
342.526	1845.69
342.754	1792.69
342.981	1815.69
343.209	1791.69
343.437	1808.69
343.665	1811.69
343.893	1857.69
344.12	1904.69
344.348	1971.69
344.576	1899.69
344.804	1823.69
345.031	1771.69
345.259	1849.69
345.487	1765.69
345.714	1674.69
345.942	1659.69
346.17	1647.69
346.397	1705.69
346.625	1713.69
346.853	1659.69
347.08	1606.69
347.308	1631.69
347.535	1609.69
347.763	1731.69
347.99	1725.69
348.218	1616.69
348.445	1675.69
348.673	1699.69
348.9	1725.69
349.128	1781.69
349.355	1802.69
349.583	1828.69
349.81	1707.69
350.037	1599.69
350.265	1579.69
350.492	1614.69
350.72	1637.69
350.947	1690.69
351.174	1750.69
351.402	1661.69
351.629	1596.69
351.856	1566.69
352.083	1540.69
352.311	1572.69
352.538	1617.69
352.765	1672.69
352.992	1720.69
353.22	1633.69
353.447	1605.69
353.674	1674.69
353.901	1639.69
354.128	1573.69
354.355	1611.69
354.583	1709.69
354.81	1758.69
355.037	1753.69
355.264	1749.69
355.491	1699.69
355.718	1669.69
355.945	1664.69
356.172	1622.69
356.399	1591.69
356.626	1616.69
356.853	1673.69
357.08	1791.69
357.307	1979.69
357.534	2002.69
357.761	1737.69
357.988	1616.69
358.215	1560.69
358.441	1559.69
358.668	1599.69
358.895	1626.69
359.122	1696.69
359.349	1856.69
359.576	1895.69
359.802	1701.69
360.029	1609.69
360.256	1632.69
360.483	1598.69
360.709	1668.69
360.936	1738.69
361.163	1795.69
361.39	1879.69
361.616	2108.69
361.843	2055.69
362.07	1945.69
362.296	1669.69
362.523	1631.69
362.749	1638.69
362.976	1698.69
363.203	1719.69
363.429	1661.69
363.656	1597.69
363.882	1632.69
364.109	1821.69
364.335	1972.69
364.562	1884.69
364.788	1784.69
365.015	1722.69
365.241	1653.69
365.468	1665.69
365.694	1734.69
365.92	1803.69
366.147	1727.69
366.373	1643.69
366.599	1584.69
366.826	1595.69
367.052	1617.69
367.278	1665.69
367.505	1651.69
367.731	1691.69
367.957	1693.69
368.184	1696.69
368.41	1829.69
368.636	1873.69
368.862	1859.69
369.089	1935.69
369.315	1821.69
369.541	1743.69
369.767	1682.69
369.993	1659.69
370.219	1654.69
370.445	1701.69
370.672	1767.69
370.898	1833.69
371.124	1872.69
371.35	1739.69
371.576	1791.69
371.802	1874.69
372.028	1797.69
372.254	1726.69
372.48	1668.69
372.706	1657.69
372.932	1644.69
373.158	1672.69
373.384	1708.69
373.61	1757.69
373.835	1868.69
374.061	1791.69
374.287	1737.69
374.513	1731.69
374.739	1705.69
374.965	1728.69
375.191	1821.69
375.416	1778.69
375.642	1817.69
375.868	1873.69
376.094	1949.69
376.319	1929.69
376.545	1723.69
376.771	1761.69
376.997	1848.69
377.222	1872.69
377.448	1823.69
377.674	1833.69
377.899	1783.69
378.125	1863.69
378.35	1939.69
378.576	1748.69
378.802	1670.69
379.027	1674.69
379.253	1705.69
379.478	1714.69
379.704	1732.69
379.929	1708.69
380.155	1700.69
380.38	1745.69
380.606	1757.69
380.831	1749.69
381.057	1822.69
381.282	1895.69
381.507	1809.69
381.733	1881.69
381.958	2004.69
382.184	1864.69
382.409	1753.69
382.634	1812.69
382.86	1802.69
383.085	1803.69
383.31	1839.69
383.535	1996.69
383.761	2119.69
383.986	2044.69
384.211	1955.69
384.436	1925.69
384.662	2037.69
384.887	2112.69
385.112	2011.69
385.337	2013.69
385.562	2002.69
385.787	1956.69
386.013	1981.69
386.238	1973.69
386.463	2046.69
386.688	2128.69
386.913	2309.69
387.138	2251.69
387.363	2048.69
387.588	2047.69
387.813	2025.69
388.038	2065.69
388.263	2131.69
388.488	2063.69
388.713	1920.69
388.938	1878.69
389.163	1937.69
389.387	1928.69
389.612	1924.69
389.837	1978.69
390.062	1988.69
390.287	1980.69
390.512	1975.69
390.736	1961.69
390.961	1914.69
391.186	1851.69
391.411	1894.69
391.636	1963.69
391.86	1977.69
392.085	1996.69
392.31	1966.69
392.534	1968.69
392.759	2031.69
392.984	1973.69
393.208	2006.69
393.433	2055.69
393.658	2165.69
393.882	2113.69
394.107	2043.69
394.331	1997.69
394.556	1943.69
394.78	1967.69
395.005	2069.69
395.229	2104.69
395.454	2246.69
395.678	2333.69
395.903	2191.69
396.127	2056.69
396.352	2133.69
396.576	2158.69
396.801	2205.69
397.025	2219.69
397.249	2171.69
397.474	2148.69
397.698	2109.69
397.922	2177.69
398.147	2277.69
398.371	2355.69
398.595	2359.69
398.82	2235.69
399.044	2319.69
399.268	2419.69
399.492	2607.69
399.717	2661.69
399.941	2644.69
400.165	2619.69
400.389	2525.69
400.613	2534.69
400.837	2744.69
401.062	3143.69
401.286	2781.69
401.51	2419.69
401.734	2600.69
401.958	2548.69
402.182	2345.69
402.406	2253.69
402.63	2203.69
402.854	2224.69
403.078	2259.69
403.302	2360.69
403.526	2369.69
403.75	2339.69
403.974	2351.69
404.198	2351.69
404.422	2446.69
404.645	2565.69
404.869	2525.69
405.093	2353.69
405.317	2239.69
405.541	2358.69
405.765	2415.69
405.988	2355.69
406.212	2399.69
406.436	2425.69
406.66	2500.69
406.883	2587.69
407.107	2836.69
407.331	3087.69
407.555	3327.69
407.778	3097.69
408.002	2519.69
408.226	2509.69
408.449	2475.69
408.673	2392.69
408.896	2425.69
409.12	2484.69
409.344	2379.69
409.567	2285.69
409.791	2363.69
410.014	2420.69
410.238	2526.69
410.461	2625.69
410.685	2396.69
410.908	2301.69
411.132	2352.69
411.355	2332.69
411.578	2288.69
411.802	2306.69
412.025	2333.69
412.249	2303.69
412.472	2209.69
412.695	2211.69
412.919	2250.69
413.142	2212.69
413.365	2266.69
413.589	2331.69
413.812	2402.69
414.035	2532.69
414.258	2304.69
414.482	2236.69
414.705	2279.69
414.928	2253.69
415.151	2203.69
415.374	2244.69
415.597	2292.69
415.821	2340.69
416.044	2367.69
416.267	2361.69
416.49	2172.69
416.713	2141.69
416.936	2187.69
417.159	2290.69
417.382	2332.69
417.605	2209.69
417.828	2226.69
418.051	2313.69
418.274	2285.69
418.497	2172.69
418.72	2116.69
418.943	2161.69
419.166	2300.69
419.389	2407.69
419.611	2277.69
419.834	2188.69
420.057	2241.69
420.28	2167.69
420.503	2138.69
420.726	2221.69
420.948	2220.69
421.171	2160.69
421.394	2190.69
421.617	2216.69
421.839	2213.69
422.062	2188.69
422.285	2133.69
422.507	2110.69
422.73	2049.69
422.953	2120.69
423.175	2093.69
423.398	2174.69
423.621	2165.69
423.843	2156.69
424.066	2152.69
424.288	2263.69
424.511	2296.69
424.733	2235.69
424.956	2079.69
425.178	2036.69
425.401	2091.69
425.623	2103.69
425.846	2094.69
426.068	2223.69
426.291	2307.69
426.513	2239.69
426.735	2196.69
426.958	2365.69
427.18	2553.69
427.402	2310.69
427.625	2350.69
427.847	2368.69
428.069	2178.69
428.292	2092.69
428.514	2033.69
428.736	2049.69
428.958	2100.69
429.181	2083.69
429.403	2345.69
429.625	2968.69
429.847	2643.69
430.069	2132.69
430.292	2369.69
430.514	2495.69
430.736	2244.69
430.958	2376.69
431.18	2265.69
431.402	2132.69
431.624	2094.69
431.846	2076.69
432.068	2019.69
432.29	2104.69
432.512	2096.69
432.734	2182.69
432.956	2198.69
433.178	2291.69
433.4	2308.69
433.622	2260.69
433.844	2143.69
434.066	2027.69
434.287	2069.69
434.509	2146.69
434.731	2240.69
434.953	2394.69
435.175	2356.69
435.397	2176.69
435.618	2220.69
435.84	2248.69
436.062	2167.69
436.284	2236.69
436.505	2225.69
436.727	2235.69
436.949	2167.69
437.17	2098.69
437.392	2089.69
437.614	2070.69
437.835	2079.69
438.057	2214.69
438.278	2297.69
438.5	2147.69
438.721	2069.69
438.943	2119.69
439.165	2075.69
439.386	2019.69
439.608	2049.69
439.829	2064.69
440.05	2088.69
440.272	2107.69
440.493	2049.69
440.715	2070.69
440.936	2232.69
441.158	2455.69
441.379	2413.69
441.6	2335.69
441.822	2251.69
442.043	2212.69
442.264	2184.69
442.486	2093.69
442.707	2070.69
442.928	2085.69
443.149	2165.69
443.371	2270.69
443.592	2343.69
443.813	2253.69
444.034	2322.69
444.255	2315.69
444.476	2328.69
444.698	2372.69
444.919	2392.69
445.14	2433.69
445.361	2403.69
445.582	2505.69
445.803	2391.69
446.024	2304.69
446.245	2382.69
446.466	2303.69
446.687	2223.69
446.908	2217.69
447.129	2151.69
447.35	2180.69
447.571	2177.69
447.792	2055.69
448.013	2022.69
448.234	2083.69
448.455	2222.69
448.675	2232.69
448.896	2023.69
449.117	2017.69
449.338	2070.69
449.559	2127.69
449.779	2240.69
450	2494.69
450.221	2664.69
450.442	2565.69
450.662	2264.69
450.883	1953.69
451.104	1947.69
451.324	2005.69
451.545	2077.69
451.766	2052.69
451.986	1959.69
452.207	1939.69
452.428	1876.69
452.648	1854.69
452.869	1884.69
453.089	2068.69
453.31	1998.69
453.53	2119.69
453.751	2032.69
453.971	1914.69
454.192	1896.69
454.412	2079.69
454.633	2013.69
454.853	1960.69
455.073	1804.69
455.294	1821.69
455.514	1828.69
455.734	1848.69
455.955	1880.69
456.175	1881.69
456.395	1904.69
456.616	1954.69
456.836	1961.69
457.056	1911.69
457.276	1895.69
457.497	1853.69
457.717	1777.69
457.937	1820.69
458.157	1899.69
458.377	1887.69
458.598	1843.69
458.818	1893.69
459.038	1999.69
459.258	2114.69
459.478	2118.69
459.698	2052.69
459.918	2149.69
460.138	2187.69
460.358	2291.69
460.578	2248.69
460.798	2334.69
461.018	2430.69
461.238	2334.69
461.458	2271.69
461.678	2248.69
461.898	2224.69
462.118	2148.69
462.338	2205.69
462.558	2243.69
462.777	2241.69
462.997	2381.69
463.217	2527.69
463.437	2468.69
463.657	2323.69
463.876	2249.69
464.096	2189.69
464.316	2236.69
464.536	2291.69
464.755	2311.69
464.975	2415.69
465.195	2269.69
465.414	2353.69
465.634	2357.69
465.854	2240.69
466.073	2387.69
466.293	2353.69
466.512	2106.69
466.732	1999.69
466.951	2165.69
467.171	2150.69
467.391	2063.69
467.61	1945.69
467.829	2043.69
468.049	2141.69
468.268	2468.69
468.488	2287.69
468.707	2187.69
468.927	2076.69
469.146	2070.69
469.365	1976.69
469.585	2044.69
469.804	2020.69
470.023	2000.69
470.243	2060.69
470.462	2057.69
470.681	2003.69
470.901	2036.69
471.12	2067.69
471.339	2036.69
471.558	1975.69
471.777	1957.69
471.997	1977.69
472.216	2006.69
472.435	1941.69
472.654	2003.69
472.873	2065.69
473.092	2191.69
473.311	2082.69
473.53	1927.69
473.749	1932.69
473.968	1998.69
474.187	2148.69
474.406	2215.69
474.625	2124.69
474.844	2069.69
475.063	2043.69
475.282	2111.69
475.501	2072.69
475.72	2059.69
475.939	2216.69
476.158	2144.69
476.377	2057.69
476.596	2113.69
476.814	2147.69
477.033	2137.69
477.252	2259.69
477.471	2272.69
477.69	2171.69
477.908	2160.69
478.127	2259.69
478.346	2519.69
478.564	2452.69
478.783	2463.69
479.002	2541.69
479.22	2434.69
479.439	2557.69
479.658	2849.69
479.876	2860.69
480.095	2476.69
480.313	2378.69
480.532	2261.69
480.751	2267.69
480.969	2379.69
481.188	2311.69
481.406	2268.69
481.624	2231.69
481.843	2263.69
482.061	2288.69
482.28	2353.69
482.498	2405.69
482.717	2346.69
482.935	2269.69
483.153	2257.69
483.372	2296.69
483.59	2258.69
483.808	2265.69
484.027	2323.69
484.245	2466.69
484.463	2839.69
484.681	3341.69
484.9	2539.69
485.118	2394.69
485.336	2327.69
485.554	2391.69
485.772	2501.69
485.99	2467.69
486.209	2495.69
486.427	2494.69
486.645	2431.69
486.863	2414.69
487.081	2445.69
487.299	2533.69
