Data from WStandard_LampEnergy8_LIBS07252019.E.O._I.C._HRD10591_15-57-45-928.txt Node
Date: Thu Jul 25 15:57:45 EDT 2019
User: cochatt
Spectrometer: HR+D1059
Trigger mode: 1
Integration Time (sec): 1.000000E-1
Scans to average: 1
Electric dark correction enabled: true
Nonlinearity correction enabled: false
Boxcar width: 0
XAxis mode: Wavelengths
Number of Pixels in Spectrum: 2048
>>>>>Begin Spectral Data<<<<<
223.165	-18.88
223.4	-18.88
223.635	-18.88
223.869	-13.88
224.104	-22.88
224.338	-16.88
224.573	-22.88
224.808	-8.88
225.042	1.12
225.277	-11.88
225.511	-15.88
225.746	11.12
225.98	9.12
226.215	14.12
226.449	21.12
226.683	17.12
226.918	19.12
227.152	39.12
227.387	20.12
227.621	28.12
227.856	50.12
228.09	41.12
228.324	45.12
228.559	59.12
228.793	98.12
229.027	217.12
229.262	205.12
229.496	215.12
229.73	228.12
229.964	268.12
230.199	266.12
230.433	278.12
230.667	281.12
230.901	289.12
231.136	261.12
231.37	269.12
231.604	257.12
231.838	279.12
232.072	272.12
232.306	260.12
232.541	283.12
232.775	330.12
233.009	334.12
233.243	338.12
233.477	295.12
233.711	309.12
233.945	324.12
234.179	325.12
234.413	340.12
234.647	367.12
234.881	335.12
235.115	305.12
235.349	329.12
235.583	320.12
235.817	312.12
236.051	296.12
236.285	329.12
236.519	339.12
236.753	377.12
236.987	373.12
237.221	365.12
237.455	397.12
237.689	399.12
237.922	393.12
238.156	361.12
238.39	359.12
238.624	383.12
238.858	391.12
239.091	421.12
239.325	437.12
239.559	486.12
239.793	515.12
240.027	562.12
240.26	515.12
240.494	401.12
240.728	387.12
240.961	384.12
241.195	423.12
241.429	459.12
241.662	449.12
241.896	413.12
242.13	415.12
242.363	474.12
242.597	487.12
242.83	498.12
243.064	465.12
243.298	487.12
243.531	478.12
243.765	487.12
243.998	494.12
244.232	435.12
244.465	407.12
244.699	454.12
244.932	498.12
245.166	535.12
245.399	533.12
245.633	486.12
245.866	477.12
246.099	519.12
246.333	492.12
246.566	499.12
246.8	553.12
247.033	629.12
247.266	580.12
247.5	549.12
247.733	575.12
247.966	593.12
248.2	636.12
248.433	645.12
248.666	647.12
248.899	699.12
249.133	792.12
249.366	823.12
249.599	723.12
249.832	627.12
250.066	658.12
250.299	656.12
250.532	629.12
250.765	565.12
250.998	623.12
251.231	630.12
251.465	623.12
251.698	620.12
251.931	608.12
252.164	649.12
252.397	655.12
252.63	635.12
252.863	583.12
253.096	595.12
253.329	617.12
253.562	628.12
253.795	661.12
254.028	657.12
254.261	610.12
254.494	590.12
254.727	595.12
254.96	630.12
255.193	661.12
255.426	749.12
255.659	826.12
255.892	817.12
256.124	692.12
256.357	703.12
256.59	751.12
256.823	755.12
257.056	738.12
257.289	860.12
257.521	951.12
257.754	879.12
257.987	825.12
258.22	905.12
258.452	861.12
258.685	733.12
258.918	717.12
259.151	688.12
259.383	676.12
259.616	624.12
259.849	659.12
260.081	734.12
260.314	797.12
260.547	873.12
260.779	883.12
261.012	810.12
261.244	737.12
261.477	719.12
261.71	730.12
261.942	717.12
262.175	728.12
262.407	747.12
262.64	708.12
262.872	667.12
263.105	630.12
263.337	674.12
263.57	679.12
263.802	668.12
264.035	657.12
264.267	623.12
264.499	594.12
264.732	653.12
264.964	679.12
265.197	693.12
265.429	727.12
265.661	831.12
265.894	916.12
266.126	915.12
266.358	823.12
266.591	871.12
266.823	892.12
267.055	817.12
267.287	835.12
267.52	795.12
267.752	793.12
267.984	804.12
268.216	851.12
268.448	851.12
268.681	816.12
268.913	789.12
269.145	733.12
269.377	740.12
269.609	813.12
269.841	948.12
270.073	1085.12
270.306	1151.12
270.538	1213.12
270.77	1042.12
271.002	883.12
271.234	860.12
271.466	851.12
271.698	989.12
271.93	1129.12
272.162	1083.12
272.394	1007.12
272.626	964.12
272.858	851.12
273.09	744.12
273.322	746.12
273.553	695.12
273.785	733.12
274.017	766.12
274.249	808.12
274.481	777.12
274.713	746.12
274.945	731.12
275.176	743.12
275.408	715.12
275.64	727.12
275.872	723.12
276.104	788.12
276.335	889.12
276.567	961.12
276.799	952.12
277.031	865.12
277.262	859.12
277.494	871.12
277.726	975.12
277.957	921.12
278.189	840.12
278.421	809.12
278.652	797.12
278.884	771.12
279.115	785.12
279.347	777.12
279.579	771.12
279.81	802.12
280.042	877.12
280.273	902.12
280.505	927.12
280.736	911.12
280.968	864.12
281.199	792.12
281.431	698.12
281.662	751.12
281.894	779.12
282.125	807.12
282.356	837.12
282.588	815.12
282.819	811.12
283.051	885.12
283.282	945.12
283.513	912.12
283.745	809.12
283.976	748.12
284.207	768.12
284.439	790.12
284.67	808.12
284.901	804.12
285.132	823.12
285.364	828.12
285.595	826.12
285.826	801.12
286.057	799.12
286.288	808.12
286.52	852.12
286.751	898.12
286.982	918.12
287.213	820.12
287.444	796.12
287.675	754.12
287.906	857.12
288.138	871.12
288.369	839.12
288.6	771.12
288.831	774.12
289.062	791.12
289.293	792.12
289.524	800.12
289.755	836.12
289.986	792.12
290.217	775.12
290.448	784.12
290.679	801.12
290.91	821.12
291.141	854.12
291.371	867.12
291.602	846.12
291.833	833.12
292.064	862.12
292.295	854.12
292.526	909.12
292.757	935.12
292.987	861.12
293.218	856.12
293.449	909.12
293.68	1038.12
293.91	1095.12
294.141	1035.12
294.372	945.12
294.603	988.12
294.833	1011.12
295.064	938.12
295.295	898.12
295.525	832.12
295.756	794.12
295.987	760.12
296.217	785.12
296.448	782.12
296.679	795.12
296.909	802.12
297.14	791.12
297.37	841.12
297.601	909.12
297.831	953.12
298.062	921.12
298.292	845.12
298.523	823.12
298.753	822.12
298.984	859.12
299.214	853.12
299.445	869.12
299.675	894.12
299.905	861.12
300.136	851.12
300.366	849.12
300.597	810.12
300.827	821.12
301.057	853.12
301.288	899.12
301.518	909.12
301.748	883.12
301.979	975.12
302.209	968.12
302.439	1048.12
302.669	1074.12
302.9	978.12
303.13	894.12
303.36	887.12
303.59	905.12
303.82	915.12
304.051	917.12
304.281	925.12
304.511	925.12
304.741	975.12
304.971	1073.12
305.201	1123.12
305.431	1022.12
305.661	845.12
305.891	773.12
306.121	809.12
306.352	836.12
306.582	901.12
306.812	959.12
307.042	1015.12
307.272	1025.12
307.502	1043.12
307.731	1132.12
307.961	1157.12
308.191	1058.12
308.421	913.12
308.651	861.12
308.881	855.12
309.111	875.12
309.341	834.12
309.571	842.12
309.8	869.12
310.03	873.12
310.26	852.12
310.49	855.12
310.72	913.12
310.949	923.12
311.179	898.12
311.409	907.12
311.639	907.12
311.868	875.12
312.098	899.12
312.328	873.12
312.557	865.12
312.787	922.12
313.017	918.12
313.246	906.12
313.476	920.12
313.706	935.12
313.935	905.12
314.165	953.12
314.394	993.12
314.624	1027.12
314.853	1059.12
315.083	1138.12
315.312	1107.12
315.542	1016.12
315.771	953.12
316.001	949.12
316.23	1001.12
316.46	991.12
316.689	990.12
316.919	932.12
317.148	880.12
317.377	929.12
317.607	1024.12
317.836	1128.12
318.065	1134.12
318.295	1099.12
318.524	1062.12
318.753	976.12
318.983	991.12
319.212	962.12
319.441	944.12
319.67	978.12
319.9	977.12
320.129	1005.12
320.358	1069.12
320.587	1120.12
320.816	1085.12
321.046	1073.12
321.275	1011.12
321.504	1015.12
321.733	1058.12
321.962	1054.12
322.191	987.12
322.42	971.12
322.649	955.12
322.878	951.12
323.108	970.12
323.337	1029.12
323.566	1014.12
323.795	1008.12
324.024	1035.12
324.253	1002.12
324.482	965.12
324.71	927.12
324.939	895.12
325.168	932.12
325.397	988.12
325.626	1000.12
325.855	1022.12
326.084	1001.12
326.313	979.12
326.542	948.12
326.77	1025.12
326.999	996.12
327.228	982.12
327.457	890.12
327.686	888.12
327.914	945.12
328.143	954.12
328.372	953.12
328.6	988.12
328.829	929.12
329.058	976.12
329.287	951.12
329.515	973.12
329.744	1010.12
329.972	1056.12
330.201	1083.12
330.43	1079.12
330.658	1030.12
330.887	1038.12
331.115	1063.12
331.344	1035.12
331.572	1007.12
331.801	1021.12
332.03	1007.12
332.258	1043.12
332.486	1075.12
332.715	1071.12
332.943	1049.12
333.172	1027.12
333.4	1026.12
333.629	1066.12
333.857	1148.12
334.085	1294.12
334.314	1444.12
334.542	1519.12
334.771	1369.12
334.999	1244.12
335.227	1143.12
335.455	1073.12
335.684	1093.12
335.912	1131.12
336.14	1145.12
336.369	1106.12
336.597	1065.12
336.825	1047.12
337.053	1090.12
337.281	1160.12
337.51	1253.12
337.738	1228.12
337.966	1147.12
338.194	1054.12
338.422	1009.12
338.65	1017.12
338.878	964.12
339.106	960.12
339.334	970.12
339.562	977.12
339.79	986.12
340.018	1040.12
340.246	1111.12
340.474	1083.12
340.702	1072.12
340.93	1078.12
341.158	1077.12
341.386	1037.12
341.614	1052.12
341.842	987.12
342.07	1008.12
342.298	1072.12
342.526	1057.12
342.754	1013.12
342.981	1013.12
343.209	1024.12
343.437	1021.12
343.665	994.12
343.893	1048.12
344.12	1118.12
344.348	1085.12
344.576	1002.12
344.804	1015.12
345.031	1014.12
345.259	1027.12
345.487	983.12
345.714	947.12
345.942	929.12
346.17	976.12
346.397	971.12
346.625	982.12
346.853	899.12
347.08	907.12
347.308	918.12
347.535	948.12
347.763	975.12
347.99	960.12
348.218	947.12
348.445	959.12
348.673	948.12
348.9	994.12
349.128	1030.12
349.355	1055.12
349.583	1032.12
349.81	953.12
350.037	871.12
350.265	873.12
350.492	938.12
350.72	938.12
350.947	991.12
351.174	991.12
351.402	933.12
351.629	897.12
351.856	880.12
352.083	898.12
352.311	901.12
352.538	963.12
352.765	971.12
352.992	973.12
353.22	927.12
353.447	935.12
353.674	946.12
353.901	954.12
354.128	928.12
354.355	936.12
354.583	990.12
354.81	1029.12
355.037	978.12
355.264	999.12
355.491	949.12
355.718	935.12
355.945	930.12
356.172	918.12
356.399	915.12
356.626	920.12
356.853	979.12
357.08	1075.12
357.307	1162.12
357.534	1151.12
357.761	1004.12
357.988	899.12
358.215	886.12
358.441	903.12
358.668	910.12
358.895	931.12
359.122	986.12
359.349	1085.12
359.576	1060.12
359.802	951.12
360.029	931.12
360.256	907.12
360.483	905.12
360.709	977.12
360.936	1008.12
361.163	1070.12
361.39	1150.12
361.616	1224.12
361.843	1202.12
362.07	1101.12
362.296	987.12
362.523	924.12
362.749	945.12
362.976	964.12
363.203	986.12
363.429	947.12
363.656	937.12
363.882	978.12
364.109	1102.12
364.335	1139.12
364.562	1087.12
364.788	1028.12
365.015	969.12
365.241	954.12
365.468	953.12
365.694	1028.12
365.92	1027.12
366.147	964.12
366.373	957.12
366.599	962.12
366.826	898.12
367.052	907.12
367.278	923.12
367.505	972.12
367.731	978.12
367.957	963.12
368.184	1041.12
368.41	1103.12
368.636	1117.12
368.862	1091.12
369.089	1109.12
369.315	1044.12
369.541	1030.12
369.767	976.12
369.993	947.12
370.219	925.12
370.445	1011.12
370.672	1047.12
370.898	1117.12
371.124	1083.12
371.35	1012.12
371.576	1064.12
371.802	1080.12
372.028	1045.12
372.254	976.12
372.48	965.12
372.706	989.12
372.932	959.12
373.158	986.12
373.384	1015.12
373.61	1081.12
373.835	1068.12
374.061	1023.12
374.287	1013.12
374.513	1008.12
374.739	1008.12
374.965	1031.12
375.191	1019.12
375.416	1028.12
375.642	1071.12
375.868	1116.12
376.094	1153.12
376.319	1082.12
376.545	1021.12
376.771	1067.12
376.997	1117.12
377.222	1103.12
377.448	1057.12
377.674	1075.12
377.899	1083.12
378.125	1170.12
378.35	1101.12
378.576	1037.12
378.802	978.12
379.027	977.12
379.253	1023.12
379.478	1018.12
379.704	1020.12
379.929	1023.12
380.155	1008.12
380.38	1023.12
380.606	1043.12
380.831	1053.12
381.057	1117.12
381.282	1074.12
381.507	1084.12
381.733	1176.12
381.958	1190.12
382.184	1094.12
382.409	1045.12
382.634	1082.12
382.86	1063.12
383.085	1052.12
383.31	1107.12
383.535	1236.12
383.761	1249.12
383.986	1209.12
384.211	1156.12
384.436	1168.12
384.662	1210.12
384.887	1250.12
385.112	1140.12
385.337	1164.12
385.562	1174.12
385.787	1198.12
386.013	1190.12
386.238	1214.12
386.463	1173.12
386.688	1297.12
386.913	1354.12
387.138	1295.12
387.363	1225.12
387.588	1217.12
387.813	1226.12
388.038	1209.12
388.263	1251.12
388.488	1173.12
388.713	1109.12
388.938	1116.12
389.163	1106.12
389.387	1153.12
389.612	1153.12
389.837	1175.12
390.062	1177.12
390.287	1160.12
390.512	1159.12
390.736	1144.12
390.961	1143.12
391.186	1104.12
391.411	1090.12
391.636	1151.12
391.86	1132.12
392.085	1149.12
392.31	1136.12
392.534	1177.12
392.759	1154.12
392.984	1174.12
393.208	1183.12
393.433	1234.12
393.658	1259.12
393.882	1237.12
394.107	1204.12
394.331	1147.12
394.556	1147.12
394.78	1211.12
395.005	1209.12
395.229	1276.12
395.454	1347.12
395.678	1306.12
395.903	1264.12
396.127	1255.12
396.352	1232.12
396.576	1265.12
396.801	1329.12
397.025	1280.12
397.249	1285.12
397.474	1242.12
397.698	1243.12
397.922	1309.12
398.147	1378.12
398.371	1403.12
398.595	1386.12
398.82	1338.12
399.044	1361.12
399.268	1391.12
399.492	1484.12
399.717	1503.12
399.941	1524.12
400.165	1527.12
400.389	1456.12
400.613	1499.12
400.837	1731.12
401.062	1904.12
401.286	1599.12
401.51	1452.12
401.734	1531.12
401.958	1463.12
402.182	1361.12
402.406	1297.12
402.63	1297.12
402.854	1330.12
403.078	1360.12
403.302	1333.12
403.526	1369.12
403.75	1396.12
403.974	1436.12
404.198	1425.12
404.422	1456.12
404.645	1559.12
404.869	1516.12
405.093	1347.12
405.317	1351.12
405.541	1363.12
405.765	1394.12
405.988	1397.12
406.212	1394.12
406.436	1446.12
406.66	1493.12
406.883	1543.12
407.107	1773.12
407.331	1880.12
407.555	1979.12
407.778	1702.12
408.002	1443.12
408.226	1449.12
408.449	1505.12
408.673	1404.12
408.896	1408.12
409.12	1444.12
409.344	1376.12
409.567	1348.12
409.791	1428.12
410.014	1425.12
410.238	1514.12
410.461	1581.12
410.685	1404.12
410.908	1343.12
411.132	1393.12
411.355	1378.12
411.578	1347.12
411.802	1368.12
412.025	1391.12
412.249	1327.12
412.472	1304.12
412.695	1322.12
412.919	1341.12
413.142	1282.12
413.365	1331.12
413.589	1400.12
413.812	1448.12
414.035	1509.12
414.258	1376.12
414.482	1311.12
414.705	1364.12
414.928	1324.12
415.151	1327.12
415.374	1317.12
415.597	1341.12
415.821	1372.12
416.044	1393.12
416.267	1374.12
416.49	1315.12
416.713	1318.12
416.936	1350.12
417.159	1414.12
417.382	1378.12
417.605	1351.12
417.828	1356.12
418.051	1338.12
418.274	1363.12
418.497	1307.12
418.72	1330.12
418.943	1315.12
419.166	1341.12
419.389	1361.12
419.611	1336.12
419.834	1332.12
420.057	1336.12
420.28	1309.12
420.503	1285.12
420.726	1351.12
420.948	1356.12
421.171	1293.12
421.394	1331.12
421.617	1368.12
421.839	1361.12
422.062	1385.12
422.285	1304.12
422.507	1289.12
422.73	1282.12
422.953	1272.12
423.175	1244.12
423.398	1289.12
423.621	1327.12
423.843	1305.12
424.066	1371.12
424.288	1405.12
424.511	1439.12
424.733	1381.12
424.956	1307.12
425.178	1219.12
425.401	1279.12
425.623	1293.12
425.846	1294.12
426.068	1351.12
426.291	1378.12
426.513	1347.12
426.735	1380.12
426.958	1469.12
427.18	1511.12
427.402	1409.12
427.625	1449.12
427.847	1437.12
428.069	1298.12
428.292	1296.12
428.514	1255.12
428.736	1259.12
428.958	1309.12
429.181	1301.12
429.403	1499.12
429.625	1844.12
429.847	1491.12
430.069	1320.12
430.292	1459.12
430.514	1531.12
430.736	1403.12
430.958	1443.12
431.18	1312.12
431.402	1261.12
431.624	1243.12
431.846	1222.12
432.068	1130.12
432.29	1186.12
432.512	1216.12
432.734	1265.12
432.956	1300.12
433.178	1380.12
433.4	1329.12
433.622	1353.12
433.844	1282.12
434.066	1196.12
434.287	1216.12
434.509	1257.12
434.731	1346.12
434.953	1411.12
435.175	1397.12
435.397	1327.12
435.618	1270.12
435.84	1273.12
436.062	1271.12
436.284	1295.12
436.505	1321.12
436.727	1303.12
436.949	1306.12
437.17	1267.12
437.392	1267.12
437.614	1253.12
437.835	1225.12
438.057	1250.12
438.278	1277.12
438.5	1245.12
438.721	1265.12
438.943	1242.12
439.165	1251.12
439.386	1271.12
439.608	1307.12
439.829	1250.12
440.05	1271.12
440.272	1226.12
440.493	1269.12
440.715	1293.12
440.936	1367.12
441.158	1428.12
441.379	1397.12
441.6	1401.12
441.822	1403.12
442.043	1392.12
442.264	1361.12
442.486	1293.12
442.707	1279.12
442.928	1279.12
443.149	1303.12
443.371	1371.12
443.592	1400.12
443.813	1425.12
444.034	1418.12
444.255	1379.12
444.476	1436.12
444.698	1455.12
444.919	1397.12
445.14	1530.12
445.361	1516.12
445.582	1476.12
445.803	1447.12
446.024	1424.12
446.245	1471.12
446.466	1416.12
446.687	1352.12
446.908	1333.12
447.129	1347.12
447.35	1326.12
447.571	1330.12
447.792	1284.12
448.013	1277.12
448.234	1343.12
448.455	1354.12
448.675	1349.12
448.896	1213.12
449.117	1242.12
449.338	1255.12
449.559	1310.12
449.779	1380.12
450	1446.12
450.221	1539.12
450.442	1484.12
450.662	1330.12
450.883	1220.12
451.104	1211.12
451.324	1235.12
451.545	1239.12
451.766	1224.12
451.986	1173.12
452.207	1150.12
452.428	1117.12
452.648	1107.12
452.869	1145.12
453.089	1174.12
453.31	1171.12
453.53	1220.12
453.751	1129.12
453.971	1115.12
454.192	1118.12
454.412	1157.12
454.633	1185.12
454.853	1133.12
455.073	1095.12
455.294	1087.12
455.514	1096.12
455.734	1082.12
455.955	1096.12
456.175	1109.12
456.395	1110.12
456.616	1112.12
456.836	1120.12
457.056	1088.12
457.276	1106.12
457.497	1108.12
457.717	1042.12
457.937	1065.12
458.157	1076.12
458.377	1077.12
458.598	1056.12
458.818	1078.12
459.038	1119.12
459.258	1194.12
459.478	1165.12
459.698	1149.12
459.918	1166.12
460.138	1275.12
460.358	1274.12
460.578	1271.12
460.798	1289.12
461.018	1392.12
461.238	1310.12
461.458	1317.12
461.678	1258.12
461.898	1251.12
462.118	1245.12
462.338	1291.12
462.558	1306.12
462.777	1288.12
462.997	1322.12
463.217	1394.12
463.437	1380.12
463.657	1297.12
463.876	1268.12
464.096	1287.12
464.316	1282.12
464.536	1332.12
464.755	1353.12
464.975	1338.12
465.195	1303.12
465.414	1359.12
465.634	1359.12
465.854	1349.12
466.073	1461.12
466.293	1379.12
466.512	1254.12
466.732	1244.12
466.951	1291.12
467.171	1275.12
467.391	1235.12
467.61	1211.12
467.829	1268.12
468.049	1394.12
468.268	1537.12
468.488	1403.12
468.707	1290.12
468.927	1250.12
469.146	1236.12
469.365	1271.12
469.585	1237.12
469.804	1217.12
470.023	1293.12
470.243	1265.12
470.462	1256.12
470.681	1271.12
470.901	1252.12
471.12	1269.12
471.339	1256.12
471.558	1235.12
471.777	1210.12
471.997	1206.12
472.216	1215.12
472.435	1173.12
472.654	1136.12
472.873	1180.12
473.092	1263.12
473.311	1238.12
473.53	1151.12
473.749	1171.12
473.968	1192.12
474.187	1206.12
474.406	1281.12
474.625	1236.12
474.844	1224.12
475.063	1213.12
475.282	1268.12
475.501	1223.12
475.72	1211.12
475.939	1369.12
476.158	1231.12
476.377	1229.12
476.596	1223.12
476.814	1259.12
477.033	1256.12
477.252	1321.12
477.471	1322.12
477.69	1287.12
477.908	1308.12
478.127	1378.12
478.346	1484.12
478.564	1474.12
478.783	1453.12
479.002	1479.12
479.22	1452.12
479.439	1503.12
479.658	1633.12
479.876	1542.12
480.095	1467.12
480.313	1375.12
480.532	1313.12
480.751	1338.12
480.969	1323.12
481.188	1276.12
481.406	1288.12
481.624	1257.12
481.843	1318.12
482.061	1340.12
482.28	1357.12
482.498	1388.12
482.717	1329.12
482.935	1324.12
483.153	1359.12
483.372	1405.12
483.59	1367.12
483.808	1394.12
484.027	1379.12
484.245	1511.12
484.463	1803.12
484.681	1978.12
484.9	1523.12
485.118	1412.12
485.336	1404.12
485.554	1421.12
485.772	1431.12
485.99	1405.12
486.209	1408.12
486.427	1394.12
486.645	1421.12
486.863	1479.12
487.081	1505.12
487.299	1471.12
487.517	1489.12
487.735	1475.12
487.953	1543.12
488.171	1551.12
488.389	1495.12
488.607	1489.12
488.825	1686.12
489.043	1589.12
489.261	1419.12
489.479	1503.12
489.696	1479.12
489.914	1511.12
490.132	1494.12
490.35	1494.12
490.568	1587.12
490.786	1554.12
491.003	1510.12
491.221	1523.12
491.439	1599.12
491.657	1627.12
491.874	1599.12
492.092	1687.12
492.31	1750.12
492.527	1673.12
