Data from WStandard_LampEnergy5.5LIBS07252019.E.O._I.C._HRD10591_16-08-34-920.txt Node
Date: Thu Jul 25 16:08:34 EDT 2019
User: cochatt
Spectrometer: HR+D1059
Trigger mode: 1
Integration Time (sec): 1.000000E-1
Scans to average: 1
Electric dark correction enabled: true
Nonlinearity correction enabled: false
Boxcar width: 0
XAxis mode: Wavelengths
Number of Pixels in Spectrum: 2048
>>>>>Begin Spectral Data<<<<<
223.165	-11.62
223.4	-11.62
223.635	-11.62
223.869	-6.62
224.104	-22.62
224.338	-24.62
224.573	-14.62
224.808	-8.62
225.042	-12.62
225.277	-7.62
225.511	7.38
225.746	7.38
225.98	-1.62
226.215	5.38
226.449	19.38
226.683	22.38
226.918	26.38
227.152	22.38
227.387	53.38
227.621	32.38
227.856	45.38
228.09	42.38
228.324	35.38
228.559	52.38
228.793	171.38
229.027	359.38
229.262	378.38
229.496	405.38
229.73	399.38
229.964	461.38
230.199	457.38
230.433	485.38
230.667	505.38
230.901	550.38
231.136	489.38
231.37	460.38
231.604	455.38
231.838	468.38
232.072	456.38
232.306	454.38
232.541	487.38
232.775	562.38
233.009	631.38
233.243	579.38
233.477	551.38
233.711	544.38
233.945	574.38
234.179	549.38
234.413	582.38
234.647	665.38
234.881	598.38
235.115	568.38
235.349	562.38
235.583	578.38
235.817	563.38
236.051	553.38
236.285	541.38
236.519	593.38
236.753	671.38
236.987	671.38
237.221	676.38
237.455	734.38
237.689	724.38
237.922	681.38
238.156	689.38
238.39	695.38
238.624	710.38
238.858	744.38
239.091	779.38
239.325	801.38
239.559	924.38
239.793	966.38
240.027	1059.38
240.26	1049.38
240.494	775.38
240.728	718.38
240.961	734.38
241.195	768.38
241.429	828.38
241.662	818.38
241.896	750.38
242.13	766.38
242.363	860.38
242.597	917.38
242.83	877.38
243.064	893.38
243.298	953.38
243.531	921.38
243.765	928.38
243.998	937.38
244.232	828.38
244.465	774.38
244.699	827.38
244.932	911.38
245.166	1054.38
245.399	993.38
245.633	904.38
245.866	868.38
246.099	941.38
246.333	942.38
246.566	980.38
246.8	1039.38
247.033	1167.38
247.266	1089.38
247.5	1039.38
247.733	1077.38
247.966	1135.38
248.2	1246.38
248.433	1194.38
248.666	1226.38
248.899	1385.38
249.133	1548.38
249.366	1751.38
249.599	1433.38
249.832	1252.38
250.066	1276.38
250.299	1340.38
250.532	1187.38
250.765	1100.38
250.998	1149.38
251.231	1203.38
251.465	1261.38
251.698	1209.38
251.931	1192.38
252.164	1206.38
252.397	1282.38
252.63	1299.38
252.863	1109.38
253.096	1127.38
253.329	1160.38
253.562	1207.38
253.795	1288.38
254.028	1297.38
254.261	1176.38
254.494	1175.38
254.727	1089.38
254.96	1153.38
255.193	1258.38
255.426	1423.38
255.659	1657.38
255.892	1708.38
256.124	1376.38
256.357	1319.38
256.59	1438.38
256.823	1453.38
257.056	1452.38
257.289	1728.38
257.521	1958.38
257.754	1739.38
257.987	1607.38
258.22	1770.38
258.452	1803.38
258.685	1413.38
258.918	1372.38
259.151	1408.38
259.383	1347.38
259.616	1172.38
259.849	1245.38
260.081	1370.38
260.314	1561.38
260.547	1706.38
260.779	1716.38
261.012	1611.38
261.244	1473.38
261.477	1363.38
261.71	1447.38
261.942	1387.38
262.175	1384.38
262.407	1476.38
262.64	1349.38
262.872	1282.38
263.105	1257.38
263.337	1287.38
263.57	1324.38
263.802	1325.38
264.035	1238.38
264.267	1160.38
264.499	1126.38
264.732	1193.38
264.964	1313.38
265.197	1379.38
265.429	1385.38
265.661	1543.38
265.894	1766.38
266.126	1821.38
266.358	1609.38
266.591	1641.38
266.823	1801.38
267.055	1675.38
267.287	1609.38
267.52	1581.38
267.752	1541.38
267.984	1547.38
268.216	1630.38
268.448	1694.38
268.681	1642.38
268.913	1526.38
269.145	1469.38
269.377	1395.38
269.609	1476.38
269.841	1740.38
270.073	2056.38
270.306	2322.38
270.538	2521.38
270.77	2078.38
271.002	1757.38
271.234	1654.38
271.466	1607.38
271.698	1861.38
271.93	2206.38
272.162	2237.38
272.394	1989.38
272.626	1916.38
272.858	1701.38
273.09	1450.38
273.322	1442.38
273.553	1402.38
273.785	1446.38
274.017	1466.38
274.249	1601.38
274.481	1577.38
274.713	1432.38
274.945	1375.38
275.176	1467.38
275.408	1421.38
275.64	1422.38
275.872	1369.38
276.104	1461.38
276.335	1654.38
276.567	1899.38
276.799	1969.38
277.031	1734.38
277.262	1591.38
277.494	1679.38
277.726	1862.38
277.957	1881.38
278.189	1673.38
278.421	1541.38
278.652	1472.38
278.884	1476.38
279.115	1476.38
279.347	1524.38
279.579	1496.38
279.81	1471.38
280.042	1607.38
280.273	1782.38
280.505	1728.38
280.736	1831.38
280.968	1736.38
281.199	1541.38
281.431	1449.38
281.662	1459.38
281.894	1447.38
282.125	1502.38
282.356	1551.38
282.588	1586.38
282.819	1524.38
283.051	1671.38
283.282	1816.38
283.513	1771.38
283.745	1569.38
283.976	1403.38
284.207	1445.38
284.439	1473.38
284.67	1507.38
284.901	1522.38
285.132	1558.38
285.364	1558.38
285.595	1565.38
285.826	1539.38
286.057	1523.38
286.288	1486.38
286.52	1594.38
286.751	1706.38
286.982	1774.38
287.213	1626.38
287.444	1477.38
287.675	1448.38
287.906	1542.38
288.138	1627.38
288.369	1616.38
288.6	1532.38
288.831	1482.38
289.062	1474.38
289.293	1561.38
289.524	1528.38
289.755	1577.38
289.986	1595.38
290.217	1437.38
290.448	1494.38
290.679	1509.38
290.91	1548.38
291.141	1594.38
291.371	1642.38
291.602	1650.38
291.833	1601.38
292.064	1671.38
292.295	1623.38
292.526	1646.38
292.757	1723.38
292.987	1705.38
293.218	1554.38
293.449	1658.38
293.68	1890.38
293.91	2051.38
294.141	1894.38
294.372	1815.38
294.603	1848.38
294.833	1945.38
295.064	1850.38
295.295	1665.38
295.525	1595.38
295.756	1502.38
295.987	1410.38
296.217	1482.38
296.448	1473.38
296.679	1525.38
296.909	1527.38
297.14	1470.38
297.37	1525.38
297.601	1615.38
297.831	1743.38
298.062	1771.38
298.292	1621.38
298.523	1537.38
298.753	1511.38
298.984	1546.38
299.214	1567.38
299.445	1569.38
299.675	1636.38
299.905	1630.38
300.136	1596.38
300.366	1552.38
300.597	1503.38
300.827	1493.38
301.057	1531.38
301.288	1627.38
301.518	1633.38
301.748	1659.38
301.979	1760.38
302.209	1770.38
302.439	1890.38
302.669	1973.38
302.9	1833.38
303.13	1676.38
303.36	1660.38
303.59	1705.38
303.82	1660.38
304.051	1658.38
304.281	1637.38
304.511	1675.38
304.741	1733.38
304.971	1939.38
305.201	2083.38
305.431	1884.38
305.661	1644.38
305.891	1460.38
306.121	1441.38
306.352	1503.38
306.582	1578.38
306.812	1694.38
307.042	1853.38
307.272	1845.38
307.502	1855.38
307.731	1999.38
307.961	2165.38
308.191	2003.38
308.421	1734.38
308.651	1640.38
308.881	1559.38
309.111	1620.38
309.341	1573.38
309.571	1601.38
309.8	1566.38
310.03	1575.38
310.26	1592.38
310.49	1575.38
310.72	1606.38
310.949	1682.38
311.179	1726.38
311.409	1667.38
311.639	1649.38
311.868	1578.38
312.098	1622.38
312.328	1607.38
312.557	1595.38
312.787	1633.38
313.017	1675.38
313.246	1672.38
313.476	1674.38
313.706	1700.38
313.935	1669.38
314.165	1690.38
314.394	1763.38
314.624	1841.38
314.853	1950.38
315.083	1962.38
315.312	2121.38
315.542	1931.38
315.771	1721.38
316.001	1702.38
316.23	1804.38
316.46	1823.38
316.689	1760.38
316.919	1691.38
317.148	1628.38
317.377	1662.38
317.607	1741.38
317.836	1980.38
318.065	2071.38
318.295	2006.38
318.524	1873.38
318.753	1809.38
318.983	1809.38
319.212	1771.38
319.441	1703.38
319.67	1750.38
319.9	1742.38
320.129	1879.38
320.358	1941.38
320.587	1951.38
320.816	1931.38
321.046	1886.38
321.275	1773.38
321.504	1815.38
321.733	1969.38
321.962	1915.38
322.191	1743.38
322.42	1764.38
322.649	1731.38
322.878	1717.38
323.108	1739.38
323.337	1790.38
323.566	1795.38
323.795	1780.38
324.024	1784.38
324.253	1726.38
324.482	1810.38
324.71	1754.38
324.939	1660.38
325.168	1671.38
325.397	1741.38
325.626	1824.38
325.855	1813.38
326.084	1737.38
326.313	1723.38
326.542	1808.38
326.77	1817.38
326.999	1847.38
327.228	1778.38
327.457	1677.38
327.686	1643.38
327.914	1690.38
328.143	1736.38
328.372	1755.38
328.6	1731.38
328.829	1698.38
329.058	1680.38
329.287	1707.38
329.515	1746.38
329.744	1781.38
329.972	1821.38
330.201	1916.38
330.43	1871.38
330.658	1846.38
330.887	1841.38
331.115	1835.38
331.344	1881.38
331.572	1836.38
331.801	1816.38
332.03	1808.38
332.258	1842.38
332.486	1854.38
332.715	1893.38
332.943	1859.38
333.172	1815.38
333.4	1846.38
333.629	1954.38
333.857	1993.38
334.085	2167.38
334.314	2481.38
334.542	2763.38
334.771	2527.38
334.999	2213.38
335.227	2101.38
335.455	1971.38
335.684	1956.38
335.912	1994.38
336.14	2100.38
336.369	2006.38
336.597	1941.38
336.825	1832.38
337.053	1925.38
337.281	2049.38
337.51	2113.38
337.738	2227.38
337.966	2113.38
338.194	1919.38
338.422	1851.38
338.65	1817.38
338.878	1828.38
339.106	1790.38
339.334	1768.38
339.562	1718.38
339.79	1804.38
340.018	1879.38
340.246	1921.38
340.474	1951.38
340.702	1898.38
340.93	1915.38
341.158	1871.38
341.386	1852.38
341.614	1830.38
341.842	1801.38
342.07	1817.38
342.298	1823.38
342.526	1849.38
342.754	1796.38
342.981	1787.38
343.209	1749.38
343.437	1802.38
343.665	1834.38
343.893	1899.38
344.12	1945.38
344.348	2001.38
344.576	1904.38
344.804	1840.38
345.031	1816.38
345.259	1813.38
345.487	1755.38
345.714	1697.38
345.942	1675.38
346.17	1702.38
346.397	1750.38
346.625	1745.38
346.853	1652.38
347.08	1623.38
347.308	1617.38
347.535	1677.38
347.763	1756.38
347.99	1695.38
348.218	1651.38
348.445	1633.38
348.673	1675.38
348.9	1708.38
349.128	1758.38
349.355	1820.38
349.583	1805.38
349.81	1708.38
350.037	1579.38
350.265	1555.38
350.492	1603.38
350.72	1615.38
350.947	1674.38
351.174	1729.38
351.402	1654.38
351.629	1588.38
351.856	1576.38
352.083	1555.38
352.311	1556.38
352.538	1581.38
352.765	1704.38
352.992	1755.38
353.22	1702.38
353.447	1644.38
353.674	1672.38
353.901	1678.38
354.128	1634.38
354.355	1652.38
354.583	1717.38
354.81	1729.38
355.037	1731.38
355.264	1734.38
355.491	1686.38
355.718	1666.38
355.945	1658.38
356.172	1629.38
356.399	1565.38
356.626	1623.38
356.853	1687.38
357.08	1758.38
357.307	1975.38
357.534	1994.38
357.761	1706.38
357.988	1606.38
358.215	1593.38
358.441	1620.38
358.668	1616.38
358.895	1574.38
359.122	1685.38
359.349	1837.38
359.576	1861.38
359.802	1715.38
360.029	1646.38
360.256	1614.38
360.483	1602.38
360.709	1662.38
360.936	1753.38
361.163	1745.38
361.39	1952.38
361.616	2052.38
361.843	2022.38
362.07	1903.38
362.296	1681.38
362.523	1622.38
362.749	1651.38
362.976	1674.38
363.203	1710.38
363.429	1675.38
363.656	1621.38
363.882	1677.38
364.109	1839.38
364.335	1985.38
364.562	1877.38
364.788	1760.38
365.015	1701.38
365.241	1639.38
365.468	1657.38
365.694	1757.38
365.92	1797.38
366.147	1741.38
366.373	1623.38
366.599	1580.38
366.826	1613.38
367.052	1629.38
367.278	1624.38
367.505	1666.38
367.731	1717.38
367.957	1700.38
368.184	1762.38
368.41	1857.38
368.636	1848.38
368.862	1841.38
369.089	1922.38
369.315	1819.38
369.541	1756.38
369.767	1723.38
369.993	1659.38
370.219	1635.38
370.445	1705.38
370.672	1737.38
370.898	1854.38
371.124	1878.38
371.35	1725.38
371.576	1813.38
371.802	1865.38
372.028	1809.38
372.254	1729.38
372.48	1679.38
372.706	1673.38
372.932	1690.38
373.158	1713.38
373.384	1721.38
373.61	1767.38
373.835	1871.38
374.061	1779.38
374.287	1753.38
374.513	1756.38
374.739	1789.38
374.965	1786.38
375.191	1789.38
375.416	1795.38
375.642	1823.38
375.868	1919.38
376.094	1993.38
376.319	1875.38
376.545	1738.38
376.771	1757.38
376.997	1871.38
377.222	1843.38
377.448	1823.38
377.674	1828.38
377.899	1777.38
378.125	1888.38
378.35	1964.38
378.576	1735.38
378.802	1707.38
379.027	1708.38
379.253	1687.38
379.478	1736.38
379.704	1738.38
379.929	1759.38
380.155	1731.38
380.38	1772.38
380.606	1772.38
380.831	1800.38
381.057	1814.38
381.282	1895.38
381.507	1803.38
381.733	1912.38
381.958	1996.38
382.184	1839.38
382.409	1822.38
382.634	1822.38
382.86	1845.38
383.085	1805.38
383.31	1879.38
383.535	1975.38
383.761	2109.38
383.986	2003.38
384.211	1941.38
384.436	1949.38
384.662	1993.38
384.887	2098.38
385.112	2005.38
385.337	2077.38
385.562	2012.38
385.787	2008.38
386.013	2065.38
386.238	2017.38
386.463	2016.38
386.688	2150.38
386.913	2252.38
387.138	2202.38
387.363	2039.38
387.588	2063.38
387.813	2065.38
388.038	2075.38
388.263	2130.38
388.488	2059.38
388.713	1884.38
388.938	1849.38
389.163	1918.38
389.387	1974.38
389.612	1994.38
389.837	2005.38
390.062	2072.38
390.287	1998.38
390.512	1979.38
390.736	2013.38
390.961	1947.38
391.186	1886.38
391.411	1941.38
391.636	2028.38
391.86	1960.38
392.085	1991.38
392.31	1988.38
392.534	2013.38
392.759	2019.38
392.984	1995.38
393.208	1981.38
393.433	2050.38
393.658	2132.38
393.882	2116.38
394.107	2005.38
394.331	1923.38
394.556	1969.38
394.78	1995.38
395.005	2071.38
395.229	2100.38
395.454	2327.38
395.678	2330.38
395.903	2255.38
396.127	2135.38
396.352	2133.38
396.576	2189.38
396.801	2197.38
397.025	2194.38
397.249	2141.38
397.474	2176.38
397.698	2137.38
397.922	2257.38
398.147	2304.38
398.371	2388.38
398.595	2391.38
398.82	2254.38
399.044	2292.38
399.268	2481.38
399.492	2538.38
399.717	2691.38
399.941	2707.38
400.165	2685.38
400.389	2585.38
400.613	2538.38
400.837	2754.38
401.062	3196.38
401.286	2737.38
401.51	2476.38
401.734	2608.38
401.958	2507.38
402.182	2365.38
402.406	2286.38
402.63	2277.38
402.854	2265.38
403.078	2275.38
403.302	2351.38
403.526	2417.38
403.75	2327.38
403.974	2397.38
404.198	2389.38
404.422	2451.38
404.645	2571.38
404.869	2526.38
405.093	2353.38
405.317	2305.38
405.541	2387.38
405.765	2401.38
405.988	2367.38
406.212	2467.38
406.436	2463.38
406.66	2559.38
406.883	2565.38
407.107	2889.38
407.331	3125.38
407.555	3377.38
407.778	3105.38
408.002	2630.38
408.226	2486.38
408.449	2525.38
408.673	2415.38
408.896	2453.38
409.12	2512.38
409.344	2403.38
409.567	2355.38
409.791	2399.38
410.014	2458.38
410.238	2506.38
410.461	2701.38
410.685	2455.38
410.908	2341.38
411.132	2378.38
411.355	2400.38
411.578	2299.38
411.802	2313.38
412.025	2416.38
412.249	2331.38
412.472	2241.38
412.695	2184.38
412.919	2247.38
413.142	2247.38
413.365	2289.38
413.589	2331.38
413.812	2383.38
414.035	2462.38
414.258	2268.38
414.482	2215.38
414.705	2294.38
414.928	2254.38
415.151	2222.38
415.374	2303.38
415.597	2319.38
415.821	2316.38
416.044	2425.38
416.267	2420.38
416.49	2190.38
416.713	2182.38
416.936	2217.38
417.159	2344.38
417.382	2328.38
417.605	2222.38
417.828	2261.38
418.051	2333.38
418.274	2267.38
418.497	2160.38
418.72	2207.38
418.943	2147.38
419.166	2327.38
419.389	2453.38
419.611	2276.38
419.834	2221.38
420.057	2236.38
420.28	2177.38
420.503	2187.38
420.726	2200.38
420.948	2245.38
421.171	2166.38
421.394	2219.38
421.617	2278.38
421.839	2239.38
422.062	2156.38
422.285	2147.38
422.507	2230.38
422.73	2112.38
422.953	2092.38
423.175	2118.38
423.398	2159.38
423.621	2199.38
423.843	2211.38
424.066	2216.38
424.288	2267.38
424.511	2354.38
424.733	2286.38
424.956	2100.38
425.178	2060.38
425.401	2124.38
425.623	2131.38
425.846	2105.38
426.068	2231.38
426.291	2274.38
426.513	2253.38
426.735	2190.38
426.958	2295.38
427.18	2503.38
427.402	2322.38
427.625	2361.38
427.847	2372.38
428.069	2210.38
428.292	2176.38
428.514	2064.38
428.736	2064.38
428.958	2123.38
429.181	2119.38
429.403	2354.38
429.625	2933.38
429.847	2617.38
430.069	2165.38
430.292	2393.38
430.514	2499.38
430.736	2289.38
430.958	2415.38
431.18	2330.38
431.402	2133.38
431.624	2121.38
431.846	2086.38
432.068	2049.38
432.29	2117.38
432.512	2131.38
432.734	2190.38
432.956	2195.38
433.178	2275.38
433.4	2251.38
433.622	2239.38
433.844	2169.38
434.066	2118.38
434.287	2108.38
434.509	2193.38
434.731	2293.38
434.953	2404.38
435.175	2407.38
435.397	2234.38
435.618	2237.38
435.84	2183.38
436.062	2189.38
436.284	2216.38
436.505	2211.38
436.727	2258.38
436.949	2204.38
437.17	2119.38
437.392	2135.38
437.614	2137.38
437.835	2072.38
438.057	2230.38
438.278	2305.38
438.5	2140.38
438.721	2129.38
438.943	2128.38
439.165	2084.38
439.386	2078.38
439.608	2055.38
439.829	2094.38
440.05	2133.38
440.272	2070.38
440.493	2060.38
440.715	2089.38
440.936	2225.38
441.158	2469.38
441.379	2390.38
441.6	2345.38
441.822	2261.38
442.043	2228.38
442.264	2233.38
442.486	2092.38
442.707	2142.38
442.928	2102.38
443.149	2163.38
443.371	2286.38
443.592	2345.38
443.813	2293.38
444.034	2290.38
444.255	2298.38
444.476	2337.38
444.698	2389.38
444.919	2359.38
445.14	2503.38
445.361	2413.38
445.582	2508.38
445.803	2356.38
446.024	2327.38
446.245	2412.38
446.466	2285.38
446.687	2163.38
446.908	2193.38
447.129	2126.38
447.35	2179.38
447.571	2206.38
447.792	2101.38
448.013	2055.38
448.234	2090.38
448.455	2204.38
448.675	2219.38
448.896	2011.38
449.117	1976.38
449.338	2075.38
449.559	2156.38
449.779	2262.38
450	2501.38
450.221	2695.38
450.442	2611.38
450.662	2258.38
450.883	2001.38
451.104	1979.38
451.324	2014.38
451.545	2070.38
451.766	2086.38
451.986	1977.38
452.207	1951.38
452.428	1943.38
452.648	1877.38
452.869	1918.38
453.089	2137.38
453.31	2077.38
453.53	2114.38
453.751	2037.38
453.971	1925.38
454.192	1946.38
454.412	2110.38
454.633	1987.38
454.853	1941.38
455.073	1837.38
455.294	1833.38
455.514	1852.38
455.734	1879.38
455.955	1917.38
456.175	1877.38
456.395	1902.38
456.616	1958.38
456.836	1974.38
457.056	1921.38
457.276	1966.38
457.497	1889.38
457.717	1819.38
457.937	1843.38
458.157	1926.38
458.377	1881.38
458.598	1904.38
458.818	1927.38
459.038	2015.38
459.258	2132.38
459.478	2191.38
459.698	2068.38
459.918	2137.38
460.138	2209.38
460.358	2265.38
460.578	2295.38
460.798	2329.38
461.018	2489.38
461.238	2394.38
461.458	2242.38
461.678	2273.38
461.898	2297.38
462.118	2219.38
462.338	2281.38
462.558	2222.38
462.777	2265.38
462.997	2396.38
463.217	2488.38
463.437	2483.38
463.657	2359.38
463.876	2314.38
464.096	2264.38
464.316	2201.38
464.536	2403.38
464.755	2370.38
464.975	2437.38
465.195	2297.38
465.414	2402.38
465.634	2406.38
465.854	2243.38
466.073	2394.38
466.293	2337.38
466.512	2053.38
466.732	2062.38
466.951	2186.38
467.171	2100.38
467.391	2045.38
467.61	2031.38
467.829	2029.38
468.049	2210.38
468.268	2411.38
468.488	2318.38
468.707	2178.38
468.927	2062.38
469.146	2070.38
469.365	2003.38
469.585	2063.38
469.804	2061.38
470.023	2056.38
470.243	2073.38
470.462	2064.38
470.681	2005.38
470.901	2065.38
471.12	2096.38
471.339	2030.38
471.558	1982.38
471.777	1990.38
471.997	2002.38
472.216	1998.38
472.435	1951.38
472.654	1997.38
472.873	2065.38
473.092	2225.38
473.311	2092.38
473.53	1973.38
473.749	1951.38
473.968	2062.38
474.187	2164.38
474.406	2214.38
474.625	2111.38
474.844	2055.38
475.063	2025.38
475.282	2162.38
475.501	2122.38
475.72	2073.38
475.939	2201.38
476.158	2163.38
476.377	2057.38
476.596	2145.38
476.814	2154.38
477.033	2134.38
477.252	2268.38
477.471	2343.38
477.69	2170.38
477.908	2188.38
478.127	2276.38
478.346	2518.38
478.564	2513.38
478.783	2474.38
479.002	2585.38
479.22	2439.38
479.439	2511.38
479.658	2890.38
479.876	2908.38
480.095	2517.38
480.313	2406.38
480.532	2322.38
480.751	2299.38
480.969	2428.38
481.188	2345.38
481.406	2339.38
481.624	2252.38
481.843	2270.38
482.061	2340.38
482.28	2372.38
482.498	2436.38
482.717	2395.38
482.935	2294.38
483.153	2297.38
483.372	2323.38
483.59	2244.38
483.808	2307.38
484.027	2370.38
484.245	2500.38
484.463	2860.38
484.681	3224.38
484.9	2587.38
485.118	2390.38
485.336	2357.38
485.554	2439.38
485.772	2521.38
485.99	2465.38
486.209	2515.38
486.427	2510.38
486.645	2487.38
486.863	2461.38
487.081	2534.38
487.299	2608.38
487.517	2543.38
