Data from WStandard_LampEnergy5.5LIBS07252019.E.O._I.C._HRD10591_16-06-56-920.txt Node
Date: Thu Jul 25 16:06:56 EDT 2019
User: cochatt
Spectrometer: HR+D1059
Trigger mode: 1
Integration Time (sec): 1.000000E-1
Scans to average: 1
Electric dark correction enabled: true
Nonlinearity correction enabled: false
Boxcar width: 0
XAxis mode: Wavelengths
Number of Pixels in Spectrum: 2048
>>>>>Begin Spectral Data<<<<<
223.165	-17
223.4	-17
223.635	-17
223.869	-21
224.104	-7
224.338	-14
224.573	-21
224.808	-16
225.042	-12
225.277	3
225.511	7
225.746	7
225.98	2
226.215	4
226.449	12
226.683	27
226.918	21
227.152	25
227.387	34
227.621	38
227.856	38
228.09	40
228.324	41
228.559	55
228.793	151
229.027	377
229.262	385
229.496	384
229.73	422
229.964	441
230.199	467
230.433	468
230.667	513
230.901	551
231.136	508
231.37	482
231.604	461
231.838	484
232.072	497
232.306	475
232.541	471
232.775	561
233.009	619
233.243	602
233.477	523
233.711	557
233.945	575
234.179	569
234.413	603
234.647	651
234.881	625
235.115	557
235.349	565
235.583	581
235.817	586
236.051	564
236.285	561
236.519	593
236.753	698
236.987	688
237.221	680
237.455	788
237.689	742
237.922	676
238.156	677
238.39	681
238.624	717
238.858	769
239.091	802
239.325	841
239.559	968
239.793	987
240.027	1089
240.26	1106
240.494	767
240.728	721
240.961	767
241.195	769
241.429	851
241.662	843
241.896	781
242.13	791
242.363	904
242.597	938
242.83	866
243.064	921
243.298	990
243.531	958
243.765	985
243.998	977
244.232	822
244.465	800
244.699	804
244.932	916
245.166	1038
245.399	1022
245.633	948
245.866	914
246.099	965
246.333	964
246.566	980
246.8	1077
247.033	1202
247.266	1101
247.5	1085
247.733	1067
247.966	1184
248.2	1283
248.433	1234
248.666	1240
248.899	1378
249.133	1553
249.366	1772
249.599	1471
249.832	1275
250.066	1305
250.299	1331
250.532	1225
250.765	1089
250.998	1174
251.231	1255
251.465	1293
251.698	1218
251.931	1217
252.164	1227
252.397	1310
252.63	1314
252.863	1158
253.096	1136
253.329	1199
253.562	1216
253.795	1305
254.028	1279
254.261	1204
254.494	1209
254.727	1160
254.96	1179
255.193	1281
255.426	1458
255.659	1661
255.892	1753
256.124	1425
256.357	1378
256.59	1490
256.823	1482
257.056	1455
257.289	1725
257.521	1943
257.754	1742
257.987	1635
258.22	1852
258.452	1777
258.685	1440
258.918	1434
259.151	1417
259.383	1361
259.616	1215
259.849	1255
260.081	1442
260.314	1583
260.547	1742
260.779	1775
261.012	1647
261.244	1481
261.477	1388
261.71	1453
261.942	1459
262.175	1371
262.407	1513
262.64	1426
262.872	1317
263.105	1279
263.337	1317
263.57	1317
263.802	1371
264.035	1249
264.267	1186
264.499	1185
264.732	1224
264.964	1306
265.197	1361
265.429	1471
265.661	1638
265.894	1759
266.126	1864
266.358	1641
266.591	1721
266.823	1851
267.055	1655
267.287	1631
267.52	1614
267.752	1577
267.984	1580
268.216	1705
268.448	1713
268.681	1698
268.913	1548
269.145	1432
269.377	1455
269.609	1548
269.841	1773
270.073	2060
270.306	2377
270.538	2523
270.77	2099
271.002	1779
271.234	1744
271.466	1675
271.698	1894
271.93	2248
272.162	2299
272.394	1999
272.626	1990
272.858	1725
273.09	1522
273.322	1448
273.553	1412
273.785	1465
274.017	1491
274.249	1647
274.481	1601
274.713	1459
274.945	1438
275.176	1469
275.408	1407
275.64	1409
275.872	1408
276.104	1489
276.335	1669
276.567	1890
276.799	1980
277.031	1754
277.262	1624
277.494	1695
277.726	1907
277.957	1898
278.189	1739
278.421	1586
278.652	1526
278.884	1507
279.115	1513
279.347	1559
279.579	1506
279.81	1511
280.042	1645
280.273	1824
280.505	1817
280.736	1841
280.968	1781
281.199	1533
281.431	1464
281.662	1456
281.894	1455
282.125	1489
282.356	1578
282.588	1654
282.819	1549
283.051	1688
283.282	1849
283.513	1800
283.745	1560
283.976	1477
284.207	1433
284.439	1500
284.67	1523
284.901	1568
285.132	1601
285.364	1553
285.595	1573
285.826	1548
286.057	1525
286.288	1519
286.52	1556
286.751	1726
286.982	1807
287.213	1627
287.444	1483
287.675	1486
287.906	1591
288.138	1706
288.369	1644
288.6	1528
288.831	1509
289.062	1484
289.293	1569
289.524	1537
289.755	1586
289.986	1607
290.217	1447
290.448	1496
290.679	1570
290.91	1580
291.141	1609
291.371	1682
291.602	1626
291.833	1642
292.064	1680
292.295	1624
292.526	1687
292.757	1793
292.987	1733
293.218	1572
293.449	1683
293.68	1921
293.91	2075
294.141	1912
294.372	1824
294.603	1841
294.833	1941
295.064	1869
295.295	1690
295.525	1632
295.756	1526
295.987	1464
296.217	1484
296.448	1536
296.679	1520
296.909	1552
297.14	1514
297.37	1519
297.601	1616
297.831	1757
298.062	1818
298.292	1601
298.523	1562
298.753	1549
298.984	1569
299.214	1600
299.445	1586
299.675	1639
299.905	1640
300.136	1624
300.366	1583
300.597	1493
300.827	1505
301.057	1540
301.288	1648
301.518	1687
301.748	1686
301.979	1800
302.209	1814
302.439	1899
302.669	2044
302.9	1876
303.13	1681
303.36	1678
303.59	1741
303.82	1671
304.051	1669
304.281	1666
304.511	1692
304.741	1769
304.971	1932
305.201	2126
305.431	1993
305.661	1611
305.891	1470
306.121	1478
306.352	1546
306.582	1626
306.812	1727
307.042	1892
307.272	1858
307.502	1880
307.731	2036
307.961	2232
308.191	2037
308.421	1769
308.651	1688
308.881	1608
309.111	1622
309.341	1567
309.571	1581
309.8	1609
310.03	1595
310.26	1588
310.49	1579
310.72	1606
310.949	1711
311.179	1736
311.409	1691
311.639	1641
311.868	1653
312.098	1644
312.328	1619
312.557	1635
312.787	1624
313.017	1703
313.246	1675
313.476	1667
313.706	1759
313.935	1745
314.165	1685
314.394	1759
314.624	1880
314.853	1974
315.083	2041
315.312	2103
315.542	1954
315.771	1732
316.001	1729
316.23	1819
316.46	1850
316.689	1828
316.919	1711
317.148	1665
317.377	1647
317.607	1781
317.836	2031
318.065	2104
318.295	2041
318.524	1927
318.753	1843
318.983	1849
319.212	1795
319.441	1753
319.67	1741
319.9	1773
320.129	1877
320.358	1961
320.587	2006
320.816	1993
321.046	1982
321.275	1842
321.504	1833
321.733	1965
321.962	1978
322.191	1781
322.42	1797
322.649	1791
322.878	1757
323.108	1777
323.337	1846
323.566	1851
323.795	1810
324.024	1821
324.253	1801
324.482	1829
324.71	1776
324.939	1659
325.168	1707
325.397	1749
325.626	1819
325.855	1812
326.084	1756
326.313	1776
326.542	1806
326.77	1834
326.999	1847
327.228	1792
327.457	1660
327.686	1648
327.914	1702
328.143	1768
328.372	1770
328.6	1754
328.829	1770
329.058	1699
329.287	1736
329.515	1780
329.744	1815
329.972	1860
330.201	1949
330.43	1903
330.658	1879
330.887	1899
331.115	1848
331.344	1912
331.572	1835
331.801	1852
332.03	1835
332.258	1876
332.486	1927
332.715	1925
332.943	1894
333.172	1863
333.4	1899
333.629	1912
333.857	2057
334.085	2226
334.314	2556
334.542	2815
334.771	2573
334.999	2249
335.227	2127
335.455	2068
335.684	1947
335.912	2016
336.14	2099
336.369	2023
336.597	1916
336.825	1879
337.053	1921
337.281	2095
337.51	2124
337.738	2265
337.966	2170
338.194	1960
338.422	1874
338.65	1862
338.878	1872
339.106	1773
339.334	1781
339.562	1747
339.79	1756
340.018	1861
340.246	1934
340.474	1963
340.702	1932
340.93	1907
341.158	1890
341.386	1882
341.614	1862
341.842	1836
342.07	1831
342.298	1880
342.526	1889
342.754	1831
342.981	1766
343.209	1833
343.437	1803
343.665	1852
343.893	1911
344.12	1992
344.348	1999
344.576	1924
344.804	1877
345.031	1807
345.259	1887
345.487	1765
345.714	1727
345.942	1689
346.17	1717
346.397	1756
346.625	1771
346.853	1701
347.08	1680
347.308	1650
347.535	1712
347.763	1772
347.99	1748
348.218	1664
348.445	1658
348.673	1695
348.9	1777
349.128	1801
349.355	1880
349.583	1839
349.81	1717
350.037	1619
350.265	1577
350.492	1596
350.72	1671
350.947	1734
351.174	1778
351.402	1687
351.629	1607
351.856	1559
352.083	1573
352.311	1596
352.538	1654
352.765	1707
352.992	1773
353.22	1700
353.447	1614
353.674	1631
353.901	1695
354.128	1662
354.355	1624
354.583	1743
354.81	1784
355.037	1771
355.264	1721
355.491	1672
355.718	1681
355.945	1692
356.172	1637
356.399	1629
356.626	1649
356.853	1669
357.08	1794
357.307	2008
357.534	2063
357.761	1780
357.988	1648
358.215	1587
358.441	1569
358.668	1570
358.895	1614
359.122	1700
359.349	1895
359.576	1881
359.802	1649
360.029	1674
360.256	1596
360.483	1651
360.709	1667
360.936	1759
361.163	1808
361.39	1955
361.616	2171
361.843	2053
362.07	1962
362.296	1712
362.523	1676
362.749	1686
362.976	1688
363.203	1702
363.429	1718
363.656	1623
363.882	1647
364.109	1860
364.335	2041
364.562	1899
364.788	1773
365.015	1727
365.241	1670
365.468	1691
365.694	1732
365.92	1839
366.147	1791
366.373	1649
366.599	1636
366.826	1618
367.052	1657
367.278	1667
367.505	1691
367.731	1739
367.957	1705
368.184	1753
368.41	1877
368.636	1888
368.862	1901
369.089	1915
369.315	1846
369.541	1767
369.767	1725
369.993	1653
370.219	1674
370.445	1740
370.672	1817
370.898	1916
371.124	1906
371.35	1783
371.576	1800
371.802	1896
372.028	1833
372.254	1749
372.48	1688
372.706	1696
372.932	1713
373.158	1682
373.384	1703
373.61	1779
373.835	1867
374.061	1767
374.287	1712
374.513	1723
374.739	1797
374.965	1827
375.191	1812
375.416	1821
375.642	1828
375.868	1888
376.094	2007
376.319	1917
376.545	1741
376.771	1815
376.997	1906
377.222	1863
377.448	1801
377.674	1876
377.899	1832
378.125	1934
378.35	1945
378.576	1753
378.802	1664
379.027	1688
379.253	1745
379.478	1715
379.704	1735
379.929	1764
380.155	1752
380.38	1799
380.606	1783
380.831	1757
381.057	1884
381.282	1886
381.507	1828
381.733	1937
381.958	2046
382.184	1862
382.409	1847
382.634	1867
382.86	1783
383.085	1843
383.31	1881
383.535	2029
383.761	2176
383.986	2072
384.211	1957
384.436	1972
384.662	2026
384.887	2151
385.112	2012
385.337	2070
385.562	2020
385.787	2011
386.013	2080
386.238	2073
386.463	2073
386.688	2168
386.913	2317
387.138	2259
387.363	2086
387.588	2114
387.813	2060
388.038	2107
388.263	2162
388.488	2096
388.713	1938
388.938	1873
389.163	1908
389.387	2009
389.612	1957
389.837	2012
390.062	2045
390.287	2021
390.512	1992
390.736	1985
390.961	1922
391.186	1897
391.411	1923
391.636	1989
391.86	1998
392.085	2005
392.31	1955
392.534	2021
392.759	2024
392.984	1996
393.208	2031
393.433	2099
393.658	2149
393.882	2175
394.107	2044
394.331	1984
394.556	2007
394.78	2001
395.005	2075
395.229	2149
395.454	2320
395.678	2364
395.903	2212
396.127	2105
396.352	2117
396.576	2217
396.801	2252
397.025	2216
397.249	2212
397.474	2173
397.698	2170
397.922	2239
398.147	2306
398.371	2385
398.595	2403
398.82	2290
399.044	2391
399.268	2465
399.492	2573
399.717	2737
399.941	2733
400.165	2645
400.389	2562
400.613	2551
400.837	2785
401.062	3280
401.286	2783
401.51	2502
401.734	2672
401.958	2543
402.182	2369
402.406	2289
402.63	2266
402.854	2276
403.078	2308
403.302	2407
403.526	2413
403.75	2417
403.974	2431
404.198	2391
404.422	2449
404.645	2592
404.869	2601
405.093	2391
405.317	2339
405.541	2396
405.765	2441
405.988	2363
406.212	2408
406.436	2477
406.66	2545
406.883	2591
407.107	2918
407.331	3207
407.555	3408
407.778	3113
408.002	2578
408.226	2522
408.449	2519
408.673	2405
408.896	2424
409.12	2519
409.344	2427
409.567	2368
409.791	2423
410.014	2498
410.238	2575
410.461	2723
410.685	2494
410.908	2346
411.132	2419
411.355	2371
411.578	2301
411.802	2337
412.025	2348
412.249	2336
412.472	2251
412.695	2266
412.919	2258
413.142	2273
413.365	2316
413.589	2376
413.812	2388
414.035	2544
414.258	2330
414.482	2291
414.705	2322
414.928	2277
415.151	2240
415.374	2275
415.597	2337
415.821	2357
416.044	2380
416.267	2396
416.49	2200
416.713	2147
416.936	2221
417.159	2336
417.382	2368
417.605	2245
417.828	2289
418.051	2358
418.274	2308
418.497	2213
418.72	2149
418.943	2202
419.166	2314
419.389	2401
419.611	2294
419.834	2214
420.057	2305
420.28	2203
420.503	2183
420.726	2249
420.948	2279
421.171	2178
421.394	2237
421.617	2282
421.839	2248
422.062	2248
422.285	2244
422.507	2148
422.73	2151
422.953	2053
423.175	2076
423.398	2172
423.621	2180
423.843	2209
424.066	2234
424.288	2289
424.511	2373
424.733	2298
424.956	2118
425.178	2117
425.401	2125
425.623	2141
425.846	2111
426.068	2235
426.291	2343
426.513	2253
426.735	2239
426.958	2394
427.18	2550
427.402	2336
427.625	2385
427.847	2442
428.069	2229
428.292	2150
428.514	2075
428.736	2140
428.958	2152
429.181	2140
429.403	2331
429.625	2992
429.847	2615
430.069	2197
430.292	2415
430.514	2479
430.736	2321
430.958	2472
431.18	2357
431.402	2139
431.624	2092
431.846	2128
432.068	2126
432.29	2132
432.512	2143
432.734	2211
432.956	2241
433.178	2326
433.4	2303
433.622	2287
433.844	2152
434.066	2045
434.287	2106
434.509	2202
434.731	2269
434.953	2459
435.175	2376
435.397	2218
435.618	2239
435.84	2243
436.062	2224
436.284	2256
436.505	2235
436.727	2277
436.949	2207
437.17	2139
437.392	2143
437.614	2117
437.835	2092
438.057	2207
438.278	2339
438.5	2169
438.721	2126
438.943	2111
439.165	2121
439.386	2084
439.608	2103
439.829	2122
440.05	2108
440.272	2055
440.493	2072
440.715	2127
440.936	2212
441.158	2499
441.379	2438
441.6	2324
441.822	2300
442.043	2330
442.264	2240
442.486	2120
442.707	2087
442.928	2143
443.149	2202
443.371	2312
443.592	2347
443.813	2326
444.034	2356
444.255	2305
444.476	2403
444.698	2424
444.919	2402
445.14	2461
445.361	2443
445.582	2508
445.803	2457
446.024	2355
446.245	2445
446.466	2354
446.687	2239
446.908	2188
447.129	2161
447.35	2186
447.571	2232
447.792	2092
448.013	2040
448.234	2092
448.455	2196
448.675	2236
448.896	1996
449.117	1984
449.338	2078
449.559	2170
449.779	2294
450	2527
450.221	2715
450.442	2629
450.662	2337
450.883	2061
451.104	2002
451.324	2019
451.545	2161
451.766	2080
451.986	2008
452.207	1978
452.428	1916
452.648	1877
452.869	1955
453.089	2073
453.31	2099
453.53	2173
453.751	2004
453.971	1927
454.192	1970
454.412	2123
454.633	2059
454.853	1971
455.073	1876
455.294	1861
455.514	1841
455.734	1880
455.955	1906
456.175	1921
456.395	1908
456.616	1970
456.836	1959
457.056	1937
457.276	1938
457.497	1895
457.717	1825
457.937	1842
458.157	1948
458.377	1890
458.598	1869
458.818	1835
459.038	2011
459.258	2167
459.478	2136
459.698	2110
459.918	2154
460.138	2244
460.358	2278
460.578	2321
460.798	2372
461.018	2484
461.238	2421
461.458	2309
461.678	2287
461.898	2196
462.118	2164
462.338	2298
462.558	2262
462.777	2266
462.997	2339
463.217	2605
463.437	2559
463.657	2366
463.876	2315
464.096	2290
464.316	2244
464.536	2393
464.755	2354
464.975	2426
465.195	2317
465.414	2393
465.634	2446
465.854	2230
466.073	2428
466.293	2425
466.512	2120
466.732	2065
466.951	2128
467.171	2186
467.391	2059
467.61	2003
467.829	2033
468.049	2238
468.268	2463
468.488	2345
468.707	2195
468.927	2159
469.146	2136
469.365	2047
469.585	2089
469.804	2057
470.023	2051
470.243	2093
470.462	2091
470.681	2015
470.901	2044
471.12	2067
471.339	2080
471.558	2021
471.777	1979
471.997	2044
472.216	2033
472.435	1982
472.654	2023
472.873	2107
473.092	2254
473.311	2147
473.53	1995
473.749	1995
473.968	2055
474.187	2168
474.406	2290
474.625	2163
474.844	2079
475.063	2027
475.282	2195
475.501	2098
475.72	2123
475.939	2250
476.158	2206
476.377	2113
476.596	2081
476.814	2184
477.033	2192
477.252	2266
477.471	2323
477.69	2203
477.908	2143
478.127	2282
478.346	2503
478.564	2512
478.783	2539
479.002	2554
479.22	2487
479.439	2556
479.658	2925
479.876	2923
480.095	2516
480.313	2435
480.532	2331
480.751	2355
480.969	2388
481.188	2321
481.406	2386
481.624	2306
481.843	2309
482.061	2369
482.28	2426
482.498	2439
482.717	2392
482.935	2309
483.153	2294
483.372	2345
483.59	2276
483.808	2333
484.027	2363
484.245	2506
484.463	2873
484.681	3326
484.9	2600
485.118	2392
485.336	2348
485.554	2402
485.772	2501
485.99	2493
486.209	2519
486.427	2516
486.645	2481
486.863	2439
487.081	2483
487.299	2566
487.517	2538
487.735	2409
487.953	2390
488.171	2379
488.389	2411
488.607	2451
488.825	2651
489.043	2729
489.261	2440
489.479	2576
489.696	2604
489.914	2563
490.132	2473
490.35	2441
490.568	2534
490.786	2489
491.003	2344
491.221	2447
491.439	2487
491.657	2511
491.874	2518
492.092	2573
492.31	2511
492.527	2504
492.745	2467
492.963	2529
493.18	2595
493.398	2780
493.615	2785
493.833	2588
494.05	2514
494.268	2541
494.485	2580
494.703	2542
494.92	2509
495.138	2513
495.355	2519
495.573	2609
495.79	2857
496.008	2823
496.225	2660
496.442	2692
496.66	2644
496.877	2613
497.094	2742
497.312	2730
497.529	2758
497.746	2827
497.963	3287
498.181	3687
498.398	3508
498.615	3360
498.832	3253
499.049	3248
499.267	3163
499.484	3428
499.701	3671
499.918	3789
500.135	4033
500.352	4362
500.569	4267
500.786	4547
501.003	4271
501.22	3871
501.437	3764
501.654	3731
501.871	3643
502.088	3217
502.305	3236
502.522	3094
502.739	2919
502.956	2825
503.172	2816
503.389	2740
503.606	2685
503.823	2700
504.04	2684
504.256	2726
504.473	2663
504.69	2813
504.907	2626
505.123	2507
505.34	2639
505.557	3448
505.773	2929
505.99	2492
506.207	2328
506.423	2294
506.64	2271
506.856	2250
507.073	2648
507.289	2835
507.506	2732
507.722	2359
507.939	2183
508.155	2219
508.372	2216
508.588	2170
508.805	2127
509.021	2046
509.238	2079
509.454	2041
509.67	2093
509.887	2027
510.103	2058
510.319	2073
510.536	2234
510.752	2271
510.968	2249
511.184	2376
511.401	2366
511.617	2075
511.833	1991
512.049	1995
512.265	2005
512.481	1973
512.698	2123
512.914	2255
513.13	2124
513.346	2024
513.562	1977
513.778	1984
513.994	2111
514.21	2222
514.426	2231
514.642	2425
514.858	2310
515.074	2109
515.29	2041
515.506	2120
515.721	2191
515.937	2179
516.153	2410
516.369	2356
516.585	2210
516.801	2112
517.016	2138
517.232	2172
517.448	2218
517.664	2254
517.879	2235
518.095	2322
518.311	2236
518.527	2153
518.742	2103
518.958	2060
519.173	2040
519.389	2035
519.605	2083
519.82	2124
520.036	2122
520.251	2060
520.467	2066
520.682	2252
520.898	2313
521.113	2068
521.329	2002
521.544	2186
521.76	2113
521.975	1959
522.19	1991
522.406	1921
522.621	2348
522.836	2377
523.052	1915
523.267	1913
523.482	1948
523.698	1813
523.913	1847
524.128	1868
524.343	1965
524.559	2010
524.774	1907
524.989	1871
525.204	1845
525.419	1833
525.634	1816
525.849	1841
526.064	1889
526.28	1867
526.495	1798
526.71	1824
526.925	1791
527.14	1778
527.355	1741
527.57	1754
527.785	1817
527.999	1795
528.214	1757
528.429	1690
528.644	1746
528.859	1778
529.074	1751
529.289	1766
529.503	1769
529.718	1757
529.933	1749
530.148	1711
530.363	1712
530.577	1735
530.792	1817
531.007	1781
531.221	1757
531.436	1798
531.651	1831
531.865	1934
532.08	1813
532.295	1715
532.509	1647
532.724	1715
532.938	1771
533.153	1894
533.367	1826
533.582	1815
533.796	1747
534.011	1783
534.225	1742
534.44	1787
534.654	1697
534.868	1691
535.083	1789
535.297	1777
535.511	1751
535.726	1764
535.94	1702
536.154	1728
536.369	1684
536.583	1672
536.797	1658
537.011	1727
537.225	1668
537.44	1618
537.654	1722
537.868	1651
538.082	1613
538.296	1581
538.51	1635
538.724	1606
538.938	1569
539.153	1611
539.367	1658
539.581	1655
539.795	1732
540.009	1679
540.222	1644
540.436	1705
540.65	1794
540.864	1819
541.078	1757
541.292	1610
541.506	1633
541.72	1645
541.934	1605
