Data from WStandard_LampEnergy10_LIBS07252019.E.O._I.C._HRD10591_15-54-59-928.txt Node
Date: Thu Jul 25 15:54:59 EDT 2019
User: cochatt
Spectrometer: HR+D1059
Trigger mode: 1
Integration Time (sec): 1.000000E-1
Scans to average: 1
Electric dark correction enabled: true
Nonlinearity correction enabled: false
Boxcar width: 0
XAxis mode: Wavelengths
Number of Pixels in Spectrum: 2048
>>>>>Begin Spectral Data<<<<<
223.165	-8.5
223.4	-8.5
223.635	-8.5
223.869	-22.5
224.104	-15.5
224.338	-10.5
224.573	-23.5
224.808	-8.5
225.042	-12.5
225.277	-11.5
225.511	-1.5
225.746	1.5
225.98	-3.5
226.215	14.5
226.449	17.5
226.683	18.5
226.918	37.5
227.152	28.5
227.387	33.5
227.621	38.5
227.856	37.5
228.09	49.5
228.324	51.5
228.559	51.5
228.793	91.5
229.027	132.5
229.262	151.5
229.496	164.5
229.73	161.5
229.964	164.5
230.199	179.5
230.433	166.5
230.667	172.5
230.901	177.5
231.136	184.5
231.37	151.5
231.604	175.5
231.838	168.5
232.072	175.5
232.306	168.5
232.541	190.5
232.775	204.5
233.009	197.5
233.243	208.5
233.477	177.5
233.711	192.5
233.945	191.5
234.179	194.5
234.413	210.5
234.647	213.5
234.881	197.5
235.115	185.5
235.349	176.5
235.583	195.5
235.817	175.5
236.051	191.5
236.285	193.5
236.519	203.5
236.753	227.5
236.987	241.5
237.221	236.5
237.455	225.5
237.689	227.5
237.922	222.5
238.156	231.5
238.39	215.5
238.624	215.5
238.858	232.5
239.091	242.5
239.325	254.5
239.559	303.5
239.793	302.5
240.027	288.5
240.26	301.5
240.494	248.5
240.728	237.5
240.961	242.5
241.195	252.5
241.429	247.5
241.662	239.5
241.896	257.5
242.13	244.5
242.363	268.5
242.597	273.5
242.83	277.5
243.064	281.5
243.298	284.5
243.531	286.5
243.765	279.5
243.998	284.5
244.232	245.5
244.465	230.5
244.699	252.5
244.932	279.5
245.166	289.5
245.399	296.5
245.633	262.5
245.866	254.5
246.099	288.5
246.333	285.5
246.566	300.5
246.8	333.5
247.033	334.5
247.266	312.5
247.5	304.5
247.733	330.5
247.966	331.5
248.2	350.5
248.433	361.5
248.666	370.5
248.899	376.5
249.133	456.5
249.366	464.5
249.599	396.5
249.832	364.5
250.066	359.5
250.299	353.5
250.532	351.5
250.765	305.5
250.998	324.5
251.231	335.5
251.465	359.5
251.698	344.5
251.931	347.5
252.164	352.5
252.397	358.5
252.63	358.5
252.863	315.5
253.096	336.5
253.329	331.5
253.562	345.5
253.795	355.5
254.028	361.5
254.261	340.5
254.494	317.5
254.727	352.5
254.96	344.5
255.193	387.5
255.426	415.5
255.659	456.5
255.892	454.5
256.124	385.5
256.357	367.5
256.59	397.5
256.823	395.5
257.056	410.5
257.289	475.5
257.521	490.5
257.754	478.5
257.987	429.5
258.22	503.5
258.452	454.5
258.685	379.5
258.918	409.5
259.151	378.5
259.383	365.5
259.616	348.5
259.849	372.5
260.081	418.5
260.314	451.5
260.547	465.5
260.779	448.5
261.012	426.5
261.244	397.5
261.477	384.5
261.71	385.5
261.942	391.5
262.175	399.5
262.407	402.5
262.64	388.5
262.872	357.5
263.105	360.5
263.337	394.5
263.57	372.5
263.802	366.5
264.035	361.5
264.267	336.5
264.499	344.5
264.732	349.5
264.964	373.5
265.197	393.5
265.429	404.5
265.661	456.5
265.894	473.5
266.126	493.5
266.358	458.5
266.591	458.5
266.823	492.5
267.055	440.5
267.287	454.5
267.52	444.5
267.752	449.5
267.984	443.5
268.216	447.5
268.448	479.5
268.681	453.5
268.913	412.5
269.145	409.5
269.377	434.5
269.609	452.5
269.841	514.5
270.073	579.5
270.306	632.5
270.538	621.5
270.77	558.5
271.002	476.5
271.234	480.5
271.466	473.5
271.698	543.5
271.93	610.5
272.162	602.5
272.394	530.5
272.626	509.5
272.858	446.5
273.09	402.5
273.322	403.5
273.553	392.5
273.785	385.5
274.017	417.5
274.249	434.5
274.481	446.5
274.713	419.5
274.945	424.5
275.176	426.5
275.408	430.5
275.64	392.5
275.872	396.5
276.104	448.5
276.335	505.5
276.567	534.5
276.799	542.5
277.031	482.5
277.262	478.5
277.494	492.5
277.726	528.5
277.957	498.5
278.189	458.5
278.421	436.5
278.652	424.5
278.884	437.5
279.115	415.5
279.347	435.5
279.579	422.5
279.81	434.5
280.042	478.5
280.273	487.5
280.505	488.5
280.736	496.5
280.968	467.5
281.199	432.5
281.431	433.5
281.662	408.5
281.894	434.5
282.125	423.5
282.356	453.5
282.588	456.5
282.819	456.5
283.051	489.5
283.282	500.5
283.513	495.5
283.745	429.5
283.976	399.5
284.207	430.5
284.439	436.5
284.67	426.5
284.901	441.5
285.132	447.5
285.364	454.5
285.595	453.5
285.826	446.5
286.057	450.5
286.288	464.5
286.52	458.5
286.751	479.5
286.982	487.5
287.213	453.5
287.444	429.5
287.675	430.5
287.906	470.5
288.138	474.5
288.369	454.5
288.6	457.5
288.831	417.5
289.062	456.5
289.293	435.5
289.524	444.5
289.755	450.5
289.986	459.5
290.217	446.5
290.448	441.5
290.679	446.5
290.91	472.5
291.141	455.5
291.371	507.5
291.602	468.5
291.833	484.5
292.064	493.5
292.295	485.5
292.526	499.5
292.757	502.5
292.987	485.5
293.218	466.5
293.449	519.5
293.68	566.5
293.91	584.5
294.141	532.5
294.372	552.5
294.603	583.5
294.833	583.5
295.064	535.5
295.295	504.5
295.525	461.5
295.756	453.5
295.987	426.5
296.217	446.5
296.448	454.5
296.679	458.5
296.909	449.5
297.14	466.5
297.37	464.5
297.601	513.5
297.831	532.5
298.062	522.5
298.292	473.5
298.523	473.5
298.753	460.5
298.984	478.5
299.214	487.5
299.445	500.5
299.675	487.5
299.905	494.5
300.136	476.5
300.366	473.5
300.597	456.5
300.827	465.5
301.057	484.5
301.288	492.5
301.518	494.5
301.748	513.5
301.979	546.5
302.209	553.5
302.439	567.5
302.669	595.5
302.9	558.5
303.13	496.5
303.36	518.5
303.59	518.5
303.82	512.5
304.051	506.5
304.281	520.5
304.511	531.5
304.741	573.5
304.971	594.5
305.201	632.5
305.431	530.5
305.661	467.5
305.891	463.5
306.121	455.5
306.352	494.5
306.582	506.5
306.812	545.5
307.042	579.5
307.272	569.5
307.502	594.5
307.731	650.5
307.961	638.5
308.191	597.5
308.421	507.5
308.651	504.5
308.881	513.5
309.111	491.5
309.341	495.5
309.571	491.5
309.8	496.5
310.03	492.5
310.26	483.5
310.49	485.5
310.72	504.5
310.949	513.5
311.179	512.5
311.409	502.5
311.639	498.5
311.868	503.5
312.098	508.5
312.328	486.5
312.557	519.5
312.787	512.5
313.017	530.5
313.246	515.5
313.476	530.5
313.706	536.5
313.935	535.5
314.165	536.5
314.394	570.5
314.624	608.5
314.853	636.5
315.083	647.5
315.312	617.5
315.542	594.5
315.771	515.5
316.001	558.5
316.23	575.5
316.46	552.5
316.689	530.5
316.919	515.5
317.148	502.5
317.377	525.5
317.607	567.5
317.836	637.5
318.065	618.5
318.295	610.5
318.524	593.5
318.753	566.5
318.983	575.5
319.212	554.5
319.441	546.5
319.67	556.5
319.9	566.5
320.129	604.5
320.358	600.5
320.587	614.5
320.816	615.5
321.046	587.5
321.275	585.5
321.504	600.5
321.733	613.5
321.962	622.5
322.191	578.5
322.42	560.5
322.649	535.5
322.878	558.5
323.108	562.5
323.337	562.5
323.566	578.5
323.795	567.5
324.024	561.5
324.253	547.5
324.482	567.5
324.71	531.5
324.939	518.5
325.168	543.5
325.397	562.5
325.626	564.5
325.855	560.5
326.084	541.5
326.313	545.5
326.542	580.5
326.77	597.5
326.999	589.5
327.228	571.5
327.457	528.5
327.686	547.5
327.914	530.5
328.143	559.5
328.372	531.5
328.6	574.5
328.829	555.5
329.058	543.5
329.287	560.5
329.515	574.5
329.744	585.5
329.972	595.5
330.201	620.5
330.43	599.5
330.658	570.5
330.887	592.5
331.115	581.5
331.344	576.5
331.572	572.5
331.801	596.5
332.03	605.5
332.258	584.5
332.486	613.5
332.715	604.5
332.943	603.5
333.172	593.5
333.4	604.5
333.629	637.5
333.857	679.5
334.085	743.5
334.314	849.5
334.542	833.5
334.771	756.5
334.999	705.5
335.227	658.5
335.455	618.5
335.684	639.5
335.912	644.5
336.14	645.5
336.369	632.5
336.597	614.5
336.825	613.5
337.053	641.5
337.281	669.5
337.51	680.5
337.738	700.5
337.966	655.5
338.194	598.5
338.422	595.5
338.65	586.5
338.878	558.5
339.106	557.5
339.334	574.5
339.562	560.5
339.79	571.5
340.018	635.5
340.246	612.5
340.474	609.5
340.702	629.5
340.93	613.5
341.158	620.5
341.386	600.5
341.614	594.5
341.842	599.5
342.07	593.5
342.298	616.5
342.526	603.5
342.754	594.5
342.981	590.5
343.209	595.5
343.437	600.5
343.665	584.5
343.893	630.5
344.12	644.5
344.348	626.5
344.576	597.5
344.804	597.5
345.031	580.5
345.259	607.5
345.487	551.5
345.714	541.5
345.942	571.5
346.17	548.5
346.397	566.5
346.625	544.5
346.853	536.5
347.08	522.5
347.308	528.5
347.535	561.5
347.763	571.5
347.99	544.5
348.218	558.5
348.445	548.5
348.673	552.5
348.9	595.5
349.128	596.5
349.355	609.5
349.583	572.5
349.81	578.5
350.037	517.5
350.265	527.5
350.492	541.5
350.72	585.5
350.947	568.5
351.174	566.5
351.402	541.5
351.629	533.5
351.856	529.5
352.083	522.5
352.311	542.5
352.538	550.5
352.765	567.5
352.992	610.5
353.22	553.5
353.447	545.5
353.674	562.5
353.901	585.5
354.128	568.5
354.355	563.5
354.583	580.5
354.81	597.5
355.037	589.5
355.264	592.5
355.491	584.5
355.718	550.5
355.945	546.5
356.172	541.5
356.399	546.5
356.626	561.5
356.853	592.5
357.08	637.5
357.307	678.5
357.534	640.5
357.761	558.5
357.988	535.5
358.215	527.5
358.441	529.5
358.668	507.5
358.895	561.5
359.122	599.5
359.349	625.5
359.576	620.5
359.802	535.5
360.029	517.5
360.256	542.5
360.483	580.5
360.709	611.5
360.936	613.5
361.163	606.5
361.39	700.5
361.616	710.5
361.843	675.5
362.07	651.5
362.296	589.5
362.523	543.5
362.749	532.5
362.976	554.5
363.203	578.5
363.429	557.5
363.656	553.5
363.882	601.5
364.109	639.5
364.335	648.5
364.562	617.5
364.788	595.5
365.015	575.5
365.241	575.5
365.468	582.5
365.694	618.5
365.92	588.5
366.147	580.5
366.373	559.5
366.599	573.5
366.826	557.5
367.052	561.5
367.278	576.5
367.505	577.5
367.731	572.5
367.957	599.5
368.184	615.5
368.41	636.5
368.636	681.5
368.862	662.5
369.089	649.5
369.315	614.5
369.541	622.5
369.767	584.5
369.993	577.5
370.219	590.5
370.445	606.5
370.672	656.5
370.898	686.5
371.124	631.5
371.35	636.5
371.576	630.5
371.802	629.5
372.028	636.5
372.254	618.5
372.48	587.5
372.706	591.5
372.932	611.5
373.158	629.5
373.384	626.5
373.61	636.5
373.835	639.5
374.061	623.5
374.287	624.5
374.513	610.5
374.739	626.5
374.965	623.5
375.191	617.5
375.416	656.5
375.642	654.5
375.868	692.5
376.094	682.5
376.319	663.5
376.545	610.5
376.771	634.5
376.997	727.5
377.222	678.5
377.448	646.5
377.674	667.5
377.899	668.5
378.125	706.5
378.35	678.5
378.576	630.5
378.802	632.5
379.027	626.5
379.253	638.5
379.478	644.5
379.704	634.5
379.929	611.5
380.155	642.5
380.38	656.5
380.606	649.5
380.831	650.5
381.057	707.5
381.282	699.5
381.507	675.5
381.733	746.5
381.958	730.5
382.184	691.5
382.409	691.5
382.634	653.5
382.86	661.5
383.085	680.5
383.31	720.5
383.535	753.5
383.761	794.5
383.986	761.5
384.211	725.5
384.436	721.5
384.662	774.5
384.887	764.5
385.112	755.5
385.337	724.5
385.562	729.5
385.787	730.5
386.013	778.5
386.238	761.5
386.463	774.5
386.688	821.5
386.913	866.5
387.138	813.5
387.363	776.5
387.588	772.5
387.813	751.5
388.038	785.5
388.263	788.5
388.488	761.5
388.713	700.5
388.938	726.5
389.163	727.5
389.387	733.5
389.612	719.5
389.837	758.5
390.062	738.5
390.287	753.5
390.512	745.5
390.736	720.5
390.961	726.5
391.186	718.5
391.411	727.5
391.636	763.5
391.86	752.5
392.085	754.5
392.31	742.5
392.534	747.5
392.759	746.5
392.984	784.5
393.208	777.5
393.433	790.5
393.658	839.5
393.882	812.5
394.107	766.5
394.331	765.5
394.556	746.5
394.78	795.5
395.005	812.5
395.229	822.5
395.454	850.5
395.678	890.5
395.903	832.5
396.127	802.5
396.352	815.5
396.576	849.5
396.801	831.5
397.025	838.5
397.249	819.5
397.474	819.5
397.698	813.5
397.922	860.5
398.147	857.5
398.371	940.5
398.595	889.5
398.82	882.5
399.044	901.5
399.268	915.5
399.492	956.5
399.717	978.5
399.941	999.5
400.165	975.5
400.389	945.5
400.613	971.5
400.837	1094.5
401.062	1172.5
401.286	1014.5
401.51	966.5
401.734	975.5
401.958	950.5
402.182	893.5
402.406	867.5
402.63	873.5
402.854	876.5
403.078	912.5
403.302	884.5
403.526	951.5
403.75	905.5
403.974	920.5
404.198	944.5
404.422	973.5
404.645	993.5
404.869	958.5
405.093	907.5
405.317	914.5
405.541	916.5
405.765	966.5
405.988	916.5
406.212	936.5
406.436	956.5
406.66	989.5
406.883	1019.5
407.107	1123.5
407.331	1200.5
407.555	1255.5
407.778	1134.5
408.002	983.5
408.226	984.5
408.449	970.5
408.673	924.5
408.896	937.5
409.12	926.5
409.344	956.5
409.567	908.5
409.791	929.5
410.014	970.5
410.238	1026.5
410.461	1065.5
410.685	953.5
410.908	927.5
411.132	957.5
411.355	933.5
411.578	920.5
411.802	951.5
412.025	957.5
412.249	915.5
412.472	904.5
412.695	925.5
412.919	901.5
413.142	936.5
413.365	928.5
413.589	933.5
413.812	981.5
414.035	967.5
414.258	899.5
414.482	873.5
414.705	918.5
414.928	885.5
415.151	910.5
415.374	878.5
415.597	943.5
415.821	913.5
416.044	931.5
416.267	954.5
416.49	888.5
416.713	876.5
416.936	951.5
417.159	970.5
417.382	959.5
417.605	922.5
417.828	937.5
418.051	911.5
418.274	959.5
418.497	919.5
418.72	936.5
418.943	917.5
419.166	972.5
419.389	988.5
419.611	948.5
419.834	945.5
420.057	959.5
420.28	940.5
420.503	906.5
420.726	930.5
420.948	950.5
421.171	926.5
421.394	934.5
421.617	992.5
421.839	981.5
422.062	951.5
422.285	930.5
422.507	914.5
422.73	891.5
422.953	887.5
423.175	902.5
423.398	924.5
423.621	918.5
423.843	923.5
424.066	966.5
424.288	1014.5
424.511	1047.5
424.733	960.5
424.956	916.5
425.178	925.5
425.401	932.5
425.623	970.5
425.846	948.5
426.068	960.5
426.291	949.5
426.513	942.5
426.735	976.5
426.958	1042.5
427.18	1055.5
427.402	974.5
427.625	1000.5
427.847	953.5
428.069	934.5
428.292	941.5
428.514	888.5
428.736	876.5
428.958	905.5
429.181	921.5
429.403	1060.5
429.625	1223.5
429.847	1031.5
430.069	958.5
430.292	1031.5
430.514	1002.5
430.736	930.5
430.958	941.5
431.18	910.5
431.402	885.5
431.624	850.5
431.846	793.5
432.068	728.5
432.29	717.5
432.512	801.5
432.734	874.5
432.956	924.5
433.178	969.5
433.4	937.5
433.622	950.5
433.844	884.5
434.066	848.5
434.287	794.5
434.509	781.5
434.731	826.5
434.953	892.5
435.175	880.5
435.397	905.5
435.618	892.5
435.84	851.5
436.062	855.5
436.284	909.5
436.505	944.5
436.727	953.5
436.949	907.5
437.17	888.5
437.392	907.5
437.614	847.5
437.835	814.5
438.057	801.5
438.278	842.5
438.5	862.5
438.721	906.5
438.943	931.5
439.165	935.5
439.386	901.5
439.608	932.5
439.829	936.5
440.05	936.5
440.272	942.5
440.493	966.5
440.715	952.5
440.936	1014.5
441.158	1063.5
441.379	1022.5
441.6	1046.5
441.822	1006.5
442.043	1038.5
442.264	970.5
442.486	940.5
442.707	982.5
442.928	959.5
443.149	975.5
443.371	989.5
443.592	998.5
443.813	1017.5
444.034	995.5
444.255	1016.5
444.476	1025.5
444.698	1028.5
444.919	1034.5
445.14	1153.5
445.361	1104.5
445.582	1074.5
445.803	1073.5
446.024	1046.5
446.245	1053.5
446.466	1048.5
446.687	1034.5
446.908	1072.5
447.129	990.5
447.35	1006.5
447.571	1013.5
447.792	953.5
448.013	944.5
448.234	940.5
448.455	959.5
448.675	1010.5
448.896	913.5
449.117	900.5
449.338	918.5
449.559	928.5
449.779	975.5
450	1025.5
450.221	1022.5
450.442	994.5
450.662	936.5
450.883	913.5
451.104	870.5
451.324	893.5
451.545	898.5
451.766	860.5
451.986	834.5
452.207	807.5
452.428	779.5
452.648	761.5
452.869	771.5
453.089	778.5
453.31	790.5
453.53	772.5
453.751	737.5
453.971	702.5
454.192	726.5
454.412	761.5
454.633	785.5
454.853	794.5
455.073	754.5
455.294	755.5
455.514	740.5
455.734	748.5
455.955	770.5
456.175	729.5
456.395	719.5
456.616	720.5
456.836	768.5
457.056	735.5
457.276	725.5
457.497	704.5
457.717	688.5
457.937	708.5
458.157	734.5
458.377	708.5
458.598	668.5
458.818	658.5
459.038	678.5
459.258	687.5
459.478	708.5
459.698	698.5
459.918	743.5
460.138	798.5
460.358	841.5
460.578	832.5
460.798	866.5
461.018	898.5
461.238	856.5
461.458	833.5
461.678	818.5
461.898	817.5
462.118	800.5
462.338	838.5
462.558	862.5
462.777	838.5
462.997	884.5
463.217	908.5
463.437	865.5
463.657	851.5
463.876	832.5
464.096	809.5
464.316	831.5
464.536	877.5
464.755	866.5
464.975	881.5
465.195	853.5
465.414	880.5
465.634	889.5
465.854	888.5
466.073	978.5
466.293	945.5
466.512	845.5
466.732	874.5
466.951	894.5
467.171	896.5
467.391	863.5
467.61	900.5
467.829	890.5
468.049	988.5
468.268	1048.5
468.488	960.5
468.707	922.5
468.927	896.5
469.146	872.5
469.365	894.5
469.585	921.5
469.804	895.5
470.023	920.5
470.243	936.5
470.462	956.5
470.681	902.5
470.901	922.5
471.12	920.5
471.339	938.5
471.558	909.5
471.777	897.5
471.997	901.5
472.216	857.5
472.435	770.5
472.654	744.5
472.873	772.5
473.092	825.5
473.311	824.5
473.53	825.5
473.749	815.5
473.968	846.5
474.187	854.5
474.406	855.5
474.625	884.5
474.844	860.5
475.063	873.5
475.282	877.5
475.501	812.5
475.72	838.5
475.939	911.5
476.158	870.5
476.377	857.5
476.596	856.5
476.814	809.5
477.033	823.5
477.252	832.5
477.471	872.5
477.69	915.5
477.908	951.5
478.127	975.5
478.346	1017.5
478.564	985.5
478.783	974.5
479.002	1021.5
479.22	1005.5
479.439	1013.5
479.658	1032.5
479.876	1008.5
480.095	920.5
480.313	904.5
480.532	886.5
480.751	876.5
480.969	841.5
481.188	798.5
481.406	764.5
481.624	742.5
481.843	800.5
482.061	818.5
482.28	862.5
482.498	911.5
482.717	874.5
482.935	905.5
483.153	992.5
483.372	1004.5
483.59	987.5
483.808	969.5
484.027	940.5
484.245	1017.5
484.463	1215.5
484.681	1258.5
484.9	1024.5
485.118	962.5
485.336	936.5
485.554	904.5
485.772	924.5
485.99	870.5
486.209	883.5
486.427	885.5
486.645	933.5
486.863	1009.5
487.081	1068.5
487.299	1034.5
487.517	1001.5
487.735	1107.5
487.953	1203.5
488.171	1174.5
488.389	1141.5
488.607	1111.5
488.825	1155.5
489.043	1053.5
489.261	976.5
489.479	1060.5
489.696	1042.5
489.914	1022.5
490.132	1033.5
490.35	1108.5
490.568	1184.5
490.786	1158.5
491.003	1186.5
491.221	1262.5
491.439	1305.5
491.657	1312.5
491.874	1362.5
492.092	1450.5
492.31	1503.5
492.527	1452.5
492.745	1383.5
492.963	1313.5
493.18	1313.5
493.398	1317.5
493.615	1350.5
493.833	1289.5
494.05	1235.5
494.268	1257.5
494.485	1245.5
494.703	1237.5
494.92	1197.5
495.138	1247.5
495.355	1251.5
495.573	1240.5
495.79	1302.5
496.008	1250.5
496.225	1240.5
496.442	1226.5
496.66	1225.5
496.877	1204.5
497.094	1225.5
497.312	1208.5
497.529	1138.5
497.746	1188.5
497.963	1298.5
498.181	1344.5
498.398	1249.5
498.615	1220.5
498.832	1152.5
499.049	1172.5
499.267	1152.5
499.484	1249.5
499.701	1347.5
499.918	1391.5
500.135	1488.5
500.352	1534.5
500.569	1548.5
500.786	1678.5
501.003	1567.5
501.22	1428.5
501.437	1373.5
501.654	1388.5
501.871	1358.5
502.088	1223.5
502.305	1198.5
502.522	1134.5
502.739	1087.5
502.956	1086.5
503.172	1073.5
503.389	1037.5
503.606	966.5
503.823	949.5
504.04	989.5
504.256	1010.5
504.473	974.5
504.69	1027.5
504.907	954.5
505.123	974.5
505.34	1057.5
505.557	1368.5
505.773	1083.5
505.99	916.5
506.207	900.5
506.423	870.5
506.64	926.5
506.856	926.5
507.073	1056.5
507.289	1082.5
507.506	1016.5
507.722	897.5
507.939	848.5
508.155	858.5
508.372	846.5
508.588	812.5
508.805	800.5
509.021	782.5
509.238	787.5
509.454	738.5
509.67	766.5
509.887	717.5
510.103	725.5
510.319	743.5
510.536	773.5
510.752	790.5
510.968	782.5
511.184	805.5
511.401	756.5
511.617	676.5
511.833	700.5
512.049	718.5
512.265	721.5
512.481	720.5
512.698	737.5
512.914	783.5
513.13	761.5
513.346	710.5
513.562	707.5
513.778	712.5
513.994	735.5
514.21	736.5
514.426	756.5
514.642	845.5
514.858	794.5
515.074	724.5
515.29	724.5
515.506	708.5
515.721	743.5
515.937	757.5
516.153	806.5
516.369	788.5
516.585	753.5
516.801	727.5
517.016	729.5
517.232	772.5
517.448	776.5
517.664	766.5
517.879	775.5
