Data from WStandard_LampEnergy10_LIBS07252019.E.O._I.C._HRD10591_15-53-33-928.txt Node
Date: Thu Jul 25 15:53:33 EDT 2019
User: cochatt
Spectrometer: HR+D1059
Trigger mode: 1
Integration Time (sec): 1.000000E-1
Scans to average: 1
Electric dark correction enabled: true
Nonlinearity correction enabled: false
Boxcar width: 0
XAxis mode: Wavelengths
Number of Pixels in Spectrum: 2048
>>>>>Begin Spectral Data<<<<<
223.165	-17.69
223.4	-17.69
223.635	-17.69
223.869	-14.69
224.104	-13.69
224.338	-16.69
224.573	-13.69
224.808	-10.69
225.042	-0.69
225.277	-5.69
225.511	3.31
225.746	-3.69
225.98	17.31
226.215	20.31
226.449	5.31
226.683	19.31
226.918	10.31
227.152	21.31
227.387	36.31
227.621	43.31
227.856	46.31
228.09	51.31
228.324	52.31
228.559	59.31
228.793	67.31
229.027	136.31
229.262	157.31
229.496	160.31
229.73	161.31
229.964	153.31
230.199	183.31
230.433	172.31
230.667	183.31
230.901	198.31
231.136	175.31
231.37	163.31
231.604	177.31
231.838	168.31
232.072	172.31
232.306	178.31
232.541	182.31
232.775	212.31
233.009	219.31
233.243	196.31
233.477	187.31
233.711	196.31
233.945	191.31
234.179	196.31
234.413	206.31
234.647	221.31
234.881	199.31
235.115	195.31
235.349	194.31
235.583	200.31
235.817	191.31
236.051	197.31
236.285	212.31
236.519	195.31
236.753	217.31
236.987	220.31
237.221	235.31
237.455	231.31
237.689	233.31
237.922	217.31
238.156	225.31
238.39	216.31
238.624	236.31
238.858	242.31
239.091	238.31
239.325	258.31
239.559	289.31
239.793	310.31
240.027	332.31
240.26	306.31
240.494	234.31
240.728	254.31
240.961	235.31
241.195	247.31
241.429	264.31
241.662	249.31
241.896	254.31
242.13	244.31
242.363	265.31
242.597	303.31
242.83	284.31
243.064	275.31
243.298	298.31
243.531	301.31
243.765	281.31
243.998	287.31
244.232	237.31
244.465	235.31
244.699	253.31
244.932	269.31
245.166	314.31
245.399	305.31
245.633	280.31
245.866	291.31
246.099	283.31
246.333	305.31
246.566	302.31
246.8	341.31
247.033	326.31
247.266	327.31
247.5	317.31
247.733	329.31
247.966	334.31
248.2	363.31
248.433	346.31
248.666	362.31
248.899	398.31
249.133	418.31
249.366	447.31
249.599	407.31
249.832	370.31
250.066	370.31
250.299	379.31
250.532	338.31
250.765	352.31
250.998	356.31
251.231	354.31
251.465	349.31
251.698	364.31
251.931	349.31
252.164	365.31
252.397	408.31
252.63	349.31
252.863	325.31
253.096	346.31
253.329	357.31
253.562	357.31
253.795	385.31
254.028	375.31
254.261	360.31
254.494	363.31
254.727	340.31
254.96	344.31
255.193	379.31
255.426	427.31
255.659	458.31
255.892	469.31
256.124	399.31
256.357	391.31
256.59	417.31
256.823	413.31
257.056	439.31
257.289	491.31
257.521	501.31
257.754	471.31
257.987	471.31
258.22	484.31
258.452	459.31
258.685	411.31
258.918	398.31
259.151	388.31
259.383	395.31
259.616	349.31
259.849	379.31
260.081	433.31
260.314	438.31
260.547	464.31
260.779	473.31
261.012	464.31
261.244	410.31
261.477	405.31
261.71	419.31
261.942	397.31
262.175	395.31
262.407	423.31
262.64	387.31
262.872	382.31
263.105	368.31
263.337	382.31
263.57	381.31
263.802	371.31
264.035	356.31
264.267	330.31
264.499	364.31
264.732	377.31
264.964	403.31
265.197	405.31
265.429	437.31
265.661	465.31
265.894	497.31
266.126	496.31
266.358	500.31
266.591	464.31
266.823	481.31
267.055	454.31
267.287	462.31
267.52	446.31
267.752	453.31
267.984	452.31
268.216	473.31
268.448	469.31
268.681	443.31
268.913	415.31
269.145	421.31
269.377	404.31
269.609	465.31
269.841	517.31
270.073	599.31
270.306	637.31
270.538	637.31
270.77	553.31
271.002	507.31
271.234	485.31
271.466	482.31
271.698	561.31
271.93	609.31
272.162	608.31
272.394	556.31
272.626	509.31
272.858	458.31
273.09	411.31
273.322	426.31
273.553	401.31
273.785	416.31
274.017	431.31
274.249	449.31
274.481	452.31
274.713	415.31
274.945	405.31
275.176	403.31
275.408	405.31
275.64	396.31
275.872	423.31
276.104	436.31
276.335	492.31
276.567	563.31
276.799	559.31
277.031	488.31
277.262	478.31
277.494	492.31
277.726	522.31
277.957	528.31
278.189	462.31
278.421	458.31
278.652	444.31
278.884	427.31
279.115	455.31
279.347	433.31
279.579	422.31
279.81	451.31
280.042	491.31
280.273	517.31
280.505	531.31
280.736	527.31
280.968	509.31
281.199	436.31
281.431	429.31
281.662	444.31
281.894	425.31
282.125	455.31
282.356	467.31
282.588	463.31
282.819	456.31
283.051	502.31
283.282	525.31
283.513	492.31
283.745	461.31
283.976	428.31
284.207	423.31
284.439	445.31
284.67	440.31
284.901	470.31
285.132	446.31
285.364	458.31
285.595	458.31
285.826	465.31
286.057	467.31
286.288	466.31
286.52	480.31
286.751	497.31
286.982	527.31
287.213	474.31
287.444	446.31
287.675	437.31
287.906	492.31
288.138	515.31
288.369	475.31
288.6	455.31
288.831	448.31
289.062	439.31
289.293	472.31
289.524	467.31
289.755	475.31
289.986	483.31
290.217	467.31
290.448	423.31
290.679	474.31
290.91	499.31
291.141	489.31
291.371	474.31
291.602	489.31
291.833	481.31
292.064	496.31
292.295	486.31
292.526	509.31
292.757	508.31
292.987	494.31
293.218	483.31
293.449	539.31
293.68	593.31
293.91	588.31
294.141	567.31
294.372	528.31
294.603	573.31
294.833	569.31
295.064	535.31
295.295	480.31
295.525	444.31
295.756	470.31
295.987	445.31
296.217	467.31
296.448	474.31
296.679	482.31
296.909	472.31
297.14	464.31
297.37	511.31
297.601	502.31
297.831	537.31
298.062	531.31
298.292	500.31
298.523	490.31
298.753	472.31
298.984	473.31
299.214	499.31
299.445	501.31
299.675	513.31
299.905	499.31
300.136	501.31
300.366	476.31
300.597	471.31
300.827	467.31
301.057	500.31
301.288	520.31
301.518	503.31
301.748	507.31
301.979	561.31
302.209	570.31
302.439	595.31
302.669	591.31
302.9	552.31
303.13	509.31
303.36	521.31
303.59	526.31
303.82	526.31
304.051	516.31
304.281	515.31
304.511	549.31
304.741	581.31
304.971	632.31
305.201	630.31
305.431	553.31
305.661	481.31
305.891	454.31
306.121	468.31
306.352	492.31
306.582	522.31
306.812	556.31
307.042	589.31
307.272	594.31
307.502	610.31
307.731	616.31
307.961	638.31
308.191	609.31
308.421	543.31
308.651	514.31
308.881	490.31
309.111	502.31
309.341	499.31
309.571	490.31
309.8	493.31
310.03	489.31
310.26	492.31
310.49	505.31
310.72	505.31
310.949	539.31
311.179	525.31
311.409	510.31
311.639	511.31
311.868	519.31
312.098	539.31
312.328	502.31
312.557	506.31
312.787	531.31
313.017	526.31
313.246	538.31
313.476	550.31
313.706	561.31
313.935	543.31
314.165	545.31
314.394	572.31
314.624	616.31
314.853	642.31
315.083	643.31
315.312	617.31
315.542	593.31
315.771	560.31
316.001	540.31
316.23	579.31
316.46	577.31
316.689	564.31
316.919	520.31
317.148	548.31
317.377	556.31
317.607	593.31
317.836	644.31
318.065	673.31
318.295	640.31
318.524	618.31
318.753	572.31
318.983	579.31
319.212	565.31
319.441	551.31
319.67	581.31
319.9	567.31
320.129	604.31
320.358	633.31
320.587	643.31
320.816	610.31
321.046	596.31
321.275	573.31
321.504	592.31
321.733	650.31
321.962	619.31
322.191	539.31
322.42	560.31
322.649	575.31
322.878	535.31
323.108	537.31
323.337	584.31
323.566	579.31
323.795	582.31
324.024	585.31
324.253	569.31
324.482	555.31
324.71	551.31
324.939	542.31
325.168	551.31
325.397	567.31
325.626	584.31
325.855	567.31
326.084	595.31
326.313	584.31
326.542	577.31
326.77	603.31
326.999	603.31
327.228	551.31
327.457	539.31
327.686	538.31
327.914	553.31
328.143	561.31
328.372	565.31
328.6	552.31
328.829	561.31
329.058	547.31
329.287	553.31
329.515	576.31
329.744	581.31
329.972	603.31
330.201	637.31
330.43	607.31
330.658	609.31
330.887	599.31
331.115	608.31
331.344	584.31
331.572	591.31
331.801	611.31
332.03	588.31
332.258	614.31
332.486	632.31
332.715	615.31
332.943	623.31
333.172	603.31
333.4	599.31
333.629	618.31
333.857	707.31
334.085	764.31
334.314	835.31
334.542	841.31
334.771	780.31
334.999	663.31
335.227	643.31
335.455	643.31
335.684	667.31
335.912	671.31
336.14	675.31
336.369	623.31
336.597	605.31
336.825	589.31
337.053	634.31
337.281	656.31
337.51	717.31
337.738	727.31
337.966	640.31
338.194	600.31
338.422	605.31
338.65	599.31
338.878	620.31
339.106	571.31
339.334	587.31
339.562	571.31
339.79	589.31
340.018	614.31
340.246	636.31
340.474	637.31
340.702	627.31
340.93	611.31
341.158	602.31
341.386	618.31
341.614	602.31
341.842	597.31
342.07	618.31
342.298	615.31
342.526	603.31
342.754	609.31
342.981	582.31
343.209	610.31
343.437	621.31
343.665	605.31
343.893	627.31
344.12	649.31
344.348	625.31
344.576	608.31
344.804	600.31
345.031	601.31
345.259	583.31
345.487	580.31
345.714	555.31
345.942	552.31
346.17	569.31
346.397	602.31
346.625	570.31
346.853	543.31
347.08	543.31
347.308	563.31
347.535	575.31
347.763	573.31
347.99	578.31
348.218	544.31
348.445	586.31
348.673	573.31
348.9	586.31
349.128	627.31
349.355	620.31
349.583	601.31
349.81	581.31
350.037	557.31
350.265	527.31
350.492	551.31
350.72	575.31
350.947	579.31
351.174	590.31
351.402	553.31
351.629	542.31
351.856	544.31
352.083	533.31
352.311	536.31
352.538	564.31
352.765	565.31
352.992	575.31
353.22	562.31
353.447	541.31
353.674	573.31
353.901	580.31
354.128	572.31
354.355	557.31
354.583	589.31
354.81	600.31
355.037	592.31
355.264	588.31
355.491	589.31
355.718	562.31
355.945	550.31
356.172	540.31
356.399	557.31
356.626	556.31
356.853	600.31
357.08	664.31
357.307	657.31
357.534	675.31
357.761	584.31
357.988	555.31
358.215	549.31
358.441	548.31
358.668	536.31
358.895	568.31
359.122	586.31
359.349	655.31
359.576	627.31
359.802	562.31
360.029	556.31
360.256	565.31
360.483	597.31
360.709	576.31
360.936	629.31
361.163	667.31
361.39	688.31
361.616	720.31
361.843	720.31
362.07	649.31
362.296	599.31
362.523	567.31
362.749	552.31
362.976	614.31
363.203	611.31
363.429	556.31
363.656	575.31
363.882	617.31
364.109	664.31
364.335	698.31
364.562	631.31
364.788	600.31
365.015	586.31
365.241	573.31
365.468	597.31
365.694	623.31
365.92	631.31
366.147	600.31
366.373	569.31
366.599	566.31
366.826	571.31
367.052	576.31
367.278	599.31
367.505	611.31
367.731	623.31
367.957	604.31
368.184	641.31
368.41	679.31
368.636	656.31
368.862	691.31
369.089	679.31
369.315	645.31
369.541	618.31
369.767	593.31
369.993	592.31
370.219	613.31
370.445	625.31
370.672	643.31
370.898	680.31
371.124	674.31
371.35	633.31
371.576	666.31
371.802	690.31
372.028	617.31
372.254	617.31
372.48	614.31
372.706	607.31
372.932	611.31
373.158	626.31
373.384	629.31
373.61	663.31
373.835	674.31
374.061	659.31
374.287	645.31
374.513	624.31
374.739	625.31
374.965	634.31
375.191	653.31
375.416	624.31
375.642	679.31
375.868	713.31
376.094	721.31
376.319	679.31
376.545	621.31
376.771	688.31
376.997	717.31
377.222	683.31
377.448	683.31
377.674	688.31
377.899	682.31
378.125	703.31
378.35	705.31
378.576	658.31
378.802	647.31
379.027	633.31
379.253	635.31
379.478	631.31
379.704	655.31
379.929	639.31
380.155	639.31
380.38	643.31
380.606	660.31
380.831	668.31
381.057	700.31
381.282	710.31
381.507	705.31
381.733	747.31
381.958	767.31
382.184	680.31
382.409	701.31
382.634	676.31
382.86	675.31
383.085	703.31
383.31	709.31
383.535	792.31
383.761	813.31
383.986	784.31
384.211	749.31
384.436	752.31
384.662	788.31
384.887	781.31
385.112	751.31
385.337	752.31
385.562	739.31
385.787	753.31
386.013	762.31
386.238	777.31
386.463	774.31
386.688	819.31
386.913	860.31
387.138	838.31
387.363	797.31
387.588	785.31
387.813	769.31
388.038	798.31
388.263	804.31
388.488	787.31
388.713	737.31
388.938	713.31
389.163	725.31
389.387	735.31
389.612	759.31
389.837	751.31
390.062	767.31
390.287	773.31
390.512	794.31
390.736	746.31
390.961	750.31
391.186	738.31
391.411	731.31
391.636	745.31
391.86	749.31
392.085	752.31
392.31	751.31
392.534	790.31
392.759	773.31
392.984	775.31
393.208	772.31
393.433	808.31
393.658	807.31
393.882	803.31
394.107	793.31
394.331	753.31
394.556	777.31
394.78	781.31
395.005	808.31
395.229	853.31
395.454	916.31
395.678	857.31
395.903	821.31
396.127	832.31
396.352	834.31
396.576	866.31
396.801	850.31
397.025	855.31
397.249	864.31
397.474	816.31
397.698	835.31
397.922	871.31
398.147	897.31
398.371	918.31
398.595	920.31
398.82	879.31
399.044	887.31
399.268	926.31
399.492	969.31
399.717	1003.31
399.941	1014.31
400.165	997.31
400.389	971.31
400.613	991.31
400.837	1135.31
401.062	1173.31
401.286	1007.31
401.51	996.31
401.734	975.31
401.958	950.31
402.182	897.31
402.406	891.31
402.63	891.31
402.854	900.31
403.078	898.31
403.302	909.31
403.526	929.31
403.75	938.31
403.974	955.31
404.198	964.31
404.422	996.31
404.645	1039.31
404.869	985.31
405.093	908.31
405.317	918.31
405.541	925.31
405.765	921.31
405.988	927.31
406.212	956.31
406.436	984.31
406.66	1003.31
406.883	1047.31
407.107	1167.31
407.331	1208.31
407.555	1287.31
407.778	1148.31
408.002	985.31
408.226	979.31
408.449	973.31
408.673	959.31
408.896	959.31
409.12	979.31
409.344	936.31
409.567	922.31
409.791	947.31
410.014	975.31
410.238	1036.31
410.461	1063.31
410.685	975.31
410.908	947.31
411.132	973.31
411.355	946.31
411.578	961.31
411.802	966.31
412.025	961.31
412.249	947.31
412.472	927.31
412.695	923.31
412.919	932.31
413.142	903.31
413.365	934.31
413.589	957.31
413.812	1009.31
414.035	997.31
414.258	951.31
414.482	936.31
414.705	937.31
414.928	928.31
415.151	925.31
415.374	928.31
415.597	920.31
415.821	939.31
416.044	952.31
416.267	925.31
416.49	909.31
416.713	919.31
416.936	973.31
417.159	992.31
417.382	953.31
417.605	932.31
417.828	976.31
418.051	958.31
418.274	953.31
418.497	953.31
418.72	926.31
418.943	969.31
419.166	966.31
419.389	1011.31
419.611	963.31
419.834	918.31
420.057	983.31
420.28	968.31
420.503	952.31
420.726	976.31
420.948	938.31
421.171	958.31
421.394	963.31
421.617	1000.31
421.839	1003.31
422.062	973.31
422.285	945.31
422.507	946.31
422.73	940.31
422.953	883.31
423.175	882.31
423.398	917.31
423.621	910.31
423.843	944.31
424.066	1012.31
424.288	1004.31
424.511	1043.31
424.733	1031.31
424.956	945.31
425.178	941.31
425.401	960.31
425.623	963.31
425.846	918.31
426.068	971.31
426.291	957.31
426.513	968.31
426.735	984.31
426.958	1055.31
427.18	1093.31
427.402	1027.31
427.625	1033.31
427.847	1000.31
428.069	934.31
428.292	931.31
428.514	889.31
428.736	931.31
428.958	917.31
429.181	964.31
429.403	1099.31
429.625	1251.31
429.847	1052.31
430.069	940.31
430.292	1068.31
430.514	1027.31
430.736	972.31
430.958	997.31
431.18	925.31
431.402	876.31
431.624	845.31
431.846	829.31
432.068	739.31
432.29	728.31
432.512	813.31
432.734	889.31
432.956	933.31
433.178	984.31
433.4	957.31
433.622	972.31
433.844	929.31
434.066	885.31
434.287	788.31
434.509	785.31
434.731	794.31
434.953	939.31
435.175	921.31
435.397	915.31
435.618	880.31
435.84	859.31
436.062	857.31
436.284	920.31
436.505	950.31
436.727	994.31
436.949	932.31
437.17	925.31
437.392	911.31
437.614	857.31
437.835	788.31
438.057	825.31
438.278	832.31
438.5	883.31
438.721	915.31
438.943	931.31
439.165	940.31
439.386	932.31
439.608	944.31
439.829	940.31
440.05	987.31
440.272	987.31
440.493	988.31
440.715	964.31
440.936	1009.31
441.158	1049.31
441.379	1058.31
441.6	1085.31
441.822	1038.31
442.043	1053.31
442.264	1020.31
442.486	957.31
442.707	963.31
442.928	986.31
443.149	995.31
443.371	1027.31
443.592	1046.31
443.813	1055.31
444.034	1032.31
444.255	1015.31
444.476	1033.31
444.698	1074.31
444.919	1051.31
445.14	1143.31
445.361	1093.31
445.582	1076.31
445.803	1048.31
446.024	1068.31
446.245	1095.31
446.466	1064.31
446.687	1067.31
446.908	1079.31
447.129	1024.31
447.35	1042.31
447.571	1010.31
447.792	993.31
448.013	936.31
448.234	960.31
448.455	1012.31
448.675	1043.31
448.896	945.31
449.117	897.31
449.338	903.31
449.559	930.31
449.779	962.31
450	1065.31
450.221	1065.31
450.442	1030.31
450.662	953.31
450.883	894.31
451.104	874.31
451.324	924.31
451.545	887.31
451.766	870.31
451.986	855.31
452.207	844.31
452.428	818.31
452.648	788.31
452.869	810.31
453.089	797.31
453.31	777.31
453.53	769.31
453.751	739.31
453.971	724.31
454.192	731.31
454.412	778.31
454.633	789.31
454.853	810.31
455.073	735.31
455.294	783.31
455.514	787.31
455.734	785.31
455.955	760.31
456.175	776.31
456.395	736.31
456.616	738.31
456.836	751.31
457.056	745.31
457.276	737.31
457.497	696.31
457.717	706.31
457.937	722.31
458.157	740.31
458.377	706.31
458.598	694.31
458.818	654.31
459.038	718.31
459.258	736.31
459.478	716.31
459.698	732.31
459.918	739.31
460.138	809.31
460.358	845.31
460.578	860.31
460.798	844.31
461.018	874.31
461.238	898.31
461.458	883.31
461.678	837.31
461.898	822.31
462.118	817.31
462.338	890.31
462.558	845.31
462.777	842.31
462.997	876.31
463.217	897.31
463.437	889.31
463.657	876.31
463.876	863.31
464.096	852.31
464.316	835.31
464.536	875.31
464.755	906.31
464.975	898.31
465.195	874.31
465.414	897.31
465.634	897.31
465.854	916.31
466.073	983.31
466.293	938.31
466.512	856.31
466.732	900.31
466.951	899.31
467.171	921.31
467.391	884.31
467.61	866.31
467.829	902.31
468.049	971.31
468.268	1067.31
468.488	997.31
468.707	912.31
468.927	959.31
469.146	918.31
469.365	922.31
469.585	957.31
469.804	909.31
470.023	929.31
470.243	963.31
470.462	957.31
470.681	932.31
470.901	915.31
471.12	925.31
471.339	936.31
471.558	926.31
471.777	916.31
471.997	927.31
472.216	866.31
472.435	789.31
472.654	785.31
472.873	785.31
473.092	854.31
473.311	824.31
473.53	822.31
473.749	832.31
473.968	849.31
474.187	867.31
474.406	880.31
474.625	901.31
474.844	894.31
475.063	890.31
475.282	881.31
475.501	831.31
475.72	839.31
475.939	914.31
476.158	897.31
476.377	885.31
476.596	858.31
476.814	824.31
477.033	796.31
477.252	851.31
477.471	897.31
477.69	903.31
477.908	957.31
478.127	986.31
478.346	1037.31
478.564	998.31
478.783	1001.31
479.002	1048.31
479.22	1025.31
479.439	1066.31
479.658	1074.31
479.876	961.31
480.095	923.31
480.313	897.31
480.532	896.31
480.751	856.31
480.969	836.31
481.188	794.31
481.406	803.31
481.624	786.31
481.843	780.31
482.061	851.31
482.28	852.31
482.498	906.31
482.717	889.31
482.935	909.31
483.153	991.31
483.372	1023.31
483.59	1021.31
483.808	986.31
484.027	960.31
484.245	986.31
484.463	1198.31
484.681	1313.31
484.9	1028.31
485.118	1004.31
485.336	964.31
485.554	915.31
485.772	899.31
485.99	888.31
486.209	919.31
486.427	895.31
486.645	959.31
486.863	1007.31
487.081	1051.31
487.299	1011.31
487.517	1027.31
487.735	1132.31
487.953	1221.31
488.171	1189.31
488.389	1141.31
488.607	1082.31
488.825	1148.31
489.043	1075.31
489.261	981.31
489.479	1049.31
489.696	1030.31
489.914	1085.31
490.132	1077.31
490.35	1085.31
490.568	1156.31
490.786	1188.31
491.003	1202.31
491.221	1254.31
491.439	1301.31
491.657	1351.31
491.874	1406.31
492.092	1457.31
492.31	1496.31
492.527	1459.31
492.745	1416.31
492.963	1338.31
493.18	1322.31
493.398	1375.31
493.615	1340.31
493.833	1291.31
494.05	1281.31
494.268	1249.31
494.485	1241.31
494.703	1268.31
494.92	1241.31
495.138	1236.31
495.355	1258.31
495.573	1281.31
495.79	1306.31
496.008	1308.31
496.225	1248.31
496.442	1248.31
496.66	1257.31
496.877	1235.31
497.094	1250.31
497.312	1242.31
497.529	1196.31
497.746	1201.31
497.963	1288.31
498.181	1342.31
498.398	1259.31
498.615	1209.31
498.832	1171.31
499.049	1175.31
499.267	1170.31
499.484	1281.31
499.701	1369.31
499.918	1371.31
500.135	1508.31
