Data from WStandard_LampEnergy8_LIBS07252019.E.O._I.C._HRD10591_15-59-22-930.txt Node
Date: Thu Jul 25 15:59:22 EDT 2019
User: cochatt
Spectrometer: HR+D1059
Trigger mode: 1
Integration Time (sec): 1.000000E-1
Scans to average: 1
Electric dark correction enabled: true
Nonlinearity correction enabled: false
Boxcar width: 0
XAxis mode: Wavelengths
Number of Pixels in Spectrum: 2048
>>>>>Begin Spectral Data<<<<<
223.165	-35.81
223.4	-35.81
223.635	-35.81
223.869	-27.81
224.104	-10.81
224.338	-0.81
224.573	-5.81
224.808	-7.81
225.042	0.19
225.277	-7.81
225.511	-12.81
225.746	3.19
225.98	4.19
226.215	6.19
226.449	10.19
226.683	16.19
226.918	23.19
227.152	46.19
227.387	31.19
227.621	30.19
227.856	51.19
228.09	45.19
228.324	54.19
228.559	61.19
228.793	96.19
229.027	200.19
229.262	203.19
229.496	200.19
229.73	223.19
229.964	255.19
230.199	257.19
230.433	258.19
230.667	290.19
230.901	262.19
231.136	256.19
231.37	266.19
231.604	243.19
231.838	267.19
232.072	274.19
232.306	248.19
232.541	260.19
232.775	306.19
233.009	327.19
233.243	307.19
233.477	289.19
233.711	300.19
233.945	295.19
234.179	302.19
234.413	327.19
234.647	334.19
234.881	311.19
235.115	296.19
235.349	291.19
235.583	312.19
235.817	299.19
236.051	289.19
236.285	285.19
236.519	313.19
236.753	333.19
236.987	338.19
237.221	344.19
237.455	399.19
237.689	372.19
237.922	345.19
238.156	350.19
238.39	343.19
238.624	368.19
238.858	387.19
239.091	396.19
239.325	420.19
239.559	467.19
239.793	471.19
240.027	499.19
240.26	488.19
240.494	385.19
240.728	360.19
240.961	375.19
241.195	387.19
241.429	412.19
241.662	395.19
241.896	372.19
242.13	370.19
242.363	426.19
242.597	435.19
242.83	433.19
243.064	449.19
243.298	470.19
243.531	457.19
243.765	441.19
243.998	448.19
244.232	393.19
244.465	405.19
244.699	420.19
244.932	458.19
245.166	471.19
245.399	471.19
245.633	437.19
245.866	454.19
246.099	464.19
246.333	494.19
246.566	488.19
246.8	533.19
247.033	563.19
247.266	511.19
247.5	520.19
247.733	514.19
247.966	556.19
248.2	592.19
248.433	585.19
248.666	630.19
248.899	657.19
249.133	725.19
249.366	788.19
249.599	699.19
249.832	600.19
250.066	622.19
250.299	637.19
250.532	582.19
250.765	547.19
250.998	553.19
251.231	585.19
251.465	602.19
251.698	569.19
251.931	563.19
252.164	587.19
252.397	632.19
252.63	595.19
252.863	549.19
253.096	525.19
253.329	567.19
253.562	576.19
253.795	586.19
254.028	587.19
254.261	548.19
254.494	549.19
254.727	556.19
254.96	576.19
255.193	630.19
255.426	723.19
255.659	789.19
255.892	771.19
256.124	641.19
256.357	661.19
256.59	703.19
256.823	691.19
257.056	708.19
257.289	810.19
257.521	887.19
257.754	791.19
257.987	761.19
258.22	841.19
258.452	765.19
258.685	669.19
258.918	659.19
259.151	660.19
259.383	636.19
259.616	577.19
259.849	597.19
260.081	683.19
260.314	735.19
260.547	815.19
260.779	785.19
261.012	755.19
261.244	703.19
261.477	666.19
261.71	691.19
261.942	703.19
262.175	674.19
262.407	711.19
262.64	650.19
262.872	611.19
263.105	607.19
263.337	635.19
263.57	636.19
263.802	642.19
264.035	599.19
264.267	579.19
264.499	558.19
264.732	604.19
264.964	640.19
265.197	659.19
265.429	690.19
265.661	782.19
265.894	862.19
266.126	831.19
266.358	783.19
266.591	825.19
266.823	851.19
267.055	795.19
267.287	763.19
267.52	767.19
267.752	739.19
267.984	739.19
268.216	753.19
268.448	800.19
268.681	787.19
268.913	699.19
269.145	690.19
269.377	695.19
269.609	749.19
269.841	842.19
270.073	993.19
270.306	1101.19
270.538	1085.19
270.77	934.19
271.002	807.19
271.234	793.19
271.466	816.19
271.698	895.19
271.93	1023.19
272.162	1032.19
272.394	929.19
272.626	845.19
272.858	787.19
273.09	694.19
273.322	707.19
273.553	679.19
273.785	693.19
274.017	703.19
274.249	772.19
274.481	732.19
274.713	697.19
274.945	654.19
275.176	701.19
275.408	689.19
275.64	674.19
275.872	679.19
276.104	717.19
276.335	815.19
276.567	912.19
276.799	914.19
277.031	812.19
277.262	807.19
277.494	803.19
277.726	887.19
277.957	859.19
278.189	783.19
278.421	732.19
278.652	721.19
278.884	725.19
279.115	731.19
279.347	743.19
279.579	730.19
279.81	751.19
280.042	805.19
280.273	880.19
280.505	890.19
280.736	865.19
280.968	820.19
281.199	744.19
281.431	709.19
281.662	730.19
281.894	717.19
282.125	727.19
282.356	734.19
282.588	774.19
282.819	759.19
283.051	830.19
283.282	857.19
283.513	820.19
283.745	757.19
283.976	731.19
284.207	702.19
284.439	735.19
284.67	753.19
284.901	751.19
285.132	801.19
285.364	755.19
285.595	780.19
285.826	769.19
286.057	753.19
286.288	780.19
286.52	804.19
286.751	838.19
286.982	857.19
287.213	781.19
287.444	728.19
287.675	728.19
287.906	796.19
288.138	824.19
288.369	796.19
288.6	776.19
288.831	748.19
289.062	752.19
289.293	763.19
289.524	785.19
289.755	779.19
289.986	801.19
290.217	730.19
290.448	721.19
290.679	747.19
290.91	793.19
291.141	796.19
291.371	811.19
291.602	800.19
291.833	811.19
292.064	817.19
292.295	819.19
292.526	865.19
292.757	834.19
292.987	843.19
293.218	794.19
293.449	864.19
293.68	946.19
293.91	1009.19
294.141	967.19
294.372	915.19
294.603	955.19
294.833	940.19
295.064	903.19
295.295	857.19
295.525	775.19
295.756	750.19
295.987	735.19
296.217	722.19
296.448	764.19
296.679	753.19
296.909	760.19
297.14	776.19
297.37	796.19
297.601	822.19
297.831	875.19
298.062	861.19
298.292	818.19
298.523	793.19
298.753	781.19
298.984	796.19
299.214	815.19
299.445	822.19
299.675	852.19
299.905	821.19
300.136	828.19
300.366	778.19
300.597	753.19
300.827	769.19
301.057	805.19
301.288	847.19
301.518	849.19
301.748	885.19
301.979	907.19
302.209	918.19
302.439	997.19
302.669	1027.19
302.9	923.19
303.13	851.19
303.36	850.19
303.59	885.19
303.82	868.19
304.051	867.19
304.281	834.19
304.511	870.19
304.741	949.19
304.971	1035.19
305.201	1037.19
305.431	940.19
305.661	780.19
305.891	787.19
306.121	746.19
306.352	796.19
306.582	845.19
306.812	901.19
307.042	937.19
307.272	914.19
307.502	973.19
307.731	1021.19
307.961	1090.19
308.191	1025.19
308.421	835.19
308.651	835.19
308.881	822.19
309.111	839.19
309.341	833.19
309.571	800.19
309.8	840.19
310.03	804.19
310.26	802.19
310.49	811.19
310.72	843.19
310.949	861.19
311.179	879.19
311.409	852.19
311.639	808.19
311.868	827.19
312.098	845.19
312.328	819.19
312.557	844.19
312.787	860.19
313.017	839.19
313.246	858.19
313.476	875.19
313.706	911.19
313.935	883.19
314.165	882.19
314.394	928.19
314.624	972.19
314.853	1025.19
315.083	1071.19
315.312	1055.19
315.542	977.19
315.771	915.19
316.001	925.19
316.23	949.19
316.46	924.19
316.689	891.19
316.919	851.19
317.148	845.19
317.377	851.19
317.607	946.19
317.836	1079.19
318.065	1057.19
318.295	1024.19
318.524	973.19
318.753	951.19
318.983	936.19
319.212	913.19
319.441	913.19
319.67	927.19
319.9	919.19
320.129	974.19
320.358	1002.19
320.587	1038.19
320.816	1014.19
321.046	994.19
321.275	943.19
321.504	994.19
321.733	1021.19
321.962	1012.19
322.191	911.19
322.42	930.19
322.649	912.19
322.878	908.19
323.108	940.19
323.337	959.19
323.566	950.19
323.795	967.19
324.024	961.19
324.253	914.19
324.482	937.19
324.71	893.19
324.939	873.19
325.168	927.19
325.397	945.19
325.626	939.19
325.855	936.19
326.084	930.19
326.313	914.19
326.542	959.19
326.77	947.19
326.999	947.19
327.228	905.19
327.457	883.19
327.686	870.19
327.914	895.19
328.143	951.19
328.372	938.19
328.6	922.19
328.829	915.19
329.058	918.19
329.287	883.19
329.515	930.19
329.744	939.19
329.972	1001.19
330.201	1028.19
330.43	1015.19
330.658	952.19
330.887	965.19
331.115	980.19
331.344	972.19
331.572	957.19
331.801	948.19
332.03	986.19
332.258	960.19
332.486	1017.19
332.715	1017.19
332.943	1000.19
333.172	991.19
333.4	996.19
333.629	1040.19
333.857	1111.19
334.085	1197.19
334.314	1364.19
334.542	1399.19
334.771	1262.19
334.999	1141.19
335.227	1076.19
335.455	1072.19
335.684	1072.19
335.912	1069.19
336.14	1096.19
336.369	1071.19
336.597	1007.19
336.825	973.19
337.053	1026.19
337.281	1101.19
337.51	1126.19
337.738	1165.19
337.966	1094.19
338.194	979.19
338.422	977.19
338.65	956.19
338.878	958.19
339.106	925.19
339.334	948.19
339.562	932.19
339.79	956.19
340.018	1010.19
340.246	1044.19
340.474	1044.19
340.702	984.19
340.93	1047.19
341.158	991.19
341.386	979.19
341.614	995.19
341.842	971.19
342.07	971.19
342.298	997.19
342.526	992.19
342.754	979.19
342.981	961.19
343.209	981.19
343.437	966.19
343.665	979.19
343.893	1016.19
344.12	1037.19
344.348	1033.19
344.576	996.19
344.804	955.19
345.031	972.19
345.259	966.19
345.487	924.19
345.714	913.19
345.942	905.19
346.17	937.19
346.397	944.19
346.625	949.19
346.853	896.19
347.08	859.19
347.308	907.19
347.535	923.19
347.763	917.19
347.99	920.19
348.218	873.19
348.445	865.19
348.673	927.19
348.9	949.19
349.128	992.19
349.355	986.19
349.583	971.19
349.81	947.19
350.037	855.19
350.265	863.19
350.492	869.19
350.72	880.19
350.947	945.19
351.174	963.19
351.402	886.19
351.629	871.19
351.856	865.19
352.083	852.19
352.311	889.19
352.538	899.19
352.765	923.19
352.992	948.19
353.22	908.19
353.447	901.19
353.674	919.19
353.901	895.19
354.128	897.19
354.355	922.19
354.583	935.19
354.81	978.19
355.037	940.19
355.264	918.19
355.491	919.19
355.718	906.19
355.945	899.19
356.172	898.19
356.399	879.19
356.626	901.19
356.853	927.19
357.08	1037.19
357.307	1118.19
357.534	1027.19
357.761	924.19
357.988	880.19
358.215	883.19
358.441	873.19
358.668	868.19
358.895	915.19
359.122	943.19
359.349	1049.19
359.576	1004.19
359.802	897.19
360.029	868.19
360.256	892.19
360.483	895.19
360.709	921.19
360.936	985.19
361.163	1006.19
361.39	1093.19
361.616	1154.19
361.843	1118.19
362.07	1057.19
362.296	931.19
362.523	890.19
362.749	895.19
362.976	930.19
363.203	981.19
363.429	924.19
363.656	913.19
363.882	959.19
364.109	1053.19
364.335	1107.19
364.562	995.19
364.788	990.19
365.015	918.19
365.241	905.19
365.468	935.19
365.694	981.19
365.92	1002.19
366.147	980.19
366.373	886.19
366.599	892.19
366.826	893.19
367.052	873.19
367.278	927.19
367.505	959.19
367.731	960.19
367.957	954.19
368.184	991.19
368.41	1048.19
368.636	1037.19
368.862	1021.19
369.089	1040.19
369.315	1021.19
369.541	987.19
369.767	949.19
369.993	925.19
370.219	894.19
370.445	957.19
370.672	1003.19
370.898	1038.19
371.124	1029.19
371.35	1000.19
371.576	1019.19
371.802	1031.19
372.028	986.19
372.254	947.19
372.48	934.19
372.706	922.19
372.932	907.19
373.158	944.19
373.384	984.19
373.61	1005.19
373.835	1020.19
374.061	975.19
374.287	988.19
374.513	989.19
374.739	1005.19
374.965	991.19
375.191	991.19
375.416	1035.19
375.642	1041.19
375.868	1057.19
376.094	1106.19
376.319	1029.19
376.545	996.19
376.771	1019.19
376.997	1083.19
377.222	1068.19
377.448	1013.19
377.674	1019.19
377.899	1042.19
378.125	1088.19
378.35	1066.19
378.576	987.19
378.802	951.19
379.027	954.19
379.253	961.19
379.478	974.19
379.704	970.19
379.929	984.19
380.155	990.19
380.38	989.19
380.606	986.19
380.831	1007.19
381.057	1058.19
381.282	1055.19
381.507	1050.19
381.733	1125.19
381.958	1156.19
382.184	1054.19
382.409	1041.19
382.634	1040.19
382.86	1058.19
383.085	1039.19
383.31	1098.19
383.535	1186.19
383.761	1204.19
383.986	1151.19
384.211	1110.19
384.436	1111.19
384.662	1184.19
384.887	1236.19
385.112	1153.19
385.337	1109.19
385.562	1101.19
385.787	1135.19
386.013	1171.19
386.238	1157.19
386.463	1171.19
386.688	1250.19
386.913	1283.19
387.138	1219.19
387.363	1159.19
387.588	1145.19
387.813	1148.19
388.038	1203.19
388.263	1226.19
388.488	1141.19
388.713	1069.19
388.938	1100.19
389.163	1126.19
389.387	1085.19
389.612	1114.19
389.837	1147.19
390.062	1141.19
390.287	1125.19
390.512	1129.19
390.736	1101.19
390.961	1093.19
391.186	1104.19
391.411	1097.19
391.636	1113.19
391.86	1116.19
392.085	1118.19
392.31	1124.19
392.534	1137.19
392.759	1141.19
392.984	1100.19
393.208	1156.19
393.433	1187.19
393.658	1188.19
393.882	1227.19
394.107	1182.19
394.331	1135.19
394.556	1127.19
394.78	1159.19
395.005	1181.19
395.229	1227.19
395.454	1312.19
395.678	1305.19
395.903	1227.19
396.127	1208.19
396.352	1203.19
396.576	1233.19
396.801	1265.19
397.025	1229.19
397.249	1240.19
397.474	1188.19
397.698	1212.19
397.922	1283.19
398.147	1335.19
398.371	1393.19
398.595	1331.19
398.82	1301.19
399.044	1309.19
399.268	1368.19
399.492	1423.19
399.717	1503.19
399.941	1486.19
400.165	1463.19
400.389	1407.19
400.613	1457.19
400.837	1655.19
401.062	1831.19
401.286	1540.19
401.51	1436.19
401.734	1460.19
401.958	1384.19
402.182	1312.19
402.406	1261.19
402.63	1292.19
402.854	1244.19
403.078	1260.19
403.302	1328.19
403.526	1343.19
403.75	1357.19
403.974	1365.19
404.198	1351.19
404.422	1400.19
404.645	1498.19
404.869	1421.19
405.093	1311.19
405.317	1301.19
405.541	1349.19
405.765	1352.19
405.988	1337.19
406.212	1335.19
406.436	1397.19
406.66	1482.19
406.883	1481.19
407.107	1673.19
407.331	1808.19
407.555	1880.19
407.778	1694.19
408.002	1497.19
408.226	1407.19
408.449	1397.19
408.673	1377.19
408.896	1377.19
409.12	1399.19
409.344	1361.19
409.567	1329.19
409.791	1349.19
410.014	1391.19
410.238	1467.19
410.461	1573.19
410.685	1389.19
410.908	1319.19
411.132	1366.19
411.355	1346.19
411.578	1343.19
411.802	1351.19
412.025	1368.19
412.249	1329.19
412.472	1296.19
412.695	1292.19
412.919	1297.19
413.142	1303.19
413.365	1329.19
413.589	1358.19
413.812	1420.19
414.035	1432.19
414.258	1355.19
414.482	1301.19
414.705	1319.19
414.928	1313.19
415.151	1299.19
415.374	1284.19
415.597	1330.19
415.821	1338.19
416.044	1341.19
416.267	1351.19
416.49	1268.19
416.713	1263.19
416.936	1312.19
417.159	1377.19
417.382	1370.19
417.605	1284.19
417.828	1343.19
418.051	1357.19
418.274	1296.19
418.497	1306.19
418.72	1282.19
418.943	1284.19
419.166	1301.19
419.389	1343.19
419.611	1289.19
419.834	1280.19
420.057	1294.19
420.28	1252.19
420.503	1308.19
420.726	1332.19
420.948	1330.19
421.171	1245.19
421.394	1281.19
421.617	1351.19
421.839	1330.19
422.062	1301.19
422.285	1273.19
422.507	1226.19
422.73	1231.19
422.953	1241.19
423.175	1221.19
423.398	1285.19
423.621	1285.19
423.843	1273.19
424.066	1346.19
424.288	1370.19
424.511	1411.19
424.733	1357.19
424.956	1248.19
425.178	1273.19
425.401	1218.19
425.623	1269.19
425.846	1252.19
426.068	1331.19
426.291	1350.19
426.513	1314.19
426.735	1315.19
426.958	1425.19
427.18	1501.19
427.402	1391.19
427.625	1421.19
427.847	1356.19
428.069	1273.19
428.292	1241.19
428.514	1236.19
428.736	1255.19
428.958	1230.19
429.181	1289.19
429.403	1496.19
429.625	1745.19
429.847	1482.19
430.069	1308.19
430.292	1427.19
430.514	1453.19
430.736	1341.19
430.958	1393.19
431.18	1305.19
431.402	1212.19
431.624	1191.19
431.846	1171.19
432.068	1143.19
432.29	1154.19
432.512	1221.19
432.734	1246.19
432.956	1283.19
433.178	1321.19
433.4	1339.19
433.622	1301.19
433.844	1235.19
434.066	1201.19
434.287	1203.19
434.509	1224.19
434.731	1257.19
434.953	1365.19
435.175	1333.19
435.397	1289.19
435.618	1277.19
435.84	1235.19
436.062	1252.19
436.284	1236.19
436.505	1280.19
436.727	1311.19
436.949	1279.19
437.17	1219.19
437.392	1238.19
437.614	1199.19
437.835	1171.19
438.057	1188.19
438.278	1244.19
438.5	1218.19
438.721	1227.19
438.943	1250.19
439.165	1208.19
439.386	1251.19
439.608	1223.19
439.829	1221.19
440.05	1260.19
440.272	1253.19
440.493	1212.19
440.715	1269.19
440.936	1357.19
441.158	1426.19
441.379	1402.19
441.6	1397.19
441.822	1360.19
442.043	1335.19
442.264	1322.19
442.486	1272.19
442.707	1241.19
442.928	1236.19
443.149	1298.19
443.371	1333.19
443.592	1401.19
443.813	1371.19
444.034	1345.19
444.255	1320.19
444.476	1386.19
444.698	1370.19
444.919	1388.19
445.14	1495.19
445.361	1449.19
445.582	1438.19
445.803	1387.19
446.024	1382.19
446.245	1409.19
446.466	1374.19
446.687	1322.19
446.908	1344.19
447.129	1331.19
447.35	1319.19
447.571	1263.19
447.792	1241.19
448.013	1237.19
448.234	1260.19
448.455	1323.19
448.675	1322.19
448.896	1192.19
449.117	1210.19
449.338	1226.19
449.559	1299.19
449.779	1335.19
450	1439.19
450.221	1455.19
450.442	1416.19
450.662	1304.19
450.883	1173.19
451.104	1185.19
451.324	1189.19
451.545	1203.19
451.766	1191.19
451.986	1133.19
452.207	1146.19
452.428	1091.19
452.648	1097.19
452.869	1113.19
453.089	1147.19
453.31	1131.19
453.53	1145.19
453.751	1101.19
453.971	1057.19
454.192	1107.19
454.412	1153.19
454.633	1107.19
454.853	1126.19
455.073	1064.19
455.294	1060.19
455.514	1051.19
455.734	1052.19
455.955	1073.19
456.175	1044.19
456.395	1073.19
456.616	1111.19
456.836	1081.19
457.056	1056.19
457.276	1066.19
457.497	1031.19
457.717	1000.19
457.937	1031.19
458.157	1073.19
458.377	1037.19
458.598	1035.19
458.818	1072.19
459.038	1089.19
459.258	1145.19
459.478	1162.19
459.698	1094.19
459.918	1121.19
460.138	1197.19
460.358	1261.19
460.578	1236.19
460.798	1289.19
461.018	1339.19
461.238	1291.19
461.458	1245.19
461.678	1250.19
461.898	1232.19
462.118	1196.19
462.338	1252.19
462.558	1250.19
462.777	1255.19
462.997	1316.19
463.217	1359.19
463.437	1338.19
463.657	1290.19
463.876	1273.19
464.096	1272.19
464.316	1254.19
464.536	1298.19
464.755	1289.19
464.975	1308.19
465.195	1274.19
465.414	1363.19
465.634	1284.19
465.854	1279.19
466.073	1391.19
466.293	1354.19
466.512	1198.19
466.732	1195.19
466.951	1204.19
467.171	1205.19
467.391	1189.19
467.61	1189.19
467.829	1213.19
468.049	1313.19
468.268	1409.19
468.488	1337.19
468.707	1236.19
468.927	1242.19
469.146	1200.19
469.365	1202.19
469.585	1210.19
469.804	1228.19
470.023	1229.19
470.243	1280.19
470.462	1235.19
470.681	1216.19
470.901	1228.19
471.12	1207.19
471.339	1229.19
471.558	1194.19
471.777	1217.19
471.997	1197.19
472.216	1173.19
472.435	1104.19
472.654	1113.19
472.873	1165.19
473.092	1222.19
473.311	1169.19
473.53	1126.19
473.749	1147.19
473.968	1145.19
474.187	1207.19
474.406	1220.19
474.625	1185.19
474.844	1192.19
475.063	1213.19
475.282	1204.19
475.501	1186.19
475.72	1195.19
475.939	1278.19
476.158	1275.19
476.377	1185.19
476.596	1190.19
476.814	1187.19
477.033	1209.19
477.252	1249.19
477.471	1315.19
477.69	1270.19
477.908	1252.19
478.127	1343.19
478.346	1426.19
478.564	1419.19
478.783	1398.19
479.002	1432.19
479.22	1422.19
479.439	1483.19
479.658	1543.19
479.876	1474.19
480.095	1397.19
480.313	1344.19
480.532	1332.19
480.751	1303.19
480.969	1288.19
481.188	1288.19
481.406	1235.19
481.624	1209.19
481.843	1255.19
482.061	1252.19
482.28	1293.19
482.498	1345.19
482.717	1306.19
482.935	1311.19
483.153	1386.19
483.372	1387.19
483.59	1366.19
483.808	1364.19
484.027	1376.19
484.245	1425.19
484.463	1760.19
484.681	1886.19
484.9	1456.19
485.118	1378.19
485.336	1308.19
485.554	1370.19
485.772	1389.19
485.99	1377.19
486.209	1400.19
486.427	1385.19
486.645	1405.19
486.863	1395.19
487.081	1431.19
487.299	1464.19
487.517	1430.19
487.735	1451.19
487.953	1483.19
488.171	1484.19
488.389	1457.19
488.607	1440.19
488.825	1639.19
489.043	1549.19
489.261	1371.19
489.479	1458.19
489.696	1445.19
489.914	1419.19
490.132	1432.19
490.35	1435.19
490.568	1521.19
490.786	1461.19
491.003	1451.19
491.221	1511.19
491.439	1604.19
491.657	1608.19
491.874	1614.19
492.092	1660.19
492.31	1693.19
492.527	1643.19
492.745	1598.19
492.963	1589.19
493.18	1653.19
493.398	1694.19
493.615	1687.19
493.833	1587.19
