Data from WStandard_LampEnergy8_LIBS07252019.E.O._I.C._HRD10591_15-58-44-930.txt Node
Date: Thu Jul 25 15:58:44 EDT 2019
User: cochatt
Spectrometer: HR+D1059
Trigger mode: 1
Integration Time (sec): 1.000000E-1
Scans to average: 1
Electric dark correction enabled: true
Nonlinearity correction enabled: false
Boxcar width: 0
XAxis mode: Wavelengths
Number of Pixels in Spectrum: 2048
>>>>>Begin Spectral Data<<<<<
223.165	-5.19
223.4	-5.19
223.635	-5.19
223.869	-27.19
224.104	-9.19
224.338	-10.19
224.573	-22.19
224.808	-23.19
225.042	-2.19
225.277	-9.19
225.511	0.81
225.746	0.81
225.98	2.81
226.215	11.81
226.449	4.81
226.683	20.81
226.918	28.81
227.152	37.81
227.387	37.81
227.621	34.81
227.856	40.81
228.09	45.81
228.324	52.81
228.559	62.81
228.793	98.81
229.027	203.81
229.262	207.81
229.496	219.81
229.73	232.81
229.964	224.81
230.199	265.81
230.433	261.81
230.667	275.81
230.901	276.81
231.136	274.81
231.37	266.81
231.604	295.81
231.838	276.81
232.072	290.81
232.306	268.81
232.541	268.81
232.775	310.81
233.009	342.81
233.243	301.81
233.477	301.81
233.711	328.81
233.945	327.81
234.179	320.81
234.413	335.81
234.647	353.81
234.881	315.81
235.115	297.81
235.349	296.81
235.583	314.81
235.817	334.81
236.051	300.81
236.285	309.81
236.519	336.81
236.753	361.81
236.987	364.81
237.221	372.81
237.455	386.81
237.689	396.81
237.922	366.81
238.156	365.81
238.39	372.81
238.624	389.81
238.858	403.81
239.091	397.81
239.325	423.81
239.559	490.81
239.793	485.81
240.027	523.81
240.26	520.81
240.494	417.81
240.728	370.81
240.961	402.81
241.195	389.81
241.429	408.81
241.662	424.81
241.896	383.81
242.13	424.81
242.363	455.81
242.597	473.81
242.83	465.81
243.064	455.81
243.298	497.81
243.531	490.81
243.765	485.81
243.998	485.81
244.232	412.81
244.465	432.81
244.699	436.81
244.932	503.81
245.166	522.81
245.399	497.81
245.633	454.81
245.866	463.81
246.099	472.81
246.333	513.81
246.566	502.81
246.8	539.81
247.033	603.81
247.266	571.81
247.5	527.81
247.733	538.81
247.966	588.81
248.2	625.81
248.433	620.81
248.666	634.81
248.899	690.81
249.133	770.81
249.366	817.81
249.599	717.81
249.832	617.81
250.066	662.81
250.299	632.81
250.532	606.81
250.765	551.81
250.998	592.81
251.231	619.81
251.465	643.81
251.698	617.81
251.931	590.81
252.164	628.81
252.397	642.81
252.63	617.81
252.863	557.81
253.096	592.81
253.329	590.81
253.562	609.81
253.795	631.81
254.028	631.81
254.261	592.81
254.494	597.81
254.727	583.81
254.96	595.81
255.193	660.81
255.426	717.81
255.659	798.81
255.892	786.81
256.124	670.81
256.357	673.81
256.59	708.81
256.823	705.81
257.056	741.81
257.289	856.81
257.521	910.81
257.754	848.81
257.987	787.81
258.22	864.81
258.452	813.81
258.685	698.81
258.918	700.81
259.151	682.81
259.383	668.81
259.616	593.81
259.849	636.81
260.081	738.81
260.314	768.81
260.547	828.81
260.779	859.81
261.012	810.81
261.244	713.81
261.477	688.81
261.71	689.81
261.942	708.81
262.175	706.81
262.407	718.81
262.64	707.81
262.872	640.81
263.105	610.81
263.337	636.81
263.57	650.81
263.802	636.81
264.035	591.81
264.267	563.81
264.499	587.81
264.732	625.81
264.964	667.81
265.197	675.81
265.429	721.81
265.661	793.81
265.894	849.81
266.126	855.81
266.358	782.81
266.591	823.81
266.823	884.81
267.055	800.81
267.287	781.81
267.52	761.81
267.752	781.81
267.984	799.81
268.216	834.81
268.448	839.81
268.681	801.81
268.913	748.81
269.145	732.81
269.377	712.81
269.609	786.81
269.841	903.81
270.073	1012.81
270.306	1125.81
270.538	1141.81
270.77	987.81
271.002	858.81
271.234	824.81
271.466	846.81
271.698	942.81
271.93	1090.81
272.162	1081.81
272.394	961.81
272.626	913.81
272.858	821.81
273.09	742.81
273.322	726.81
273.553	696.81
273.785	695.81
274.017	742.81
274.249	798.81
274.481	784.81
274.713	744.81
274.945	712.81
275.176	717.81
275.408	717.81
275.64	692.81
275.872	696.81
276.104	761.81
276.335	839.81
276.567	936.81
276.799	937.81
277.031	824.81
277.262	816.81
277.494	877.81
277.726	924.81
277.957	883.81
278.189	825.81
278.421	792.81
278.652	751.81
278.884	736.81
279.115	736.81
279.347	763.81
279.579	772.81
279.81	758.81
280.042	829.81
280.273	908.81
280.505	908.81
280.736	897.81
280.968	853.81
281.199	766.81
281.431	748.81
281.662	728.81
281.894	748.81
282.125	749.81
282.356	806.81
282.588	794.81
282.819	791.81
283.051	851.81
283.282	896.81
283.513	883.81
283.745	776.81
283.976	744.81
284.207	737.81
284.439	769.81
284.67	752.81
284.901	798.81
285.132	810.81
285.364	795.81
285.595	789.81
285.826	754.81
286.057	781.81
286.288	755.81
286.52	829.81
286.751	896.81
286.982	851.81
287.213	800.81
287.444	737.81
287.675	730.81
287.906	802.81
288.138	848.81
288.369	803.81
288.6	782.81
288.831	733.81
289.062	776.81
289.293	788.81
289.524	811.81
289.755	804.81
289.986	822.81
290.217	770.81
290.448	779.81
290.679	792.81
290.91	801.81
291.141	818.81
291.371	840.81
291.602	843.81
291.833	833.81
292.064	872.81
292.295	867.81
292.526	870.81
292.757	874.81
292.987	846.81
293.218	846.81
293.449	874.81
293.68	1003.81
293.91	1044.81
294.141	941.81
294.372	923.81
294.603	989.81
294.833	1004.81
295.064	941.81
295.295	853.81
295.525	833.81
295.756	790.81
295.987	737.81
296.217	783.81
296.448	781.81
296.679	794.81
296.909	800.81
297.14	813.81
297.37	790.81
297.601	845.81
297.831	906.81
298.062	890.81
298.292	806.81
298.523	797.81
298.753	813.81
298.984	804.81
299.214	827.81
299.445	823.81
299.675	872.81
299.905	858.81
300.136	834.81
300.366	795.81
300.597	768.81
300.827	777.81
301.057	813.81
301.288	857.81
301.518	853.81
301.748	893.81
301.979	928.81
302.209	947.81
302.439	1021.81
302.669	1036.81
302.9	985.81
303.13	877.81
303.36	872.81
303.59	881.81
303.82	875.81
304.051	846.81
304.281	867.81
304.511	908.81
304.741	976.81
304.971	1060.81
305.201	1092.81
305.431	973.81
305.661	854.81
305.891	780.81
306.121	768.81
306.352	817.81
306.582	877.81
306.812	921.81
307.042	984.81
307.272	994.81
307.502	1014.81
307.731	1086.81
307.961	1102.81
308.191	1003.81
308.421	892.81
308.651	876.81
308.881	853.81
309.111	846.81
309.341	840.81
309.571	852.81
309.8	825.81
310.03	842.81
310.26	813.81
310.49	812.81
310.72	855.81
310.949	904.81
311.179	894.81
311.409	887.81
311.639	884.81
311.868	854.81
312.098	891.81
312.328	858.81
312.557	855.81
312.787	882.81
313.017	882.81
313.246	887.81
313.476	873.81
313.706	916.81
313.935	916.81
314.165	904.81
314.394	963.81
314.624	1016.81
314.853	1079.81
315.083	1085.81
315.312	1077.81
315.542	997.81
315.771	908.81
316.001	936.81
316.23	971.81
316.46	955.81
316.689	931.81
316.919	892.81
317.148	881.81
317.377	916.81
317.607	973.81
317.836	1076.81
318.065	1098.81
318.295	1054.81
318.524	1017.81
318.753	948.81
318.983	974.81
319.212	945.81
319.441	919.81
319.67	913.81
319.9	964.81
320.129	1011.81
320.358	1060.81
320.587	1068.81
320.816	1004.81
321.046	1045.81
321.275	965.81
321.504	977.81
321.733	1086.81
321.962	1042.81
322.191	951.81
322.42	955.81
322.649	960.81
322.878	948.81
323.108	925.81
323.337	985.81
323.566	973.81
323.795	974.81
324.024	956.81
324.253	973.81
324.482	953.81
324.71	930.81
324.939	891.81
325.168	942.81
325.397	968.81
325.626	983.81
325.855	978.81
326.084	955.81
326.313	934.81
326.542	965.81
326.77	993.81
326.999	976.81
327.228	951.81
327.457	873.81
327.686	889.81
327.914	925.81
328.143	930.81
328.372	951.81
328.6	948.81
328.829	952.81
329.058	907.81
329.287	946.81
329.515	965.81
329.744	965.81
329.972	1045.81
330.201	1068.81
330.43	1050.81
330.658	977.81
330.887	986.81
331.115	988.81
331.344	989.81
331.572	987.81
331.801	980.81
332.03	1010.81
332.258	1013.81
332.486	1010.81
332.715	1035.81
332.943	1011.81
333.172	979.81
333.4	989.81
333.629	1045.81
333.857	1127.81
334.085	1229.81
334.314	1384.81
334.542	1450.81
334.771	1318.81
334.999	1188.81
335.227	1098.81
335.455	1076.81
335.684	1091.81
335.912	1097.81
336.14	1134.81
336.369	1081.81
336.597	1008.81
336.825	1014.81
337.053	1065.81
337.281	1115.81
337.51	1161.81
337.738	1207.81
337.966	1141.81
338.194	1059.81
338.422	994.81
338.65	1004.81
338.878	974.81
339.106	968.81
339.334	942.81
339.562	920.81
339.79	1013.81
340.018	1045.81
340.246	1081.81
340.474	1049.81
340.702	1047.81
340.93	1044.81
341.158	1035.81
341.386	1020.81
341.614	997.81
341.842	984.81
342.07	1000.81
342.298	1029.81
342.526	987.81
342.754	1010.81
342.981	971.81
343.209	1010.81
343.437	1016.81
343.665	1015.81
343.893	1039.81
344.12	1082.81
344.348	1044.81
344.576	1045.81
344.804	999.81
345.031	995.81
345.259	1012.81
345.487	966.81
345.714	939.81
345.942	917.81
346.17	914.81
346.397	952.81
346.625	946.81
346.853	906.81
347.08	893.81
347.308	897.81
347.535	922.81
347.763	941.81
347.99	939.81
348.218	893.81
348.445	909.81
348.673	921.81
348.9	994.81
349.128	997.81
349.355	1049.81
349.583	981.81
349.81	928.81
350.037	869.81
350.265	876.81
350.492	901.81
350.72	920.81
350.947	959.81
351.174	958.81
351.402	908.81
351.629	905.81
351.856	898.81
352.083	863.81
352.311	882.81
352.538	907.81
352.765	978.81
352.992	936.81
353.22	939.81
353.447	910.81
353.674	923.81
353.901	936.81
354.128	915.81
354.355	907.81
354.583	968.81
354.81	980.81
355.037	981.81
355.264	953.81
355.491	956.81
355.718	945.81
355.945	950.81
356.172	906.81
356.399	858.81
356.626	918.81
356.853	970.81
357.08	1048.81
357.307	1151.81
357.534	1111.81
357.761	955.81
357.988	909.81
358.215	904.81
358.441	896.81
358.668	887.81
358.895	900.81
359.122	950.81
359.349	1052.81
359.576	1024.81
359.802	923.81
360.029	898.81
360.256	920.81
360.483	925.81
360.709	974.81
360.936	1023.81
361.163	1043.81
361.39	1128.81
361.616	1201.81
361.843	1144.81
362.07	1071.81
362.296	950.81
362.523	910.81
362.749	932.81
362.976	953.81
363.203	991.81
363.429	896.81
363.656	907.81
363.882	964.81
364.109	1065.81
364.335	1107.81
364.562	1016.81
364.788	982.81
365.015	965.81
365.241	920.81
365.468	944.81
365.694	985.81
365.92	1029.81
366.147	960.81
366.373	928.81
366.599	904.81
366.826	904.81
367.052	924.81
367.278	926.81
367.505	988.81
367.731	997.81
367.957	967.81
368.184	1003.81
368.41	1085.81
368.636	1088.81
368.862	1066.81
369.089	1076.81
369.315	1043.81
369.541	967.81
369.767	973.81
369.993	931.81
370.219	944.81
370.445	993.81
370.672	1063.81
370.898	1058.81
371.124	1060.81
371.35	1020.81
371.576	1039.81
371.802	1100.81
372.028	1031.81
372.254	974.81
372.48	955.81
372.706	983.81
372.932	955.81
373.158	994.81
373.384	984.81
373.61	1003.81
373.835	1052.81
374.061	1015.81
374.287	1003.81
374.513	988.81
374.739	1003.81
374.965	1002.81
375.191	1033.81
375.416	1046.81
375.642	1056.81
375.868	1128.81
376.094	1146.81
376.319	1074.81
376.545	1013.81
376.771	1035.81
376.997	1108.81
377.222	1072.81
377.448	1066.81
377.674	1055.81
377.899	1055.81
378.125	1108.81
378.35	1097.81
378.576	1012.81
378.802	956.81
379.027	972.81
379.253	1017.81
379.478	990.81
379.704	980.81
379.929	994.81
380.155	992.81
380.38	1036.81
380.606	1008.81
380.831	1039.81
381.057	1076.81
381.282	1093.81
381.507	1059.81
381.733	1148.81
381.958	1165.81
382.184	1049.81
382.409	1042.81
382.634	1033.81
382.86	1074.81
383.085	1058.81
383.31	1125.81
383.535	1204.81
383.761	1251.81
383.986	1205.81
384.211	1145.81
384.436	1122.81
384.662	1185.81
384.887	1222.81
385.112	1172.81
385.337	1152.81
385.562	1136.81
385.787	1127.81
386.013	1159.81
386.238	1157.81
386.463	1210.81
386.688	1268.81
386.913	1346.81
387.138	1283.81
387.363	1200.81
387.588	1170.81
387.813	1177.81
388.038	1195.81
388.263	1218.81
388.488	1192.81
388.713	1076.81
388.938	1104.81
389.163	1106.81
389.387	1135.81
389.612	1133.81
389.837	1172.81
390.062	1165.81
390.287	1149.81
390.512	1161.81
390.736	1144.81
390.961	1092.81
391.186	1073.81
391.411	1109.81
391.636	1133.81
391.86	1157.81
392.085	1128.81
392.31	1142.81
392.534	1136.81
392.759	1163.81
392.984	1141.81
393.208	1171.81
393.433	1179.81
393.658	1243.81
393.882	1236.81
394.107	1165.81
394.331	1156.81
394.556	1124.81
394.78	1145.81
395.005	1223.81
395.229	1236.81
395.454	1331.81
395.678	1309.81
395.903	1254.81
396.127	1206.81
396.352	1234.81
396.576	1269.81
396.801	1256.81
397.025	1261.81
397.249	1259.81
397.474	1222.81
397.698	1220.81
397.922	1302.81
398.147	1346.81
398.371	1365.81
398.595	1375.81
398.82	1315.81
399.044	1352.81
399.268	1376.81
399.492	1461.81
399.717	1474.81
399.941	1512.81
400.165	1506.81
400.389	1462.81
400.613	1470.81
400.837	1683.81
401.062	1855.81
401.286	1539.81
401.51	1462.81
401.734	1502.81
401.958	1425.81
402.182	1318.81
402.406	1303.81
402.63	1313.81
402.854	1282.81
403.078	1329.81
403.302	1313.81
403.526	1340.81
403.75	1373.81
403.974	1421.81
404.198	1384.81
404.422	1410.81
404.645	1491.81
404.869	1465.81
405.093	1333.81
405.317	1334.81
405.541	1370.81
405.765	1362.81
405.988	1389.81
406.212	1346.81
406.436	1419.81
406.66	1460.81
406.883	1518.81
407.107	1652.81
407.331	1830.81
407.555	1901.81
407.778	1744.81
408.002	1435.81
408.226	1437.81
408.449	1445.81
408.673	1380.81
408.896	1397.81
409.12	1378.81
409.344	1404.81
409.567	1362.81
409.791	1380.81
410.014	1416.81
410.238	1468.81
410.461	1544.81
410.685	1382.81
410.908	1346.81
411.132	1360.81
411.355	1371.81
411.578	1322.81
411.802	1370.81
412.025	1401.81
412.249	1316.81
412.472	1314.81
412.695	1320.81
412.919	1339.81
413.142	1325.81
413.365	1344.81
413.589	1380.81
413.812	1412.81
414.035	1460.81
414.258	1348.81
414.482	1329.81
414.705	1310.81
414.928	1308.81
415.151	1288.81
415.374	1340.81
415.597	1366.81
415.821	1385.81
416.044	1354.81
416.267	1335.81
416.49	1307.81
416.713	1323.81
416.936	1380.81
417.159	1402.81
417.382	1401.81
417.605	1322.81
417.828	1356.81
418.051	1363.81
418.274	1323.81
418.497	1289.81
418.72	1277.81
418.943	1310.81
419.166	1354.81
419.389	1359.81
419.611	1342.81
419.834	1321.81
420.057	1338.81
420.28	1289.81
420.503	1284.81
420.726	1330.81
420.948	1312.81
421.171	1310.81
421.394	1316.81
421.617	1331.81
421.839	1355.81
422.062	1358.81
422.285	1309.81
422.507	1281.81
422.73	1277.81
422.953	1204.81
423.175	1220.81
423.398	1270.81
423.621	1300.81
423.843	1274.81
424.066	1361.81
424.288	1376.81
424.511	1407.81
424.733	1373.81
424.956	1271.81
425.178	1266.81
425.401	1284.81
425.623	1257.81
425.846	1282.81
426.068	1344.81
426.291	1378.81
426.513	1318.81
426.735	1325.81
426.958	1440.81
427.18	1494.81
427.402	1373.81
427.625	1428.81
427.847	1387.81
428.069	1272.81
428.292	1268.81
428.514	1243.81
428.736	1240.81
428.958	1244.81
429.181	1281.81
429.403	1488.81
429.625	1796.81
429.847	1528.81
430.069	1308.81
430.292	1481.81
430.514	1466.81
430.736	1372.81
430.958	1408.81
431.18	1306.81
431.402	1260.81
431.624	1236.81
431.846	1190.81
432.068	1123.81
432.29	1148.81
432.512	1204.81
432.734	1274.81
432.956	1296.81
433.178	1341.81
433.4	1364.81
433.622	1344.81
433.844	1252.81
434.066	1184.81
434.287	1187.81
434.509	1195.81
434.731	1284.81
434.953	1358.81
435.175	1346.81
435.397	1270.81
435.618	1288.81
435.84	1275.81
436.062	1249.81
436.284	1302.81
436.505	1306.81
436.727	1333.81
436.949	1319.81
437.17	1258.81
437.392	1243.81
437.614	1188.81
437.835	1194.81
438.057	1236.81
438.278	1269.81
438.5	1239.81
438.721	1254.81
438.943	1275.81
439.165	1251.81
439.386	1256.81
439.608	1264.81
439.829	1262.81
440.05	1261.81
440.272	1265.81
440.493	1229.81
440.715	1273.81
440.936	1376.81
441.158	1453.81
441.379	1386.81
441.6	1362.81
441.822	1384.81
442.043	1360.81
442.264	1323.81
442.486	1283.81
442.707	1262.81
442.928	1260.81
443.149	1312.81
443.371	1355.81
443.592	1397.81
443.813	1377.81
444.034	1394.81
444.255	1394.81
444.476	1382.81
444.698	1436.81
444.919	1424.81
445.14	1514.81
445.361	1494.81
445.582	1484.81
445.803	1428.81
446.024	1393.81
446.245	1453.81
446.466	1400.81
446.687	1344.81
446.908	1344.81
447.129	1323.81
447.35	1335.81
447.571	1347.81
447.792	1284.81
448.013	1238.81
448.234	1281.81
448.455	1304.81
448.675	1332.81
448.896	1204.81
449.117	1189.81
449.338	1211.81
449.559	1290.81
449.779	1357.81
450	1438.81
450.221	1544.81
450.442	1475.81
450.662	1292.81
450.883	1197.81
451.104	1189.81
451.324	1230.81
451.545	1237.81
451.766	1197.81
451.986	1180.81
452.207	1155.81
452.428	1100.81
452.648	1122.81
452.869	1151.81
453.089	1167.81
453.31	1167.81
453.53	1161.81
453.751	1133.81
453.971	1040.81
454.192	1109.81
454.412	1163.81
454.633	1147.81
454.853	1095.81
455.073	1068.81
455.294	1070.81
455.514	1104.81
455.734	1072.81
455.955	1112.81
456.175	1088.81
456.395	1080.81
456.616	1113.81
456.836	1129.81
457.056	1081.81
457.276	1103.81
457.497	1072.81
457.717	1054.81
457.937	1038.81
458.157	1068.81
458.377	1065.81
458.598	1082.81
458.818	1077.81
459.038	1133.81
459.258	1197.81
459.478	1184.81
459.698	1108.81
459.918	1199.81
460.138	1266.81
460.358	1289.81
460.578	1291.81
460.798	1335.81
461.018	1346.81
461.238	1309.81
461.458	1270.81
461.678	1280.81
461.898	1244.81
462.118	1219.81
462.338	1303.81
462.558	1286.81
462.777	1259.81
462.997	1300.81
463.217	1378.81
463.437	1358.81
463.657	1266.81
463.876	1281.81
464.096	1265.81
464.316	1261.81
464.536	1286.81
464.755	1302.81
464.975	1357.81
465.195	1287.81
465.414	1355.81
465.634	1325.81
465.854	1299.81
466.073	1422.81
466.293	1357.81
466.512	1192.81
466.732	1262.81
466.951	1273.81
467.171	1266.81
467.391	1214.81
467.61	1195.81
467.829	1249.81
468.049	1361.81
468.268	1458.81
468.488	1363.81
468.707	1244.81
468.927	1258.81
469.146	1224.81
469.365	1223.81
469.585	1241.81
469.804	1228.81
470.023	1254.81
470.243	1251.81
470.462	1241.81
470.681	1221.81
470.901	1228.81
471.12	1246.81
471.339	1238.81
471.558	1216.81
471.777	1184.81
471.997	1209.81
472.216	1175.81
472.435	1121.81
472.654	1132.81
472.873	1168.81
473.092	1254.81
473.311	1204.81
473.53	1134.81
473.749	1132.81
473.968	1148.81
474.187	1241.81
474.406	1242.81
474.625	1219.81
474.844	1218.81
475.063	1222.81
475.282	1214.81
475.501	1223.81
475.72	1232.81
475.939	1304.81
476.158	1264.81
476.377	1226.81
476.596	1226.81
476.814	1255.81
477.033	1204.81
477.252	1272.81
477.471	1309.81
477.69	1300.81
477.908	1296.81
478.127	1372.81
478.346	1450.81
478.564	1454.81
478.783	1421.81
479.002	1490.81
479.22	1460.81
479.439	1467.81
479.658	1603.81
479.876	1556.81
480.095	1394.81
480.313	1338.81
480.532	1284.81
480.751	1321.81
480.969	1336.81
481.188	1291.81
481.406	1282.81
481.624	1246.81
481.843	1290.81
482.061	1273.81
482.28	1343.81
482.498	1367.81
482.717	1335.81
482.935	1312.81
483.153	1373.81
483.372	1385.81
483.59	1373.81
483.808	1356.81
484.027	1380.81
484.245	1456.81
484.463	1779.81
484.681	1915.81
484.9	1500.81
485.118	1394.81
485.336	1374.81
485.554	1398.81
485.772	1428.81
485.99	1402.81
486.209	1418.81
486.427	1382.81
486.645	1408.81
486.863	1439.81
487.081	1492.81
487.299	1484.81
487.517	1451.81
487.735	1467.81
487.953	1524.81
488.171	1505.81
488.389	1471.81
488.607	1492.81
488.825	1632.81
489.043	1555.81
489.261	1404.81
489.479	1507.81
489.696	1536.81
489.914	1498.81
490.132	1477.81
490.35	1484.81
490.568	1555.81
490.786	1525.81
491.003	1452.81
491.221	1557.81
491.439	1596.81
491.657	1579.81
491.874	1628.81
492.092	1700.81
492.31	1758.81
492.527	1682.81
492.745	1636.81
492.963	1586.81
493.18	1598.81
493.398	1706.81
