Data from WStandard_LampEnergy10_LIBS07252019.E.O._I.C._HRD10591_15-54-17-928.txt Node
Date: Thu Jul 25 15:54:17 EDT 2019
User: cochatt
Spectrometer: HR+D1059
Trigger mode: 1
Integration Time (sec): 1.000000E-1
Scans to average: 1
Electric dark correction enabled: true
Nonlinearity correction enabled: false
Boxcar width: 0
XAxis mode: Wavelengths
Number of Pixels in Spectrum: 2048
>>>>>Begin Spectral Data<<<<<
223.165	-20.81
223.4	-20.81
223.635	-20.81
223.869	-21.81
224.104	-25.81
224.338	-19.81
224.573	-7.81
224.808	-10.81
225.042	-15.81
225.277	7.19
225.511	1.19
225.746	-6.81
225.98	7.19
226.215	12.19
226.449	12.19
226.683	26.19
226.918	32.19
227.152	31.19
227.387	20.19
227.621	30.19
227.856	51.19
228.09	39.19
228.324	44.19
228.559	55.19
228.793	87.19
229.027	137.19
229.262	149.19
229.496	153.19
229.73	155.19
229.964	157.19
230.199	168.19
230.433	171.19
230.667	191.19
230.901	192.19
231.136	177.19
231.37	152.19
231.604	164.19
231.838	170.19
232.072	197.19
232.306	160.19
232.541	180.19
232.775	209.19
233.009	200.19
233.243	191.19
233.477	194.19
233.711	196.19
233.945	195.19
234.179	188.19
234.413	195.19
234.647	227.19
234.881	218.19
235.115	189.19
235.349	211.19
235.583	189.19
235.817	183.19
236.051	204.19
236.285	182.19
236.519	204.19
236.753	212.19
236.987	225.19
237.221	233.19
237.455	239.19
237.689	235.19
237.922	237.19
238.156	214.19
238.39	226.19
238.624	210.19
238.858	229.19
239.091	253.19
239.325	243.19
239.559	271.19
239.793	307.19
240.027	288.19
240.26	289.19
240.494	237.19
240.728	231.19
240.961	241.19
241.195	244.19
241.429	255.19
241.662	239.19
241.896	253.19
242.13	245.19
242.363	253.19
242.597	283.19
242.83	261.19
243.064	263.19
243.298	296.19
243.531	276.19
243.765	267.19
243.998	285.19
244.232	249.19
244.465	231.19
244.699	248.19
244.932	283.19
245.166	305.19
245.399	293.19
245.633	273.19
245.866	298.19
246.099	289.19
246.333	297.19
246.566	282.19
246.8	308.19
247.033	315.19
247.266	322.19
247.5	324.19
247.733	322.19
247.966	320.19
248.2	353.19
248.433	337.19
248.666	357.19
248.899	395.19
249.133	408.19
249.366	461.19
249.599	391.19
249.832	341.19
250.066	347.19
250.299	344.19
250.532	338.19
250.765	328.19
250.998	348.19
251.231	346.19
251.465	355.19
251.698	319.19
251.931	331.19
252.164	352.19
252.397	369.19
252.63	362.19
252.863	329.19
253.096	317.19
253.329	337.19
253.562	336.19
253.795	384.19
254.028	377.19
254.261	346.19
254.494	333.19
254.727	323.19
254.96	339.19
255.193	379.19
255.426	395.19
255.659	431.19
255.892	458.19
256.124	388.19
256.357	395.19
256.59	406.19
256.823	423.19
257.056	430.19
257.289	456.19
257.521	514.19
257.754	435.19
257.987	465.19
258.22	481.19
258.452	457.19
258.685	383.19
258.918	387.19
259.151	378.19
259.383	361.19
259.616	347.19
259.849	378.19
260.081	412.19
260.314	449.19
260.547	471.19
260.779	482.19
261.012	417.19
261.244	393.19
261.477	385.19
261.71	393.19
261.942	384.19
262.175	387.19
262.407	394.19
262.64	384.19
262.872	371.19
263.105	348.19
263.337	362.19
263.57	357.19
263.802	365.19
264.035	359.19
264.267	324.19
264.499	332.19
264.732	355.19
264.964	391.19
265.197	390.19
265.429	411.19
265.661	431.19
265.894	501.19
266.126	505.19
266.358	455.19
266.591	463.19
266.823	495.19
267.055	455.19
267.287	440.19
267.52	463.19
267.752	441.19
267.984	422.19
268.216	459.19
268.448	461.19
268.681	459.19
268.913	409.19
269.145	413.19
269.377	419.19
269.609	455.19
269.841	496.19
270.073	571.19
270.306	627.19
270.538	633.19
270.77	528.19
271.002	493.19
271.234	475.19
271.466	492.19
271.698	531.19
271.93	590.19
272.162	591.19
272.394	531.19
272.626	488.19
272.858	449.19
273.09	398.19
273.322	389.19
273.553	383.19
273.785	386.19
274.017	429.19
274.249	437.19
274.481	448.19
274.713	411.19
274.945	402.19
275.176	423.19
275.408	422.19
275.64	417.19
275.872	409.19
276.104	437.19
276.335	492.19
276.567	539.19
276.799	533.19
277.031	483.19
277.262	457.19
277.494	460.19
277.726	515.19
277.957	497.19
278.189	459.19
278.421	433.19
278.652	425.19
278.884	421.19
279.115	428.19
279.347	440.19
279.579	447.19
279.81	447.19
280.042	465.19
280.273	512.19
280.505	497.19
280.736	492.19
280.968	453.19
281.199	428.19
281.431	412.19
281.662	435.19
281.894	435.19
282.125	430.19
282.356	463.19
282.588	449.19
282.819	457.19
283.051	484.19
283.282	521.19
283.513	479.19
283.745	445.19
283.976	428.19
284.207	431.19
284.439	439.19
284.67	429.19
284.901	448.19
285.132	451.19
285.364	445.19
285.595	438.19
285.826	432.19
286.057	448.19
286.288	452.19
286.52	468.19
286.751	481.19
286.982	501.19
287.213	441.19
287.444	432.19
287.675	446.19
287.906	465.19
288.138	484.19
288.369	459.19
288.6	456.19
288.831	435.19
289.062	452.19
289.293	452.19
289.524	451.19
289.755	463.19
289.986	459.19
290.217	431.19
290.448	452.19
290.679	446.19
290.91	453.19
291.141	474.19
291.371	485.19
291.602	471.19
291.833	475.19
292.064	485.19
292.295	464.19
292.526	535.19
292.757	490.19
292.987	472.19
293.218	471.19
293.449	513.19
293.68	572.19
293.91	571.19
294.141	566.19
294.372	550.19
294.603	559.19
294.833	561.19
295.064	511.19
295.295	494.19
295.525	464.19
295.756	447.19
295.987	439.19
296.217	444.19
296.448	464.19
296.679	480.19
296.909	460.19
297.14	449.19
297.37	472.19
297.601	500.19
297.831	528.19
298.062	503.19
298.292	467.19
298.523	466.19
298.753	464.19
298.984	470.19
299.214	465.19
299.445	480.19
299.675	506.19
299.905	510.19
300.136	469.19
300.366	442.19
300.597	450.19
300.827	480.19
301.057	487.19
301.288	508.19
301.518	500.19
301.748	514.19
301.979	550.19
302.209	558.19
302.439	573.19
302.669	569.19
302.9	538.19
303.13	501.19
303.36	522.19
303.59	508.19
303.82	522.19
304.051	504.19
304.281	519.19
304.511	524.19
304.741	561.19
304.971	615.19
305.201	628.19
305.431	563.19
305.661	471.19
305.891	455.19
306.121	462.19
306.352	491.19
306.582	504.19
306.812	525.19
307.042	549.19
307.272	579.19
307.502	604.19
307.731	611.19
307.961	596.19
308.191	574.19
308.421	527.19
308.651	512.19
308.881	490.19
309.111	499.19
309.341	486.19
309.571	499.19
309.8	492.19
310.03	493.19
310.26	507.19
310.49	497.19
310.72	526.19
310.949	527.19
311.179	516.19
311.409	513.19
311.639	510.19
311.868	511.19
312.098	514.19
312.328	503.19
312.557	502.19
312.787	514.19
313.017	535.19
313.246	537.19
313.476	532.19
313.706	531.19
313.935	529.19
314.165	534.19
314.394	560.19
314.624	589.19
314.853	639.19
315.083	613.19
315.312	619.19
315.542	583.19
315.771	529.19
316.001	548.19
316.23	561.19
316.46	577.19
316.689	553.19
316.919	519.19
317.148	521.19
317.377	548.19
317.607	571.19
317.836	637.19
318.065	625.19
318.295	599.19
318.524	601.19
318.753	560.19
318.983	568.19
319.212	557.19
319.441	549.19
319.67	541.19
319.9	581.19
320.129	579.19
320.358	628.19
320.587	619.19
320.816	627.19
321.046	595.19
321.275	583.19
321.504	599.19
321.733	631.19
321.962	601.19
322.191	543.19
322.42	549.19
322.649	551.19
322.878	537.19
323.108	569.19
323.337	586.19
323.566	595.19
323.795	582.19
324.024	578.19
324.253	575.19
324.482	537.19
324.71	531.19
324.939	519.19
325.168	564.19
325.397	559.19
325.626	563.19
325.855	553.19
326.084	579.19
326.313	572.19
326.542	583.19
326.77	600.19
326.999	575.19
327.228	531.19
327.457	532.19
327.686	542.19
327.914	563.19
328.143	550.19
328.372	574.19
328.6	577.19
328.829	563.19
329.058	541.19
329.287	533.19
329.515	564.19
329.744	594.19
329.972	599.19
330.201	617.19
330.43	616.19
330.658	584.19
330.887	562.19
331.115	609.19
331.344	602.19
331.572	579.19
331.801	581.19
332.03	607.19
332.258	597.19
332.486	614.19
332.715	610.19
332.943	589.19
333.172	587.19
333.4	594.19
333.629	610.19
333.857	660.19
334.085	739.19
334.314	819.19
334.542	819.19
334.771	768.19
334.999	681.19
335.227	633.19
335.455	627.19
335.684	644.19
335.912	641.19
336.14	658.19
336.369	624.19
336.597	585.19
336.825	616.19
337.053	619.19
337.281	673.19
337.51	706.19
337.738	699.19
337.966	676.19
338.194	607.19
338.422	608.19
338.65	593.19
338.878	586.19
339.106	593.19
339.334	583.19
339.562	576.19
339.79	579.19
340.018	619.19
340.246	636.19
340.474	623.19
340.702	613.19
340.93	628.19
341.158	595.19
341.386	587.19
341.614	594.19
341.842	625.19
342.07	606.19
342.298	612.19
342.526	606.19
342.754	583.19
342.981	608.19
343.209	588.19
343.437	569.19
343.665	598.19
343.893	609.19
344.12	618.19
344.348	633.19
344.576	631.19
344.804	576.19
345.031	591.19
345.259	562.19
345.487	575.19
345.714	545.19
345.942	539.19
346.17	543.19
346.397	571.19
346.625	564.19
346.853	535.19
347.08	525.19
347.308	540.19
347.535	573.19
347.763	571.19
347.99	562.19
348.218	565.19
348.445	568.19
348.673	564.19
348.9	593.19
349.128	624.19
349.355	610.19
349.583	573.19
349.81	559.19
350.037	548.19
350.265	529.19
350.492	531.19
350.72	557.19
350.947	588.19
351.174	570.19
351.402	531.19
351.629	529.19
351.856	512.19
352.083	496.19
352.311	553.19
352.538	567.19
352.765	575.19
352.992	572.19
353.22	573.19
353.447	553.19
353.674	557.19
353.901	571.19
354.128	540.19
354.355	557.19
354.583	588.19
354.81	613.19
355.037	598.19
355.264	589.19
355.491	559.19
355.718	571.19
355.945	544.19
356.172	569.19
356.399	534.19
356.626	570.19
356.853	580.19
357.08	649.19
357.307	657.19
357.534	652.19
357.761	576.19
357.988	536.19
358.215	522.19
358.441	559.19
358.668	547.19
358.895	551.19
359.122	599.19
359.349	628.19
359.576	593.19
359.802	570.19
360.029	553.19
360.256	529.19
360.483	567.19
360.709	573.19
360.936	606.19
361.163	640.19
361.39	687.19
361.616	712.19
361.843	700.19
362.07	613.19
362.296	581.19
362.523	557.19
362.749	596.19
362.976	569.19
363.203	580.19
363.429	568.19
363.656	565.19
363.882	597.19
364.109	660.19
364.335	677.19
364.562	625.19
364.788	613.19
365.015	600.19
365.241	563.19
365.468	573.19
365.694	590.19
365.92	589.19
366.147	577.19
366.373	557.19
366.599	567.19
366.826	559.19
367.052	566.19
367.278	582.19
367.505	585.19
367.731	575.19
367.957	609.19
368.184	665.19
368.41	681.19
368.636	678.19
368.862	662.19
369.089	655.19
369.315	631.19
369.541	613.19
369.767	596.19
369.993	564.19
370.219	600.19
370.445	619.19
370.672	615.19
370.898	680.19
371.124	642.19
371.35	641.19
371.576	660.19
371.802	689.19
372.028	639.19
372.254	604.19
372.48	595.19
372.706	609.19
372.932	617.19
373.158	584.19
373.384	633.19
373.61	655.19
373.835	665.19
374.061	632.19
374.287	631.19
374.513	633.19
374.739	636.19
374.965	654.19
375.191	651.19
375.416	643.19
375.642	662.19
375.868	700.19
376.094	698.19
376.319	669.19
376.545	645.19
376.771	665.19
376.997	711.19
377.222	684.19
377.448	671.19
377.674	664.19
377.899	691.19
378.125	706.19
378.35	691.19
378.576	625.19
378.802	618.19
379.027	629.19
379.253	641.19
379.478	639.19
379.704	640.19
379.929	675.19
380.155	621.19
380.38	661.19
380.606	658.19
380.831	684.19
381.057	678.19
381.282	689.19
381.507	698.19
381.733	719.19
381.958	748.19
382.184	683.19
382.409	701.19
382.634	690.19
382.86	678.19
383.085	703.19
383.31	710.19
383.535	781.19
383.761	795.19
383.986	762.19
384.211	736.19
384.436	745.19
384.662	790.19
384.887	781.19
385.112	724.19
385.337	756.19
385.562	737.19
385.787	755.19
386.013	767.19
386.238	768.19
386.463	759.19
386.688	819.19
386.913	834.19
387.138	801.19
387.363	782.19
387.588	768.19
387.813	770.19
388.038	768.19
388.263	801.19
388.488	753.19
388.713	709.19
388.938	735.19
389.163	713.19
389.387	770.19
389.612	760.19
389.837	743.19
390.062	755.19
390.287	776.19
390.512	732.19
390.736	738.19
390.961	712.19
391.186	715.19
391.411	737.19
391.636	770.19
391.86	745.19
392.085	725.19
392.31	742.19
392.534	766.19
392.759	767.19
392.984	747.19
393.208	785.19
393.433	788.19
393.658	816.19
393.882	780.19
394.107	788.19
394.331	761.19
394.556	775.19
394.78	802.19
395.005	825.19
395.229	837.19
395.454	888.19
395.678	864.19
395.903	814.19
396.127	796.19
396.352	811.19
396.576	838.19
396.801	843.19
397.025	840.19
397.249	831.19
397.474	821.19
397.698	831.19
397.922	868.19
398.147	885.19
398.371	917.19
398.595	892.19
398.82	876.19
399.044	879.19
399.268	906.19
399.492	979.19
399.717	986.19
399.941	1008.19
400.165	995.19
400.389	962.19
400.613	980.19
400.837	1123.19
401.062	1184.19
401.286	1047.19
401.51	968.19
401.734	996.19
401.958	981.19
402.182	912.19
402.406	888.19
402.63	905.19
402.854	876.19
403.078	890.19
403.302	907.19
403.526	935.19
403.75	927.19
403.974	928.19
404.198	938.19
404.422	960.19
404.645	1037.19
404.869	985.19
405.093	928.19
405.317	908.19
405.541	949.19
405.765	937.19
405.988	919.19
406.212	958.19
406.436	953.19
406.66	1012.19
406.883	1021.19
407.107	1146.19
407.331	1192.19
407.555	1275.19
407.778	1128.19
408.002	1009.19
408.226	961.19
408.449	971.19
408.673	949.19
408.896	948.19
409.12	963.19
409.344	938.19
409.567	941.19
409.791	967.19
410.014	976.19
410.238	1004.19
410.461	1078.19
410.685	973.19
410.908	943.19
411.132	947.19
411.355	953.19
411.578	941.19
411.802	947.19
412.025	982.19
412.249	915.19
412.472	905.19
412.695	924.19
412.919	924.19
413.142	927.19
413.365	928.19
413.589	944.19
413.812	993.19
414.035	990.19
414.258	947.19
414.482	941.19
414.705	926.19
414.928	919.19
415.151	911.19
415.374	927.19
415.597	940.19
415.821	956.19
416.044	934.19
416.267	934.19
416.49	927.19
416.713	927.19
416.936	942.19
417.159	988.19
417.382	976.19
417.605	968.19
417.828	952.19
418.051	955.19
418.274	932.19
418.497	943.19
418.72	931.19
418.943	913.19
419.166	968.19
419.389	999.19
419.611	943.19
419.834	937.19
420.057	948.19
420.28	935.19
420.503	946.19
420.726	935.19
420.948	932.19
421.171	921.19
421.394	929.19
421.617	975.19
421.839	976.19
422.062	991.19
422.285	957.19
422.507	948.19
422.73	906.19
422.953	915.19
423.175	884.19
423.398	924.19
423.621	903.19
423.843	951.19
424.066	952.19
424.288	1027.19
424.511	1078.19
424.733	1012.19
424.956	956.19
425.178	898.19
425.401	917.19
425.623	963.19
425.846	953.19
426.068	983.19
426.291	969.19
426.513	973.19
426.735	959.19
426.958	1048.19
427.18	1053.19
427.402	982.19
427.625	1011.19
427.847	980.19
428.069	920.19
428.292	917.19
428.514	893.19
428.736	898.19
428.958	921.19
429.181	937.19
429.403	1056.19
429.625	1209.19
429.847	1043.19
430.069	936.19
430.292	1043.19
430.514	1049.19
430.736	956.19
430.958	968.19
431.18	920.19
431.402	879.19
431.624	844.19
431.846	783.19
432.068	723.19
432.29	740.19
432.512	790.19
432.734	868.19
432.956	945.19
433.178	1002.19
433.4	968.19
433.622	936.19
433.844	922.19
434.066	864.19
434.287	795.19
434.509	811.19
434.731	825.19
434.953	913.19
435.175	929.19
435.397	906.19
435.618	914.19
435.84	859.19
436.062	823.19
436.284	898.19
436.505	938.19
436.727	963.19
436.949	913.19
437.17	925.19
437.392	873.19
437.614	872.19
437.835	779.19
438.057	803.19
438.278	841.19
438.5	895.19
438.721	893.19
438.943	927.19
439.165	924.19
439.386	924.19
439.608	951.19
439.829	949.19
440.05	948.19
440.272	964.19
440.493	964.19
440.715	986.19
440.936	1013.19
441.158	1067.19
441.379	1039.19
441.6	1038.19
441.822	1009.19
442.043	1008.19
442.264	989.19
442.486	967.19
442.707	937.19
442.928	976.19
443.149	968.19
443.371	1004.19
443.592	1044.19
443.813	1011.19
444.034	1020.19
444.255	1011.19
444.476	1008.19
444.698	1047.19
444.919	1025.19
445.14	1135.19
445.361	1085.19
445.582	1069.19
445.803	1043.19
446.024	1053.19
446.245	1043.19
446.466	1061.19
446.687	1048.19
446.908	1043.19
447.129	1019.19
447.35	1008.19
447.571	999.19
447.792	963.19
448.013	974.19
448.234	986.19
448.455	989.19
448.675	983.19
448.896	910.19
449.117	899.19
449.338	915.19
449.559	975.19
449.779	980.19
450	1031.19
450.221	1053.19
450.442	1014.19
450.662	927.19
450.883	872.19
451.104	883.19
451.324	897.19
451.545	908.19
451.766	899.19
451.986	844.19
452.207	789.19
452.428	815.19
452.648	791.19
452.869	799.19
453.089	791.19
453.31	775.19
453.53	803.19
453.751	727.19
453.971	697.19
454.192	754.19
454.412	762.19
454.633	768.19
454.853	781.19
455.073	758.19
455.294	762.19
455.514	775.19
455.734	777.19
455.955	774.19
456.175	740.19
456.395	729.19
456.616	777.19
456.836	733.19
457.056	744.19
457.276	725.19
457.497	684.19
457.717	682.19
457.937	719.19
458.157	748.19
458.377	706.19
458.598	709.19
458.818	684.19
459.038	688.19
459.258	708.19
459.478	732.19
459.698	720.19
459.918	761.19
460.138	800.19
460.358	828.19
460.578	845.19
460.798	859.19
461.018	887.19
461.238	881.19
461.458	871.19
461.678	852.19
461.898	841.19
462.118	813.19
462.338	823.19
462.558	845.19
462.777	869.19
462.997	865.19
463.217	897.19
463.437	889.19
463.657	841.19
463.876	824.19
464.096	851.19
464.316	841.19
464.536	872.19
464.755	892.19
464.975	887.19
465.195	864.19
465.414	871.19
465.634	846.19
465.854	883.19
466.073	982.19
466.293	955.19
466.512	886.19
466.732	882.19
466.951	870.19
467.171	900.19
467.391	872.19
467.61	881.19
467.829	901.19
468.049	985.19
468.268	1058.19
468.488	962.19
468.707	936.19
468.927	947.19
469.146	897.19
469.365	920.19
469.585	937.19
469.804	912.19
470.023	970.19
470.243	917.19
470.462	927.19
470.681	940.19
470.901	946.19
471.12	940.19
471.339	927.19
471.558	930.19
471.777	898.19
471.997	897.19
472.216	828.19
472.435	777.19
472.654	767.19
472.873	779.19
473.092	832.19
473.311	815.19
473.53	810.19
473.749	819.19
473.968	837.19
474.187	842.19
474.406	827.19
474.625	859.19
474.844	870.19
475.063	889.19
475.282	863.19
475.501	834.19
475.72	828.19
475.939	932.19
476.158	888.19
476.377	849.19
476.596	851.19
476.814	821.19
477.033	792.19
477.252	841.19
477.471	891.19
477.69	937.19
477.908	930.19
478.127	1009.19
478.346	1009.19
478.564	1010.19
478.783	1041.19
479.002	1053.19
479.22	1003.19
479.439	1040.19
479.658	1016.19
479.876	990.19
480.095	931.19
480.313	884.19
480.532	894.19
480.751	860.19
480.969	830.19
481.188	796.19
481.406	784.19
481.624	771.19
481.843	778.19
482.061	824.19
482.28	887.19
482.498	882.19
482.717	881.19
482.935	895.19
483.153	987.19
483.372	1035.19
483.59	1025.19
483.808	980.19
484.027	961.19
484.245	1011.19
484.463	1219.19
484.681	1342.19
484.9	1028.19
485.118	970.19
485.336	950.19
485.554	916.19
485.772	919.19
485.99	876.19
486.209	898.19
486.427	895.19
486.645	921.19
486.863	1004.19
487.081	1058.19
487.299	1013.19
487.517	1027.19
487.735	1116.19
487.953	1208.19
488.171	1219.19
488.389	1138.19
488.607	1095.19
488.825	1144.19
489.043	1058.19
489.261	998.19
489.479	1026.19
489.696	1051.19
489.914	1031.19
490.132	1058.19
490.35	1067.19
490.568	1170.19
490.786	1209.19
491.003	1181.19
491.221	1264.19
491.439	1259.19
491.657	1335.19
491.874	1338.19
492.092	1393.19
492.31	1482.19
492.527	1441.19
492.745	1361.19
492.963	1308.19
493.18	1323.19
493.398	1386.19
493.615	1358.19
493.833	1258.19
494.05	1256.19
494.268	1255.19
494.485	1257.19
494.703	1236.19
494.92	1243.19
495.138	1209.19
495.355	1248.19
495.573	1253.19
495.79	1285.19
496.008	1315.19
496.225	1257.19
496.442	1241.19
496.66	1220.19
496.877	1199.19
497.094	1251.19
497.312	1236.19
497.529	1199.19
497.746	1169.19
497.963	1270.19
498.181	1293.19
498.398	1258.19
498.615	1211.19
498.832	1167.19
499.049	1153.19
499.267	1182.19
499.484	1256.19
499.701	1363.19
499.918	1387.19
500.135	1460.19
500.352	1611.19
