Data from WStandard_LampEnergy5.5LIBS07252019.E.O._I.C._HRD10591_16-08-52-920.txt Node
Date: Thu Jul 25 16:08:52 EDT 2019
User: cochatt
Spectrometer: HR+D1059
Trigger mode: 1
Integration Time (sec): 1.000000E-1
Scans to average: 1
Electric dark correction enabled: true
Nonlinearity correction enabled: false
Boxcar width: 0
XAxis mode: Wavelengths
Number of Pixels in Spectrum: 2048
>>>>>Begin Spectral Data<<<<<
223.165	-7.94
223.4	-7.94
223.635	-7.94
223.869	-13.94
224.104	-11.94
224.338	-20.94
224.573	-2.94
224.808	-22.94
225.042	-16.94
225.277	3.06
225.511	2.06
225.746	8.06
225.98	10.06
226.215	13.06
226.449	16.06
226.683	6.06
226.918	10.06
227.152	29.06
227.387	24.06
227.621	30.06
227.856	38.06
228.09	50.06
228.324	56.06
228.559	62.06
228.793	132.06
229.027	340.06
229.262	344.06
229.496	354.06
229.73	376.06
229.964	422.06
230.199	433.06
230.433	436.06
230.667	445.06
230.901	516.06
231.136	465.06
231.37	429.06
231.604	447.06
231.838	462.06
232.072	445.06
232.306	419.06
232.541	469.06
232.775	539.06
233.009	578.06
233.243	564.06
233.477	514.06
233.711	519.06
233.945	542.06
234.179	519.06
234.413	544.06
234.647	601.06
234.881	559.06
235.115	532.06
235.349	512.06
235.583	532.06
235.817	534.06
236.051	510.06
236.285	521.06
236.519	551.06
236.753	628.06
236.987	648.06
237.221	650.06
237.455	709.06
237.689	681.06
237.922	639.06
238.156	618.06
238.39	629.06
238.624	662.06
238.858	663.06
239.091	716.06
239.325	757.06
239.559	866.06
239.793	899.06
240.027	972.06
240.26	990.06
240.494	713.06
240.728	658.06
240.961	674.06
241.195	716.06
241.429	783.06
241.662	761.06
241.896	745.06
242.13	748.06
242.363	808.06
242.597	865.06
242.83	832.06
243.064	833.06
243.298	899.06
243.531	877.06
243.765	892.06
243.998	863.06
244.232	786.06
244.465	747.06
244.699	756.06
244.932	828.06
245.166	1011.06
245.399	940.06
245.633	886.06
245.866	827.06
246.099	890.06
246.333	900.06
246.566	899.06
246.8	986.06
247.033	1120.06
247.266	1032.06
247.5	1004.06
247.733	989.06
247.966	1062.06
248.2	1174.06
248.433	1135.06
248.666	1144.06
248.899	1221.06
249.133	1422.06
249.366	1664.06
249.599	1339.06
249.832	1158.06
250.066	1180.06
250.299	1223.06
250.532	1129.06
250.765	986.06
250.998	1090.06
251.231	1129.06
251.465	1176.06
251.698	1122.06
251.931	1100.06
252.164	1146.06
252.397	1172.06
252.63	1204.06
252.863	1029.06
253.096	991.06
253.329	1104.06
253.562	1119.06
253.795	1218.06
254.028	1219.06
254.261	1131.06
254.494	1138.06
254.727	1053.06
254.96	1078.06
255.193	1198.06
255.426	1390.06
255.659	1565.06
255.892	1624.06
256.124	1286.06
256.357	1239.06
256.59	1356.06
256.823	1373.06
257.056	1354.06
257.289	1592.06
257.521	1823.06
257.754	1619.06
257.987	1504.06
258.22	1704.06
258.452	1637.06
258.685	1333.06
258.918	1299.06
259.151	1268.06
259.383	1252.06
259.616	1108.06
259.849	1154.06
260.081	1288.06
260.314	1459.06
260.547	1582.06
260.779	1606.06
261.012	1565.06
261.244	1374.06
261.477	1264.06
261.71	1354.06
261.942	1345.06
262.175	1302.06
262.407	1388.06
262.64	1297.06
262.872	1200.06
263.105	1164.06
263.337	1204.06
263.57	1247.06
263.802	1252.06
264.035	1159.06
264.267	1077.06
264.499	1074.06
264.732	1151.06
264.964	1242.06
265.197	1279.06
265.429	1319.06
265.661	1486.06
265.894	1664.06
266.126	1733.06
266.358	1489.06
266.591	1556.06
266.823	1693.06
267.055	1562.06
267.287	1497.06
267.52	1529.06
267.752	1476.06
267.984	1458.06
268.216	1559.06
268.448	1573.06
268.681	1565.06
268.913	1424.06
269.145	1321.06
269.377	1324.06
269.609	1404.06
269.841	1662.06
270.073	1929.06
270.306	2138.06
270.538	2250.06
270.77	1975.06
271.002	1656.06
271.234	1548.06
271.466	1545.06
271.698	1705.06
271.93	2058.06
272.162	2073.06
272.394	1841.06
272.626	1832.06
272.858	1605.06
273.09	1416.06
273.322	1370.06
273.553	1263.06
273.785	1307.06
274.017	1374.06
274.249	1522.06
274.481	1532.06
274.713	1410.06
274.945	1321.06
275.176	1341.06
275.408	1332.06
275.64	1304.06
275.872	1291.06
276.104	1373.06
276.335	1572.06
276.567	1768.06
276.799	1818.06
277.031	1628.06
277.262	1514.06
277.494	1626.06
277.726	1772.06
277.957	1758.06
278.189	1569.06
278.421	1454.06
278.652	1420.06
278.884	1378.06
279.115	1377.06
279.347	1454.06
279.579	1378.06
279.81	1348.06
280.042	1496.06
280.273	1666.06
280.505	1687.06
280.736	1733.06
280.968	1641.06
281.199	1447.06
281.431	1368.06
281.662	1357.06
281.894	1365.06
282.125	1395.06
282.356	1470.06
282.588	1493.06
282.819	1457.06
283.051	1553.06
283.282	1716.06
283.513	1682.06
283.745	1445.06
283.976	1360.06
284.207	1385.06
284.439	1413.06
284.67	1439.06
284.901	1501.06
285.132	1524.06
285.364	1458.06
285.595	1488.06
285.826	1461.06
286.057	1439.06
286.288	1428.06
286.52	1485.06
286.751	1599.06
286.982	1647.06
287.213	1539.06
287.444	1381.06
287.675	1394.06
287.906	1466.06
288.138	1586.06
288.369	1585.06
288.6	1462.06
288.831	1419.06
289.062	1446.06
289.293	1454.06
289.524	1493.06
289.755	1459.06
289.986	1477.06
290.217	1374.06
290.448	1384.06
290.679	1430.06
290.91	1460.06
291.141	1489.06
291.371	1587.06
291.602	1521.06
291.833	1528.06
292.064	1546.06
292.295	1524.06
292.526	1543.06
292.757	1633.06
292.987	1560.06
293.218	1472.06
293.449	1588.06
293.68	1781.06
293.91	1971.06
294.141	1796.06
294.372	1714.06
294.603	1732.06
294.833	1834.06
295.064	1724.06
295.295	1570.06
295.525	1505.06
295.756	1459.06
295.987	1366.06
296.217	1375.06
296.448	1436.06
296.679	1426.06
296.909	1380.06
297.14	1401.06
297.37	1438.06
297.601	1497.06
297.831	1638.06
298.062	1666.06
298.292	1509.06
298.523	1469.06
298.753	1445.06
298.984	1468.06
299.214	1473.06
299.445	1517.06
299.675	1529.06
299.905	1534.06
300.136	1497.06
300.366	1437.06
300.597	1408.06
300.827	1409.06
301.057	1464.06
301.288	1541.06
301.518	1550.06
301.748	1611.06
301.979	1651.06
302.209	1640.06
302.439	1820.06
302.669	1882.06
302.9	1705.06
303.13	1575.06
303.36	1541.06
303.59	1580.06
303.82	1539.06
304.051	1560.06
304.281	1542.06
304.511	1589.06
304.741	1639.06
304.971	1796.06
305.201	1954.06
305.431	1874.06
305.661	1559.06
305.891	1379.06
306.121	1394.06
306.352	1442.06
306.582	1510.06
306.812	1589.06
307.042	1734.06
307.272	1722.06
307.502	1762.06
307.731	1877.06
307.961	2089.06
308.191	1884.06
308.421	1641.06
308.651	1566.06
308.881	1506.06
309.111	1533.06
309.341	1469.06
309.571	1539.06
309.8	1513.06
310.03	1496.06
310.26	1470.06
310.49	1482.06
310.72	1516.06
310.949	1588.06
311.179	1576.06
311.409	1594.06
311.639	1529.06
311.868	1495.06
312.098	1520.06
312.328	1510.06
312.557	1524.06
312.787	1546.06
313.017	1570.06
313.246	1569.06
313.476	1578.06
313.706	1628.06
313.935	1632.06
314.165	1605.06
314.394	1656.06
314.624	1737.06
314.853	1829.06
315.083	1879.06
315.312	2029.06
315.542	1796.06
315.771	1654.06
316.001	1636.06
316.23	1672.06
316.46	1697.06
316.689	1688.06
316.919	1597.06
317.148	1513.06
317.377	1544.06
317.607	1649.06
317.836	1879.06
318.065	1944.06
318.295	1851.06
318.524	1786.06
318.753	1693.06
318.983	1702.06
319.212	1673.06
319.441	1625.06
319.67	1625.06
319.9	1689.06
320.129	1773.06
320.358	1825.06
320.587	1816.06
320.816	1868.06
321.046	1842.06
321.275	1732.06
321.504	1709.06
321.733	1896.06
321.962	1798.06
322.191	1690.06
322.42	1660.06
322.649	1662.06
322.878	1621.06
323.108	1675.06
323.337	1716.06
323.566	1714.06
323.795	1691.06
324.024	1715.06
324.253	1639.06
324.482	1694.06
324.71	1658.06
324.939	1561.06
325.168	1586.06
325.397	1630.06
325.626	1724.06
325.855	1701.06
326.084	1644.06
326.313	1633.06
326.542	1674.06
326.77	1744.06
326.999	1737.06
327.228	1630.06
327.457	1587.06
327.686	1576.06
327.914	1622.06
328.143	1702.06
328.372	1639.06
328.6	1638.06
328.829	1630.06
329.058	1570.06
329.287	1593.06
329.515	1672.06
329.744	1665.06
329.972	1712.06
330.201	1804.06
330.43	1802.06
330.658	1746.06
330.887	1733.06
331.115	1720.06
331.344	1757.06
331.572	1711.06
331.801	1722.06
332.03	1742.06
332.258	1735.06
332.486	1759.06
332.715	1773.06
332.943	1810.06
333.172	1745.06
333.4	1760.06
333.629	1820.06
333.857	1912.06
334.085	2078.06
334.314	2309.06
334.542	2562.06
334.771	2380.06
334.999	2058.06
335.227	1947.06
335.455	1926.06
335.684	1854.06
335.912	1884.06
336.14	1957.06
336.369	1887.06
336.597	1780.06
336.825	1765.06
337.053	1800.06
337.281	1896.06
337.51	1950.06
337.738	2098.06
337.966	2013.06
338.194	1809.06
338.422	1753.06
338.65	1720.06
338.878	1737.06
339.106	1710.06
339.334	1664.06
339.562	1597.06
339.79	1656.06
340.018	1795.06
340.246	1844.06
340.474	1850.06
340.702	1789.06
340.93	1780.06
341.158	1784.06
341.386	1796.06
341.614	1748.06
341.842	1722.06
342.07	1686.06
342.298	1761.06
342.526	1741.06
342.754	1689.06
342.981	1692.06
343.209	1740.06
343.437	1699.06
343.665	1728.06
343.893	1769.06
344.12	1837.06
344.348	1878.06
344.576	1809.06
344.804	1713.06
345.031	1708.06
345.259	1720.06
345.487	1663.06
345.714	1608.06
345.942	1557.06
346.17	1594.06
346.397	1655.06
346.625	1654.06
346.853	1581.06
347.08	1516.06
347.308	1519.06
347.535	1625.06
347.763	1703.06
347.99	1664.06
348.218	1568.06
348.445	1576.06
348.673	1615.06
348.9	1635.06
349.128	1681.06
349.355	1760.06
349.583	1712.06
349.81	1642.06
350.037	1518.06
350.265	1494.06
350.492	1523.06
350.72	1572.06
350.947	1616.06
351.174	1651.06
351.402	1610.06
351.629	1504.06
351.856	1479.06
352.083	1512.06
352.311	1497.06
352.538	1581.06
352.765	1580.06
352.992	1614.06
353.22	1655.06
353.447	1518.06
353.674	1520.06
353.901	1607.06
354.128	1542.06
354.355	1543.06
354.583	1606.06
354.81	1671.06
355.037	1652.06
355.264	1647.06
355.491	1564.06
355.718	1645.06
355.945	1612.06
356.172	1549.06
356.399	1534.06
356.626	1502.06
356.853	1587.06
357.08	1714.06
357.307	1904.06
357.534	1874.06
357.761	1690.06
357.988	1534.06
358.215	1501.06
358.441	1535.06
358.668	1520.06
358.895	1500.06
359.122	1621.06
359.349	1760.06
359.576	1806.06
359.802	1621.06
360.029	1559.06
360.256	1513.06
360.483	1519.06
360.709	1586.06
360.936	1644.06
361.163	1695.06
361.39	1810.06
361.616	2029.06
361.843	1908.06
362.07	1852.06
362.296	1613.06
362.523	1564.06
362.749	1587.06
362.976	1604.06
363.203	1641.06
363.429	1590.06
363.656	1516.06
363.882	1565.06
364.109	1722.06
364.335	1878.06
364.562	1768.06
364.788	1669.06
365.015	1608.06
365.241	1528.06
365.468	1571.06
365.694	1641.06
365.92	1726.06
366.147	1656.06
366.373	1540.06
366.599	1495.06
366.826	1534.06
367.052	1566.06
367.278	1535.06
367.505	1588.06
367.731	1649.06
367.957	1594.06
368.184	1662.06
368.41	1727.06
368.636	1801.06
368.862	1768.06
369.089	1786.06
369.315	1749.06
369.541	1645.06
369.767	1604.06
369.993	1556.06
370.219	1577.06
370.445	1601.06
370.672	1698.06
370.898	1764.06
371.124	1776.06
371.35	1662.06
371.576	1680.06
371.802	1772.06
372.028	1701.06
372.254	1642.06
372.48	1631.06
372.706	1607.06
372.932	1585.06
373.158	1584.06
373.384	1642.06
373.61	1654.06
373.835	1770.06
374.061	1718.06
374.287	1638.06
374.513	1695.06
374.739	1674.06
374.965	1695.06
375.191	1704.06
375.416	1720.06
375.642	1751.06
375.868	1801.06
376.094	1839.06
376.319	1756.06
376.545	1672.06
376.771	1705.06
376.997	1769.06
377.222	1746.06
377.448	1704.06
377.674	1725.06
377.899	1704.06
378.125	1800.06
378.35	1806.06
378.576	1668.06
378.802	1592.06
379.027	1627.06
379.253	1602.06
379.478	1632.06
379.704	1628.06
379.929	1645.06
380.155	1667.06
380.38	1670.06
380.606	1682.06
380.831	1648.06
381.057	1753.06
381.282	1753.06
381.507	1718.06
381.733	1820.06
381.958	1891.06
382.184	1767.06
382.409	1729.06
382.634	1730.06
382.86	1733.06
383.085	1750.06
383.31	1744.06
383.535	1889.06
383.761	2050.06
383.986	1909.06
384.211	1876.06
384.436	1841.06
384.662	1935.06
384.887	2034.06
385.112	1934.06
385.337	1944.06
385.562	1881.06
385.787	1871.06
386.013	1904.06
386.238	1958.06
386.463	1902.06
386.688	2028.06
386.913	2174.06
387.138	2147.06
387.363	1994.06
387.588	1959.06
387.813	1945.06
388.038	1970.06
388.263	2037.06
388.488	1988.06
388.713	1827.06
388.938	1823.06
389.163	1831.06
389.387	1869.06
389.612	1865.06
389.837	1898.06
390.062	1937.06
390.287	1920.06
390.512	1905.06
390.736	1852.06
390.961	1825.06
391.186	1801.06
391.411	1836.06
391.636	1884.06
391.86	1879.06
392.085	1888.06
392.31	1849.06
392.534	1892.06
392.759	1930.06
392.984	1890.06
393.208	1904.06
393.433	1930.06
393.658	1964.06
393.882	2062.06
394.107	1894.06
394.331	1870.06
394.556	1894.06
394.78	1893.06
395.005	1983.06
395.229	2024.06
395.454	2169.06
395.678	2186.06
395.903	2113.06
396.127	2028.06
396.352	1994.06
396.576	2101.06
396.801	2091.06
397.025	2101.06
397.249	2043.06
397.474	2083.06
397.698	1996.06
397.922	2086.06
398.147	2191.06
398.371	2243.06
398.595	2268.06
398.82	2154.06
399.044	2197.06
399.268	2341.06
399.492	2382.06
399.717	2573.06
399.941	2588.06
400.165	2501.06
400.389	2426.06
400.613	2398.06
400.837	2617.06
401.062	3065.06
401.286	2638.06
401.51	2407.06
401.734	2516.06
401.958	2392.06
402.182	2254.06
402.406	2208.06
402.63	2140.06
402.854	2148.06
403.078	2157.06
403.302	2255.06
403.526	2248.06
403.75	2241.06
403.974	2256.06
404.198	2250.06
404.422	2315.06
404.645	2424.06
404.869	2399.06
405.093	2253.06
405.317	2189.06
405.541	2263.06
405.765	2305.06
405.988	2276.06
406.212	2342.06
406.436	2374.06
406.66	2415.06
406.883	2416.06
407.107	2704.06
407.331	2907.06
407.555	3140.06
407.778	2935.06
408.002	2444.06
408.226	2382.06
408.449	2440.06
408.673	2281.06
408.896	2327.06
409.12	2368.06
409.344	2299.06
409.567	2217.06
409.791	2312.06
410.014	2275.06
410.238	2409.06
410.461	2548.06
410.685	2320.06
410.908	2202.06
411.132	2240.06
411.355	2235.06
411.578	2206.06
411.802	2224.06
412.025	2232.06
412.249	2207.06
412.472	2151.06
412.695	2141.06
412.919	2150.06
413.142	2124.06
413.365	2188.06
413.589	2240.06
413.812	2356.06
414.035	2373.06
414.258	2186.06
414.482	2148.06
414.705	2160.06
414.928	2136.06
415.151	2126.06
415.374	2189.06
415.597	2171.06
415.821	2189.06
416.044	2288.06
416.267	2298.06
416.49	2054.06
416.713	2063.06
416.936	2151.06
417.159	2204.06
417.382	2260.06
417.605	2102.06
417.828	2167.06
418.051	2195.06
418.274	2154.06
418.497	2062.06
418.72	2080.06
418.943	2095.06
419.166	2186.06
419.389	2302.06
419.611	2187.06
419.834	2148.06
420.057	2174.06
420.28	2017.06
420.503	2049.06
420.726	2114.06
420.948	2149.06
421.171	2031.06
421.394	2096.06
421.617	2153.06
421.839	2142.06
422.062	2080.06
422.285	2018.06
422.507	2061.06
422.73	2014.06
422.953	1995.06
423.175	1983.06
423.398	2037.06
423.621	2071.06
423.843	2066.06
424.066	2105.06
424.288	2170.06
424.511	2197.06
424.733	2149.06
424.956	1970.06
425.178	1982.06
425.401	1994.06
425.623	2003.06
425.846	1984.06
426.068	2120.06
426.291	2143.06
426.513	2119.06
426.735	2095.06
426.958	2237.06
427.18	2421.06
427.402	2184.06
427.625	2230.06
427.847	2286.06
428.069	2106.06
428.292	2070.06
428.514	1980.06
428.736	1996.06
428.958	2014.06
429.181	2021.06
429.403	2267.06
429.625	2765.06
429.847	2512.06
430.069	2111.06
430.292	2308.06
430.514	2362.06
430.736	2151.06
430.958	2274.06
431.18	2169.06
431.402	2028.06
431.624	1986.06
431.846	1956.06
432.068	1992.06
432.29	1982.06
432.512	2000.06
432.734	2062.06
432.956	2082.06
433.178	2176.06
433.4	2198.06
433.622	2183.06
433.844	2042.06
434.066	1961.06
434.287	2000.06
434.509	2017.06
434.731	2176.06
434.953	2293.06
435.175	2256.06
435.397	2105.06
435.618	2135.06
435.84	2114.06
436.062	2080.06
436.284	2121.06
436.505	2090.06
436.727	2147.06
436.949	2097.06
437.17	2034.06
437.392	2030.06
437.614	2015.06
437.835	1988.06
438.057	2109.06
438.278	2188.06
438.5	2028.06
438.721	2004.06
438.943	1987.06
439.165	1975.06
439.386	1947.06
439.608	1994.06
439.829	2003.06
440.05	2014.06
440.272	1954.06
440.493	1932.06
440.715	2026.06
440.936	2150.06
441.158	2321.06
441.379	2297.06
441.6	2197.06
441.822	2180.06
442.043	2190.06
442.264	2100.06
442.486	1997.06
442.707	2013.06
442.928	1954.06
443.149	2030.06
443.371	2184.06
443.592	2250.06
443.813	2219.06
444.034	2192.06
444.255	2186.06
444.476	2253.06
444.698	2269.06
444.919	2288.06
445.14	2305.06
445.361	2320.06
445.582	2426.06
445.803	2293.06
446.024	2185.06
446.245	2271.06
446.466	2213.06
446.687	2095.06
446.908	2067.06
447.129	2007.06
447.35	2032.06
447.571	2007.06
447.792	1970.06
448.013	1928.06
448.234	1991.06
448.455	2075.06
448.675	2100.06
448.896	1918.06
449.117	1905.06
449.338	1955.06
449.559	2023.06
449.779	2151.06
450	2401.06
450.221	2515.06
450.442	2454.06
450.662	2152.06
450.883	1935.06
451.104	1860.06
451.324	1918.06
451.545	1962.06
451.766	1916.06
451.986	1854.06
452.207	1868.06
452.428	1827.06
452.648	1799.06
452.869	1842.06
453.089	1934.06
453.31	1977.06
453.53	2000.06
453.751	1973.06
453.971	1836.06
454.192	1863.06
454.412	1978.06
454.633	1909.06
454.853	1886.06
455.073	1772.06
455.294	1753.06
455.514	1745.06
455.734	1729.06
455.955	1798.06
456.175	1822.06
456.395	1807.06
456.616	1846.06
456.836	1878.06
457.056	1842.06
457.276	1818.06
457.497	1777.06
457.717	1727.06
457.937	1768.06
458.157	1832.06
458.377	1822.06
458.598	1791.06
458.818	1779.06
459.038	1943.06
459.258	2031.06
459.478	2024.06
459.698	1950.06
459.918	2001.06
460.138	2133.06
460.358	2146.06
460.578	2147.06
460.798	2204.06
461.018	2368.06
461.238	2222.06
461.458	2143.06
461.678	2130.06
461.898	2106.06
462.118	2029.06
462.338	2133.06
462.558	2164.06
462.777	2156.06
462.997	2247.06
463.217	2408.06
463.437	2361.06
463.657	2172.06
463.876	2140.06
464.096	2177.06
464.316	2157.06
464.536	2184.06
464.755	2216.06
464.975	2286.06
465.195	2160.06
465.414	2245.06
465.634	2264.06
465.854	2117.06
466.073	2248.06
466.293	2170.06
466.512	1993.06
466.732	1938.06
466.951	2016.06
467.171	2080.06
467.391	1958.06
467.61	1876.06
467.829	1919.06
468.049	2057.06
468.268	2333.06
468.488	2172.06
468.707	2050.06
468.927	2000.06
469.146	1956.06
469.365	1901.06
469.585	1972.06
469.804	1972.06
470.023	1933.06
470.243	1979.06
470.462	1962.06
470.681	1926.06
470.901	1948.06
471.12	1991.06
471.339	1934.06
471.558	1880.06
471.777	1882.06
471.997	1906.06
472.216	1931.06
472.435	1841.06
472.654	1881.06
472.873	1935.06
473.092	2114.06
473.311	1966.06
473.53	1870.06
473.749	1866.06
473.968	1881.06
474.187	2048.06
474.406	2152.06
474.625	2017.06
474.844	1972.06
475.063	1988.06
475.282	2064.06
475.501	1987.06
475.72	1980.06
475.939	2082.06
476.158	2004.06
476.377	1967.06
476.596	2028.06
476.814	2063.06
477.033	2058.06
477.252	2129.06
477.471	2220.06
477.69	2096.06
477.908	2089.06
478.127	2167.06
478.346	2362.06
478.564	2356.06
478.783	2280.06
479.002	2404.06
479.22	2374.06
479.439	2449.06
479.658	2713.06
479.876	2756.06
480.095	2352.06
480.313	2282.06
480.532	2225.06
480.751	2192.06
480.969	2299.06
481.188	2238.06
481.406	2185.06
481.624	2148.06
481.843	2164.06
482.061	2232.06
482.28	2275.06
482.498	2314.06
482.717	2269.06
482.935	2169.06
483.153	2177.06
483.372	2222.06
483.59	2139.06
483.808	2187.06
484.027	2262.06
484.245	2361.06
484.463	2711.06
484.681	3089.06
484.9	2457.06
485.118	2256.06
485.336	2187.06
485.554	2301.06
485.772	2375.06
485.99	2338.06
486.209	2376.06
486.427	2343.06
486.645	2356.06
486.863	2285.06
487.081	2376.06
487.299	2409.06
487.517	2434.06
