Data from WStandard_LampEnergy8_LIBS07252019.E.O._I.C._HRD10591_16-00-55-930.txt Node
Date: Thu Jul 25 16:00:55 EDT 2019
User: cochatt
Spectrometer: HR+D1059
Trigger mode: 1
Integration Time (sec): 1.000000E-1
Scans to average: 1
Electric dark correction enabled: true
Nonlinearity correction enabled: false
Boxcar width: 0
XAxis mode: Wavelengths
Number of Pixels in Spectrum: 2048
>>>>>Begin Spectral Data<<<<<
223.165	-15.31
223.4	-15.31
223.635	-15.31
223.869	-21.31
224.104	-13.31
224.338	-11.31
224.573	-16.31
224.808	-7.31
225.042	-2.31
225.277	-16.31
225.511	3.69
225.746	9.69
225.98	8.69
226.215	18.69
226.449	8.69
226.683	16.69
226.918	23.69
227.152	13.69
227.387	36.69
227.621	46.69
227.856	42.69
228.09	33.69
228.324	38.69
228.559	58.69
228.793	91.69
229.027	195.69
229.262	196.69
229.496	205.69
229.73	211.69
229.964	236.69
230.199	227.69
230.433	257.69
230.667	252.69
230.901	275.69
231.136	251.69
231.37	237.69
231.604	243.69
231.838	243.69
232.072	239.69
232.306	245.69
232.541	252.69
232.775	291.69
233.009	318.69
233.243	301.69
233.477	270.69
233.711	286.69
233.945	286.69
234.179	294.69
234.413	302.69
234.647	331.69
234.881	288.69
235.115	300.69
235.349	293.69
235.583	295.69
235.817	295.69
236.051	287.69
236.285	286.69
236.519	303.69
236.753	338.69
236.987	322.69
237.221	337.69
237.455	364.69
237.689	347.69
237.922	342.69
238.156	335.69
238.39	332.69
238.624	366.69
238.858	380.69
239.091	406.69
239.325	419.69
239.559	463.69
239.793	471.69
240.027	507.69
240.26	484.69
240.494	373.69
240.728	360.69
240.961	355.69
241.195	372.69
241.429	399.69
241.662	389.69
241.896	358.69
242.13	389.69
242.363	412.69
242.597	427.69
242.83	433.69
243.064	446.69
243.298	467.69
243.531	448.69
243.765	454.69
243.998	441.69
244.232	397.69
244.465	388.69
244.699	395.69
244.932	458.69
245.166	497.69
245.399	470.69
245.633	452.69
245.866	447.69
246.099	478.69
246.333	464.69
246.566	485.69
246.8	516.69
247.033	554.69
247.266	508.69
247.5	530.69
247.733	518.69
247.966	536.69
248.2	574.69
248.433	577.69
248.666	598.69
248.899	623.69
249.133	733.69
249.366	791.69
249.599	657.69
249.832	602.69
250.066	619.69
250.299	596.69
250.532	565.69
250.765	521.69
250.998	564.69
251.231	578.69
251.465	578.69
251.698	558.69
251.931	572.69
252.164	570.69
252.397	606.69
252.63	599.69
252.863	555.69
253.096	512.69
253.329	554.69
253.562	568.69
253.795	618.69
254.028	585.69
254.261	565.69
254.494	548.69
254.727	547.69
254.96	565.69
255.193	613.69
255.426	678.69
255.659	789.69
255.892	765.69
256.124	646.69
256.357	636.69
256.59	677.69
256.823	665.69
257.056	700.69
257.289	791.69
257.521	848.69
257.754	799.69
257.987	770.69
258.22	838.69
258.452	779.69
258.685	678.69
258.918	646.69
259.151	637.69
259.383	634.69
259.616	578.69
259.849	603.69
260.081	665.69
260.314	738.69
260.547	794.69
260.779	836.69
261.012	732.69
261.244	670.69
261.477	661.69
261.71	670.69
261.942	673.69
262.175	629.69
262.407	690.69
262.64	643.69
262.872	634.69
263.105	606.69
263.337	633.69
263.57	627.69
263.802	622.69
264.035	577.69
264.267	570.69
264.499	542.69
264.732	591.69
264.964	634.69
265.197	665.69
265.429	675.69
265.661	770.69
265.894	823.69
266.126	856.69
266.358	783.69
266.591	803.69
266.823	825.69
267.055	754.69
267.287	747.69
267.52	766.69
267.752	718.69
267.984	750.69
268.216	755.69
268.448	810.69
268.681	766.69
268.913	724.69
269.145	678.69
269.377	675.69
269.609	740.69
269.841	859.69
270.073	981.69
270.306	1067.69
270.538	1068.69
270.77	924.69
271.002	816.69
271.234	761.69
271.466	796.69
271.698	888.69
271.93	1010.69
272.162	990.69
272.394	929.69
272.626	856.69
272.858	763.69
273.09	670.69
273.322	690.69
273.553	656.69
273.785	684.69
274.017	712.69
274.249	738.69
274.481	725.69
274.713	692.69
274.945	666.69
275.176	686.69
275.408	675.69
275.64	670.69
275.872	642.69
276.104	741.69
276.335	830.69
276.567	925.69
276.799	867.69
277.031	818.69
277.262	761.69
277.494	832.69
277.726	912.69
277.957	846.69
278.189	798.69
278.421	724.69
278.652	734.69
278.884	705.69
279.115	709.69
279.347	732.69
279.579	700.69
279.81	736.69
280.042	783.69
280.273	846.69
280.505	874.69
280.736	848.69
280.968	832.69
281.199	715.69
281.431	690.69
281.662	710.69
281.894	689.69
282.125	715.69
282.356	724.69
282.588	761.69
282.819	748.69
283.051	847.69
283.282	867.69
283.513	836.69
283.745	739.69
283.976	669.69
284.207	705.69
284.439	728.69
284.67	756.69
284.901	742.69
285.132	796.69
285.364	743.69
285.595	740.69
285.826	704.69
286.057	732.69
286.288	759.69
286.52	768.69
286.751	827.69
286.982	866.69
287.213	774.69
287.444	715.69
287.675	750.69
287.906	762.69
288.138	811.69
288.369	788.69
288.6	736.69
288.831	715.69
289.062	702.69
289.293	730.69
289.524	769.69
289.755	776.69
289.986	757.69
290.217	727.69
290.448	734.69
290.679	768.69
290.91	798.69
291.141	810.69
291.371	814.69
291.602	774.69
291.833	796.69
292.064	847.69
292.295	818.69
292.526	832.69
292.757	864.69
292.987	811.69
293.218	792.69
293.449	862.69
293.68	930.69
293.91	986.69
294.141	925.69
294.372	885.69
294.603	925.69
294.833	966.69
295.064	884.69
295.295	838.69
295.525	783.69
295.756	734.69
295.987	710.69
296.217	737.69
296.448	776.69
296.679	752.69
296.909	762.69
297.14	768.69
297.37	777.69
297.601	842.69
297.831	858.69
298.062	827.69
298.292	820.69
298.523	781.69
298.753	777.69
298.984	770.69
299.214	792.69
299.445	822.69
299.675	842.69
299.905	820.69
300.136	813.69
300.366	772.69
300.597	759.69
300.827	761.69
301.057	785.69
301.288	836.69
301.518	833.69
301.748	856.69
301.979	887.69
302.209	904.69
302.439	958.69
302.669	996.69
302.9	895.69
303.13	834.69
303.36	848.69
303.59	856.69
303.82	851.69
304.051	829.69
304.281	852.69
304.511	840.69
304.741	935.69
304.971	1015.69
305.201	1036.69
305.431	910.69
305.661	791.69
305.891	753.69
306.121	744.69
306.352	789.69
306.582	828.69
306.812	884.69
307.042	916.69
307.272	943.69
307.502	965.69
307.731	1019.69
307.961	1039.69
308.191	985.69
308.421	866.69
308.651	806.69
308.881	807.69
309.111	843.69
309.341	792.69
309.571	810.69
309.8	796.69
310.03	806.69
310.26	799.69
310.49	818.69
310.72	852.69
310.949	858.69
311.179	891.69
311.409	845.69
311.639	838.69
311.868	818.69
312.098	838.69
312.328	853.69
312.557	844.69
312.787	853.69
313.017	856.69
313.246	858.69
313.476	873.69
313.706	900.69
313.935	873.69
314.165	885.69
314.394	928.69
314.624	955.69
314.853	1014.69
315.083	1018.69
315.312	1033.69
315.542	952.69
315.771	900.69
316.001	911.69
316.23	924.69
316.46	942.69
316.689	905.69
316.919	866.69
317.148	826.69
317.377	896.69
317.607	966.69
317.836	1033.69
318.065	1080.69
318.295	1022.69
318.524	967.69
318.753	952.69
318.983	949.69
319.212	908.69
319.441	893.69
319.67	905.69
319.9	905.69
320.129	989.69
320.358	984.69
320.587	1006.69
320.816	986.69
321.046	983.69
321.275	959.69
321.504	983.69
321.733	1028.69
321.962	986.69
322.191	901.69
322.42	898.69
322.649	884.69
322.878	892.69
323.108	940.69
323.337	936.69
323.566	967.69
323.795	948.69
324.024	952.69
324.253	918.69
324.482	951.69
324.71	892.69
324.939	847.69
325.168	902.69
325.397	935.69
325.626	966.69
325.855	962.69
326.084	900.69
326.313	916.69
326.542	941.69
326.77	951.69
326.999	934.69
327.228	887.69
327.457	871.69
327.686	874.69
327.914	884.69
328.143	917.69
328.372	926.69
328.6	888.69
328.829	894.69
329.058	883.69
329.287	929.69
329.515	933.69
329.744	954.69
329.972	988.69
330.201	1023.69
330.43	986.69
330.658	964.69
330.887	988.69
331.115	980.69
331.344	968.69
331.572	968.69
331.801	954.69
332.03	976.69
332.258	984.69
332.486	989.69
332.715	993.69
332.943	1001.69
333.172	970.69
333.4	985.69
333.629	1007.69
333.857	1083.69
334.085	1209.69
334.314	1342.69
334.542	1383.69
334.771	1235.69
334.999	1144.69
335.227	1109.69
335.455	1066.69
335.684	1053.69
335.912	1072.69
336.14	1082.69
336.369	1023.69
336.597	1027.69
336.825	977.69
337.053	1055.69
337.281	1114.69
337.51	1140.69
337.738	1135.69
337.966	1066.69
338.194	999.69
338.422	982.69
338.65	951.69
338.878	947.69
339.106	925.69
339.334	933.69
339.562	911.69
339.79	943.69
340.018	1005.69
340.246	1057.69
340.474	1015.69
340.702	986.69
340.93	1014.69
341.158	966.69
341.386	994.69
341.614	967.69
341.842	980.69
342.07	972.69
342.298	978.69
342.526	960.69
342.754	933.69
342.981	939.69
343.209	950.69
343.437	933.69
343.665	952.69
343.893	995.69
344.12	1047.69
344.348	1059.69
344.576	978.69
344.804	947.69
345.031	951.69
345.259	966.69
345.487	950.69
345.714	907.69
345.942	858.69
346.17	930.69
346.397	920.69
346.625	926.69
346.853	884.69
347.08	852.69
347.308	890.69
347.535	914.69
347.763	928.69
347.99	918.69
348.218	871.69
348.445	905.69
348.673	898.69
348.9	926.69
349.128	976.69
349.355	971.69
349.583	962.69
349.81	902.69
350.037	862.69
350.265	839.69
350.492	876.69
350.72	901.69
350.947	937.69
351.174	918.69
351.402	879.69
351.629	842.69
351.856	863.69
352.083	838.69
352.311	832.69
352.538	888.69
352.765	923.69
352.992	920.69
353.22	898.69
353.447	858.69
353.674	900.69
353.901	922.69
354.128	877.69
354.355	885.69
354.583	930.69
354.81	960.69
355.037	932.69
355.264	930.69
355.491	895.69
355.718	933.69
355.945	911.69
356.172	878.69
356.399	903.69
356.626	883.69
356.853	960.69
357.08	1015.69
357.307	1085.69
357.534	1039.69
357.761	919.69
357.988	855.69
358.215	867.69
358.441	879.69
358.668	862.69
358.895	924.69
359.122	946.69
359.349	1052.69
359.576	979.69
359.802	902.69
360.029	904.69
360.256	879.69
360.483	909.69
360.709	924.69
360.936	956.69
361.163	998.69
361.39	1071.69
361.616	1132.69
361.843	1110.69
362.07	1060.69
362.296	930.69
362.523	898.69
362.749	883.69
362.976	915.69
363.203	938.69
363.429	919.69
363.656	889.69
363.882	946.69
364.109	1017.69
364.335	1094.69
364.562	994.69
364.788	950.69
365.015	907.69
365.241	907.69
365.468	910.69
365.694	947.69
365.92	1008.69
366.147	919.69
366.373	895.69
366.599	886.69
366.826	878.69
367.052	922.69
367.278	926.69
367.505	920.69
367.731	926.69
367.957	953.69
368.184	980.69
368.41	1026.69
368.636	1044.69
368.862	1010.69
369.089	1046.69
369.315	993.69
369.541	947.69
369.767	957.69
369.993	913.69
370.219	897.69
370.445	950.69
370.672	996.69
370.898	1060.69
371.124	982.69
371.35	973.69
371.576	1020.69
371.802	1022.69
372.028	999.69
372.254	936.69
372.48	910.69
372.706	930.69
372.932	937.69
373.158	934.69
373.384	959.69
373.61	983.69
373.835	1019.69
374.061	1002.69
374.287	969.69
374.513	972.69
374.739	965.69
374.965	986.69
375.191	1010.69
375.416	996.69
375.642	1025.69
375.868	1086.69
376.094	1128.69
376.319	1038.69
376.545	986.69
376.771	1019.69
376.997	1082.69
377.222	1018.69
377.448	1043.69
377.674	1012.69
377.899	1023.69
378.125	1106.69
378.35	1071.69
378.576	958.69
378.802	933.69
379.027	942.69
379.253	960.69
379.478	970.69
379.704	967.69
379.929	947.69
380.155	998.69
380.38	981.69
380.606	982.69
380.831	1014.69
381.057	1068.69
381.282	1071.69
381.507	1037.69
381.733	1111.69
381.958	1120.69
382.184	1036.69
382.409	1046.69
382.634	1040.69
382.86	1001.69
383.085	1008.69
383.31	1072.69
383.535	1156.69
383.761	1206.69
383.986	1140.69
384.211	1104.69
384.436	1137.69
384.662	1172.69
384.887	1146.69
385.112	1116.69
385.337	1112.69
385.562	1104.69
385.787	1130.69
386.013	1134.69
386.238	1156.69
386.463	1161.69
386.688	1214.69
386.913	1285.69
387.138	1258.69
387.363	1146.69
387.588	1139.69
387.813	1125.69
388.038	1156.69
388.263	1195.69
388.488	1162.69
388.713	1086.69
388.938	1095.69
389.163	1078.69
389.387	1085.69
389.612	1095.69
389.837	1136.69
390.062	1112.69
390.287	1138.69
390.512	1087.69
390.736	1088.69
390.961	1070.69
391.186	1081.69
391.411	1070.69
391.636	1113.69
391.86	1103.69
392.085	1101.69
392.31	1099.69
392.534	1110.69
392.759	1116.69
392.984	1093.69
393.208	1136.69
393.433	1173.69
393.658	1198.69
393.882	1198.69
394.107	1148.69
394.331	1117.69
394.556	1126.69
394.78	1126.69
395.005	1152.69
395.229	1243.69
395.454	1312.69
395.678	1268.69
395.903	1227.69
396.127	1164.69
396.352	1203.69
396.576	1243.69
396.801	1256.69
397.025	1210.69
397.249	1222.69
397.474	1177.69
397.698	1208.69
397.922	1253.69
398.147	1308.69
398.371	1330.69
398.595	1352.69
398.82	1284.69
399.044	1311.69
399.268	1352.69
399.492	1432.69
399.717	1474.69
399.941	1522.69
400.165	1466.69
400.389	1408.69
400.613	1442.69
400.837	1673.69
401.062	1800.69
401.286	1493.69
401.51	1439.69
401.734	1452.69
401.958	1411.69
402.182	1293.69
402.406	1294.69
402.63	1269.69
402.854	1263.69
403.078	1278.69
403.302	1308.69
403.526	1311.69
403.75	1328.69
403.974	1365.69
404.198	1305.69
404.422	1413.69
404.645	1468.69
404.869	1430.69
405.093	1312.69
405.317	1271.69
405.541	1361.69
405.765	1340.69
405.988	1324.69
406.212	1361.69
406.436	1376.69
406.66	1433.69
406.883	1478.69
407.107	1656.69
407.331	1822.69
407.555	1891.69
407.778	1694.69
408.002	1426.69
408.226	1399.69
408.449	1374.69
408.673	1361.69
408.896	1375.69
409.12	1419.69
409.344	1318.69
409.567	1319.69
409.791	1362.69
410.014	1388.69
410.238	1455.69
410.461	1516.69
410.685	1346.69
410.908	1355.69
411.132	1354.69
411.355	1348.69
411.578	1314.69
411.802	1372.69
412.025	1394.69
412.249	1358.69
412.472	1286.69
412.695	1282.69
412.919	1277.69
413.142	1251.69
413.365	1282.69
413.589	1334.69
413.812	1402.69
414.035	1429.69
414.258	1324.69
414.482	1288.69
414.705	1300.69
414.928	1293.69
415.151	1298.69
415.374	1296.69
415.597	1346.69
415.821	1306.69
416.044	1344.69
416.267	1319.69
416.49	1284.69
416.713	1241.69
416.936	1315.69
417.159	1350.69
417.382	1374.69
417.605	1288.69
417.828	1331.69
418.051	1331.69
418.274	1293.69
418.497	1310.69
418.72	1271.69
418.943	1256.69
419.166	1298.69
419.389	1355.69
419.611	1313.69
419.834	1258.69
420.057	1301.69
420.28	1274.69
420.503	1270.69
420.726	1333.69
420.948	1326.69
421.171	1242.69
421.394	1290.69
421.617	1331.69
421.839	1294.69
422.062	1310.69
422.285	1248.69
422.507	1270.69
422.73	1252.69
422.953	1236.69
423.175	1220.69
423.398	1280.69
423.621	1270.69
423.843	1276.69
424.066	1337.69
424.288	1388.69
424.511	1400.69
424.733	1309.69
424.956	1232.69
425.178	1237.69
425.401	1247.69
425.623	1259.69
425.846	1265.69
426.068	1345.69
426.291	1380.69
426.513	1291.69
426.735	1294.69
426.958	1424.69
427.18	1458.69
427.402	1378.69
427.625	1428.69
427.847	1347.69
428.069	1249.69
428.292	1246.69
428.514	1206.69
428.736	1187.69
428.958	1228.69
429.181	1260.69
429.403	1447.69
429.625	1747.69
429.847	1445.69
430.069	1315.69
430.292	1450.69
430.514	1446.69
430.736	1326.69
430.958	1357.69
431.18	1273.69
431.402	1215.69
431.624	1166.69
431.846	1166.69
432.068	1115.69
432.29	1134.69
432.512	1151.69
432.734	1223.69
432.956	1249.69
433.178	1335.69
433.4	1322.69
433.622	1324.69
433.844	1224.69
434.066	1189.69
434.287	1164.69
434.509	1183.69
434.731	1268.69
434.953	1358.69
435.175	1321.69
435.397	1260.69
435.618	1220.69
435.84	1209.69
436.062	1251.69
436.284	1251.69
436.505	1267.69
436.727	1279.69
436.949	1272.69
437.17	1178.69
437.392	1239.69
437.614	1188.69
437.835	1174.69
438.057	1204.69
438.278	1184.69
438.5	1183.69
438.721	1176.69
438.943	1243.69
439.165	1228.69
439.386	1231.69
439.608	1244.69
439.829	1218.69
440.05	1233.69
440.272	1223.69
440.493	1247.69
440.715	1263.69
440.936	1334.69
441.158	1410.69
441.379	1376.69
441.6	1340.69
441.822	1345.69
442.043	1328.69
442.264	1293.69
442.486	1242.69
442.707	1206.69
442.928	1236.69
443.149	1286.69
443.371	1333.69
443.592	1344.69
443.813	1347.69
444.034	1334.69
444.255	1358.69
444.476	1396.69
444.698	1415.69
444.919	1355.69
445.14	1428.69
445.361	1403.69
445.582	1438.69
445.803	1415.69
446.024	1378.69
446.245	1410.69
446.466	1400.69
446.687	1322.69
446.908	1323.69
447.129	1267.69
447.35	1276.69
447.571	1324.69
447.792	1244.69
448.013	1227.69
448.234	1275.69
448.455	1288.69
448.675	1325.69
448.896	1206.69
449.117	1150.69
449.338	1206.69
449.559	1254.69
449.779	1328.69
450	1360.69
450.221	1463.69
450.442	1404.69
450.662	1250.69
450.883	1141.69
451.104	1191.69
451.324	1186.69
451.545	1190.69
451.766	1171.69
451.986	1134.69
452.207	1100.69
452.428	1084.69
452.648	1079.69
452.869	1105.69
453.089	1106.69
453.31	1125.69
453.53	1168.69
453.751	1107.69
453.971	1033.69
454.192	1060.69
454.412	1145.69
454.633	1116.69
454.853	1096.69
455.073	1053.69
455.294	1053.69
455.514	1085.69
455.734	1057.69
455.955	1131.69
456.175	1057.69
456.395	1022.69
456.616	1074.69
456.836	1091.69
457.056	1062.69
457.276	1060.69
457.497	1037.69
457.717	1024.69
457.937	1029.69
458.157	1053.69
458.377	1050.69
458.598	1003.69
458.818	1032.69
459.038	1095.69
459.258	1151.69
459.478	1134.69
459.698	1102.69
459.918	1123.69
460.138	1189.69
460.358	1212.69
460.578	1265.69
460.798	1282.69
461.018	1327.69
461.238	1266.69
461.458	1250.69
461.678	1259.69
461.898	1200.69
462.118	1218.69
462.338	1233.69
462.558	1245.69
462.777	1263.69
462.997	1318.69
463.217	1360.69
463.437	1323.69
463.657	1265.69
463.876	1229.69
464.096	1244.69
464.316	1246.69
464.536	1250.69
464.755	1284.69
464.975	1293.69
465.195	1246.69
465.414	1296.69
465.634	1276.69
465.854	1247.69
466.073	1400.69
466.293	1315.69
466.512	1148.69
466.732	1171.69
466.951	1234.69
467.171	1236.69
467.391	1170.69
467.61	1191.69
467.829	1195.69
468.049	1316.69
468.268	1421.69
468.488	1296.69
468.707	1214.69
468.927	1198.69
469.146	1217.69
469.365	1179.69
469.585	1200.69
469.804	1199.69
470.023	1259.69
470.243	1243.69
470.462	1188.69
470.681	1204.69
470.901	1190.69
471.12	1213.69
471.339	1215.69
471.558	1207.69
471.777	1175.69
471.997	1191.69
472.216	1175.69
472.435	1118.69
472.654	1124.69
472.873	1173.69
473.092	1218.69
473.311	1166.69
473.53	1145.69
473.749	1114.69
473.968	1181.69
474.187	1197.69
474.406	1184.69
474.625	1179.69
474.844	1194.69
475.063	1186.69
475.282	1214.69
475.501	1174.69
475.72	1166.69
475.939	1230.69
476.158	1219.69
476.377	1194.69
476.596	1220.69
476.814	1219.69
477.033	1165.69
477.252	1278.69
477.471	1269.69
477.69	1263.69
477.908	1282.69
478.127	1380.69
478.346	1396.69
478.564	1386.69
478.783	1382.69
479.002	1472.69
479.22	1383.69
479.439	1454.69
479.658	1582.69
479.876	1495.69
480.095	1362.69
480.313	1295.69
480.532	1295.69
480.751	1268.69
480.969	1309.69
481.188	1256.69
481.406	1212.69
481.624	1216.69
481.843	1268.69
482.061	1277.69
482.28	1317.69
482.498	1310.69
482.717	1319.69
482.935	1297.69
483.153	1329.69
483.372	1331.69
483.59	1333.69
483.808	1366.69
484.027	1342.69
484.245	1395.69
484.463	1720.69
484.681	1859.69
484.9	1477.69
485.118	1359.69
485.336	1330.69
485.554	1341.69
485.772	1367.69
485.99	1338.69
486.209	1379.69
486.427	1349.69
486.645	1383.69
486.863	1399.69
487.081	1443.69
487.299	1456.69
487.517	1410.69
487.735	1442.69
487.953	1479.69
488.171	1512.69
488.389	1456.69
488.607	1473.69
488.825	1580.69
489.043	1503.69
489.261	1403.69
489.479	1425.69
489.696	1451.69
489.914	1491.69
490.132	1407.69
490.35	1440.69
490.568	1519.69
490.786	1504.69
491.003	1452.69
491.221	1505.69
491.439	1558.69
491.657	1531.69
491.874	1640.69
492.092	1644.69
492.31	1688.69
492.527	1647.69
492.745	1576.69
492.963	1581.69
493.18	1600.69
493.398	1691.69
493.615	1710.69
493.833	1586.69
494.05	1532.69
