Data from WStandard_LampEnergy10_LIBS07252019.E.O._I.C._HRD10591_15-55-19-928.txt Node
Date: Thu Jul 25 15:55:19 EDT 2019
User: cochatt
Spectrometer: HR+D1059
Trigger mode: 1
Integration Time (sec): 1.000000E-1
Scans to average: 1
Electric dark correction enabled: true
Nonlinearity correction enabled: false
Boxcar width: 0
XAxis mode: Wavelengths
Number of Pixels in Spectrum: 2048
>>>>>Begin Spectral Data<<<<<
223.165	-10.88
223.4	-10.88
223.635	-10.88
223.869	-9.88
224.104	-15.88
224.338	-9.88
224.573	-14.88
224.808	-11.88
225.042	-5.88
225.277	-3.88
225.511	-2.88
225.746	11.12
225.98	11.12
226.215	4.12
226.449	-7.88
226.683	10.12
226.918	24.12
227.152	33.12
227.387	31.12
227.621	44.12
227.856	34.12
228.09	38.12
228.324	56.12
228.559	48.12
228.793	81.12
229.027	132.12
229.262	140.12
229.496	161.12
229.73	156.12
229.964	171.12
230.199	182.12
230.433	168.12
230.667	180.12
230.901	183.12
231.136	174.12
231.37	171.12
231.604	178.12
231.838	176.12
232.072	165.12
232.306	178.12
232.541	165.12
232.775	202.12
233.009	206.12
233.243	212.12
233.477	196.12
233.711	186.12
233.945	225.12
234.179	206.12
234.413	216.12
234.647	210.12
234.881	209.12
235.115	186.12
235.349	185.12
235.583	182.12
235.817	189.12
236.051	178.12
236.285	196.12
236.519	220.12
236.753	219.12
236.987	226.12
237.221	225.12
237.455	249.12
237.689	230.12
237.922	224.12
238.156	213.12
238.39	227.12
238.624	216.12
238.858	242.12
239.091	238.12
239.325	260.12
239.559	296.12
239.793	282.12
240.027	308.12
240.26	290.12
240.494	216.12
240.728	207.12
240.961	214.12
241.195	234.12
241.429	238.12
241.662	242.12
241.896	221.12
242.13	255.12
242.363	274.12
242.597	261.12
242.83	266.12
243.064	277.12
243.298	292.12
243.531	286.12
243.765	288.12
243.998	275.12
244.232	246.12
244.465	250.12
244.699	265.12
244.932	288.12
245.166	294.12
245.399	289.12
245.633	293.12
245.866	268.12
246.099	279.12
246.333	297.12
246.566	287.12
246.8	304.12
247.033	330.12
247.266	320.12
247.5	332.12
247.733	321.12
247.966	319.12
248.2	340.12
248.433	342.12
248.666	360.12
248.899	371.12
249.133	422.12
249.366	453.12
249.599	384.12
249.832	368.12
250.066	351.12
250.299	341.12
250.532	326.12
250.765	331.12
250.998	338.12
251.231	346.12
251.465	333.12
251.698	326.12
251.931	345.12
252.164	356.12
252.397	366.12
252.63	345.12
252.863	331.12
253.096	308.12
253.329	339.12
253.562	360.12
253.795	361.12
254.028	348.12
254.261	333.12
254.494	327.12
254.727	321.12
254.96	343.12
255.193	387.12
255.426	404.12
255.659	442.12
255.892	434.12
256.124	390.12
256.357	360.12
256.59	416.12
256.823	394.12
257.056	398.12
257.289	469.12
257.521	484.12
257.754	464.12
257.987	424.12
258.22	478.12
258.452	459.12
258.685	405.12
258.918	380.12
259.151	357.12
259.383	345.12
259.616	345.12
259.849	375.12
260.081	398.12
260.314	434.12
260.547	458.12
260.779	455.12
261.012	424.12
261.244	409.12
261.477	405.12
261.71	385.12
261.942	417.12
262.175	392.12
262.407	420.12
262.64	384.12
262.872	370.12
263.105	341.12
263.337	370.12
263.57	376.12
263.802	373.12
264.035	333.12
264.267	338.12
264.499	333.12
264.732	341.12
264.964	366.12
265.197	394.12
265.429	429.12
265.661	459.12
265.894	458.12
266.126	489.12
266.358	462.12
266.591	460.12
266.823	478.12
267.055	454.12
267.287	424.12
267.52	432.12
267.752	437.12
267.984	452.12
268.216	450.12
268.448	456.12
268.681	449.12
268.913	416.12
269.145	422.12
269.377	402.12
269.609	446.12
269.841	515.12
270.073	560.12
270.306	618.12
270.538	601.12
270.77	514.12
271.002	469.12
271.234	453.12
271.466	482.12
271.698	517.12
271.93	578.12
272.162	581.12
272.394	555.12
272.626	506.12
272.858	458.12
273.09	409.12
273.322	403.12
273.553	404.12
273.785	399.12
274.017	411.12
274.249	414.12
274.481	445.12
274.713	428.12
274.945	427.12
275.176	409.12
275.408	397.12
275.64	404.12
275.872	402.12
276.104	437.12
276.335	486.12
276.567	517.12
276.799	498.12
277.031	482.12
277.262	458.12
277.494	469.12
277.726	487.12
277.957	500.12
278.189	466.12
278.421	438.12
278.652	424.12
278.884	430.12
279.115	414.12
279.347	430.12
279.579	432.12
279.81	450.12
280.042	451.12
280.273	513.12
280.505	507.12
280.736	508.12
280.968	468.12
281.199	421.12
281.431	382.12
281.662	398.12
281.894	426.12
282.125	434.12
282.356	472.12
282.588	451.12
282.819	450.12
283.051	493.12
283.282	519.12
283.513	469.12
283.745	434.12
283.976	435.12
284.207	417.12
284.439	441.12
284.67	437.12
284.901	437.12
285.132	452.12
285.364	452.12
285.595	443.12
285.826	445.12
286.057	448.12
286.288	456.12
286.52	467.12
286.751	486.12
286.982	487.12
287.213	469.12
287.444	419.12
287.675	430.12
287.906	453.12
288.138	488.12
288.369	461.12
288.6	446.12
288.831	416.12
289.062	436.12
289.293	458.12
289.524	457.12
289.755	458.12
289.986	441.12
290.217	444.12
290.448	430.12
290.679	460.12
290.91	474.12
291.141	469.12
291.371	466.12
291.602	463.12
291.833	485.12
292.064	494.12
292.295	472.12
292.526	514.12
292.757	483.12
292.987	474.12
293.218	491.12
293.449	518.12
293.68	578.12
293.91	572.12
294.141	539.12
294.372	550.12
294.603	571.12
294.833	544.12
295.064	542.12
295.295	492.12
295.525	474.12
295.756	445.12
295.987	432.12
296.217	440.12
296.448	441.12
296.679	435.12
296.909	466.12
297.14	446.12
297.37	488.12
297.601	514.12
297.831	525.12
298.062	519.12
298.292	484.12
298.523	475.12
298.753	460.12
298.984	469.12
299.214	476.12
299.445	481.12
299.675	506.12
299.905	500.12
300.136	491.12
300.366	464.12
300.597	464.12
300.827	451.12
301.057	451.12
301.288	521.12
301.518	502.12
301.748	509.12
301.979	556.12
302.209	569.12
302.439	590.12
302.669	588.12
302.9	542.12
303.13	498.12
303.36	507.12
303.59	510.12
303.82	506.12
304.051	512.12
304.281	514.12
304.511	531.12
304.741	583.12
304.971	594.12
305.201	627.12
305.431	547.12
305.661	471.12
305.891	445.12
306.121	458.12
306.352	481.12
306.582	496.12
306.812	544.12
307.042	573.12
307.272	566.12
307.502	585.12
307.731	629.12
307.961	596.12
308.191	568.12
308.421	530.12
308.651	511.12
308.881	500.12
309.111	500.12
309.341	483.12
309.571	487.12
309.8	496.12
310.03	472.12
310.26	471.12
310.49	501.12
310.72	515.12
310.949	541.12
311.179	516.12
311.409	479.12
311.639	504.12
311.868	501.12
312.098	495.12
312.328	518.12
312.557	497.12
312.787	502.12
313.017	541.12
313.246	523.12
313.476	537.12
313.706	537.12
313.935	516.12
314.165	546.12
314.394	569.12
314.624	583.12
314.853	605.12
315.083	635.12
315.312	644.12
315.542	572.12
315.771	542.12
316.001	553.12
316.23	580.12
316.46	582.12
316.689	523.12
316.919	526.12
317.148	509.12
317.377	534.12
317.607	581.12
317.836	592.12
318.065	623.12
318.295	612.12
318.524	585.12
318.753	566.12
318.983	566.12
319.212	540.12
319.441	544.12
319.67	548.12
319.9	563.12
320.129	581.12
320.358	585.12
320.587	619.12
320.816	604.12
321.046	589.12
321.275	572.12
321.504	587.12
321.733	604.12
321.962	597.12
322.191	568.12
322.42	554.12
322.649	554.12
322.878	561.12
323.108	562.12
323.337	587.12
323.566	578.12
323.795	577.12
324.024	567.12
324.253	556.12
324.482	542.12
324.71	529.12
324.939	512.12
325.168	525.12
325.397	565.12
325.626	576.12
325.855	567.12
326.084	570.12
326.313	568.12
326.542	563.12
326.77	576.12
326.999	562.12
327.228	566.12
327.457	527.12
327.686	540.12
327.914	554.12
328.143	560.12
328.372	562.12
328.6	546.12
328.829	542.12
329.058	562.12
329.287	562.12
329.515	575.12
329.744	576.12
329.972	606.12
330.201	616.12
330.43	584.12
330.658	589.12
330.887	580.12
331.115	585.12
331.344	586.12
331.572	581.12
331.801	576.12
332.03	587.12
332.258	571.12
332.486	609.12
332.715	625.12
332.943	598.12
333.172	603.12
333.4	596.12
333.629	617.12
333.857	653.12
334.085	742.12
334.314	779.12
334.542	820.12
334.771	758.12
334.999	672.12
335.227	652.12
335.455	628.12
335.684	646.12
335.912	633.12
336.14	667.12
336.369	627.12
336.597	608.12
336.825	610.12
337.053	636.12
337.281	660.12
337.51	682.12
337.738	667.12
337.966	649.12
338.194	605.12
338.422	580.12
338.65	591.12
338.878	587.12
339.106	566.12
339.334	543.12
339.562	547.12
339.79	603.12
340.018	605.12
340.246	637.12
340.474	622.12
340.702	598.12
340.93	626.12
341.158	633.12
341.386	602.12
341.614	600.12
341.842	588.12
342.07	589.12
342.298	596.12
342.526	576.12
342.754	596.12
342.981	585.12
343.209	576.12
343.437	571.12
343.665	601.12
343.893	615.12
344.12	622.12
344.348	606.12
344.576	614.12
344.804	598.12
345.031	595.12
345.259	586.12
345.487	585.12
345.714	538.12
345.942	540.12
346.17	567.12
346.397	568.12
346.625	583.12
346.853	542.12
347.08	542.12
347.308	553.12
347.535	563.12
347.763	580.12
347.99	563.12
348.218	565.12
348.445	564.12
348.673	547.12
348.9	581.12
349.128	613.12
349.355	627.12
349.583	586.12
349.81	542.12
350.037	554.12
350.265	520.12
350.492	550.12
350.72	592.12
350.947	592.12
351.174	583.12
351.402	528.12
351.629	525.12
351.856	524.12
352.083	512.12
352.311	556.12
352.538	553.12
352.765	568.12
352.992	572.12
353.22	551.12
353.447	540.12
353.674	580.12
353.901	552.12
354.128	560.12
354.355	592.12
354.583	586.12
354.81	587.12
355.037	587.12
355.264	571.12
355.491	548.12
355.718	562.12
355.945	548.12
356.172	532.12
356.399	556.12
356.626	574.12
356.853	578.12
357.08	623.12
357.307	685.12
357.534	660.12
357.761	555.12
357.988	554.12
358.215	535.12
358.441	545.12
358.668	554.12
358.895	585.12
359.122	621.12
359.349	642.12
359.576	626.12
359.802	565.12
360.029	546.12
360.256	546.12
360.483	576.12
360.709	581.12
360.936	600.12
361.163	627.12
361.39	692.12
361.616	713.12
361.843	689.12
362.07	645.12
362.296	548.12
362.523	562.12
362.749	580.12
362.976	568.12
363.203	596.12
363.429	570.12
363.656	553.12
363.882	589.12
364.109	653.12
364.335	638.12
364.562	626.12
364.788	602.12
365.015	549.12
365.241	580.12
365.468	569.12
365.694	596.12
365.92	634.12
366.147	558.12
366.373	568.12
366.599	560.12
366.826	557.12
367.052	573.12
367.278	551.12
367.505	590.12
367.731	581.12
367.957	615.12
368.184	626.12
368.41	636.12
368.636	673.12
368.862	670.12
369.089	658.12
369.315	650.12
369.541	621.12
369.767	588.12
369.993	576.12
370.219	597.12
370.445	600.12
370.672	638.12
370.898	672.12
371.124	652.12
371.35	639.12
371.576	634.12
371.802	619.12
372.028	619.12
372.254	613.12
372.48	589.12
372.706	592.12
372.932	596.12
373.158	600.12
373.384	602.12
373.61	638.12
373.835	645.12
374.061	613.12
374.287	614.12
374.513	653.12
374.739	638.12
374.965	641.12
375.191	642.12
375.416	646.12
375.642	670.12
375.868	717.12
376.094	701.12
376.319	661.12
376.545	636.12
376.771	675.12
376.997	688.12
377.222	689.12
377.448	648.12
377.674	648.12
377.899	704.12
378.125	740.12
378.35	691.12
378.576	636.12
378.802	613.12
379.027	621.12
379.253	643.12
379.478	657.12
379.704	626.12
379.929	640.12
380.155	622.12
380.38	647.12
380.606	672.12
380.831	671.12
381.057	699.12
381.282	694.12
381.507	688.12
381.733	705.12
381.958	723.12
382.184	693.12
382.409	692.12
382.634	687.12
382.86	696.12
383.085	673.12
383.31	728.12
383.535	780.12
383.761	822.12
383.986	756.12
384.211	747.12
384.436	708.12
384.662	773.12
384.887	764.12
385.112	730.12
385.337	717.12
385.562	725.12
385.787	730.12
386.013	784.12
386.238	771.12
386.463	769.12
386.688	834.12
386.913	853.12
387.138	818.12
387.363	770.12
387.588	776.12
387.813	755.12
388.038	768.12
388.263	788.12
388.488	756.12
388.713	723.12
388.938	726.12
389.163	746.12
389.387	742.12
389.612	749.12
389.837	744.12
390.062	765.12
390.287	761.12
390.512	736.12
390.736	731.12
390.961	737.12
391.186	732.12
391.411	718.12
391.636	743.12
391.86	747.12
392.085	733.12
392.31	731.12
392.534	758.12
392.759	772.12
392.984	732.12
393.208	752.12
393.433	798.12
393.658	827.12
393.882	802.12
394.107	776.12
394.331	774.12
394.556	778.12
394.78	775.12
395.005	784.12
395.229	817.12
395.454	880.12
395.678	848.12
395.903	843.12
396.127	802.12
396.352	796.12
396.576	866.12
396.801	838.12
397.025	840.12
397.249	852.12
397.474	813.12
397.698	818.12
397.922	823.12
398.147	879.12
398.371	918.12
398.595	876.12
398.82	872.12
399.044	861.12
399.268	916.12
399.492	973.12
399.717	1010.12
399.941	960.12
400.165	948.12
400.389	963.12
400.613	985.12
400.837	1101.12
401.062	1172.12
401.286	1024.12
401.51	983.12
401.734	980.12
401.958	943.12
402.182	882.12
402.406	864.12
402.63	883.12
402.854	882.12
403.078	891.12
403.302	911.12
403.526	924.12
403.75	910.12
403.974	960.12
404.198	932.12
404.422	946.12
404.645	982.12
404.869	994.12
405.093	916.12
405.317	891.12
405.541	948.12
405.765	942.12
405.988	948.12
406.212	957.12
406.436	974.12
406.66	954.12
406.883	1016.12
407.107	1094.12
407.331	1224.12
407.555	1293.12
407.778	1132.12
408.002	962.12
408.226	960.12
408.449	978.12
408.673	941.12
408.896	957.12
409.12	942.12
409.344	950.12
409.567	908.12
409.791	960.12
410.014	949.12
410.238	1027.12
410.461	1056.12
410.685	943.12
410.908	928.12
411.132	930.12
411.355	942.12
411.578	918.12
411.802	961.12
412.025	944.12
412.249	934.12
412.472	920.12
412.695	901.12
412.919	906.12
413.142	908.12
413.365	925.12
413.589	911.12
413.812	983.12
414.035	989.12
414.258	950.12
414.482	924.12
414.705	928.12
414.928	897.12
415.151	901.12
415.374	887.12
415.597	913.12
415.821	922.12
416.044	933.12
416.267	925.12
416.49	920.12
416.713	881.12
416.936	956.12
417.159	979.12
417.382	948.12
417.605	918.12
417.828	933.12
418.051	942.12
418.274	946.12
418.497	938.12
418.72	925.12
418.943	916.12
419.166	970.12
419.389	969.12
419.611	964.12
419.834	930.12
420.057	944.12
420.28	923.12
420.503	923.12
420.726	962.12
420.948	951.12
421.171	916.12
421.394	946.12
421.617	996.12
421.839	956.12
422.062	987.12
422.285	930.12
422.507	932.12
422.73	890.12
422.953	860.12
423.175	889.12
423.398	920.12
423.621	919.12
423.843	948.12
424.066	978.12
424.288	1020.12
424.511	1053.12
424.733	993.12
424.956	940.12
425.178	926.12
425.401	953.12
425.623	928.12
425.846	923.12
426.068	945.12
426.291	965.12
426.513	945.12
426.735	953.12
426.958	1035.12
427.18	1050.12
427.402	1015.12
427.625	1072.12
427.847	1004.12
428.069	924.12
428.292	905.12
428.514	909.12
428.736	884.12
428.958	932.12
429.181	924.12
429.403	1064.12
429.625	1220.12
429.847	1024.12
430.069	957.12
430.292	1034.12
430.514	1043.12
430.736	972.12
430.958	970.12
431.18	918.12
431.402	887.12
431.624	843.12
431.846	818.12
432.068	722.12
432.29	773.12
432.512	776.12
432.734	864.12
432.956	912.12
433.178	963.12
433.4	978.12
433.622	955.12
433.844	910.12
434.066	814.12
434.287	792.12
434.509	777.12
434.731	825.12
434.953	896.12
435.175	894.12
435.397	893.12
435.618	885.12
435.84	821.12
436.062	837.12
436.284	890.12
436.505	910.12
436.727	915.12
436.949	926.12
437.17	884.12
437.392	880.12
437.614	864.12
437.835	806.12
438.057	811.12
438.278	846.12
438.5	862.12
438.721	902.12
438.943	930.12
439.165	919.12
439.386	903.12
439.608	963.12
439.829	944.12
440.05	972.12
440.272	946.12
440.493	929.12
440.715	961.12
440.936	1019.12
441.158	1046.12
441.379	1049.12
441.6	1035.12
441.822	1021.12
442.043	1008.12
442.264	1010.12
442.486	964.12
442.707	969.12
442.928	954.12
443.149	991.12
443.371	1012.12
443.592	1018.12
443.813	1000.12
444.034	988.12
444.255	1014.12
444.476	1018.12
444.698	1028.12
444.919	1048.12
445.14	1114.12
445.361	1075.12
445.582	1069.12
445.803	1033.12
446.024	1006.12
446.245	1058.12
446.466	1030.12
446.687	1020.12
446.908	1025.12
447.129	1010.12
447.35	979.12
447.571	957.12
447.792	953.12
448.013	931.12
448.234	963.12
448.455	951.12
448.675	998.12
448.896	906.12
449.117	900.12
449.338	928.12
449.559	941.12
449.779	958.12
450	1016.12
450.221	1056.12
450.442	994.12
450.662	943.12
450.883	859.12
451.104	887.12
451.324	861.12
451.545	888.12
451.766	847.12
451.986	850.12
452.207	845.12
452.428	816.12
452.648	816.12
452.869	802.12
453.089	803.12
453.31	794.12
453.53	782.12
453.751	742.12
453.971	688.12
454.192	712.12
454.412	795.12
454.633	790.12
454.853	784.12
455.073	758.12
455.294	780.12
455.514	777.12
455.734	743.12
455.955	765.12
456.175	754.12
456.395	726.12
456.616	725.12
456.836	722.12
457.056	717.12
457.276	714.12
457.497	678.12
457.717	688.12
457.937	727.12
458.157	736.12
458.377	673.12
458.598	693.12
458.818	661.12
459.038	674.12
459.258	722.12
459.478	715.12
459.698	700.12
459.918	727.12
460.138	791.12
460.358	807.12
460.578	854.12
460.798	848.12
461.018	891.12
461.238	888.12
461.458	864.12
461.678	846.12
461.898	839.12
462.118	818.12
462.338	820.12
462.558	855.12
462.777	838.12
462.997	868.12
463.217	909.12
463.437	877.12
463.657	850.12
463.876	823.12
464.096	840.12
464.316	848.12
464.536	889.12
464.755	902.12
464.975	881.12
465.195	864.12
465.414	896.12
465.634	865.12
465.854	889.12
466.073	968.12
466.293	902.12
466.512	847.12
466.732	873.12
466.951	894.12
467.171	905.12
467.391	876.12
467.61	824.12
467.829	893.12
468.049	964.12
468.268	1022.12
468.488	966.12
468.707	918.12
468.927	923.12
469.146	889.12
469.365	929.12
469.585	934.12
469.804	927.12
470.023	932.12
470.243	906.12
470.462	905.12
470.681	918.12
470.901	903.12
471.12	935.12
471.339	935.12
471.558	916.12
471.777	903.12
471.997	879.12
472.216	848.12
472.435	800.12
472.654	753.12
472.873	781.12
473.092	834.12
473.311	839.12
473.53	810.12
473.749	808.12
473.968	835.12
474.187	850.12
474.406	837.12
474.625	852.12
474.844	881.12
475.063	868.12
475.282	888.12
475.501	816.12
475.72	838.12
475.939	898.12
476.158	887.12
476.377	864.12
476.596	828.12
476.814	828.12
477.033	796.12
477.252	858.12
477.471	874.12
477.69	928.12
477.908	943.12
478.127	959.12
478.346	1004.12
478.564	989.12
478.783	998.12
479.002	1010.12
479.22	1033.12
479.439	1046.12
479.658	1040.12
479.876	990.12
480.095	923.12
480.313	899.12
480.532	889.12
480.751	866.12
480.969	836.12
481.188	775.12
481.406	768.12
481.624	750.12
481.843	786.12
482.061	833.12
482.28	855.12
482.498	876.12
482.717	846.12
482.935	899.12
483.153	1012.12
483.372	1016.12
483.59	1033.12
483.808	989.12
484.027	938.12
484.245	1001.12
484.463	1211.12
484.681	1306.12
484.9	1006.12
485.118	980.12
485.336	923.12
485.554	925.12
485.772	884.12
485.99	877.12
486.209	905.12
486.427	909.12
486.645	949.12
486.863	1010.12
487.081	993.12
487.299	1011.12
487.517	1012.12
487.735	1109.12
487.953	1216.12
488.171	1150.12
488.389	1115.12
488.607	1064.12
488.825	1155.12
489.043	1085.12
489.261	978.12
489.479	1044.12
489.696	1047.12
489.914	1050.12
490.132	1025.12
490.35	1112.12
490.568	1154.12
490.786	1168.12
491.003	1193.12
491.221	1235.12
491.439	1273.12
491.657	1285.12
491.874	1336.12
492.092	1422.12
492.31	1468.12
492.527	1432.12
492.745	1373.12
492.963	1342.12
493.18	1277.12
493.398	1331.12
493.615	1337.12
493.833	1257.12
494.05	1221.12
494.268	1223.12
494.485	1197.12
494.703	1205.12
494.92	1221.12
495.138	1233.12
495.355	1242.12
495.573	1279.12
495.79	1292.12
496.008	1299.12
496.225	1200.12
496.442	1224.12
496.66	1219.12
496.877	1228.12
497.094	1233.12
497.312	1200.12
497.529	1182.12
497.746	1203.12
497.963	1269.12
498.181	1302.12
498.398	1257.12
498.615	1226.12
498.832	1166.12
499.049	1148.12
499.267	1175.12
499.484	1252.12
499.701	1332.12
499.918	1383.12
500.135	1462.12
500.352	1552.12
