Data from WStandard_LampEnergy10_LIBS07252019.E.O._I.C._HRD10591_15-52-59-928.txt Node
Date: Thu Jul 25 15:52:59 EDT 2019
User: cochatt
Spectrometer: HR+D1059
Trigger mode: 1
Integration Time (sec): 1.000000E-1
Scans to average: 1
Electric dark correction enabled: true
Nonlinearity correction enabled: false
Boxcar width: 0
XAxis mode: Wavelengths
Number of Pixels in Spectrum: 2048
>>>>>Begin Spectral Data<<<<<
223.165	-27.56
223.4	-27.56
223.635	-27.56
223.869	-5.56
224.104	-22.56
224.338	-13.56
224.573	-19.56
224.808	-6.56
225.042	-3.56
225.277	-7.56
225.511	-18.56
225.746	-3.56
225.98	5.44
226.215	23.44
226.449	13.44
226.683	16.44
226.918	30.44
227.152	39.44
227.387	50.44
227.621	38.44
227.856	47.44
228.09	34.44
228.324	63.44
228.559	59.44
228.793	92.44
229.027	146.44
229.262	164.44
229.496	145.44
229.73	162.44
229.964	169.44
230.199	180.44
230.433	181.44
230.667	166.44
230.901	199.44
231.136	180.44
231.37	173.44
231.604	182.44
231.838	191.44
232.072	195.44
232.306	197.44
232.541	184.44
232.775	199.44
233.009	197.44
233.243	213.44
233.477	210.44
233.711	210.44
233.945	210.44
234.179	203.44
234.413	210.44
234.647	221.44
234.881	191.44
235.115	196.44
235.349	198.44
235.583	206.44
235.817	198.44
236.051	183.44
236.285	195.44
236.519	206.44
236.753	246.44
236.987	233.44
237.221	236.44
237.455	248.44
237.689	224.44
237.922	237.44
238.156	231.44
238.39	236.44
238.624	217.44
238.858	262.44
239.091	264.44
239.325	266.44
239.559	303.44
239.793	297.44
240.027	304.44
240.26	300.44
240.494	257.44
240.728	242.44
240.961	238.44
241.195	238.44
241.429	263.44
241.662	250.44
241.896	257.44
242.13	271.44
242.363	278.44
242.597	292.44
242.83	287.44
243.064	277.44
243.298	308.44
243.531	300.44
243.765	290.44
243.998	286.44
244.232	258.44
244.465	261.44
244.699	255.44
244.932	300.44
245.166	300.44
245.399	309.44
245.633	286.44
245.866	273.44
246.099	294.44
246.333	302.44
246.566	297.44
246.8	338.44
247.033	356.44
247.266	347.44
247.5	321.44
247.733	321.44
247.966	349.44
248.2	365.44
248.433	368.44
248.666	390.44
248.899	388.44
249.133	438.44
249.366	491.44
249.599	421.44
249.832	394.44
250.066	370.44
250.299	377.44
250.532	338.44
250.765	334.44
250.998	348.44
251.231	339.44
251.465	350.44
251.698	358.44
251.931	328.44
252.164	368.44
252.397	359.44
252.63	347.44
252.863	347.44
253.096	334.44
253.329	337.44
253.562	362.44
253.795	376.44
254.028	360.44
254.261	362.44
254.494	345.44
254.727	335.44
254.96	356.44
255.193	391.44
255.426	420.44
255.659	480.44
255.892	455.44
256.124	400.44
256.357	387.44
256.59	402.44
256.823	425.44
257.056	431.44
257.289	487.44
257.521	500.44
257.754	472.44
257.987	451.44
258.22	482.44
258.452	464.44
258.685	416.44
258.918	384.44
259.151	401.44
259.383	384.44
259.616	354.44
259.849	382.44
260.081	430.44
260.314	470.44
260.547	476.44
260.779	475.44
261.012	446.44
261.244	411.44
261.477	406.44
261.71	423.44
261.942	421.44
262.175	398.44
262.407	414.44
262.64	384.44
262.872	378.44
263.105	381.44
263.337	383.44
263.57	369.44
263.802	388.44
264.035	374.44
264.267	343.44
264.499	340.44
264.732	380.44
264.964	393.44
265.197	384.44
265.429	429.44
265.661	455.44
265.894	510.44
266.126	497.44
266.358	458.44
266.591	492.44
266.823	503.44
267.055	460.44
267.287	447.44
267.52	454.44
267.752	452.44
267.984	446.44
268.216	472.44
268.448	472.44
268.681	482.44
268.913	461.44
269.145	412.44
269.377	409.44
269.609	453.44
269.841	517.44
270.073	589.44
270.306	617.44
270.538	639.44
270.77	553.44
271.002	494.44
271.234	487.44
271.466	483.44
271.698	519.44
271.93	621.44
272.162	618.44
272.394	559.44
272.626	529.44
272.858	463.44
273.09	428.44
273.322	423.44
273.553	400.44
273.785	421.44
274.017	430.44
274.249	446.44
274.481	437.44
274.713	443.44
274.945	430.44
275.176	436.44
275.408	415.44
275.64	404.44
275.872	424.44
276.104	448.44
276.335	508.44
276.567	529.44
276.799	541.44
277.031	497.44
277.262	486.44
277.494	530.44
277.726	546.44
277.957	516.44
278.189	473.44
278.421	450.44
278.652	447.44
278.884	439.44
279.115	450.44
279.347	463.44
279.579	457.44
279.81	461.44
280.042	482.44
280.273	530.44
280.505	521.44
280.736	545.44
280.968	494.44
281.199	438.44
281.431	422.44
281.662	439.44
281.894	415.44
282.125	440.44
282.356	460.44
282.588	455.44
282.819	485.44
283.051	496.44
283.282	537.44
283.513	519.44
283.745	458.44
283.976	409.44
284.207	436.44
284.439	448.44
284.67	440.44
284.901	463.44
285.132	469.44
285.364	468.44
285.595	458.44
285.826	456.44
286.057	437.44
286.288	455.44
286.52	482.44
286.751	503.44
286.982	515.44
287.213	460.44
287.444	436.44
287.675	452.44
287.906	472.44
288.138	488.44
288.369	495.44
288.6	463.44
288.831	442.44
289.062	459.44
289.293	454.44
289.524	481.44
289.755	479.44
289.986	452.44
290.217	438.44
290.448	446.44
290.679	459.44
290.91	478.44
291.141	464.44
291.371	519.44
291.602	480.44
291.833	486.44
292.064	502.44
292.295	497.44
292.526	505.44
292.757	506.44
292.987	508.44
293.218	496.44
293.449	522.44
293.68	578.44
293.91	624.44
294.141	569.44
294.372	540.44
294.603	575.44
294.833	568.44
295.064	527.44
295.295	497.44
295.525	478.44
295.756	451.44
295.987	446.44
296.217	461.44
296.448	471.44
296.679	483.44
296.909	464.44
297.14	483.44
297.37	494.44
297.601	515.44
297.831	545.44
298.062	539.44
298.292	488.44
298.523	485.44
298.753	471.44
298.984	482.44
299.214	484.44
299.445	492.44
299.675	506.44
299.905	512.44
300.136	494.44
300.366	478.44
300.597	473.44
300.827	486.44
301.057	493.44
301.288	518.44
301.518	545.44
301.748	524.44
301.979	551.44
302.209	572.44
302.439	613.44
302.669	608.44
302.9	585.44
303.13	537.44
303.36	526.44
303.59	511.44
303.82	532.44
304.051	524.44
304.281	509.44
304.511	523.44
304.741	558.44
304.971	634.44
305.201	631.44
305.431	566.44
305.661	470.44
305.891	465.44
306.121	469.44
306.352	496.44
306.582	488.44
306.812	554.44
307.042	589.44
307.272	589.44
307.502	599.44
307.731	624.44
307.961	620.44
308.191	585.44
308.421	527.44
308.651	503.44
308.881	504.44
309.111	513.44
309.341	501.44
309.571	506.44
309.8	517.44
310.03	495.44
310.26	493.44
310.49	506.44
310.72	540.44
310.949	540.44
311.179	541.44
311.409	508.44
311.639	520.44
311.868	516.44
312.098	530.44
312.328	506.44
312.557	500.44
312.787	511.44
313.017	533.44
313.246	537.44
313.476	552.44
313.706	550.44
313.935	539.44
314.165	526.44
314.394	565.44
314.624	590.44
314.853	617.44
315.083	654.44
315.312	622.44
315.542	584.44
315.771	555.44
316.001	562.44
316.23	570.44
316.46	563.44
316.689	573.44
316.919	515.44
317.148	548.44
317.377	550.44
317.607	583.44
317.836	661.44
318.065	638.44
318.295	633.44
318.524	632.44
318.753	581.44
318.983	588.44
319.212	555.44
319.441	567.44
319.67	547.44
319.9	560.44
320.129	632.44
320.358	618.44
320.587	634.44
320.816	631.44
321.046	618.44
321.275	600.44
321.504	626.44
321.733	658.44
321.962	607.44
322.191	570.44
322.42	554.44
322.649	572.44
322.878	544.44
323.108	591.44
323.337	602.44
323.566	581.44
323.795	599.44
324.024	574.44
324.253	573.44
324.482	564.44
324.71	568.44
324.939	540.44
325.168	556.44
325.397	566.44
325.626	584.44
325.855	586.44
326.084	583.44
326.313	600.44
326.542	591.44
326.77	603.44
326.999	598.44
327.228	578.44
327.457	554.44
327.686	553.44
327.914	544.44
328.143	574.44
328.372	575.44
328.6	573.44
328.829	558.44
329.058	536.44
329.287	556.44
329.515	561.44
329.744	589.44
329.972	625.44
330.201	636.44
330.43	618.44
330.658	592.44
330.887	620.44
331.115	605.44
331.344	599.44
331.572	593.44
331.801	609.44
332.03	589.44
332.258	602.44
332.486	652.44
332.715	620.44
332.943	599.44
333.172	612.44
333.4	598.44
333.629	630.44
333.857	668.44
334.085	749.44
334.314	823.44
334.542	838.44
334.771	786.44
334.999	689.44
335.227	662.44
335.455	629.44
335.684	638.44
335.912	668.44
336.14	677.44
336.369	654.44
336.597	630.44
336.825	619.44
337.053	644.44
337.281	695.44
337.51	696.44
337.738	722.44
337.966	682.44
338.194	628.44
338.422	608.44
338.65	605.44
338.878	608.44
339.106	588.44
339.334	586.44
339.562	580.44
339.79	604.44
340.018	639.44
340.246	644.44
340.474	634.44
340.702	609.44
340.93	629.44
341.158	637.44
341.386	645.44
341.614	609.44
341.842	617.44
342.07	612.44
342.298	604.44
342.526	612.44
342.754	607.44
342.981	597.44
343.209	602.44
343.437	592.44
343.665	592.44
343.893	615.44
344.12	651.44
344.348	636.44
344.576	604.44
344.804	611.44
345.031	597.44
345.259	599.44
345.487	546.44
345.714	551.44
345.942	557.44
346.17	583.44
346.397	588.44
346.625	589.44
346.853	566.44
347.08	552.44
347.308	570.44
347.535	589.44
347.763	585.44
347.99	564.44
348.218	538.44
348.445	585.44
348.673	575.44
348.9	588.44
349.128	606.44
349.355	602.44
349.583	620.44
349.81	560.44
350.037	530.44
350.265	552.44
350.492	553.44
350.72	548.44
350.947	588.44
351.174	587.44
351.402	541.44
351.629	548.44
351.856	536.44
352.083	533.44
352.311	552.44
352.538	560.44
352.765	593.44
352.992	584.44
353.22	578.44
353.447	578.44
353.674	560.44
353.901	582.44
354.128	559.44
354.355	568.44
354.583	609.44
354.81	598.44
355.037	573.44
355.264	582.44
355.491	566.44
355.718	572.44
355.945	550.44
356.172	557.44
356.399	578.44
356.626	572.44
356.853	598.44
357.08	658.44
357.307	678.44
357.534	639.44
357.761	586.44
357.988	570.44
358.215	553.44
358.441	544.44
358.668	555.44
358.895	568.44
359.122	629.44
359.349	637.44
359.576	645.44
359.802	590.44
360.029	572.44
360.256	556.44
360.483	590.44
360.709	590.44
360.936	621.44
361.163	620.44
361.39	681.44
361.616	742.44
361.843	720.44
362.07	644.44
362.296	584.44
362.523	574.44
362.749	576.44
362.976	600.44
363.203	599.44
363.429	569.44
363.656	554.44
363.882	593.44
364.109	660.44
364.335	692.44
364.562	640.44
364.788	612.44
365.015	576.44
365.241	575.44
365.468	580.44
365.694	622.44
365.92	641.44
366.147	607.44
366.373	571.44
366.599	582.44
366.826	580.44
367.052	576.44
367.278	570.44
367.505	592.44
367.731	611.44
367.957	629.44
368.184	657.44
368.41	698.44
368.636	672.44
368.862	681.44
369.089	668.44
369.315	636.44
369.541	629.44
369.767	601.44
369.993	580.44
370.219	590.44
370.445	614.44
370.672	686.44
370.898	665.44
371.124	656.44
371.35	649.44
371.576	666.44
371.802	658.44
372.028	650.44
372.254	642.44
372.48	624.44
372.706	600.44
372.932	615.44
373.158	609.44
373.384	605.44
373.61	653.44
373.835	670.44
374.061	635.44
374.287	630.44
374.513	633.44
374.739	621.44
374.965	672.44
375.191	648.44
375.416	656.44
375.642	692.44
375.868	729.44
376.094	726.44
376.319	684.44
376.545	680.44
376.771	689.44
376.997	702.44
377.222	719.44
377.448	689.44
377.674	692.44
377.899	681.44
378.125	716.44
378.35	721.44
378.576	663.44
378.802	626.44
379.027	638.44
379.253	631.44
379.478	657.44
379.704	647.44
379.929	655.44
380.155	672.44
380.38	653.44
380.606	668.44
380.831	697.44
381.057	717.44
381.282	704.44
381.507	706.44
381.733	754.44
381.958	768.44
382.184	702.44
382.409	685.44
382.634	709.44
382.86	701.44
383.085	686.44
383.31	748.44
383.535	792.44
383.761	806.44
383.986	774.44
384.211	743.44
384.436	744.44
384.662	774.44
384.887	813.44
385.112	759.44
385.337	730.44
385.562	746.44
385.787	756.44
386.013	796.44
386.238	783.44
386.463	764.44
386.688	859.44
386.913	874.44
387.138	806.44
387.363	782.44
387.588	787.44
387.813	756.44
388.038	795.44
388.263	826.44
388.488	762.44
388.713	725.44
388.938	726.44
389.163	735.44
389.387	772.44
389.612	747.44
389.837	776.44
390.062	752.44
390.287	760.44
390.512	745.44
390.736	746.44
390.961	745.44
391.186	736.44
391.411	723.44
391.636	751.44
391.86	780.44
392.085	748.44
392.31	770.44
392.534	760.44
392.759	773.44
392.984	784.44
393.208	776.44
393.433	824.44
393.658	845.44
393.882	825.44
394.107	784.44
394.331	788.44
394.556	778.44
394.78	796.44
395.005	826.44
395.229	830.44
395.454	882.44
395.678	885.44
395.903	855.44
396.127	828.44
396.352	846.44
396.576	857.44
396.801	840.44
397.025	866.44
397.249	834.44
397.474	821.44
397.698	840.44
397.922	906.44
398.147	900.44
398.371	921.44
398.595	885.44
398.82	876.44
399.044	901.44
399.268	925.44
399.492	971.44
399.717	966.44
399.941	991.44
400.165	1009.44
400.389	961.44
400.613	994.44
400.837	1133.44
401.062	1202.44
401.286	1042.44
401.51	1004.44
401.734	996.44
401.958	947.44
402.182	896.44
402.406	876.44
402.63	886.44
402.854	898.44
403.078	881.44
403.302	913.44
403.526	910.44
403.75	910.44
403.974	959.44
404.198	928.44
404.422	992.44
404.645	1046.44
404.869	960.44
405.093	914.44
405.317	919.44
405.541	891.44
405.765	940.44
405.988	937.44
406.212	955.44
406.436	972.44
406.66	1029.44
406.883	1040.44
407.107	1158.44
407.331	1225.44
407.555	1264.44
407.778	1088.44
408.002	986.44
408.226	958.44
408.449	982.44
408.673	953.44
408.896	958.44
409.12	960.44
409.344	931.44
409.567	932.44
409.791	968.44
410.014	988.44
410.238	1057.44
410.461	1076.44
410.685	986.44
410.908	925.44
411.132	943.44
411.355	936.44
411.578	960.44
411.802	965.44
412.025	961.44
412.249	935.44
412.472	895.44
412.695	912.44
412.919	920.44
413.142	936.44
413.365	950.44
413.589	931.44
413.812	997.44
414.035	1010.44
414.258	958.44
414.482	924.44
414.705	943.44
414.928	895.44
415.151	933.44
415.374	943.44
415.597	941.44
415.821	976.44
416.044	952.44
416.267	959.44
416.49	927.44
416.713	931.44
416.936	972.44
417.159	996.44
417.382	978.44
417.605	956.44
417.828	935.44
418.051	940.44
418.274	977.44
418.497	957.44
418.72	930.44
418.943	906.44
419.166	977.44
419.389	1029.44
419.611	941.44
419.834	944.44
420.057	965.44
420.28	971.44
420.503	946.44
420.726	994.44
420.948	987.44
421.171	965.44
421.394	944.44
421.617	983.44
421.839	1012.44
422.062	972.44
422.285	941.44
422.507	927.44
422.73	932.44
422.953	870.44
423.175	912.44
423.398	902.44
423.621	909.44
423.843	962.44
424.066	975.44
424.288	1040.44
424.511	1060.44
424.733	1020.44
424.956	935.44
425.178	928.44
425.401	954.44
425.623	978.44
425.846	953.44
426.068	976.44
426.291	1005.44
426.513	960.44
426.735	989.44
426.958	1088.44
427.18	1066.44
427.402	1053.44
427.625	1063.44
427.847	997.44
428.069	951.44
428.292	944.44
428.514	912.44
428.736	921.44
428.958	932.44
429.181	922.44
429.403	1056.44
429.625	1271.44
429.847	1051.44
430.069	938.44
430.292	1056.44
430.514	1058.44
430.736	981.44
430.958	1019.44
431.18	929.44
431.402	896.44
431.624	856.44
431.846	832.44
432.068	752.44
432.29	775.44
432.512	798.44
432.734	924.44
432.956	937.44
433.178	1006.44
433.4	970.44
433.622	974.44
433.844	908.44
434.066	849.44
434.287	810.44
434.509	773.44
434.731	824.44
434.953	956.44
435.175	977.44
435.397	932.44
435.618	892.44
435.84	834.44
436.062	833.44
436.284	937.44
436.505	960.44
436.727	958.44
436.949	937.44
437.17	900.44
437.392	908.44
437.614	860.44
437.835	810.44
438.057	834.44
438.278	861.44
438.5	888.44
438.721	926.44
438.943	941.44
439.165	934.44
439.386	936.44
439.608	939.44
439.829	969.44
440.05	971.44
440.272	989.44
440.493	966.44
440.715	976.44
440.936	1033.44
441.158	1065.44
441.379	1034.44
441.6	1046.44
441.822	1053.44
442.043	1042.44
442.264	1021.44
442.486	1002.44
442.707	970.44
442.928	974.44
443.149	996.44
443.371	1018.44
443.592	1043.44
443.813	1026.44
444.034	1025.44
444.255	1001.44
444.476	1084.44
444.698	1085.44
444.919	1097.44
445.14	1169.44
445.361	1106.44
445.582	1089.44
445.803	1072.44
446.024	1074.44
446.245	1101.44
446.466	1072.44
446.687	1046.44
446.908	1082.44
447.129	1039.44
447.35	1030.44
447.571	1007.44
447.792	994.44
448.013	970.44
448.234	961.44
448.455	1020.44
448.675	990.44
448.896	957.44
449.117	931.44
449.338	917.44
449.559	941.44
449.779	962.44
450	1016.44
450.221	1043.44
450.442	1034.44
450.662	961.44
450.883	889.44
451.104	887.44
451.324	917.44
451.545	926.44
451.766	884.44
451.986	855.44
452.207	832.44
452.428	800.44
452.648	825.44
452.869	816.44
453.089	805.44
453.31	774.44
453.53	802.44
453.751	775.44
453.971	720.44
454.192	747.44
454.412	768.44
454.633	801.44
454.853	766.44
455.073	746.44
455.294	782.44
455.514	805.44
455.734	788.44
455.955	782.44
456.175	745.44
456.395	757.44
456.616	745.44
456.836	750.44
457.056	730.44
457.276	722.44
457.497	738.44
457.717	707.44
457.937	724.44
458.157	731.44
458.377	725.44
458.598	692.44
458.818	685.44
459.038	688.44
459.258	698.44
459.478	740.44
459.698	735.44
459.918	764.44
460.138	810.44
460.358	836.44
460.578	839.44
460.798	857.44
461.018	895.44
461.238	871.44
461.458	878.44
461.678	845.44
461.898	826.44
462.118	816.44
462.338	842.44
462.558	860.44
462.777	846.44
462.997	869.44
463.217	906.44
463.437	886.44
463.657	865.44
463.876	840.44
464.096	834.44
464.316	843.44
464.536	881.44
464.755	881.44
464.975	891.44
465.195	888.44
465.414	872.44
465.634	881.44
465.854	926.44
466.073	964.44
466.293	962.44
466.512	878.44
466.732	910.44
466.951	908.44
467.171	903.44
467.391	907.44
467.61	892.44
467.829	946.44
468.049	1013.44
468.268	1090.44
468.488	989.44
468.707	945.44
468.927	943.44
469.146	926.44
469.365	932.44
469.585	968.44
469.804	924.44
470.023	950.44
470.243	955.44
470.462	924.44
470.681	941.44
470.901	938.44
471.12	917.44
471.339	968.44
471.558	944.44
471.777	892.44
471.997	924.44
472.216	874.44
472.435	781.44
472.654	772.44
472.873	776.44
473.092	855.44
473.311	849.44
473.53	825.44
473.749	843.44
473.968	837.44
474.187	887.44
474.406	874.44
474.625	872.44
474.844	886.44
475.063	880.44
475.282	868.44
475.501	817.44
475.72	844.44
475.939	920.44
476.158	928.44
476.377	896.44
476.596	873.44
476.814	844.44
477.033	800.44
477.252	868.44
477.471	936.44
477.69	917.44
477.908	935.44
478.127	987.44
478.346	1017.44
478.564	1010.44
478.783	1023.44
479.002	1050.44
479.22	998.44
479.439	1028.44
479.658	1052.44
479.876	984.44
480.095	896.44
480.313	898.44
480.532	903.44
480.751	885.44
480.969	868.44
481.188	809.44
481.406	800.44
481.624	776.44
481.843	801.44
482.061	838.44
482.28	891.44
482.498	916.44
482.717	882.44
482.935	937.44
483.153	1017.44
483.372	1050.44
483.59	1030.44
483.808	991.44
484.027	953.44
484.245	976.44
484.463	1247.44
484.681	1288.44
484.9	1051.44
485.118	976.44
485.336	934.44
485.554	913.44
485.772	941.44
485.99	905.44
486.209	930.44
486.427	907.44
486.645	953.44
486.863	1044.44
487.081	1052.44
487.299	999.44
487.517	1027.44
487.735	1124.44
487.953	1199.44
488.171	1180.44
488.389	1156.44
488.607	1098.44
488.825	1168.44
489.043	1111.44
489.261	1007.44
489.479	1051.44
489.696	1059.44
489.914	1063.44
490.132	1058.44
490.35	1114.44
490.568	1176.44
490.786	1209.44
491.003	1208.44
491.221	1288.44
491.439	1298.44
491.657	1319.44
491.874	1396.44
492.092	1442.44
492.31	1545.44
492.527	1492.44
492.745	1406.44
492.963	1375.44
493.18	1341.44
493.398	1381.44
493.615	1364.44
493.833	1261.44
494.05	1256.44
494.268	1240.44
494.485	1259.44
494.703	1296.44
494.92	1225.44
495.138	1284.44
495.355	1252.44
495.573	1287.44
495.79	1321.44
496.008	1335.44
496.225	1237.44
496.442	1263.44
496.66	1256.44
496.877	1199.44
497.094	1269.44
497.312	1254.44
497.529	1222.44
497.746	1227.44
497.963	1264.44
498.181	1313.44
498.398	1291.44
498.615	1226.44
498.832	1180.44
499.049	1158.44
499.267	1142.44
499.484	1263.44
499.701	1377.44
499.918	1385.44
500.135	1478.44
