Data from WStandard_LampEnergy5.5LIBS07252019.E.O._I.C._HRD10591_16-07-08-919.txt Node
Date: Thu Jul 25 16:07:08 EDT 2019
User: cochatt
Spectrometer: HR+D1059
Trigger mode: 1
Integration Time (sec): 1.000000E-1
Scans to average: 1
Electric dark correction enabled: true
Nonlinearity correction enabled: false
Boxcar width: 0
XAxis mode: Wavelengths
Number of Pixels in Spectrum: 2048
>>>>>Begin Spectral Data<<<<<
223.165	-22.06
223.4	-22.06
223.635	-22.06
223.869	-30.06
224.104	-11.06
224.338	-16.06
224.573	-13.06
224.808	-10.06
225.042	-21.06
225.277	5.94
225.511	7.94
225.746	10.94
225.98	5.94
226.215	-2.06
226.449	13.94
226.683	24.94
226.918	32.94
227.152	22.94
227.387	35.94
227.621	47.94
227.856	46.94
228.09	58.94
228.324	61.94
228.559	50.94
228.793	151.94
229.027	371.94
229.262	373.94
229.496	387.94
229.73	425.94
229.964	465.94
230.199	478.94
230.433	511.94
230.667	534.94
230.901	573.94
231.136	491.94
231.37	476.94
231.604	481.94
231.838	483.94
232.072	499.94
232.306	477.94
232.541	487.94
232.775	592.94
233.009	676.94
233.243	625.94
233.477	553.94
233.711	593.94
233.945	591.94
234.179	578.94
234.413	613.94
234.647	669.94
234.881	637.94
235.115	586.94
235.349	592.94
235.583	595.94
235.817	580.94
236.051	570.94
236.285	562.94
236.519	609.94
236.753	663.94
236.987	695.94
237.221	718.94
237.455	771.94
237.689	734.94
237.922	721.94
238.156	686.94
238.39	690.94
238.624	743.94
238.858	791.94
239.091	809.94
239.325	870.94
239.559	985.94
239.793	1019.94
240.027	1108.94
240.26	1094.94
240.494	787.94
240.728	743.94
240.961	750.94
241.195	756.94
241.429	865.94
241.662	887.94
241.896	784.94
242.13	775.94
242.363	893.94
242.597	955.94
242.83	935.94
243.064	933.94
243.298	1029.94
243.531	1004.94
243.765	1000.94
243.998	993.94
244.232	846.94
244.465	807.94
244.699	815.94
244.932	958.94
245.166	1084.94
245.399	1044.94
245.633	949.94
245.866	924.94
246.099	997.94
246.333	1018.94
246.566	996.94
246.8	1118.94
247.033	1243.94
247.266	1146.94
247.5	1088.94
247.733	1098.94
247.966	1173.94
248.2	1313.94
248.433	1234.94
248.666	1281.94
248.899	1370.94
249.133	1617.94
249.366	1882.94
249.599	1504.94
249.832	1317.94
250.066	1365.94
250.299	1379.94
250.532	1285.94
250.765	1150.94
250.998	1198.94
251.231	1281.94
251.465	1312.94
251.698	1236.94
251.931	1245.94
252.164	1301.94
252.397	1300.94
252.63	1329.94
252.863	1164.94
253.096	1130.94
253.329	1226.94
253.562	1248.94
253.795	1341.94
254.028	1336.94
254.261	1230.94
254.494	1239.94
254.727	1150.94
254.96	1200.94
255.193	1323.94
255.426	1509.94
255.659	1709.94
255.892	1781.94
256.124	1479.94
256.357	1378.94
256.59	1519.94
256.823	1533.94
257.056	1478.94
257.289	1808.94
257.521	2069.94
257.754	1790.94
257.987	1658.94
258.22	1881.94
258.452	1852.94
258.685	1493.94
258.918	1451.94
259.151	1455.94
259.383	1396.94
259.616	1251.94
259.849	1307.94
260.081	1438.94
260.314	1642.94
260.547	1789.94
260.779	1833.94
261.012	1689.94
261.244	1513.94
261.477	1394.94
261.71	1483.94
261.942	1464.94
262.175	1412.94
262.407	1554.94
262.64	1455.94
262.872	1383.94
263.105	1291.94
263.337	1355.94
263.57	1370.94
263.802	1336.94
264.035	1303.94
264.267	1226.94
264.499	1201.94
264.732	1288.94
264.964	1337.94
265.197	1410.94
265.429	1506.94
265.661	1691.94
265.894	1804.94
266.126	1913.94
266.358	1669.94
266.591	1750.94
266.823	1921.94
267.055	1736.94
267.287	1662.94
267.52	1635.94
267.752	1641.94
267.984	1662.94
268.216	1713.94
268.448	1789.94
268.681	1758.94
268.913	1638.94
269.145	1487.94
269.377	1455.94
269.609	1561.94
269.841	1829.94
270.073	2193.94
270.306	2384.94
270.538	2591.94
270.77	2182.94
271.002	1821.94
271.234	1728.94
271.466	1687.94
271.698	1922.94
271.93	2360.94
272.162	2354.94
272.394	2109.94
272.626	2024.94
272.858	1762.94
273.09	1499.94
273.322	1489.94
273.553	1459.94
273.785	1463.94
274.017	1532.94
274.249	1617.94
274.481	1669.94
274.713	1535.94
274.945	1478.94
275.176	1465.94
275.408	1471.94
275.64	1461.94
275.872	1412.94
276.104	1510.94
276.335	1711.94
276.567	1986.94
276.799	2035.94
277.031	1806.94
277.262	1697.94
277.494	1755.94
277.726	1966.94
277.957	1921.94
278.189	1774.94
278.421	1624.94
278.652	1561.94
278.884	1533.94
279.115	1545.94
279.347	1589.94
279.579	1543.94
279.81	1526.94
280.042	1719.94
280.273	1850.94
280.505	1834.94
280.736	1922.94
280.968	1783.94
281.199	1588.94
281.431	1529.94
281.662	1509.94
281.894	1501.94
282.125	1543.94
282.356	1573.94
282.588	1622.94
282.819	1621.94
283.051	1726.94
283.282	1909.94
283.513	1844.94
283.745	1571.94
283.976	1500.94
284.207	1524.94
284.439	1560.94
284.67	1563.94
284.901	1574.94
285.132	1630.94
285.364	1619.94
285.595	1600.94
285.826	1574.94
286.057	1570.94
286.288	1560.94
286.52	1614.94
286.751	1777.94
286.982	1841.94
287.213	1683.94
287.444	1551.94
287.675	1525.94
287.906	1617.94
288.138	1711.94
288.369	1698.94
288.6	1567.94
288.831	1551.94
289.062	1546.94
289.293	1561.94
289.524	1568.94
289.755	1634.94
289.986	1630.94
290.217	1479.94
290.448	1484.94
290.679	1593.94
290.91	1585.94
291.141	1651.94
291.371	1726.94
291.602	1726.94
291.833	1679.94
292.064	1744.94
292.295	1653.94
292.526	1745.94
292.757	1808.94
292.987	1706.94
293.218	1597.94
293.449	1692.94
293.68	1995.94
293.91	2143.94
294.141	1950.94
294.372	1862.94
294.603	1911.94
294.833	1995.94
295.064	1873.94
295.295	1706.94
295.525	1647.94
295.756	1527.94
295.987	1469.94
296.217	1510.94
296.448	1545.94
296.679	1568.94
296.909	1584.94
297.14	1561.94
297.37	1557.94
297.601	1672.94
297.831	1794.94
298.062	1814.94
298.292	1652.94
298.523	1543.94
298.753	1564.94
298.984	1601.94
299.214	1628.94
299.445	1621.94
299.675	1702.94
299.905	1710.94
300.136	1657.94
300.366	1625.94
300.597	1545.94
300.827	1540.94
301.057	1610.94
301.288	1697.94
301.518	1699.94
301.748	1684.94
301.979	1815.94
302.209	1785.94
302.439	1973.94
302.669	2086.94
302.9	1915.94
303.13	1711.94
303.36	1705.94
303.59	1800.94
303.82	1731.94
304.051	1688.94
304.281	1703.94
304.511	1745.94
304.741	1805.94
304.971	1997.94
305.201	2201.94
305.431	2032.94
305.661	1671.94
305.891	1498.94
306.121	1480.94
306.352	1571.94
306.582	1651.94
306.812	1731.94
307.042	1891.94
307.272	1896.94
307.502	1967.94
307.731	2121.94
307.961	2297.94
308.191	2108.94
308.421	1775.94
308.651	1695.94
308.881	1642.94
309.111	1664.94
309.341	1626.94
309.571	1613.94
309.8	1640.94
310.03	1632.94
310.26	1622.94
310.49	1606.94
310.72	1688.94
310.949	1696.94
311.179	1739.94
311.409	1731.94
311.639	1695.94
311.868	1648.94
312.098	1686.94
312.328	1672.94
312.557	1642.94
312.787	1694.94
313.017	1733.94
313.246	1690.94
313.476	1722.94
313.706	1737.94
313.935	1758.94
314.165	1743.94
314.394	1789.94
314.624	1862.94
314.853	1999.94
315.083	2093.94
315.312	2159.94
315.542	2013.94
315.771	1746.94
316.001	1797.94
316.23	1880.94
316.46	1911.94
316.689	1847.94
316.919	1709.94
317.148	1661.94
317.377	1689.94
317.607	1816.94
317.836	2062.94
318.065	2160.94
318.295	2045.94
318.524	1976.94
318.753	1839.94
318.983	1849.94
319.212	1819.94
319.441	1771.94
319.67	1752.94
319.9	1796.94
320.129	1849.94
320.358	1999.94
320.587	2082.94
320.816	2027.94
321.046	1976.94
321.275	1849.94
321.504	1842.94
321.733	2022.94
321.962	2019.94
322.191	1829.94
322.42	1825.94
322.649	1783.94
322.878	1770.94
323.108	1839.94
323.337	1903.94
323.566	1916.94
323.795	1873.94
324.024	1851.94
324.253	1832.94
324.482	1865.94
324.71	1777.94
324.939	1667.94
325.168	1707.94
325.397	1784.94
325.626	1858.94
325.855	1866.94
326.084	1813.94
326.313	1828.94
326.542	1817.94
326.77	1897.94
326.999	1902.94
327.228	1804.94
327.457	1686.94
327.686	1703.94
327.914	1733.94
328.143	1786.94
328.372	1800.94
328.6	1779.94
328.829	1777.94
329.058	1742.94
329.287	1739.94
329.515	1815.94
329.744	1810.94
329.972	1928.94
330.201	1988.94
330.43	1961.94
330.658	1878.94
330.887	1904.94
331.115	1911.94
331.344	1905.94
331.572	1864.94
331.801	1886.94
332.03	1864.94
332.258	1920.94
332.486	1943.94
332.715	1939.94
332.943	1916.94
333.172	1857.94
333.4	1897.94
333.629	1973.94
333.857	2061.94
334.085	2255.94
334.314	2599.94
334.542	2865.94
334.771	2653.94
334.999	2311.94
335.227	2152.94
335.455	2029.94
335.684	2022.94
335.912	2073.94
336.14	2160.94
336.369	2057.94
336.597	1983.94
336.825	1954.94
337.053	1962.94
337.281	2102.94
337.51	2193.94
337.738	2314.94
337.966	2215.94
338.194	1990.94
338.422	1896.94
338.65	1855.94
338.878	1842.94
339.106	1811.94
339.334	1807.94
339.562	1747.94
339.79	1778.94
340.018	1920.94
340.246	2005.94
340.474	1991.94
340.702	1937.94
340.93	1971.94
341.158	1981.94
341.386	1912.94
341.614	1871.94
341.842	1888.94
342.07	1892.94
342.298	1915.94
342.526	1945.94
342.754	1832.94
342.981	1816.94
343.209	1833.94
343.437	1797.94
343.665	1839.94
343.893	1912.94
344.12	1998.94
344.348	2010.94
344.576	1941.94
344.804	1901.94
345.031	1846.94
345.259	1887.94
345.487	1822.94
345.714	1735.94
345.942	1690.94
346.17	1721.94
346.397	1761.94
346.625	1785.94
346.853	1699.94
347.08	1635.94
347.308	1685.94
347.535	1689.94
347.763	1798.94
347.99	1750.94
348.218	1681.94
348.445	1695.94
348.673	1755.94
348.9	1780.94
349.128	1841.94
349.355	1945.94
349.583	1837.94
349.81	1768.94
350.037	1635.94
350.265	1622.94
350.492	1675.94
350.72	1681.94
350.947	1741.94
351.174	1827.94
351.402	1696.94
351.629	1663.94
351.856	1639.94
352.083	1621.94
352.311	1607.94
352.538	1678.94
352.765	1757.94
352.992	1810.94
353.22	1736.94
353.447	1636.94
353.674	1685.94
353.901	1734.94
354.128	1638.94
354.355	1657.94
354.583	1741.94
354.81	1789.94
355.037	1818.94
355.264	1796.94
355.491	1682.94
355.718	1739.94
355.945	1719.94
356.172	1700.94
356.399	1622.94
356.626	1645.94
356.853	1711.94
357.08	1848.94
357.307	2070.94
357.534	2103.94
357.761	1790.94
357.988	1671.94
358.215	1607.94
358.441	1665.94
358.668	1621.94
358.895	1640.94
359.122	1759.94
359.349	1890.94
359.576	1962.94
359.802	1728.94
360.029	1661.94
360.256	1617.94
360.483	1649.94
360.709	1740.94
360.936	1772.94
361.163	1824.94
361.39	2010.94
361.616	2186.94
361.843	2143.94
362.07	1992.94
362.296	1713.94
362.523	1679.94
362.749	1697.94
362.976	1688.94
363.203	1775.94
363.429	1719.94
363.656	1618.94
363.882	1715.94
364.109	1866.94
364.335	2052.94
364.562	1870.94
364.788	1823.94
365.015	1714.94
365.241	1675.94
365.468	1693.94
365.694	1764.94
365.92	1853.94
366.147	1807.94
366.373	1645.94
366.599	1609.94
366.826	1657.94
367.052	1622.94
367.278	1677.94
367.505	1679.94
367.731	1747.94
367.957	1748.94
368.184	1805.94
368.41	1899.94
368.636	1940.94
368.862	1919.94
369.089	1936.94
369.315	1860.94
369.541	1807.94
369.767	1758.94
369.993	1709.94
370.219	1681.94
370.445	1749.94
370.672	1797.94
370.898	1921.94
371.124	1904.94
371.35	1764.94
371.576	1851.94
371.802	1944.94
372.028	1862.94
372.254	1795.94
372.48	1740.94
372.706	1695.94
372.932	1732.94
373.158	1717.94
373.384	1759.94
373.61	1776.94
373.835	1971.94
374.061	1796.94
374.287	1731.94
374.513	1735.94
374.739	1794.94
374.965	1782.94
375.191	1825.94
375.416	1867.94
375.642	1879.94
375.868	1939.94
376.094	1996.94
376.319	1929.94
376.545	1783.94
376.771	1821.94
376.997	1979.94
377.222	1893.94
377.448	1868.94
377.674	1886.94
377.899	1874.94
378.125	1983.94
378.35	2016.94
378.576	1793.94
378.802	1713.94
379.027	1737.94
379.253	1750.94
379.478	1815.94
379.704	1773.94
379.929	1735.94
380.155	1752.94
380.38	1810.94
380.606	1799.94
380.831	1787.94
381.057	1930.94
381.282	1917.94
381.507	1874.94
381.733	1979.94
381.958	2088.94
382.184	1891.94
382.409	1843.94
382.634	1869.94
382.86	1865.94
383.085	1885.94
383.31	1888.94
383.535	2046.94
383.761	2197.94
383.986	2095.94
384.211	1988.94
384.436	2001.94
384.662	2070.94
384.887	2165.94
385.112	2035.94
385.337	2064.94
385.562	2071.94
385.787	1972.94
386.013	2103.94
386.238	2093.94
386.463	2071.94
386.688	2200.94
386.913	2393.94
387.138	2317.94
387.363	2097.94
387.588	2134.94
387.813	2101.94
388.038	2138.94
388.263	2175.94
388.488	2138.94
388.713	1977.94
388.938	1950.94
389.163	1955.94
389.387	2046.94
389.612	2020.94
389.837	2091.94
390.062	2095.94
390.287	2105.94
390.512	1999.94
390.736	1996.94
390.961	1959.94
391.186	1916.94
391.411	1956.94
391.636	1970.94
391.86	2091.94
392.085	2034.94
392.31	1999.94
392.534	2054.94
392.759	2032.94
392.984	2083.94
393.208	2073.94
393.433	2115.94
393.658	2156.94
393.882	2213.94
394.107	2077.94
394.331	2007.94
394.556	1957.94
394.78	2056.94
395.005	2104.94
395.229	2213.94
395.454	2365.94
395.678	2368.94
395.903	2281.94
396.127	2131.94
396.352	2145.94
396.576	2201.94
396.801	2258.94
397.025	2243.94
397.249	2273.94
397.474	2181.94
397.698	2192.94
397.922	2279.94
398.147	2325.94
398.371	2470.94
398.595	2448.94
398.82	2324.94
399.044	2379.94
399.268	2449.94
399.492	2685.94
399.717	2776.94
399.941	2764.94
400.165	2713.94
400.389	2645.94
400.613	2579.94
400.837	2832.94
401.062	3261.94
401.286	2866.94
401.51	2517.94
401.734	2673.94
401.958	2656.94
402.182	2409.94
402.406	2319.94
402.63	2314.94
402.854	2260.94
403.078	2385.94
403.302	2375.94
403.526	2415.94
403.75	2418.94
403.974	2463.94
404.198	2409.94
404.422	2515.94
404.645	2649.94
404.869	2656.94
405.093	2398.94
405.317	2311.94
405.541	2437.94
405.765	2416.94
405.988	2428.94
406.212	2497.94
406.436	2534.94
406.66	2558.94
406.883	2648.94
407.107	2937.94
407.331	3231.94
407.555	3425.94
407.778	3212.94
408.002	2667.94
408.226	2545.94
408.449	2541.94
408.673	2487.94
408.896	2456.94
409.12	2559.94
409.344	2489.94
409.567	2368.94
409.791	2421.94
410.014	2465.94
410.238	2571.94
410.461	2811.94
410.685	2527.94
410.908	2355.94
411.132	2384.94
411.355	2434.94
411.578	2349.94
411.802	2347.94
412.025	2484.94
412.249	2371.94
412.472	2334.94
412.695	2282.94
412.919	2336.94
413.142	2253.94
413.365	2325.94
413.589	2389.94
413.812	2437.94
414.035	2575.94
414.258	2369.94
414.482	2325.94
414.705	2385.94
414.928	2263.94
415.151	2314.94
415.374	2340.94
415.597	2405.94
415.821	2389.94
416.044	2518.94
416.267	2438.94
416.49	2197.94
416.713	2225.94
416.936	2343.94
417.159	2401.94
417.382	2398.94
417.605	2232.94
417.828	2355.94
418.051	2378.94
418.274	2315.94
418.497	2226.94
418.72	2203.94
418.943	2228.94
419.166	2392.94
419.389	2493.94
419.611	2373.94
419.834	2272.94
420.057	2326.94
420.28	2306.94
420.503	2187.94
420.726	2295.94
420.948	2303.94
421.171	2184.94
421.394	2248.94
421.617	2326.94
421.839	2302.94
422.062	2278.94
422.285	2233.94
422.507	2187.94
422.73	2152.94
422.953	2111.94
423.175	2090.94
423.398	2205.94
423.621	2208.94
423.843	2239.94
424.066	2254.94
424.288	2373.94
424.511	2403.94
424.733	2351.94
424.956	2159.94
425.178	2110.94
425.401	2179.94
425.623	2214.94
425.846	2141.94
426.068	2277.94
426.291	2344.94
426.513	2323.94
426.735	2231.94
426.958	2444.94
427.18	2592.94
427.402	2297.94
427.625	2437.94
427.847	2461.94
428.069	2245.94
428.292	2223.94
428.514	2132.94
428.736	2136.94
428.958	2169.94
429.181	2184.94
429.403	2442.94
429.625	3056.94
429.847	2637.94
430.069	2241.94
430.292	2413.94
430.514	2566.94
430.736	2362.94
430.958	2455.94
431.18	2355.94
431.402	2147.94
431.624	2133.94
431.846	2115.94
432.068	2136.94
432.29	2159.94
432.512	2199.94
432.734	2226.94
432.956	2258.94
433.178	2342.94
433.4	2377.94
433.622	2314.94
433.844	2225.94
434.066	2152.94
434.287	2143.94
434.509	2230.94
434.731	2295.94
434.953	2507.94
435.175	2442.94
435.397	2260.94
435.618	2315.94
435.84	2289.94
436.062	2230.94
436.284	2213.94
436.505	2320.94
436.727	2357.94
436.949	2245.94
437.17	2149.94
437.392	2191.94
437.614	2201.94
437.835	2095.94
438.057	2295.94
438.278	2368.94
438.5	2233.94
438.721	2133.94
438.943	2149.94
439.165	2157.94
439.386	2124.94
439.608	2122.94
439.829	2135.94
440.05	2175.94
440.272	2119.94
440.493	2087.94
440.715	2146.94
440.936	2287.94
441.158	2553.94
441.379	2497.94
441.6	2383.94
441.822	2351.94
442.043	2313.94
442.264	2278.94
442.486	2146.94
442.707	2106.94
442.928	2151.94
443.149	2212.94
443.371	2390.94
443.592	2473.94
443.813	2388.94
444.034	2337.94
444.255	2348.94
444.476	2403.94
444.698	2461.94
444.919	2409.94
445.14	2464.94
445.361	2450.94
445.582	2634.94
445.803	2524.94
446.024	2367.94
446.245	2483.94
446.466	2383.94
446.687	2259.94
446.908	2216.94
447.129	2172.94
447.35	2212.94
447.571	2222.94
447.792	2126.94
448.013	2126.94
448.234	2141.94
448.455	2280.94
448.675	2301.94
448.896	2084.94
449.117	2048.94
449.338	2133.94
449.559	2237.94
449.779	2291.94
450	2574.94
450.221	2763.94
450.442	2691.94
450.662	2382.94
450.883	2101.94
451.104	1983.94
451.324	2122.94
451.545	2170.94
451.766	2099.94
451.986	2051.94
452.207	1992.94
452.428	1937.94
452.648	1901.94
452.869	1944.94
453.089	2093.94
453.31	2130.94
453.53	2195.94
453.751	2122.94
453.971	1969.94
454.192	2025.94
454.412	2169.94
454.633	2106.94
454.853	2017.94
455.073	1869.94
455.294	1891.94
455.514	1919.94
455.734	1939.94
455.955	1959.94
456.175	1928.94
456.395	1957.94
456.616	1999.94
456.836	2026.94
457.056	1997.94
457.276	1972.94
457.497	1915.94
457.717	1865.94
457.937	1873.94
458.157	1950.94
458.377	1927.94
458.598	1914.94
458.818	1947.94
459.038	2047.94
459.258	2169.94
459.478	2237.94
459.698	2105.94
459.918	2174.94
460.138	2274.94
460.358	2341.94
460.578	2293.94
460.798	2455.94
461.018	2528.94
461.238	2427.94
461.458	2286.94
461.678	2327.94
461.898	2304.94
462.118	2161.94
462.338	2298.94
462.558	2314.94
462.777	2279.94
462.997	2373.94
463.217	2559.94
463.437	2535.94
463.657	2367.94
463.876	2300.94
464.096	2288.94
464.316	2316.94
464.536	2381.94
464.755	2409.94
464.975	2467.94
465.195	2369.94
465.414	2458.94
465.634	2423.94
465.854	2332.94
466.073	2475.94
466.293	2414.94
466.512	2130.94
466.732	2106.94
466.951	2167.94
467.171	2193.94
467.391	2091.94
467.61	2051.94
467.829	2089.94
468.049	2255.94
468.268	2560.94
468.488	2370.94
468.707	2192.94
468.927	2175.94
469.146	2139.94
469.365	2075.94
469.585	2158.94
469.804	2131.94
470.023	2086.94
470.243	2139.94
470.462	2105.94
470.681	2034.94
470.901	2121.94
471.12	2093.94
471.339	2080.94
471.558	1983.94
471.777	2012.94
471.997	2030.94
472.216	2089.94
472.435	2051.94
472.654	2036.94
472.873	2140.94
473.092	2283.94
473.311	2180.94
473.53	2026.94
473.749	2035.94
473.968	2086.94
474.187	2203.94
474.406	2290.94
474.625	2193.94
474.844	2101.94
475.063	2090.94
475.282	2218.94
475.501	2131.94
475.72	2137.94
475.939	2275.94
476.158	2207.94
476.377	2141.94
476.596	2166.94
476.814	2202.94
477.033	2203.94
477.252	2301.94
477.471	2405.94
477.69	2210.94
477.908	2248.94
478.127	2323.94
478.346	2542.94
478.564	2613.94
478.783	2510.94
479.002	2608.94
479.22	2549.94
479.439	2661.94
479.658	2999.94
479.876	3012.94
480.095	2606.94
480.313	2462.94
480.532	2333.94
480.751	2346.94
480.969	2439.94
481.188	2408.94
481.406	2402.94
481.624	2294.94
481.843	2351.94
482.061	2405.94
482.28	2455.94
482.498	2504.94
482.717	2462.94
482.935	2350.94
483.153	2348.94
483.372	2334.94
483.59	2315.94
483.808	2383.94
484.027	2429.94
484.245	2561.94
484.463	2907.94
484.681	3473.94
484.9	2592.94
485.118	2406.94
485.336	2391.94
485.554	2513.94
485.772	2615.94
485.99	2559.94
486.209	2606.94
486.427	2545.94
486.645	2516.94
486.863	2520.94
487.081	2570.94
487.299	2666.94
