Data from WStandard_LampEnergy10_LIBS07252019.E.O._I.C._HRD10591_15-53-45-928.txt Node
Date: Thu Jul 25 15:53:45 EDT 2019
User: cochatt
Spectrometer: HR+D1059
Trigger mode: 1
Integration Time (sec): 1.000000E-1
Scans to average: 1
Electric dark correction enabled: true
Nonlinearity correction enabled: false
Boxcar width: 0
XAxis mode: Wavelengths
Number of Pixels in Spectrum: 2048
>>>>>Begin Spectral Data<<<<<
223.165	-10.75
223.4	-10.75
223.635	-10.75
223.869	-18.75
224.104	-3.75
224.338	-18.75
224.573	-12.75
224.808	-11.75
225.042	-9.75
225.277	-10.75
225.511	1.25
225.746	-4.75
225.98	8.25
226.215	5.25
226.449	20.25
226.683	17.25
226.918	17.25
227.152	32.25
227.387	30.25
227.621	36.25
227.856	45.25
228.09	40.25
228.324	59.25
228.559	68.25
228.793	87.25
229.027	121.25
229.262	139.25
229.496	157.25
229.73	149.25
229.964	167.25
230.199	164.25
230.433	180.25
230.667	188.25
230.901	190.25
231.136	183.25
231.37	174.25
231.604	163.25
231.838	160.25
232.072	184.25
232.306	180.25
232.541	178.25
232.775	200.25
233.009	203.25
233.243	193.25
233.477	188.25
233.711	186.25
233.945	198.25
234.179	217.25
234.413	213.25
234.647	215.25
234.881	198.25
235.115	169.25
235.349	192.25
235.583	198.25
235.817	197.25
236.051	186.25
236.285	206.25
236.519	214.25
236.753	230.25
236.987	215.25
237.221	217.25
237.455	232.25
237.689	225.25
237.922	235.25
238.156	212.25
238.39	224.25
238.624	223.25
238.858	221.25
239.091	248.25
239.325	264.25
239.559	279.25
239.793	278.25
240.027	294.25
240.26	304.25
240.494	237.25
240.728	243.25
240.961	230.25
241.195	238.25
241.429	255.25
241.662	243.25
241.896	231.25
242.13	249.25
242.363	257.25
242.597	272.25
242.83	291.25
243.064	259.25
243.298	288.25
243.531	277.25
243.765	291.25
243.998	281.25
244.232	249.25
244.465	260.25
244.699	251.25
244.932	285.25
245.166	284.25
245.399	280.25
245.633	264.25
245.866	274.25
246.099	277.25
246.333	282.25
246.566	287.25
246.8	296.25
247.033	314.25
247.266	297.25
247.5	319.25
247.733	297.25
247.966	342.25
248.2	360.25
248.433	344.25
248.666	370.25
248.899	371.25
249.133	430.25
249.366	455.25
249.599	406.25
249.832	358.25
250.066	366.25
250.299	345.25
250.532	345.25
250.765	311.25
250.998	338.25
251.231	352.25
251.465	357.25
251.698	347.25
251.931	352.25
252.164	344.25
252.397	372.25
252.63	353.25
252.863	338.25
253.096	309.25
253.329	322.25
253.562	327.25
253.795	354.25
254.028	361.25
254.261	328.25
254.494	338.25
254.727	315.25
254.96	342.25
255.193	354.25
255.426	409.25
255.659	451.25
255.892	442.25
256.124	385.25
256.357	360.25
256.59	407.25
256.823	391.25
257.056	403.25
257.289	465.25
257.521	489.25
257.754	459.25
257.987	434.25
258.22	454.25
258.452	425.25
258.685	399.25
258.918	382.25
259.151	380.25
259.383	358.25
259.616	349.25
259.849	378.25
260.081	405.25
260.314	442.25
260.547	453.25
260.779	445.25
261.012	425.25
261.244	390.25
261.477	399.25
261.71	390.25
261.942	392.25
262.175	390.25
262.407	410.25
262.64	383.25
262.872	363.25
263.105	366.25
263.337	353.25
263.57	358.25
263.802	359.25
264.035	360.25
264.267	338.25
264.499	321.25
264.732	340.25
264.964	404.25
265.197	375.25
265.429	404.25
265.661	441.25
265.894	474.25
266.126	477.25
266.358	457.25
266.591	456.25
266.823	473.25
267.055	435.25
267.287	424.25
267.52	407.25
267.752	414.25
267.984	451.25
268.216	461.25
268.448	467.25
268.681	444.25
268.913	397.25
269.145	399.25
269.377	402.25
269.609	431.25
269.841	496.25
270.073	577.25
270.306	613.25
270.538	624.25
270.77	533.25
271.002	467.25
271.234	465.25
271.466	488.25
271.698	535.25
271.93	590.25
272.162	593.25
272.394	530.25
272.626	488.25
272.858	456.25
273.09	409.25
273.322	414.25
273.553	391.25
273.785	390.25
274.017	418.25
274.249	441.25
274.481	447.25
274.713	410.25
274.945	401.25
275.176	376.25
275.408	413.25
275.64	390.25
275.872	409.25
276.104	429.25
276.335	491.25
276.567	543.25
276.799	509.25
277.031	484.25
277.262	473.25
277.494	475.25
277.726	511.25
277.957	498.25
278.189	474.25
278.421	421.25
278.652	409.25
278.884	424.25
279.115	435.25
279.347	436.25
279.579	445.25
279.81	420.25
280.042	462.25
280.273	499.25
280.505	502.25
280.736	500.25
280.968	471.25
281.199	404.25
281.431	390.25
281.662	415.25
281.894	426.25
282.125	417.25
282.356	438.25
282.588	459.25
282.819	470.25
283.051	499.25
283.282	498.25
283.513	478.25
283.745	439.25
283.976	402.25
284.207	409.25
284.439	415.25
284.67	439.25
284.901	446.25
285.132	462.25
285.364	440.25
285.595	461.25
285.826	434.25
286.057	470.25
286.288	432.25
286.52	464.25
286.751	492.25
286.982	485.25
287.213	429.25
287.444	448.25
287.675	423.25
287.906	445.25
288.138	490.25
288.369	465.25
288.6	406.25
288.831	431.25
289.062	416.25
289.293	429.25
289.524	458.25
289.755	453.25
289.986	486.25
290.217	437.25
290.448	441.25
290.679	468.25
290.91	461.25
291.141	446.25
291.371	477.25
291.602	493.25
291.833	485.25
292.064	503.25
292.295	460.25
292.526	484.25
292.757	521.25
292.987	471.25
293.218	479.25
293.449	503.25
293.68	562.25
293.91	571.25
294.141	538.25
294.372	532.25
294.603	545.25
294.833	546.25
295.064	518.25
295.295	477.25
295.525	453.25
295.756	443.25
295.987	431.25
296.217	451.25
296.448	451.25
296.679	446.25
296.909	434.25
297.14	459.25
297.37	490.25
297.601	516.25
297.831	527.25
298.062	513.25
298.292	471.25
298.523	454.25
298.753	468.25
298.984	454.25
299.214	471.25
299.445	486.25
299.675	513.25
299.905	481.25
300.136	465.25
300.366	463.25
300.597	456.25
300.827	472.25
301.057	481.25
301.288	490.25
301.518	487.25
301.748	498.25
301.979	529.25
302.209	554.25
302.439	580.25
302.669	571.25
302.9	570.25
303.13	490.25
303.36	485.25
303.59	521.25
303.82	513.25
304.051	501.25
304.281	517.25
304.511	544.25
304.741	573.25
304.971	611.25
305.201	601.25
305.431	555.25
305.661	497.25
305.891	451.25
306.121	435.25
306.352	481.25
306.582	507.25
306.812	520.25
307.042	558.25
307.272	545.25
307.502	578.25
307.731	613.25
307.961	631.25
308.191	578.25
308.421	532.25
308.651	499.25
308.881	501.25
309.111	475.25
309.341	503.25
309.571	472.25
309.8	493.25
310.03	471.25
310.26	469.25
310.49	508.25
310.72	498.25
310.949	536.25
311.179	519.25
311.409	533.25
311.639	499.25
311.868	524.25
312.098	494.25
312.328	479.25
312.557	488.25
312.787	497.25
313.017	503.25
313.246	525.25
313.476	519.25
313.706	525.25
313.935	509.25
314.165	523.25
314.394	578.25
314.624	575.25
314.853	627.25
315.083	593.25
315.312	597.25
315.542	562.25
315.771	519.25
316.001	565.25
316.23	547.25
316.46	550.25
316.689	559.25
316.919	527.25
317.148	542.25
317.377	548.25
317.607	574.25
317.836	641.25
318.065	627.25
318.295	618.25
318.524	591.25
318.753	570.25
318.983	554.25
319.212	543.25
319.441	570.25
319.67	527.25
319.9	554.25
320.129	582.25
320.358	610.25
320.587	618.25
320.816	595.25
321.046	584.25
321.275	570.25
321.504	592.25
321.733	615.25
321.962	578.25
322.191	552.25
322.42	565.25
322.649	548.25
322.878	539.25
323.108	536.25
323.337	563.25
323.566	547.25
323.795	568.25
324.024	567.25
324.253	535.25
324.482	550.25
324.71	523.25
324.939	520.25
325.168	535.25
325.397	546.25
325.626	579.25
325.855	560.25
326.084	567.25
326.313	567.25
326.542	561.25
326.77	565.25
326.999	553.25
327.228	556.25
327.457	523.25
327.686	534.25
327.914	523.25
328.143	541.25
328.372	559.25
328.6	554.25
328.829	559.25
329.058	561.25
329.287	536.25
329.515	564.25
329.744	591.25
329.972	604.25
330.201	621.25
330.43	604.25
330.658	571.25
330.887	564.25
331.115	563.25
331.344	578.25
331.572	566.25
331.801	561.25
332.03	585.25
332.258	597.25
332.486	585.25
332.715	598.25
332.943	579.25
333.172	588.25
333.4	599.25
333.629	620.25
333.857	644.25
334.085	752.25
334.314	811.25
334.542	830.25
334.771	751.25
334.999	712.25
335.227	655.25
335.455	627.25
335.684	624.25
335.912	630.25
336.14	661.25
336.369	599.25
336.597	596.25
336.825	612.25
337.053	616.25
337.281	660.25
337.51	698.25
337.738	680.25
337.966	643.25
338.194	623.25
338.422	597.25
338.65	573.25
338.878	557.25
339.106	552.25
339.334	550.25
339.562	553.25
339.79	577.25
340.018	614.25
340.246	628.25
340.474	613.25
340.702	616.25
340.93	641.25
341.158	593.25
341.386	602.25
341.614	607.25
341.842	600.25
342.07	582.25
342.298	593.25
342.526	586.25
342.754	601.25
342.981	597.25
343.209	593.25
343.437	542.25
343.665	584.25
343.893	606.25
344.12	618.25
344.348	632.25
344.576	598.25
344.804	589.25
345.031	582.25
345.259	586.25
345.487	586.25
345.714	548.25
345.942	527.25
346.17	543.25
346.397	563.25
346.625	557.25
346.853	532.25
347.08	540.25
347.308	567.25
347.535	547.25
347.763	574.25
347.99	560.25
348.218	549.25
348.445	559.25
348.673	539.25
348.9	602.25
349.128	607.25
349.355	603.25
349.583	597.25
349.81	551.25
350.037	542.25
350.265	520.25
350.492	554.25
350.72	573.25
350.947	587.25
351.174	563.25
351.402	528.25
351.629	541.25
351.856	521.25
352.083	546.25
352.311	522.25
352.538	543.25
352.765	550.25
352.992	569.25
353.22	547.25
353.447	525.25
353.674	561.25
353.901	563.25
354.128	579.25
354.355	547.25
354.583	571.25
354.81	586.25
355.037	568.25
355.264	569.25
355.491	555.25
355.718	561.25
355.945	545.25
356.172	547.25
356.399	515.25
356.626	551.25
356.853	570.25
357.08	627.25
357.307	685.25
357.534	633.25
357.761	581.25
357.988	557.25
358.215	553.25
358.441	533.25
358.668	529.25
358.895	549.25
359.122	586.25
359.349	623.25
359.576	600.25
359.802	565.25
360.029	545.25
360.256	555.25
360.483	573.25
360.709	581.25
360.936	592.25
361.163	610.25
361.39	678.25
361.616	699.25
361.843	687.25
362.07	627.25
362.296	560.25
362.523	562.25
362.749	542.25
362.976	578.25
363.203	580.25
363.429	562.25
363.656	559.25
363.882	578.25
364.109	642.25
364.335	657.25
364.562	634.25
364.788	594.25
365.015	575.25
365.241	553.25
365.468	587.25
365.694	606.25
365.92	625.25
366.147	602.25
366.373	537.25
366.599	549.25
366.826	570.25
367.052	549.25
367.278	578.25
367.505	581.25
367.731	599.25
367.957	562.25
368.184	620.25
368.41	635.25
368.636	642.25
368.862	661.25
369.089	651.25
369.315	636.25
369.541	598.25
369.767	588.25
369.993	583.25
370.219	596.25
370.445	594.25
370.672	638.25
370.898	663.25
371.124	651.25
371.35	609.25
371.576	650.25
371.802	656.25
372.028	609.25
372.254	613.25
372.48	602.25
372.706	591.25
372.932	598.25
373.158	635.25
373.384	583.25
373.61	661.25
373.835	646.25
374.061	622.25
374.287	618.25
374.513	602.25
374.739	614.25
374.965	647.25
375.191	635.25
375.416	655.25
375.642	656.25
375.868	713.25
376.094	689.25
376.319	642.25
376.545	646.25
376.771	667.25
376.997	703.25
377.222	652.25
377.448	647.25
377.674	663.25
377.899	659.25
378.125	694.25
378.35	691.25
378.576	622.25
378.802	595.25
379.027	612.25
379.253	637.25
379.478	638.25
379.704	618.25
379.929	633.25
380.155	647.25
380.38	648.25
380.606	635.25
380.831	661.25
381.057	708.25
381.282	674.25
381.507	687.25
381.733	725.25
381.958	706.25
382.184	690.25
382.409	675.25
382.634	666.25
382.86	652.25
383.085	633.25
383.31	724.25
383.535	765.25
383.761	773.25
383.986	759.25
384.211	728.25
384.436	738.25
384.662	767.25
384.887	756.25
385.112	705.25
385.337	730.25
385.562	736.25
385.787	735.25
386.013	753.25
386.238	738.25
386.463	761.25
386.688	806.25
386.913	851.25
387.138	775.25
387.363	754.25
387.588	752.25
387.813	766.25
388.038	787.25
388.263	787.25
388.488	751.25
388.713	730.25
388.938	688.25
389.163	705.25
389.387	741.25
389.612	743.25
389.837	755.25
390.062	758.25
390.287	737.25
390.512	740.25
390.736	744.25
390.961	714.25
391.186	715.25
391.411	717.25
391.636	723.25
391.86	720.25
392.085	746.25
392.31	730.25
392.534	738.25
392.759	750.25
392.984	779.25
393.208	753.25
393.433	814.25
393.658	809.25
393.882	823.25
394.107	773.25
394.331	763.25
394.556	770.25
394.78	786.25
395.005	797.25
395.229	825.25
395.454	863.25
395.678	834.25
395.903	834.25
396.127	792.25
396.352	829.25
396.576	824.25
396.801	826.25
397.025	806.25
397.249	824.25
397.474	819.25
397.698	815.25
397.922	860.25
398.147	883.25
398.371	899.25
398.595	882.25
398.82	857.25
399.044	891.25
399.268	897.25
399.492	962.25
399.717	968.25
399.941	981.25
400.165	993.25
400.389	930.25
400.613	964.25
400.837	1094.25
401.062	1137.25
401.286	1010.25
401.51	958.25
401.734	976.25
401.958	931.25
402.182	883.25
402.406	878.25
402.63	879.25
402.854	886.25
403.078	877.25
403.302	892.25
403.526	899.25
403.75	883.25
403.974	886.25
404.198	913.25
404.422	998.25
404.645	1027.25
404.869	964.25
405.093	885.25
405.317	892.25
405.541	908.25
405.765	918.25
405.988	920.25
406.212	935.25
406.436	941.25
406.66	992.25
406.883	1034.25
407.107	1128.25
407.331	1200.25
407.555	1246.25
407.778	1121.25
408.002	953.25
408.226	958.25
408.449	929.25
408.673	933.25
408.896	923.25
409.12	926.25
409.344	931.25
409.567	919.25
409.791	933.25
410.014	948.25
410.238	993.25
410.461	1021.25
410.685	945.25
410.908	922.25
411.132	933.25
411.355	917.25
411.578	934.25
411.802	925.25
412.025	948.25
412.249	925.25
412.472	909.25
412.695	884.25
412.919	887.25
413.142	916.25
413.365	929.25
413.589	950.25
413.812	966.25
414.035	974.25
414.258	931.25
414.482	916.25
414.705	911.25
414.928	873.25
415.151	899.25
415.374	937.25
415.597	933.25
415.821	938.25
416.044	962.25
416.267	941.25
416.49	900.25
416.713	922.25
416.936	975.25
417.159	989.25
417.382	946.25
417.605	922.25
417.828	945.25
418.051	928.25
418.274	927.25
418.497	925.25
418.72	945.25
418.943	927.25
419.166	940.25
419.389	975.25
419.611	928.25
419.834	942.25
420.057	963.25
420.28	944.25
420.503	905.25
420.726	946.25
420.948	923.25
421.171	926.25
421.394	933.25
421.617	943.25
421.839	983.25
422.062	954.25
422.285	920.25
422.507	921.25
422.73	908.25
422.953	885.25
423.175	881.25
423.398	897.25
423.621	918.25
423.843	925.25
424.066	971.25
424.288	1002.25
424.511	1000.25
424.733	966.25
424.956	904.25
425.178	902.25
425.401	929.25
425.623	936.25
425.846	932.25
426.068	987.25
426.291	936.25
426.513	959.25
426.735	941.25
426.958	1023.25
427.18	1057.25
427.402	989.25
427.625	1009.25
427.847	957.25
428.069	900.25
428.292	896.25
428.514	879.25
428.736	885.25
428.958	923.25
429.181	947.25
429.403	1051.25
429.625	1239.25
429.847	1074.25
430.069	930.25
430.292	1054.25
430.514	1043.25
430.736	995.25
430.958	972.25
431.18	933.25
431.402	884.25
431.624	852.25
431.846	791.25
432.068	731.25
432.29	741.25
432.512	784.25
432.734	889.25
432.956	918.25
433.178	936.25
433.4	932.25
433.622	924.25
433.844	886.25
434.066	839.25
434.287	792.25
434.509	774.25
434.731	824.25
434.953	889.25
435.175	916.25
435.397	897.25
435.618	865.25
435.84	825.25
436.062	831.25
436.284	874.25
436.505	919.25
436.727	930.25
436.949	901.25
437.17	904.25
437.392	921.25
437.614	839.25
437.835	770.25
438.057	823.25
438.278	850.25
438.5	867.25
438.721	892.25
438.943	923.25
439.165	938.25
439.386	925.25
439.608	914.25
439.829	926.25
440.05	950.25
440.272	955.25
440.493	951.25
440.715	970.25
440.936	1008.25
441.158	1045.25
441.379	1014.25
441.6	1040.25
441.822	1059.25
442.043	979.25
442.264	967.25
442.486	933.25
442.707	960.25
442.928	952.25
443.149	959.25
443.371	960.25
443.592	1003.25
443.813	1015.25
444.034	1016.25
444.255	1012.25
444.476	1026.25
444.698	997.25
444.919	1032.25
445.14	1121.25
445.361	1097.25
445.582	1077.25
445.803	1050.25
446.024	1044.25
446.245	1061.25
446.466	1025.25
446.687	1039.25
446.908	1025.25
447.129	1042.25
447.35	1000.25
447.571	1008.25
447.792	953.25
448.013	938.25
448.234	954.25
448.455	968.25
448.675	974.25
448.896	925.25
449.117	919.25
449.338	907.25
449.559	950.25
449.779	966.25
450	1041.25
450.221	1020.25
450.442	997.25
450.662	942.25
450.883	880.25
451.104	867.25
451.324	885.25
451.545	872.25
451.766	859.25
451.986	802.25
452.207	830.25
452.428	818.25
452.648	791.25
452.869	770.25
453.089	769.25
453.31	773.25
453.53	757.25
453.751	714.25
453.971	675.25
454.192	715.25
454.412	747.25
454.633	765.25
454.853	766.25
455.073	771.25
455.294	790.25
455.514	768.25
455.734	769.25
455.955	751.25
456.175	761.25
456.395	723.25
456.616	739.25
456.836	715.25
457.056	731.25
457.276	727.25
457.497	704.25
457.717	685.25
457.937	705.25
458.157	733.25
458.377	713.25
458.598	665.25
458.818	667.25
459.038	685.25
459.258	694.25
459.478	698.25
459.698	717.25
459.918	723.25
460.138	802.25
460.358	815.25
460.578	824.25
460.798	835.25
461.018	875.25
461.238	883.25
461.458	866.25
461.678	822.25
461.898	821.25
462.118	805.25
462.338	840.25
462.558	848.25
462.777	819.25
462.997	880.25
463.217	853.25
463.437	842.25
463.657	823.25
463.876	821.25
464.096	825.25
464.316	817.25
464.536	888.25
464.755	878.25
464.975	866.25
465.195	871.25
465.414	899.25
465.634	866.25
465.854	887.25
466.073	941.25
466.293	889.25
466.512	843.25
466.732	868.25
466.951	908.25
467.171	887.25
467.391	874.25
467.61	854.25
467.829	885.25
468.049	959.25
468.268	1036.25
468.488	945.25
468.707	922.25
468.927	939.25
469.146	905.25
469.365	933.25
469.585	904.25
469.804	924.25
470.023	902.25
470.243	939.25
470.462	953.25
470.681	898.25
470.901	912.25
471.12	917.25
471.339	929.25
471.558	927.25
471.777	889.25
471.997	890.25
472.216	862.25
472.435	783.25
472.654	746.25
472.873	786.25
473.092	843.25
473.311	817.25
473.53	830.25
473.749	828.25
473.968	840.25
474.187	815.25
474.406	813.25
474.625	826.25
474.844	894.25
475.063	887.25
475.282	864.25
475.501	828.25
475.72	837.25
475.939	871.25
476.158	892.25
476.377	881.25
476.596	865.25
476.814	834.25
477.033	817.25
477.252	840.25
477.471	917.25
477.69	921.25
477.908	929.25
478.127	969.25
478.346	1001.25
478.564	984.25
478.783	1002.25
479.002	1022.25
479.22	1007.25
479.439	998.25
479.658	1050.25
479.876	954.25
480.095	900.25
480.313	884.25
480.532	884.25
480.751	853.25
480.969	836.25
481.188	799.25
481.406	789.25
481.624	753.25
481.843	789.25
482.061	803.25
482.28	875.25
482.498	891.25
482.717	860.25
482.935	873.25
483.153	981.25
483.372	1023.25
483.59	991.25
483.808	969.25
484.027	941.25
484.245	1000.25
484.463	1193.25
484.681	1291.25
484.9	990.25
485.118	958.25
485.336	938.25
485.554	898.25
485.772	902.25
485.99	880.25
486.209	870.25
486.427	891.25
486.645	915.25
486.863	1014.25
487.081	1021.25
487.299	1000.25
487.517	1023.25
487.735	1095.25
487.953	1223.25
488.171	1169.25
488.389	1135.25
488.607	1097.25
488.825	1114.25
489.043	1010.25
489.261	968.25
489.479	1044.25
489.696	1079.25
489.914	1025.25
490.132	1049.25
490.35	1079.25
490.568	1150.25
490.786	1161.25
491.003	1217.25
491.221	1256.25
491.439	1236.25
491.657	1307.25
491.874	1377.25
492.092	1467.25
492.31	1509.25
492.527	1429.25
492.745	1359.25
492.963	1274.25
493.18	1296.25
493.398	1333.25
493.615	1315.25
493.833	1251.25
494.05	1241.25
494.268	1213.25
494.485	1246.25
494.703	1237.25
494.92	1262.25
495.138	1208.25
495.355	1236.25
495.573	1253.25
495.79	1265.25
496.008	1301.25
496.225	1236.25
496.442	1221.25
496.66	1241.25
496.877	1209.25
497.094	1248.25
497.312	1201.25
497.529	1218.25
497.746	1187.25
497.963	1254.25
498.181	1290.25
498.398	1257.25
498.615	1201.25
498.832	1119.25
499.049	1162.25
499.267	1160.25
499.484	1268.25
499.701	1326.25
499.918	1361.25
500.135	1472.25
500.352	1548.25
