Data from WStandard_LampEnergy8_LIBS07252019.E.O._I.C._HRD10591_15-57-56-929.txt Node
Date: Thu Jul 25 15:57:56 EDT 2019
User: cochatt
Spectrometer: HR+D1059
Trigger mode: 1
Integration Time (sec): 1.000000E-1
Scans to average: 1
Electric dark correction enabled: true
Nonlinearity correction enabled: false
Boxcar width: 0
XAxis mode: Wavelengths
Number of Pixels in Spectrum: 2048
>>>>>Begin Spectral Data<<<<<
223.165	-19.75
223.4	-19.75
223.635	-19.75
223.869	-11.75
224.104	-14.75
224.338	-2.75
224.573	-11.75
224.808	-9.75
225.042	-13.75
225.277	-15.75
225.511	-13.75
225.746	-5.75
225.98	5.25
226.215	10.25
226.449	14.25
226.683	25.25
226.918	25.25
227.152	39.25
227.387	37.25
227.621	38.25
227.856	48.25
228.09	36.25
228.324	54.25
228.559	50.25
228.793	92.25
229.027	204.25
229.262	212.25
229.496	222.25
229.73	252.25
229.964	258.25
230.199	266.25
230.433	267.25
230.667	277.25
230.901	292.25
231.136	275.25
231.37	274.25
231.604	275.25
231.838	265.25
232.072	267.25
232.306	265.25
232.541	258.25
232.775	301.25
233.009	344.25
233.243	314.25
233.477	297.25
233.711	322.25
233.945	312.25
234.179	324.25
234.413	326.25
234.647	350.25
234.881	326.25
235.115	296.25
235.349	320.25
235.583	308.25
235.817	312.25
236.051	305.25
236.285	308.25
236.519	334.25
236.753	352.25
236.987	387.25
237.221	372.25
237.455	401.25
237.689	389.25
237.922	365.25
238.156	344.25
238.39	382.25
238.624	364.25
238.858	412.25
239.091	410.25
239.325	414.25
239.559	474.25
239.793	487.25
240.027	541.25
240.26	524.25
240.494	396.25
240.728	392.25
240.961	400.25
241.195	388.25
241.429	418.25
241.662	415.25
241.896	418.25
242.13	408.25
242.363	457.25
242.597	472.25
242.83	447.25
243.064	464.25
243.298	510.25
243.531	484.25
243.765	497.25
243.998	492.25
244.232	425.25
244.465	422.25
244.699	440.25
244.932	470.25
245.166	523.25
245.399	509.25
245.633	485.25
245.866	484.25
246.099	492.25
246.333	505.25
246.566	512.25
246.8	554.25
247.033	602.25
247.266	544.25
247.5	572.25
247.733	554.25
247.966	588.25
248.2	620.25
248.433	601.25
248.666	627.25
248.899	711.25
249.133	793.25
249.366	856.25
249.599	724.25
249.832	649.25
250.066	668.25
250.299	663.25
250.532	591.25
250.765	532.25
250.998	601.25
251.231	633.25
251.465	638.25
251.698	592.25
251.931	606.25
252.164	607.25
252.397	646.25
252.63	624.25
252.863	579.25
253.096	550.25
253.329	584.25
253.562	616.25
253.795	647.25
254.028	655.25
254.261	596.25
254.494	584.25
254.727	578.25
254.96	593.25
255.193	669.25
255.426	749.25
255.659	845.25
255.892	821.25
256.124	699.25
256.357	677.25
256.59	721.25
256.823	736.25
257.056	752.25
257.289	900.25
257.521	968.25
257.754	854.25
257.987	829.25
258.22	855.25
258.452	839.25
258.685	697.25
258.918	701.25
259.151	702.25
259.383	650.25
259.616	608.25
259.849	640.25
260.081	736.25
260.314	816.25
260.547	857.25
260.779	848.25
261.012	822.25
261.244	719.25
261.477	676.25
261.71	712.25
261.942	719.25
262.175	706.25
262.407	724.25
262.64	688.25
262.872	661.25
263.105	639.25
263.337	656.25
263.57	661.25
263.802	659.25
264.035	629.25
264.267	586.25
264.499	590.25
264.732	633.25
264.964	654.25
265.197	716.25
265.429	735.25
265.661	807.25
265.894	915.25
266.126	895.25
266.358	821.25
266.591	853.25
266.823	919.25
267.055	818.25
267.287	833.25
267.52	786.25
267.752	780.25
267.984	778.25
268.216	853.25
268.448	867.25
268.681	842.25
268.913	780.25
269.145	722.25
269.377	709.25
269.609	776.25
269.841	908.25
270.073	1018.25
270.306	1144.25
270.538	1116.25
270.77	999.25
271.002	856.25
271.234	857.25
271.466	867.25
271.698	966.25
271.93	1141.25
272.162	1113.25
272.394	992.25
272.626	932.25
272.858	823.25
273.09	749.25
273.322	711.25
273.553	684.25
273.785	726.25
274.017	735.25
274.249	816.25
274.481	768.25
274.713	738.25
274.945	709.25
275.176	700.25
275.408	722.25
275.64	724.25
275.872	722.25
276.104	763.25
276.335	849.25
276.567	943.25
276.799	967.25
277.031	863.25
277.262	830.25
277.494	858.25
277.726	941.25
277.957	918.25
278.189	847.25
278.421	778.25
278.652	769.25
278.884	766.25
279.115	749.25
279.347	802.25
279.579	742.25
279.81	775.25
280.042	837.25
280.273	911.25
280.505	914.25
280.736	921.25
280.968	869.25
281.199	766.25
281.431	744.25
281.662	724.25
281.894	753.25
282.125	763.25
282.356	787.25
282.588	792.25
282.819	781.25
283.051	869.25
283.282	903.25
283.513	876.25
283.745	784.25
283.976	716.25
284.207	736.25
284.439	773.25
284.67	751.25
284.901	770.25
285.132	812.25
285.364	788.25
285.595	802.25
285.826	796.25
286.057	776.25
286.288	783.25
286.52	809.25
286.751	867.25
286.982	886.25
287.213	801.25
287.444	750.25
287.675	783.25
287.906	841.25
288.138	852.25
288.369	822.25
288.6	785.25
288.831	756.25
289.062	767.25
289.293	772.25
289.524	801.25
289.755	828.25
289.986	798.25
290.217	752.25
290.448	764.25
290.679	775.25
290.91	812.25
291.141	842.25
291.371	845.25
291.602	848.25
291.833	837.25
292.064	874.25
292.295	854.25
292.526	887.25
292.757	892.25
292.987	850.25
293.218	829.25
293.449	909.25
293.68	1028.25
293.91	1075.25
294.141	1007.25
294.372	967.25
294.603	974.25
294.833	994.25
295.064	920.25
295.295	874.25
295.525	859.25
295.756	793.25
295.987	752.25
296.217	788.25
296.448	794.25
296.679	818.25
296.909	813.25
297.14	797.25
297.37	801.25
297.601	874.25
297.831	921.25
298.062	890.25
298.292	842.25
298.523	816.25
298.753	812.25
298.984	814.25
299.214	812.25
299.445	846.25
299.675	888.25
299.905	872.25
300.136	834.25
300.366	808.25
300.597	779.25
300.827	795.25
301.057	860.25
301.288	858.25
301.518	868.25
301.748	895.25
301.979	964.25
302.209	974.25
302.439	1055.25
302.669	1047.25
302.9	951.25
303.13	890.25
303.36	882.25
303.59	910.25
303.82	892.25
304.051	900.25
304.281	910.25
304.511	904.25
304.741	1008.25
304.971	1050.25
305.201	1139.25
305.431	990.25
305.661	860.25
305.891	766.25
306.121	796.25
306.352	821.25
306.582	878.25
306.812	924.25
307.042	975.25
307.272	1014.25
307.502	999.25
307.731	1097.25
307.961	1114.25
308.191	1031.25
308.421	889.25
308.651	843.25
308.881	820.25
309.111	857.25
309.341	845.25
309.571	833.25
309.8	844.25
310.03	827.25
310.26	828.25
310.49	828.25
310.72	872.25
310.949	922.25
311.179	904.25
311.409	883.25
311.639	858.25
311.868	860.25
312.098	888.25
312.328	830.25
312.557	873.25
312.787	904.25
313.017	870.25
313.246	879.25
313.476	892.25
313.706	889.25
313.935	928.25
314.165	908.25
314.394	949.25
314.624	1045.25
314.853	1102.25
315.083	1098.25
315.312	1092.25
315.542	1025.25
315.771	922.25
316.001	948.25
316.23	965.25
316.46	997.25
316.689	952.25
316.919	904.25
317.148	878.25
317.377	914.25
317.607	1002.25
317.836	1093.25
318.065	1168.25
318.295	1054.25
318.524	1017.25
318.753	979.25
318.983	946.25
319.212	931.25
319.441	953.25
319.67	950.25
319.9	954.25
320.129	988.25
320.358	1040.25
320.587	1080.25
320.816	1080.25
321.046	1053.25
321.275	991.25
321.504	1014.25
321.733	1066.25
321.962	989.25
322.191	942.25
322.42	974.25
322.649	906.25
322.878	921.25
323.108	948.25
323.337	983.25
323.566	957.25
323.795	988.25
324.024	977.25
324.253	982.25
324.482	966.25
324.71	914.25
324.939	900.25
325.168	900.25
325.397	976.25
325.626	982.25
325.855	965.25
326.084	942.25
326.313	977.25
326.542	962.25
326.77	988.25
326.999	991.25
327.228	943.25
327.457	882.25
327.686	884.25
327.914	933.25
328.143	936.25
328.372	925.25
328.6	948.25
328.829	936.25
329.058	908.25
329.287	945.25
329.515	983.25
329.744	976.25
329.972	1050.25
330.201	1076.25
330.43	1025.25
330.658	964.25
330.887	1034.25
331.115	1024.25
331.344	999.25
331.572	1010.25
331.801	1033.25
332.03	1015.25
332.258	1026.25
332.486	1048.25
332.715	1033.25
332.943	1019.25
333.172	1008.25
333.4	1042.25
333.629	1079.25
333.857	1108.25
334.085	1250.25
334.314	1421.25
334.542	1473.25
334.771	1351.25
334.999	1203.25
335.227	1149.25
335.455	1085.25
335.684	1102.25
335.912	1101.25
336.14	1141.25
336.369	1081.25
336.597	1044.25
336.825	1040.25
337.053	1088.25
337.281	1112.25
337.51	1181.25
337.738	1188.25
337.966	1111.25
338.194	1058.25
338.422	1003.25
338.65	998.25
338.878	990.25
339.106	986.25
339.334	984.25
339.562	951.25
339.79	989.25
340.018	1040.25
340.246	1059.25
340.474	1078.25
340.702	1061.25
340.93	1076.25
341.158	1064.25
341.386	1015.25
341.614	1009.25
341.842	1023.25
342.07	989.25
342.298	1017.25
342.526	1020.25
342.754	994.25
342.981	960.25
343.209	983.25
343.437	994.25
343.665	1011.25
343.893	1035.25
344.12	1102.25
344.348	1101.25
344.576	997.25
344.804	999.25
345.031	973.25
345.259	991.25
345.487	975.25
345.714	941.25
345.942	923.25
346.17	933.25
346.397	941.25
346.625	966.25
346.853	905.25
347.08	894.25
347.308	920.25
347.535	924.25
347.763	970.25
347.99	954.25
348.218	933.25
348.445	905.25
348.673	938.25
348.9	976.25
349.128	1006.25
349.355	1020.25
349.583	986.25
349.81	953.25
350.037	873.25
350.265	890.25
350.492	906.25
350.72	934.25
350.947	950.25
351.174	956.25
351.402	916.25
351.629	889.25
351.856	888.25
352.083	882.25
352.311	880.25
352.538	886.25
352.765	948.25
352.992	963.25
353.22	904.25
353.447	908.25
353.674	922.25
353.901	955.25
354.128	929.25
354.355	928.25
354.583	980.25
354.81	998.25
355.037	1000.25
355.264	967.25
355.491	946.25
355.718	974.25
355.945	925.25
356.172	898.25
356.399	879.25
356.626	939.25
356.853	966.25
357.08	1067.25
357.307	1152.25
357.534	1102.25
357.761	951.25
357.988	886.25
358.215	886.25
358.441	879.25
358.668	881.25
358.895	916.25
359.122	981.25
359.349	1100.25
359.576	1036.25
359.802	964.25
360.029	892.25
360.256	909.25
360.483	939.25
360.709	944.25
360.936	990.25
361.163	1030.25
361.39	1157.25
361.616	1248.25
361.843	1158.25
362.07	1065.25
362.296	944.25
362.523	938.25
362.749	946.25
362.976	972.25
363.203	966.25
363.429	943.25
363.656	910.25
363.882	987.25
364.109	1078.25
364.335	1140.25
364.562	1070.25
364.788	989.25
365.015	960.25
365.241	926.25
365.468	937.25
365.694	1015.25
365.92	1063.25
366.147	984.25
366.373	937.25
366.599	930.25
366.826	903.25
367.052	910.25
367.278	921.25
367.505	940.25
367.731	941.25
367.957	968.25
368.184	1002.25
368.41	1080.25
368.636	1086.25
368.862	1112.25
369.089	1087.25
369.315	1052.25
369.541	986.25
369.767	968.25
369.993	918.25
370.219	946.25
370.445	957.25
370.672	1031.25
370.898	1075.25
371.124	1052.25
371.35	1020.25
371.576	1056.25
371.802	1073.25
372.028	1042.25
372.254	981.25
372.48	976.25
372.706	989.25
372.932	971.25
373.158	978.25
373.384	994.25
373.61	1026.25
373.835	1042.25
374.061	1005.25
374.287	1020.25
374.513	996.25
374.739	1013.25
374.965	1010.25
375.191	1019.25
375.416	1023.25
375.642	1061.25
375.868	1129.25
376.094	1148.25
376.319	1092.25
376.545	1018.25
376.771	1027.25
376.997	1076.25
377.222	1070.25
377.448	1033.25
377.674	1065.25
377.899	1068.25
378.125	1106.25
378.35	1082.25
378.576	997.25
378.802	975.25
379.027	938.25
379.253	981.25
379.478	988.25
379.704	986.25
379.929	998.25
380.155	997.25
380.38	1013.25
380.606	1031.25
380.831	1044.25
381.057	1080.25
381.282	1074.25
381.507	1069.25
381.733	1141.25
381.958	1168.25
382.184	1046.25
382.409	1059.25
382.634	1058.25
382.86	1077.25
383.085	1064.25
383.31	1100.25
383.535	1209.25
383.761	1283.25
383.986	1170.25
384.211	1133.25
384.436	1136.25
384.662	1222.25
384.887	1196.25
385.112	1174.25
385.337	1159.25
385.562	1135.25
385.787	1122.25
386.013	1208.25
386.238	1181.25
386.463	1148.25
386.688	1270.25
386.913	1349.25
387.138	1280.25
387.363	1212.25
387.588	1178.25
387.813	1177.25
388.038	1183.25
388.263	1235.25
388.488	1180.25
388.713	1070.25
388.938	1094.25
389.163	1109.25
389.387	1123.25
389.612	1126.25
389.837	1187.25
390.062	1176.25
390.287	1122.25
390.512	1149.25
390.736	1144.25
390.961	1081.25
391.186	1063.25
391.411	1141.25
391.636	1121.25
391.86	1156.25
392.085	1169.25
392.31	1130.25
392.534	1122.25
392.759	1170.25
392.984	1151.25
393.208	1145.25
393.433	1192.25
393.658	1280.25
393.882	1263.25
394.107	1154.25
394.331	1111.25
394.556	1148.25
394.78	1163.25
395.005	1196.25
395.229	1239.25
395.454	1374.25
395.678	1319.25
395.903	1267.25
396.127	1205.25
396.352	1224.25
396.576	1282.25
396.801	1277.25
397.025	1232.25
397.249	1263.25
397.474	1278.25
397.698	1242.25
397.922	1292.25
398.147	1332.25
398.371	1407.25
398.595	1365.25
398.82	1297.25
399.044	1305.25
399.268	1396.25
399.492	1442.25
399.717	1511.25
399.941	1521.25
400.165	1468.25
400.389	1449.25
400.613	1474.25
400.837	1710.25
401.062	1891.25
401.286	1575.25
401.51	1463.25
401.734	1503.25
401.958	1467.25
402.182	1365.25
402.406	1324.25
402.63	1280.25
402.854	1293.25
403.078	1362.25
403.302	1337.25
403.526	1376.25
403.75	1368.25
403.974	1376.25
404.198	1384.25
404.422	1454.25
404.645	1516.25
404.869	1469.25
405.093	1339.25
405.317	1318.25
405.541	1358.25
405.765	1368.25
405.988	1370.25
406.212	1369.25
406.436	1447.25
406.66	1500.25
406.883	1508.25
407.107	1703.25
407.331	1799.25
407.555	2006.25
407.778	1714.25
408.002	1459.25
408.226	1424.25
408.449	1424.25
408.673	1394.25
408.896	1408.25
409.12	1398.25
409.344	1412.25
409.567	1387.25
409.791	1416.25
410.014	1418.25
410.238	1537.25
410.461	1551.25
410.685	1381.25
410.908	1365.25
411.132	1367.25
411.355	1360.25
411.578	1346.25
411.802	1356.25
412.025	1390.25
412.249	1348.25
412.472	1299.25
412.695	1320.25
412.919	1287.25
413.142	1307.25
413.365	1343.25
413.589	1359.25
413.812	1456.25
414.035	1487.25
414.258	1340.25
414.482	1356.25
414.705	1340.25
414.928	1313.25
415.151	1334.25
415.374	1340.25
415.597	1333.25
415.821	1385.25
416.044	1378.25
416.267	1401.25
416.49	1284.25
416.713	1290.25
416.936	1305.25
417.159	1416.25
417.382	1391.25
417.605	1294.25
417.828	1339.25
418.051	1337.25
418.274	1342.25
418.497	1293.25
418.72	1305.25
418.943	1280.25
419.166	1366.25
419.389	1405.25
419.611	1338.25
419.834	1286.25
420.057	1338.25
420.28	1321.25
420.503	1288.25
420.726	1336.25
420.948	1306.25
421.171	1247.25
421.394	1320.25
421.617	1356.25
421.839	1340.25
422.062	1352.25
422.285	1293.25
422.507	1307.25
422.73	1219.25
422.953	1231.25
423.175	1225.25
423.398	1281.25
423.621	1270.25
423.843	1310.25
424.066	1354.25
424.288	1387.25
424.511	1428.25
424.733	1382.25
424.956	1255.25
425.178	1266.25
425.401	1281.25
425.623	1292.25
425.846	1252.25
426.068	1360.25
426.291	1361.25
426.513	1336.25
426.735	1318.25
426.958	1426.25
427.18	1516.25
427.402	1401.25
427.625	1475.25
427.847	1398.25
428.069	1290.25
428.292	1286.25
428.514	1261.25
428.736	1253.25
428.958	1275.25
429.181	1282.25
429.403	1503.25
429.625	1761.25
429.847	1487.25
430.069	1312.25
430.292	1465.25
430.514	1464.25
430.736	1377.25
430.958	1416.25
431.18	1331.25
431.402	1238.25
431.624	1215.25
431.846	1176.25
432.068	1129.25
432.29	1156.25
432.512	1220.25
432.734	1289.25
432.956	1296.25
433.178	1323.25
433.4	1355.25
433.622	1318.25
433.844	1290.25
434.066	1218.25
434.287	1240.25
434.509	1250.25
434.731	1299.25
434.953	1401.25
435.175	1363.25
435.397	1324.25
435.618	1277.25
435.84	1224.25
436.062	1255.25
436.284	1261.25
436.505	1324.25
436.727	1306.25
436.949	1296.25
437.17	1281.25
437.392	1260.25
437.614	1223.25
437.835	1185.25
438.057	1232.25
438.278	1254.25
438.5	1222.25
438.721	1244.25
438.943	1284.25
439.165	1251.25
439.386	1228.25
439.608	1265.25
439.829	1266.25
440.05	1286.25
440.272	1262.25
440.493	1258.25
440.715	1265.25
440.936	1414.25
441.158	1452.25
441.379	1443.25
441.6	1388.25
441.822	1372.25
442.043	1354.25
442.264	1376.25
442.486	1298.25
442.707	1269.25
442.928	1260.25
443.149	1319.25
443.371	1393.25
443.592	1398.25
443.813	1394.25
444.034	1405.25
444.255	1354.25
444.476	1430.25
444.698	1446.25
444.919	1391.25
445.14	1492.25
445.361	1501.25
445.582	1450.25
445.803	1417.25
446.024	1394.25
446.245	1395.25
446.466	1425.25
446.687	1366.25
446.908	1388.25
447.129	1307.25
447.35	1311.25
447.571	1345.25
447.792	1274.25
448.013	1277.25
448.234	1289.25
448.455	1354.25
448.675	1342.25
448.896	1234.25
449.117	1224.25
449.338	1263.25
449.559	1303.25
449.779	1346.25
450	1448.25
450.221	1490.25
450.442	1464.25
450.662	1324.25
450.883	1204.25
451.104	1194.25
451.324	1220.25
451.545	1268.25
451.766	1216.25
451.986	1154.25
452.207	1142.25
452.428	1124.25
452.648	1085.25
452.869	1132.25
453.089	1174.25
453.31	1184.25
453.53	1200.25
453.751	1153.25
453.971	1073.25
454.192	1079.25
454.412	1158.25
454.633	1163.25
454.853	1132.25
455.073	1057.25
455.294	1097.25
455.514	1091.25
455.734	1091.25
455.955	1113.25
456.175	1080.25
456.395	1092.25
456.616	1078.25
456.836	1144.25
457.056	1133.25
457.276	1088.25
457.497	1048.25
457.717	1030.25
457.937	1065.25
458.157	1079.25
458.377	1047.25
458.598	1013.25
458.818	1038.25
459.038	1122.25
459.258	1200.25
459.478	1168.25
459.698	1127.25
459.918	1160.25
460.138	1248.25
460.358	1265.25
460.578	1271.25
460.798	1299.25
461.018	1378.25
461.238	1328.25
461.458	1312.25
461.678	1260.25
461.898	1232.25
462.118	1200.25
462.338	1309.25
462.558	1264.25
462.777	1251.25
462.997	1305.25
463.217	1391.25
463.437	1356.25
463.657	1278.25
463.876	1277.25
464.096	1265.25
464.316	1297.25
464.536	1308.25
464.755	1353.25
464.975	1335.25
465.195	1269.25
465.414	1317.25
465.634	1384.25
465.854	1337.25
466.073	1439.25
466.293	1364.25
466.512	1210.25
466.732	1192.25
466.951	1303.25
467.171	1245.25
467.391	1161.25
467.61	1212.25
467.829	1250.25
468.049	1379.25
468.268	1486.25
468.488	1369.25
468.707	1308.25
468.927	1245.25
469.146	1252.25
469.365	1223.25
469.585	1281.25
469.804	1218.25
470.023	1239.25
470.243	1243.25
470.462	1216.25
470.681	1247.25
470.901	1236.25
471.12	1227.25
471.339	1219.25
471.558	1216.25
471.777	1220.25
471.997	1241.25
472.216	1224.25
472.435	1153.25
472.654	1178.25
472.873	1210.25
473.092	1276.25
473.311	1210.25
473.53	1162.25
473.749	1144.25
473.968	1187.25
474.187	1225.25
474.406	1269.25
474.625	1217.25
474.844	1184.25
475.063	1216.25
475.282	1271.25
475.501	1206.25
475.72	1222.25
475.939	1295.25
476.158	1290.25
476.377	1230.25
476.596	1256.25
476.814	1222.25
477.033	1233.25
477.252	1301.25
477.471	1317.25
477.69	1329.25
477.908	1295.25
478.127	1390.25
478.346	1472.25
478.564	1458.25
478.783	1431.25
479.002	1471.25
479.22	1425.25
479.439	1492.25
479.658	1584.25
479.876	1545.25
480.095	1370.25
480.313	1346.25
480.532	1305.25
480.751	1312.25
480.969	1325.25
481.188	1284.25
481.406	1273.25
481.624	1219.25
481.843	1266.25
482.061	1296.25
482.28	1337.25
482.498	1371.25
482.717	1326.25
482.935	1326.25
483.153	1377.25
483.372	1361.25
483.59	1381.25
483.808	1381.25
484.027	1380.25
484.245	1480.25
484.463	1775.25
484.681	1925.25
484.9	1462.25
485.118	1402.25
485.336	1378.25
485.554	1399.25
485.772	1406.25
485.99	1400.25
486.209	1388.25
486.427	1406.25
486.645	1439.25
486.863	1433.25
487.081	1453.25
487.299	1462.25
487.517	1468.25
487.735	1500.25
487.953	1482.25
488.171	1502.25
488.389	1490.25
488.607	1484.25
488.825	1679.25
489.043	1589.25
489.261	1416.25
489.479	1462.25
489.696	1523.25
489.914	1464.25
490.132	1448.25
490.35	1455.25
490.568	1544.25
490.786	1482.25
491.003	1509.25
491.221	1588.25
491.439	1609.25
491.657	1565.25
491.874	1607.25
492.092	1706.25
492.31	1737.25
492.527	1673.25
492.745	1668.25
492.963	1612.25
493.18	1649.25
