Data from WStandard_LampEnergy8_LIBS07252019.E.O._I.C._HRD10591_15-58-37-929.txt Node
Date: Thu Jul 25 15:58:37 EDT 2019
User: cochatt
Spectrometer: HR+D1059
Trigger mode: 1
Integration Time (sec): 1.000000E-1
Scans to average: 1
Electric dark correction enabled: true
Nonlinearity correction enabled: false
Boxcar width: 0
XAxis mode: Wavelengths
Number of Pixels in Spectrum: 2048
>>>>>Begin Spectral Data<<<<<
223.165	-19.25
223.4	-19.25
223.635	-19.25
223.869	-25.25
224.104	-12.25
224.338	-7.25
224.573	-14.25
224.808	-11.25
225.042	-3.25
225.277	3.75
225.511	-6.25
225.746	7.75
225.98	-1.25
226.215	9.75
226.449	13.75
226.683	17.75
226.918	21.75
227.152	25.75
227.387	29.75
227.621	27.75
227.856	45.75
228.09	54.75
228.324	51.75
228.559	66.75
228.793	107.75
229.027	205.75
229.262	215.75
229.496	214.75
229.73	223.75
229.964	263.75
230.199	270.75
230.433	262.75
230.667	284.75
230.901	296.75
231.136	261.75
231.37	275.75
231.604	271.75
231.838	276.75
232.072	289.75
232.306	276.75
232.541	278.75
232.775	310.75
233.009	339.75
233.243	335.75
233.477	300.75
233.711	307.75
233.945	309.75
234.179	309.75
234.413	313.75
234.647	355.75
234.881	312.75
235.115	303.75
235.349	310.75
235.583	295.75
235.817	311.75
236.051	286.75
236.285	314.75
236.519	353.75
236.753	352.75
236.987	370.75
237.221	373.75
237.455	373.75
237.689	380.75
237.922	360.75
238.156	335.75
238.39	349.75
238.624	385.75
238.858	401.75
239.091	420.75
239.325	424.75
239.559	479.75
239.793	506.75
240.027	554.75
240.26	491.75
240.494	410.75
240.728	384.75
240.961	381.75
241.195	390.75
241.429	415.75
241.662	441.75
241.896	395.75
242.13	389.75
242.363	434.75
242.597	460.75
242.83	460.75
243.064	469.75
243.298	502.75
243.531	477.75
243.765	469.75
243.998	477.75
244.232	418.75
244.465	409.75
244.699	414.75
244.932	464.75
245.166	524.75
245.399	491.75
245.633	455.75
245.866	470.75
246.099	490.75
246.333	479.75
246.566	517.75
246.8	542.75
247.033	617.75
247.266	573.75
247.5	555.75
247.733	537.75
247.966	592.75
248.2	653.75
248.433	587.75
248.666	632.75
248.899	662.75
249.133	768.75
249.366	812.75
249.599	716.75
249.832	621.75
250.066	631.75
250.299	648.75
250.532	581.75
250.765	535.75
250.998	584.75
251.231	600.75
251.465	649.75
251.698	595.75
251.931	597.75
252.164	609.75
252.397	640.75
252.63	620.75
252.863	544.75
253.096	586.75
253.329	595.75
253.562	629.75
253.795	630.75
254.028	616.75
254.261	605.75
254.494	573.75
254.727	565.75
254.96	583.75
255.193	658.75
255.426	727.75
255.659	795.75
255.892	798.75
256.124	682.75
256.357	664.75
256.59	705.75
256.823	704.75
257.056	734.75
257.289	846.75
257.521	898.75
257.754	821.75
257.987	807.75
258.22	867.75
258.452	835.75
258.685	703.75
258.918	687.75
259.151	666.75
259.383	660.75
259.616	592.75
259.849	632.75
260.081	717.75
260.314	810.75
260.547	846.75
260.779	841.75
261.012	780.75
261.244	719.75
261.477	693.75
261.71	719.75
261.942	716.75
262.175	685.75
262.407	688.75
262.64	693.75
262.872	641.75
263.105	635.75
263.337	643.75
263.57	646.75
263.802	638.75
264.035	619.75
264.267	579.75
264.499	600.75
264.732	618.75
264.964	664.75
265.197	677.75
265.429	724.75
265.661	788.75
265.894	861.75
266.126	897.75
266.358	793.75
266.591	838.75
266.823	895.75
267.055	831.75
267.287	795.75
267.52	777.75
267.752	741.75
267.984	771.75
268.216	830.75
268.448	838.75
268.681	790.75
268.913	746.75
269.145	705.75
269.377	684.75
269.609	785.75
269.841	876.75
270.073	1059.75
270.306	1087.75
270.538	1130.75
270.77	966.75
271.002	823.75
271.234	842.75
271.466	854.75
271.698	934.75
271.93	1057.75
272.162	1062.75
272.394	974.75
272.626	925.75
272.858	827.75
273.09	746.75
273.322	711.75
273.553	705.75
273.785	681.75
274.017	739.75
274.249	767.75
274.481	782.75
274.713	724.75
274.945	740.75
275.176	729.75
275.408	709.75
275.64	693.75
275.872	717.75
276.104	765.75
276.335	885.75
276.567	943.75
276.799	933.75
277.031	846.75
277.262	812.75
277.494	847.75
277.726	915.75
277.957	897.75
278.189	829.75
278.421	741.75
278.652	723.75
278.884	753.75
279.115	739.75
279.347	749.75
279.579	745.75
279.81	770.75
280.042	840.75
280.273	886.75
280.505	883.75
280.736	911.75
280.968	827.75
281.199	765.75
281.431	735.75
281.662	723.75
281.894	758.75
282.125	724.75
282.356	777.75
282.588	806.75
282.819	789.75
283.051	845.75
283.282	909.75
283.513	867.75
283.745	775.75
283.976	732.75
284.207	743.75
284.439	773.75
284.67	759.75
284.901	782.75
285.132	802.75
285.364	806.75
285.595	782.75
285.826	774.75
286.057	759.75
286.288	751.75
286.52	822.75
286.751	847.75
286.982	864.75
287.213	800.75
287.444	745.75
287.675	725.75
287.906	810.75
288.138	845.75
288.369	805.75
288.6	746.75
288.831	749.75
289.062	741.75
289.293	770.75
289.524	771.75
289.755	839.75
289.986	797.75
290.217	742.75
290.448	761.75
290.679	813.75
290.91	811.75
291.141	829.75
291.371	834.75
291.602	839.75
291.833	834.75
292.064	845.75
292.295	835.75
292.526	865.75
292.757	894.75
292.987	835.75
293.218	802.75
293.449	871.75
293.68	986.75
293.91	1025.75
294.141	965.75
294.372	924.75
294.603	941.75
294.833	983.75
295.064	926.75
295.295	827.75
295.525	812.75
295.756	771.75
295.987	770.75
296.217	765.75
296.448	781.75
296.679	792.75
296.909	760.75
297.14	789.75
297.37	798.75
297.601	874.75
297.831	914.75
298.062	903.75
298.292	811.75
298.523	798.75
298.753	811.75
298.984	833.75
299.214	808.75
299.445	826.75
299.675	857.75
299.905	835.75
300.136	812.75
300.366	814.75
300.597	759.75
300.827	809.75
301.057	854.75
301.288	868.75
301.518	845.75
301.748	877.75
301.979	933.75
302.209	953.75
302.439	989.75
302.669	1020.75
302.9	953.75
303.13	843.75
303.36	865.75
303.59	874.75
303.82	846.75
304.051	860.75
304.281	889.75
304.511	909.75
304.741	956.75
304.971	1014.75
305.201	1080.75
305.431	982.75
305.661	813.75
305.891	772.75
306.121	779.75
306.352	813.75
306.582	853.75
306.812	885.75
307.042	957.75
307.272	997.75
307.502	1031.75
307.731	1103.75
307.961	1133.75
308.191	1028.75
308.421	893.75
308.651	858.75
308.881	833.75
309.111	855.75
309.341	846.75
309.571	846.75
309.8	846.75
310.03	860.75
310.26	846.75
310.49	833.75
310.72	880.75
310.949	902.75
311.179	888.75
311.409	885.75
311.639	827.75
311.868	838.75
312.098	843.75
312.328	848.75
312.557	858.75
312.787	887.75
313.017	864.75
313.246	888.75
313.476	868.75
313.706	892.75
313.935	887.75
314.165	919.75
314.394	964.75
314.624	998.75
314.853	1041.75
315.083	1086.75
315.312	1081.75
315.542	997.75
315.771	913.75
316.001	947.75
316.23	980.75
316.46	967.75
316.689	957.75
316.919	912.75
317.148	874.75
317.377	898.75
317.607	991.75
317.836	1072.75
318.065	1119.75
318.295	1049.75
318.524	1002.75
318.753	968.75
318.983	977.75
319.212	924.75
319.441	915.75
319.67	919.75
319.9	954.75
320.129	1003.75
320.358	1031.75
320.587	1084.75
320.816	1035.75
321.046	999.75
321.275	997.75
321.504	1046.75
321.733	1054.75
321.962	1012.75
322.191	974.75
322.42	959.75
322.649	940.75
322.878	937.75
323.108	937.75
323.337	967.75
323.566	988.75
323.795	976.75
324.024	987.75
324.253	947.75
324.482	953.75
324.71	914.75
324.939	881.75
325.168	922.75
325.397	984.75
325.626	967.75
325.855	949.75
326.084	944.75
326.313	956.75
326.542	998.75
326.77	974.75
326.999	1006.75
327.228	965.75
327.457	902.75
327.686	886.75
327.914	925.75
328.143	962.75
328.372	935.75
328.6	927.75
328.829	911.75
329.058	897.75
329.287	929.75
329.515	982.75
329.744	967.75
329.972	1003.75
330.201	1068.75
330.43	1027.75
330.658	979.75
330.887	1009.75
331.115	993.75
331.344	995.75
331.572	995.75
331.801	973.75
332.03	992.75
332.258	994.75
332.486	990.75
332.715	1020.75
332.943	1019.75
333.172	962.75
333.4	1027.75
333.629	1067.75
333.857	1126.75
334.085	1223.75
334.314	1411.75
334.542	1461.75
334.771	1337.75
334.999	1201.75
335.227	1099.75
335.455	1073.75
335.684	1082.75
335.912	1058.75
336.14	1129.75
336.369	1077.75
336.597	984.75
336.825	1002.75
337.053	1047.75
337.281	1143.75
337.51	1165.75
337.738	1182.75
337.966	1113.75
338.194	1023.75
338.422	1021.75
338.65	984.75
338.878	971.75
339.106	957.75
339.334	942.75
339.562	923.75
339.79	962.75
340.018	1087.75
340.246	1080.75
340.474	1061.75
340.702	1034.75
340.93	1066.75
341.158	1025.75
341.386	997.75
341.614	995.75
341.842	997.75
342.07	997.75
342.298	1017.75
342.526	999.75
342.754	984.75
342.981	995.75
343.209	974.75
343.437	987.75
343.665	978.75
343.893	1034.75
344.12	1073.75
344.348	1084.75
344.576	1037.75
344.804	1009.75
345.031	977.75
345.259	1010.75
345.487	942.75
345.714	952.75
345.942	895.75
346.17	915.75
346.397	963.75
346.625	947.75
346.853	902.75
347.08	885.75
347.308	899.75
347.535	923.75
347.763	979.75
347.99	941.75
348.218	894.75
348.445	919.75
348.673	964.75
348.9	939.75
349.128	1020.75
349.355	1031.75
349.583	1000.75
349.81	933.75
350.037	877.75
350.265	871.75
350.492	874.75
350.72	920.75
350.947	998.75
351.174	945.75
351.402	942.75
351.629	885.75
351.856	863.75
352.083	880.75
352.311	891.75
352.538	906.75
352.765	970.75
352.992	1004.75
353.22	937.75
353.447	915.75
353.674	903.75
353.901	959.75
354.128	915.75
354.355	921.75
354.583	987.75
354.81	979.75
355.037	982.75
355.264	971.75
355.491	930.75
355.718	929.75
355.945	922.75
356.172	922.75
356.399	912.75
356.626	907.75
356.853	957.75
357.08	1037.75
357.307	1129.75
357.534	1071.75
357.761	938.75
357.988	915.75
358.215	911.75
358.441	904.75
358.668	897.75
358.895	921.75
359.122	989.75
359.349	1070.75
359.576	1035.75
359.802	937.75
360.029	909.75
360.256	891.75
360.483	913.75
360.709	935.75
360.936	999.75
361.163	1021.75
361.39	1118.75
361.616	1179.75
361.843	1149.75
362.07	1051.75
362.296	939.75
362.523	906.75
362.749	945.75
362.976	931.75
363.203	947.75
363.429	925.75
363.656	889.75
363.882	967.75
364.109	1088.75
364.335	1130.75
364.562	1045.75
364.788	968.75
365.015	933.75
365.241	902.75
365.468	944.75
365.694	1009.75
365.92	1009.75
366.147	959.75
366.373	925.75
366.599	901.75
366.826	917.75
367.052	935.75
367.278	938.75
367.505	960.75
367.731	996.75
367.957	978.75
368.184	1031.75
368.41	1051.75
368.636	1100.75
368.862	1060.75
369.089	1079.75
369.315	1013.75
369.541	1021.75
369.767	961.75
369.993	922.75
370.219	947.75
370.445	961.75
370.672	1027.75
370.898	1068.75
371.124	1038.75
371.35	1000.75
371.576	1070.75
371.802	1080.75
372.028	1011.75
372.254	965.75
372.48	949.75
372.706	956.75
372.932	951.75
373.158	962.75
373.384	977.75
373.61	1013.75
373.835	1063.75
374.061	1027.75
374.287	998.75
374.513	983.75
374.739	1009.75
374.965	999.75
375.191	1017.75
375.416	1018.75
375.642	1049.75
375.868	1148.75
376.094	1145.75
376.319	1056.75
376.545	995.75
376.771	1058.75
376.997	1098.75
377.222	1075.75
377.448	1039.75
377.674	1094.75
377.899	1065.75
378.125	1123.75
378.35	1088.75
378.576	1005.75
378.802	967.75
379.027	994.75
379.253	996.75
379.478	1001.75
379.704	974.75
379.929	981.75
380.155	1000.75
380.38	1028.75
380.606	1031.75
380.831	1015.75
381.057	1096.75
381.282	1065.75
381.507	1079.75
381.733	1124.75
381.958	1133.75
382.184	1054.75
382.409	1066.75
382.634	1040.75
382.86	1018.75
383.085	1075.75
383.31	1120.75
383.535	1188.75
383.761	1251.75
383.986	1216.75
384.211	1149.75
384.436	1113.75
384.662	1181.75
384.887	1217.75
385.112	1128.75
385.337	1166.75
385.562	1160.75
385.787	1158.75
386.013	1197.75
386.238	1203.75
386.463	1181.75
386.688	1285.75
386.913	1319.75
387.138	1259.75
387.363	1194.75
387.588	1178.75
387.813	1163.75
388.038	1212.75
388.263	1235.75
388.488	1160.75
388.713	1129.75
388.938	1100.75
389.163	1109.75
389.387	1114.75
389.612	1126.75
389.837	1185.75
390.062	1095.75
390.287	1157.75
390.512	1128.75
390.736	1121.75
390.961	1081.75
391.186	1088.75
391.411	1121.75
391.636	1117.75
391.86	1139.75
392.085	1121.75
392.31	1123.75
392.534	1108.75
392.759	1159.75
392.984	1119.75
393.208	1182.75
393.433	1217.75
393.658	1236.75
393.882	1223.75
394.107	1179.75
394.331	1127.75
394.556	1135.75
394.78	1183.75
395.005	1228.75
395.229	1278.75
395.454	1313.75
395.678	1331.75
395.903	1254.75
396.127	1235.75
396.352	1236.75
396.576	1255.75
396.801	1246.75
397.025	1254.75
397.249	1259.75
397.474	1210.75
397.698	1250.75
397.922	1285.75
398.147	1335.75
398.371	1361.75
398.595	1377.75
398.82	1324.75
399.044	1347.75
399.268	1389.75
399.492	1446.75
399.717	1491.75
399.941	1529.75
400.165	1486.75
400.389	1435.75
400.613	1497.75
400.837	1704.75
401.062	1817.75
401.286	1525.75
401.51	1457.75
401.734	1506.75
401.958	1423.75
402.182	1333.75
402.406	1301.75
402.63	1278.75
402.854	1303.75
403.078	1299.75
403.302	1347.75
403.526	1348.75
403.75	1388.75
403.974	1369.75
404.198	1371.75
404.422	1473.75
404.645	1481.75
404.869	1438.75
405.093	1317.75
405.317	1309.75
405.541	1363.75
405.765	1401.75
405.988	1354.75
406.212	1405.75
406.436	1391.75
406.66	1439.75
406.883	1496.75
407.107	1670.75
407.331	1805.75
407.555	1890.75
407.778	1706.75
408.002	1467.75
408.226	1441.75
408.449	1443.75
408.673	1365.75
408.896	1377.75
409.12	1419.75
409.344	1379.75
409.567	1333.75
409.791	1359.75
410.014	1394.75
410.238	1521.75
410.461	1549.75
410.685	1404.75
410.908	1357.75
411.132	1409.75
411.355	1374.75
411.578	1337.75
411.802	1347.75
412.025	1356.75
412.249	1363.75
412.472	1290.75
412.695	1317.75
412.919	1329.75
413.142	1313.75
413.365	1339.75
413.589	1335.75
413.812	1439.75
414.035	1459.75
414.258	1324.75
414.482	1319.75
414.705	1345.75
414.928	1301.75
415.151	1317.75
415.374	1357.75
415.597	1378.75
415.821	1358.75
416.044	1372.75
416.267	1335.75
416.49	1283.75
416.713	1265.75
416.936	1323.75
417.159	1401.75
417.382	1365.75
417.605	1318.75
417.828	1342.75
418.051	1345.75
418.274	1315.75
418.497	1298.75
418.72	1295.75
418.943	1287.75
419.166	1356.75
419.389	1382.75
419.611	1314.75
419.834	1286.75
420.057	1333.75
420.28	1299.75
420.503	1309.75
420.726	1367.75
420.948	1337.75
421.171	1286.75
421.394	1292.75
421.617	1340.75
421.839	1334.75
422.062	1333.75
422.285	1292.75
422.507	1294.75
422.73	1215.75
422.953	1208.75
423.175	1253.75
423.398	1291.75
423.621	1294.75
423.843	1312.75
424.066	1346.75
424.288	1377.75
424.511	1414.75
424.733	1353.75
424.956	1250.75
425.178	1262.75
425.401	1237.75
425.623	1300.75
425.846	1269.75
426.068	1375.75
426.291	1339.75
426.513	1357.75
426.735	1316.75
426.958	1447.75
427.18	1499.75
427.402	1398.75
427.625	1438.75
427.847	1416.75
428.069	1302.75
428.292	1292.75
428.514	1265.75
428.736	1278.75
428.958	1261.75
429.181	1307.75
429.403	1507.75
429.625	1807.75
429.847	1462.75
430.069	1338.75
430.292	1448.75
430.514	1487.75
430.736	1393.75
430.958	1409.75
431.18	1326.75
431.402	1229.75
431.624	1181.75
431.846	1191.75
432.068	1141.75
432.29	1173.75
432.512	1182.75
432.734	1273.75
432.956	1307.75
433.178	1324.75
433.4	1349.75
433.622	1320.75
433.844	1242.75
434.066	1229.75
434.287	1206.75
434.509	1228.75
434.731	1277.75
434.953	1410.75
435.175	1359.75
435.397	1315.75
435.618	1297.75
435.84	1277.75
436.062	1232.75
436.284	1261.75
436.505	1299.75
436.727	1316.75
436.949	1297.75
437.17	1269.75
437.392	1213.75
437.614	1244.75
437.835	1209.75
438.057	1248.75
438.278	1301.75
438.5	1242.75
438.721	1243.75
438.943	1278.75
439.165	1249.75
439.386	1241.75
439.608	1292.75
439.829	1270.75
440.05	1249.75
440.272	1282.75
440.493	1250.75
440.715	1299.75
440.936	1384.75
441.158	1443.75
441.379	1394.75
441.6	1404.75
441.822	1363.75
442.043	1345.75
442.264	1333.75
442.486	1263.75
442.707	1291.75
442.928	1263.75
443.149	1291.75
443.371	1344.75
443.592	1401.75
443.813	1386.75
444.034	1393.75
444.255	1406.75
444.476	1405.75
444.698	1407.75
444.919	1413.75
445.14	1539.75
445.361	1477.75
445.582	1448.75
445.803	1434.75
446.024	1400.75
446.245	1430.75
446.466	1400.75
446.687	1371.75
446.908	1374.75
447.129	1317.75
447.35	1335.75
447.571	1330.75
447.792	1253.75
448.013	1268.75
448.234	1283.75
448.455	1314.75
448.675	1313.75
448.896	1236.75
449.117	1227.75
449.338	1233.75
449.559	1286.75
449.779	1325.75
450	1409.75
450.221	1485.75
450.442	1446.75
450.662	1293.75
450.883	1195.75
451.104	1186.75
451.324	1205.75
451.545	1269.75
451.766	1215.75
451.986	1156.75
452.207	1093.75
452.428	1131.75
452.648	1091.75
452.869	1147.75
453.089	1153.75
453.31	1156.75
453.53	1180.75
453.751	1143.75
453.971	1084.75
454.192	1108.75
454.412	1139.75
454.633	1155.75
454.853	1125.75
455.073	1061.75
455.294	1070.75
455.514	1086.75
455.734	1102.75
455.955	1084.75
456.175	1102.75
456.395	1082.75
456.616	1102.75
456.836	1139.75
457.056	1087.75
457.276	1114.75
457.497	1053.75
457.717	997.75
457.937	1038.75
458.157	1083.75
458.377	1073.75
458.598	1024.75
458.818	1028.75
459.038	1150.75
459.258	1177.75
459.478	1189.75
459.698	1143.75
459.918	1138.75
460.138	1256.75
460.358	1241.75
460.578	1256.75
460.798	1271.75
461.018	1377.75
461.238	1310.75
461.458	1277.75
461.678	1258.75
461.898	1221.75
462.118	1198.75
462.338	1285.75
462.558	1309.75
462.777	1265.75
462.997	1319.75
463.217	1403.75
463.437	1345.75
463.657	1297.75
463.876	1245.75
464.096	1253.75
464.316	1287.75
464.536	1309.75
464.755	1347.75
464.975	1311.75
465.195	1268.75
465.414	1294.75
465.634	1331.75
465.854	1311.75
466.073	1429.75
466.293	1409.75
466.512	1248.75
466.732	1189.75
466.951	1283.75
467.171	1260.75
467.391	1187.75
467.61	1181.75
467.829	1239.75
468.049	1358.75
468.268	1477.75
468.488	1327.75
468.707	1326.75
468.927	1266.75
469.146	1201.75
469.365	1256.75
469.585	1236.75
469.804	1217.75
470.023	1238.75
470.243	1233.75
470.462	1260.75
470.681	1243.75
470.901	1263.75
471.12	1222.75
471.339	1217.75
471.558	1171.75
471.777	1209.75
471.997	1202.75
472.216	1207.75
472.435	1150.75
472.654	1147.75
472.873	1198.75
473.092	1259.75
473.311	1187.75
473.53	1184.75
473.749	1148.75
473.968	1209.75
474.187	1227.75
474.406	1271.75
474.625	1244.75
474.844	1242.75
475.063	1245.75
475.282	1228.75
475.501	1209.75
475.72	1276.75
475.939	1291.75
476.158	1249.75
476.377	1224.75
476.596	1230.75
476.814	1218.75
477.033	1222.75
477.252	1304.75
477.471	1321.75
477.69	1314.75
477.908	1336.75
478.127	1355.75
478.346	1445.75
478.564	1414.75
478.783	1431.75
479.002	1473.75
479.22	1420.75
479.439	1476.75
479.658	1583.75
479.876	1527.75
480.095	1402.75
480.313	1384.75
480.532	1312.75
480.751	1321.75
480.969	1332.75
481.188	1295.75
481.406	1267.75
481.624	1237.75
481.843	1273.75
482.061	1333.75
482.28	1329.75
482.498	1347.75
482.717	1335.75
482.935	1330.75
483.153	1371.75
483.372	1405.75
483.59	1386.75
483.808	1377.75
484.027	1377.75
484.245	1486.75
484.463	1786.75
484.681	1917.75
484.9	1496.75
485.118	1400.75
485.336	1342.75
485.554	1407.75
485.772	1399.75
485.99	1386.75
486.209	1431.75
486.427	1385.75
486.645	1394.75
486.863	1443.75
487.081	1483.75
487.299	1455.75
487.517	1464.75
487.735	1463.75
487.953	1513.75
488.171	1474.75
488.389	1469.75
488.607	1472.75
488.825	1642.75
489.043	1564.75
489.261	1378.75
489.479	1474.75
489.696	1489.75
489.914	1460.75
490.132	1474.75
490.35	1462.75
490.568	1541.75
490.786	1515.75
491.003	1485.75
491.221	1556.75
491.439	1609.75
491.657	1587.75
491.874	1661.75
492.092	1676.75
492.31	1689.75
492.527	1684.75
492.745	1620.75
492.963	1580.75
493.18	1629.75
493.398	1702.75
