Data from WStandard_LampEnergy5.5LIBS07252019.E.O._I.C._HRD10591_16-07-31-920.txt Node
Date: Thu Jul 25 16:07:31 EDT 2019
User: cochatt
Spectrometer: HR+D1059
Trigger mode: 1
Integration Time (sec): 1.000000E-1
Scans to average: 1
Electric dark correction enabled: true
Nonlinearity correction enabled: false
Boxcar width: 0
XAxis mode: Wavelengths
Number of Pixels in Spectrum: 2048
>>>>>Begin Spectral Data<<<<<
223.165	-18.81
223.4	-18.81
223.635	-18.81
223.869	-20.81
224.104	-17.81
224.338	-13.81
224.573	-7.81
224.808	-9.81
225.042	-8.81
225.277	10.19
225.511	-17.81
225.746	6.19
225.98	8.19
226.215	12.19
226.449	20.19
226.683	15.19
226.918	14.19
227.152	29.19
227.387	23.19
227.621	55.19
227.856	51.19
228.09	54.19
228.324	41.19
228.559	71.19
228.793	165.19
229.027	375.19
229.262	383.19
229.496	406.19
229.73	425.19
229.964	461.19
230.199	474.19
230.433	469.19
230.667	507.19
230.901	550.19
231.136	487.19
231.37	473.19
231.604	483.19
231.838	492.19
232.072	487.19
232.306	457.19
232.541	476.19
232.775	583.19
233.009	640.19
233.243	625.19
233.477	555.19
233.711	569.19
233.945	565.19
234.179	559.19
234.413	630.19
234.647	649.19
234.881	622.19
235.115	579.19
235.349	551.19
235.583	578.19
235.817	585.19
236.051	557.19
236.285	540.19
236.519	595.19
236.753	708.19
236.987	738.19
237.221	681.19
237.455	763.19
237.689	743.19
237.922	703.19
238.156	696.19
238.39	672.19
238.624	747.19
238.858	783.19
239.091	800.19
239.325	823.19
239.559	959.19
239.793	994.19
240.027	1111.19
240.26	1098.19
240.494	767.19
240.728	764.19
240.961	769.19
241.195	757.19
241.429	835.19
241.662	863.19
241.896	773.19
242.13	789.19
242.363	879.19
242.597	948.19
242.83	905.19
243.064	921.19
243.298	1005.19
243.531	983.19
243.765	977.19
243.998	971.19
244.232	854.19
244.465	799.19
244.699	800.19
244.932	938.19
245.166	1074.19
245.399	1034.19
245.633	929.19
245.866	903.19
246.099	1001.19
246.333	994.19
246.566	993.19
246.8	1066.19
247.033	1215.19
247.266	1126.19
247.5	1110.19
247.733	1091.19
247.966	1156.19
248.2	1285.19
248.433	1256.19
248.666	1283.19
248.899	1359.19
249.133	1571.19
249.366	1843.19
249.599	1504.19
249.832	1307.19
250.066	1324.19
250.299	1352.19
250.532	1291.19
250.765	1119.19
250.998	1205.19
251.231	1242.19
251.465	1274.19
251.698	1231.19
251.931	1227.19
252.164	1254.19
252.397	1292.19
252.63	1299.19
252.863	1139.19
253.096	1143.19
253.329	1178.19
253.562	1210.19
253.795	1336.19
254.028	1340.19
254.261	1250.19
254.494	1204.19
254.727	1153.19
254.96	1195.19
255.193	1323.19
255.426	1492.19
255.659	1713.19
255.892	1761.19
256.124	1444.19
256.357	1396.19
256.59	1487.19
256.823	1507.19
257.056	1495.19
257.289	1825.19
257.521	1961.19
257.754	1789.19
257.987	1677.19
258.22	1889.19
258.452	1833.19
258.685	1502.19
258.918	1411.19
259.151	1457.19
259.383	1374.19
259.616	1228.19
259.849	1282.19
260.081	1472.19
260.314	1633.19
260.547	1774.19
260.779	1815.19
261.012	1687.19
261.244	1487.19
261.477	1429.19
261.71	1479.19
261.942	1434.19
262.175	1425.19
262.407	1554.19
262.64	1450.19
262.872	1349.19
263.105	1314.19
263.337	1303.19
263.57	1345.19
263.802	1371.19
264.035	1267.19
264.267	1181.19
264.499	1160.19
264.732	1245.19
264.964	1344.19
265.197	1385.19
265.429	1423.19
265.661	1601.19
265.894	1784.19
266.126	1874.19
266.358	1643.19
266.591	1699.19
266.823	1851.19
267.055	1713.19
267.287	1666.19
267.52	1630.19
267.752	1620.19
267.984	1621.19
268.216	1686.19
268.448	1740.19
268.681	1742.19
268.913	1565.19
269.145	1459.19
269.377	1446.19
269.609	1533.19
269.841	1802.19
270.073	2069.19
270.306	2390.19
270.538	2575.19
270.77	2171.19
271.002	1832.19
271.234	1708.19
271.466	1669.19
271.698	1866.19
271.93	2301.19
272.162	2347.19
272.394	2036.19
272.626	1972.19
272.858	1746.19
273.09	1484.19
273.322	1525.19
273.553	1403.19
273.785	1454.19
274.017	1475.19
274.249	1597.19
274.481	1645.19
274.713	1541.19
274.945	1457.19
275.176	1466.19
275.408	1449.19
275.64	1403.19
275.872	1409.19
276.104	1491.19
276.335	1724.19
276.567	1945.19
276.799	2030.19
277.031	1759.19
277.262	1673.19
277.494	1745.19
277.726	1916.19
277.957	1916.19
278.189	1746.19
278.421	1597.19
278.652	1541.19
278.884	1541.19
279.115	1524.19
279.347	1564.19
279.579	1551.19
279.81	1522.19
280.042	1691.19
280.273	1879.19
280.505	1825.19
280.736	1913.19
280.968	1829.19
281.199	1576.19
281.431	1500.19
281.662	1496.19
281.894	1482.19
282.125	1542.19
282.356	1570.19
282.588	1635.19
282.819	1607.19
283.051	1701.19
283.282	1868.19
283.513	1804.19
283.745	1559.19
283.976	1415.19
284.207	1477.19
284.439	1508.19
284.67	1547.19
284.901	1560.19
285.132	1599.19
285.364	1622.19
285.595	1578.19
285.826	1549.19
286.057	1572.19
286.288	1560.19
286.52	1604.19
286.751	1756.19
286.982	1835.19
287.213	1657.19
287.444	1497.19
287.675	1486.19
287.906	1565.19
288.138	1693.19
288.369	1623.19
288.6	1570.19
288.831	1489.19
289.062	1557.19
289.293	1552.19
289.524	1568.19
289.755	1619.19
289.986	1640.19
290.217	1489.19
290.448	1515.19
290.679	1542.19
290.91	1583.19
291.141	1604.19
291.371	1672.19
291.602	1666.19
291.833	1649.19
292.064	1744.19
292.295	1665.19
292.526	1721.19
292.757	1823.19
292.987	1721.19
293.218	1589.19
293.449	1740.19
293.68	1971.19
293.91	2175.19
294.141	1947.19
294.372	1796.19
294.603	1869.19
294.833	2016.19
295.064	1906.19
295.295	1692.19
295.525	1683.19
295.756	1544.19
295.987	1440.19
296.217	1505.19
296.448	1557.19
296.679	1494.19
296.909	1543.19
297.14	1514.19
297.37	1521.19
297.601	1642.19
297.831	1784.19
298.062	1795.19
298.292	1657.19
298.523	1557.19
298.753	1573.19
298.984	1613.19
299.214	1563.19
299.445	1623.19
299.675	1675.19
299.905	1705.19
300.136	1635.19
300.366	1577.19
300.597	1534.19
300.827	1516.19
301.057	1577.19
301.288	1651.19
301.518	1675.19
301.748	1705.19
301.979	1798.19
302.209	1809.19
302.439	1920.19
302.669	2025.19
302.9	1936.19
303.13	1707.19
303.36	1700.19
303.59	1723.19
303.82	1736.19
304.051	1671.19
304.281	1744.19
304.511	1646.19
304.741	1751.19
304.971	2014.19
305.201	2175.19
305.431	1987.19
305.661	1636.19
305.891	1504.19
306.121	1499.19
306.352	1511.19
306.582	1638.19
306.812	1776.19
307.042	1890.19
307.272	1910.19
307.502	1913.19
307.731	2090.19
307.961	2301.19
308.191	2031.19
308.421	1795.19
308.651	1669.19
308.881	1628.19
309.111	1591.19
309.341	1617.19
309.571	1641.19
309.8	1612.19
310.03	1631.19
310.26	1604.19
310.49	1631.19
310.72	1609.19
310.949	1712.19
311.179	1738.19
311.409	1722.19
311.639	1688.19
311.868	1629.19
312.098	1675.19
312.328	1640.19
312.557	1619.19
312.787	1667.19
313.017	1693.19
313.246	1684.19
313.476	1695.19
313.706	1750.19
313.935	1735.19
314.165	1733.19
314.394	1797.19
314.624	1877.19
314.853	1969.19
315.083	2085.19
315.312	2172.19
315.542	2019.19
315.771	1767.19
316.001	1776.19
316.23	1868.19
316.46	1845.19
316.689	1809.19
316.919	1733.19
317.148	1645.19
317.377	1690.19
317.607	1782.19
317.836	2052.19
318.065	2139.19
318.295	2041.19
318.524	1953.19
318.753	1916.19
318.983	1842.19
319.212	1781.19
319.441	1754.19
319.67	1753.19
319.9	1806.19
320.129	1866.19
320.358	1981.19
320.587	1990.19
320.816	1969.19
321.046	1946.19
321.275	1823.19
321.504	1834.19
321.733	1992.19
321.962	1979.19
322.191	1783.19
322.42	1782.19
322.649	1805.19
322.878	1739.19
323.108	1753.19
323.337	1822.19
323.566	1889.19
323.795	1825.19
324.024	1847.19
324.253	1771.19
324.482	1834.19
324.71	1789.19
324.939	1669.19
325.168	1678.19
325.397	1788.19
325.626	1817.19
325.855	1857.19
326.084	1770.19
326.313	1819.19
326.542	1788.19
326.77	1836.19
326.999	1898.19
327.228	1820.19
327.457	1662.19
327.686	1710.19
327.914	1734.19
328.143	1729.19
328.372	1746.19
328.6	1767.19
328.829	1791.19
329.058	1721.19
329.287	1730.19
329.515	1792.19
329.744	1804.19
329.972	1858.19
330.201	1953.19
330.43	1923.19
330.658	1887.19
330.887	1853.19
331.115	1891.19
331.344	1872.19
331.572	1874.19
331.801	1897.19
332.03	1856.19
332.258	1871.19
332.486	1964.19
332.715	1921.19
332.943	1928.19
333.172	1836.19
333.4	1879.19
333.629	1909.19
333.857	2071.19
334.085	2219.19
334.314	2532.19
334.542	2805.19
334.771	2595.19
334.999	2278.19
335.227	2123.19
335.455	2037.19
335.684	2012.19
335.912	2030.19
336.14	2105.19
336.369	2047.19
336.597	1956.19
336.825	1899.19
337.053	1925.19
337.281	2049.19
337.51	2179.19
337.738	2266.19
337.966	2179.19
338.194	1976.19
338.422	1891.19
338.65	1868.19
338.878	1845.19
339.106	1799.19
339.334	1773.19
339.562	1725.19
339.79	1803.19
340.018	1890.19
340.246	1998.19
340.474	2009.19
340.702	1902.19
340.93	1911.19
341.158	1905.19
341.386	1913.19
341.614	1889.19
341.842	1821.19
342.07	1833.19
342.298	1877.19
342.526	1834.19
342.754	1819.19
342.981	1803.19
343.209	1825.19
343.437	1831.19
343.665	1844.19
343.893	1921.19
344.12	1934.19
344.348	1977.19
344.576	1945.19
344.804	1829.19
345.031	1841.19
345.259	1875.19
345.487	1825.19
345.714	1719.19
345.942	1707.19
346.17	1703.19
346.397	1750.19
346.625	1749.19
346.853	1666.19
347.08	1651.19
347.308	1662.19
347.535	1680.19
347.763	1795.19
347.99	1733.19
348.218	1660.19
348.445	1676.19
348.673	1708.19
348.9	1794.19
349.128	1797.19
349.355	1877.19
349.583	1813.19
349.81	1789.19
350.037	1638.19
350.265	1604.19
350.492	1634.19
350.72	1665.19
350.947	1759.19
351.174	1801.19
351.402	1675.19
351.629	1633.19
351.856	1606.19
352.083	1582.19
352.311	1609.19
352.538	1658.19
352.765	1741.19
352.992	1764.19
353.22	1707.19
353.447	1641.19
353.674	1689.19
353.901	1710.19
354.128	1647.19
354.355	1658.19
354.583	1772.19
354.81	1738.19
355.037	1785.19
355.264	1749.19
355.491	1713.19
355.718	1763.19
355.945	1746.19
356.172	1678.19
356.399	1619.19
356.626	1645.19
356.853	1701.19
357.08	1847.19
357.307	2000.19
357.534	2026.19
357.761	1827.19
357.988	1609.19
358.215	1598.19
358.441	1613.19
358.668	1603.19
358.895	1598.19
359.122	1694.19
359.349	1901.19
359.576	1937.19
359.802	1725.19
360.029	1673.19
360.256	1628.19
360.483	1644.19
360.709	1733.19
360.936	1765.19
361.163	1804.19
361.39	1955.19
361.616	2137.19
361.843	2093.19
362.07	1995.19
362.296	1723.19
362.523	1661.19
362.749	1662.19
362.976	1688.19
363.203	1705.19
363.429	1676.19
363.656	1612.19
363.882	1675.19
364.109	1860.19
364.335	2034.19
364.562	1891.19
364.788	1813.19
365.015	1715.19
365.241	1627.19
365.468	1689.19
365.694	1765.19
365.92	1841.19
366.147	1813.19
366.373	1653.19
366.599	1609.19
366.826	1653.19
367.052	1656.19
367.278	1683.19
367.505	1701.19
367.731	1743.19
367.957	1719.19
368.184	1781.19
368.41	1904.19
368.636	1886.19
368.862	1925.19
369.089	1927.19
369.315	1846.19
369.541	1752.19
369.767	1727.19
369.993	1667.19
370.219	1670.19
370.445	1726.19
370.672	1829.19
370.898	1905.19
371.124	1875.19
371.35	1764.19
371.576	1817.19
371.802	1919.19
372.028	1800.19
372.254	1737.19
372.48	1658.19
372.706	1689.19
372.932	1714.19
373.158	1717.19
373.384	1724.19
373.61	1751.19
373.835	1912.19
374.061	1801.19
374.287	1777.19
374.513	1792.19
374.739	1820.19
374.965	1787.19
375.191	1806.19
375.416	1858.19
375.642	1805.19
375.868	1910.19
376.094	1993.19
376.319	1903.19
376.545	1774.19
376.771	1814.19
376.997	1931.19
377.222	1857.19
377.448	1843.19
377.674	1851.19
377.899	1852.19
378.125	1938.19
378.35	2009.19
378.576	1779.19
378.802	1721.19
379.027	1698.19
379.253	1717.19
379.478	1748.19
379.704	1743.19
379.929	1747.19
380.155	1767.19
380.38	1803.19
380.606	1813.19
380.831	1806.19
381.057	1906.19
381.282	1896.19
381.507	1825.19
381.733	1959.19
381.958	2075.19
382.184	1874.19
382.409	1818.19
382.634	1865.19
382.86	1838.19
383.085	1829.19
383.31	1902.19
383.535	2038.19
383.761	2181.19
383.986	2069.19
384.211	2035.19
384.436	1940.19
384.662	2026.19
384.887	2173.19
385.112	2065.19
385.337	2014.19
385.562	2046.19
385.787	1988.19
386.013	2066.19
386.238	2080.19
386.463	2067.19
386.688	2134.19
386.913	2289.19
387.138	2297.19
387.363	2118.19
387.588	2073.19
387.813	2041.19
388.038	2127.19
388.263	2143.19
388.488	2088.19
388.713	1923.19
388.938	1929.19
389.163	1964.19
389.387	1991.19
389.612	1986.19
389.837	2042.19
390.062	2057.19
390.287	2018.19
390.512	2013.19
390.736	1960.19
390.961	1969.19
391.186	1905.19
391.411	1956.19
391.636	2016.19
391.86	1982.19
392.085	2039.19
392.31	2010.19
392.534	2026.19
392.759	2062.19
392.984	2051.19
393.208	2062.19
393.433	2105.19
393.658	2177.19
393.882	2184.19
394.107	2071.19
394.331	1982.19
394.556	1993.19
394.78	1999.19
395.005	2089.19
395.229	2137.19
395.454	2318.19
395.678	2413.19
395.903	2291.19
396.127	2118.19
396.352	2144.19
396.576	2235.19
396.801	2240.19
397.025	2227.19
397.249	2199.19
397.474	2189.19
397.698	2183.19
397.922	2213.19
398.147	2343.19
398.371	2396.19
398.595	2437.19
398.82	2326.19
399.044	2377.19
399.268	2486.19
399.492	2581.19
399.717	2735.19
399.941	2720.19
400.165	2658.19
400.389	2615.19
400.613	2548.19
400.837	2821.19
401.062	3211.19
401.286	2799.19
401.51	2503.19
401.734	2648.19
401.958	2588.19
402.182	2403.19
402.406	2333.19
402.63	2241.19
402.854	2251.19
403.078	2323.19
403.302	2421.19
403.526	2396.19
403.75	2402.19
403.974	2452.19
404.198	2459.19
404.422	2511.19
404.645	2571.19
404.869	2531.19
405.093	2373.19
405.317	2313.19
405.541	2420.19
405.765	2450.19
405.988	2384.19
406.212	2425.19
406.436	2497.19
406.66	2573.19
406.883	2585.19
407.107	2884.19
407.331	3186.19
407.555	3394.19
407.778	3179.19
408.002	2574.19
408.226	2514.19
408.449	2522.19
408.673	2462.19
408.896	2485.19
409.12	2537.19
409.344	2479.19
409.567	2361.19
409.791	2429.19
410.014	2461.19
410.238	2548.19
410.461	2754.19
410.685	2455.19
410.908	2313.19
411.132	2412.19
411.355	2402.19
411.578	2303.19
411.802	2325.19
412.025	2389.19
412.249	2341.19
412.472	2247.19
412.695	2252.19
412.919	2284.19
413.142	2243.19
413.365	2269.19
413.589	2347.19
413.812	2424.19
414.035	2586.19
414.258	2320.19
414.482	2289.19
414.705	2327.19
414.928	2243.19
415.151	2262.19
415.374	2290.19
415.597	2305.19
415.821	2363.19
416.044	2447.19
416.267	2430.19
416.49	2225.19
416.713	2134.19
416.936	2264.19
417.159	2354.19
417.382	2381.19
417.605	2286.19
417.828	2315.19
418.051	2399.19
418.274	2315.19
418.497	2191.19
418.72	2220.19
418.943	2188.19
419.166	2339.19
419.389	2437.19
419.611	2315.19
419.834	2254.19
420.057	2314.19
420.28	2203.19
420.503	2161.19
420.726	2253.19
420.948	2270.19
421.171	2175.19
421.394	2188.19
421.617	2292.19
421.839	2260.19
422.062	2245.19
422.285	2190.19
422.507	2181.19
422.73	2099.19
422.953	2085.19
423.175	2136.19
423.398	2219.19
423.621	2163.19
423.843	2187.19
424.066	2246.19
424.288	2310.19
424.511	2350.19
424.733	2334.19
424.956	2116.19
425.178	2083.19
425.401	2156.19
425.623	2136.19
425.846	2120.19
426.068	2261.19
426.291	2347.19
426.513	2283.19
426.735	2246.19
426.958	2389.19
427.18	2541.19
427.402	2330.19
427.625	2354.19
427.847	2416.19
428.069	2266.19
428.292	2187.19
428.514	2115.19
428.736	2128.19
428.958	2182.19
429.181	2169.19
429.403	2381.19
429.625	3031.19
429.847	2632.19
430.069	2209.19
430.292	2401.19
430.514	2549.19
430.736	2328.19
430.958	2456.19
431.18	2350.19
431.402	2149.19
431.624	2156.19
431.846	2178.19
432.068	2090.19
432.29	2167.19
432.512	2186.19
432.734	2199.19
432.956	2231.19
433.178	2333.19
433.4	2287.19
433.622	2297.19
433.844	2199.19
434.066	2086.19
434.287	2088.19
434.509	2194.19
434.731	2296.19
434.953	2457.19
435.175	2407.19
435.397	2259.19
435.618	2274.19
435.84	2277.19
436.062	2276.19
436.284	2239.19
436.505	2276.19
436.727	2235.19
436.949	2189.19
437.17	2144.19
437.392	2170.19
437.614	2149.19
437.835	2061.19
438.057	2226.19
438.278	2341.19
438.5	2155.19
438.721	2115.19
438.943	2140.19
439.165	2175.19
439.386	2090.19
439.608	2079.19
439.829	2135.19
440.05	2135.19
440.272	2081.19
440.493	2057.19
440.715	2146.19
440.936	2319.19
441.158	2527.19
441.379	2457.19
441.6	2348.19
441.822	2313.19
442.043	2277.19
442.264	2269.19
442.486	2148.19
442.707	2067.19
442.928	2099.19
443.149	2204.19
443.371	2321.19
443.592	2412.19
443.813	2364.19
444.034	2352.19
444.255	2368.19
444.476	2396.19
444.698	2390.19
444.919	2392.19
445.14	2485.19
445.361	2491.19
445.582	2567.19
445.803	2455.19
446.024	2377.19
446.245	2459.19
446.466	2371.19
446.687	2263.19
446.908	2233.19
447.129	2186.19
447.35	2201.19
447.571	2184.19
447.792	2103.19
448.013	2101.19
448.234	2107.19
448.455	2250.19
448.675	2261.19
448.896	2060.19
449.117	2038.19
449.338	2074.19
449.559	2200.19
449.779	2316.19
450	2567.19
450.221	2742.19
450.442	2653.19
450.662	2327.19
450.883	2069.19
451.104	1986.19
451.324	2059.19
451.545	2127.19
451.766	2099.19
451.986	1980.19
452.207	2004.19
452.428	1935.19
452.648	1916.19
452.869	2004.19
453.089	2111.19
453.31	2109.19
453.53	2161.19
453.751	2077.19
453.971	1916.19
454.192	1983.19
454.412	2166.19
454.633	2081.19
454.853	1995.19
455.073	1892.19
455.294	1838.19
455.514	1864.19
455.734	1864.19
455.955	1942.19
456.175	1893.19
456.395	1913.19
456.616	1971.19
456.836	2028.19
457.056	2003.19
457.276	1977.19
457.497	1956.19
457.717	1848.19
457.937	1907.19
458.157	1949.19
458.377	1930.19
458.598	1862.19
458.818	1912.19
459.038	2045.19
459.258	2149.19
459.478	2155.19
459.698	2115.19
459.918	2122.19
460.138	2234.19
460.358	2258.19
460.578	2274.19
460.798	2362.19
461.018	2551.19
461.238	2359.19
461.458	2279.19
461.678	2302.19
461.898	2268.19
462.118	2147.19
462.338	2309.19
462.558	2318.19
462.777	2268.19
462.997	2377.19
463.217	2581.19
463.437	2513.19
463.657	2345.19
463.876	2297.19
464.096	2298.19
464.316	2287.19
464.536	2359.19
464.755	2405.19
464.975	2424.19
465.195	2341.19
465.414	2406.19
465.634	2429.19
465.854	2259.19
466.073	2433.19
466.293	2389.19
466.512	2149.19
466.732	2088.19
466.951	2218.19
467.171	2196.19
467.391	2111.19
467.61	2049.19
467.829	2034.19
468.049	2237.19
468.268	2509.19
468.488	2375.19
468.707	2182.19
468.927	2119.19
469.146	2150.19
469.365	2070.19
469.585	2117.19
469.804	2090.19
470.023	2039.19
470.243	2081.19
470.462	2127.19
470.681	2058.19
470.901	2095.19
471.12	2098.19
471.339	2076.19
471.558	2020.19
471.777	1995.19
471.997	2050.19
472.216	2050.19
472.435	1983.19
472.654	2032.19
472.873	2065.19
473.092	2230.19
473.311	2131.19
473.53	2004.19
473.749	1995.19
473.968	2065.19
474.187	2160.19
474.406	2237.19
474.625	2183.19
474.844	2106.19
475.063	2103.19
475.282	2168.19
475.501	2124.19
475.72	2150.19
475.939	2259.19
476.158	2190.19
476.377	2166.19
476.596	2132.19
476.814	2181.19
477.033	2177.19
477.252	2311.19
477.471	2315.19
477.69	2238.19
477.908	2204.19
478.127	2317.19
478.346	2539.19
478.564	2565.19
478.783	2435.19
479.002	2584.19
479.22	2491.19
479.439	2646.19
479.658	2910.19
479.876	2923.19
480.095	2612.19
480.313	2442.19
480.532	2350.19
480.751	2366.19
480.969	2442.19
481.188	2361.19
481.406	2365.19
481.624	2315.19
481.843	2341.19
482.061	2379.19
482.28	2369.19
482.498	2485.19
482.717	2453.19
482.935	2346.19
483.153	2305.19
483.372	2325.19
483.59	2267.19
483.808	2342.19
484.027	2389.19
484.245	2552.19
484.463	2884.19
484.681	3420.19
484.9	2597.19
485.118	2388.19
485.336	2372.19
485.554	2443.19
485.772	2567.19
485.99	2504.19
486.209	2520.19
486.427	2486.19
486.645	2546.19
486.863	2484.19
487.081	2504.19
487.299	2598.19
