Data from WStandard_LampEnergy5.5LIBS07252019.E.O._I.C._HRD10591_16-06-20-920.txt Node
Date: Thu Jul 25 16:06:20 EDT 2019
User: cochatt
Spectrometer: HR+D1059
Trigger mode: 1
Integration Time (sec): 1.000000E-1
Scans to average: 1
Electric dark correction enabled: true
Nonlinearity correction enabled: false
Boxcar width: 0
XAxis mode: Wavelengths
Number of Pixels in Spectrum: 2048
>>>>>Begin Spectral Data<<<<<
223.165	-0.5
223.4	-0.5
223.635	-0.5
223.869	-17.5
224.104	-18.5
224.338	2.5
224.573	-3.5
224.808	-9.5
225.042	-3.5
225.277	-6.5
225.511	0.5
225.746	-13.5
225.98	1.5
226.215	0.5
226.449	13.5
226.683	13.5
226.918	22.5
227.152	18.5
227.387	24.5
227.621	48.5
227.856	36.5
228.09	52.5
228.324	54.5
228.559	54.5
228.793	127.5
229.027	301.5
229.262	311.5
229.496	326.5
229.73	343.5
229.964	369.5
230.199	397.5
230.433	407.5
230.667	422.5
230.901	471.5
231.136	425.5
231.37	390.5
231.604	375.5
231.838	412.5
232.072	404.5
232.306	385.5
232.541	415.5
232.775	453.5
233.009	528.5
233.243	503.5
233.477	451.5
233.711	461.5
233.945	490.5
234.179	460.5
234.413	490.5
234.647	537.5
234.881	519.5
235.115	462.5
235.349	462.5
235.583	489.5
235.817	472.5
236.051	455.5
236.285	462.5
236.519	516.5
236.753	569.5
236.987	577.5
237.221	568.5
237.455	644.5
237.689	598.5
237.922	584.5
238.156	556.5
238.39	578.5
238.624	607.5
238.858	617.5
239.091	633.5
239.325	671.5
239.559	767.5
239.793	796.5
240.027	846.5
240.26	855.5
240.494	633.5
240.728	588.5
240.961	607.5
241.195	618.5
241.429	675.5
241.662	685.5
241.896	637.5
242.13	616.5
242.363	725.5
242.597	776.5
242.83	722.5
243.064	741.5
243.298	793.5
243.531	773.5
243.765	776.5
243.998	790.5
244.232	687.5
244.465	638.5
244.699	672.5
244.932	755.5
245.166	901.5
245.399	826.5
245.633	723.5
245.866	741.5
246.099	794.5
246.333	779.5
246.566	776.5
246.8	854.5
247.033	963.5
247.266	871.5
247.5	872.5
247.733	864.5
247.966	929.5
248.2	1015.5
248.433	962.5
248.666	1004.5
248.899	1068.5
249.133	1247.5
249.366	1463.5
249.599	1187.5
249.832	1001.5
250.066	1041.5
250.299	1041.5
250.532	981.5
250.765	880.5
250.998	928.5
251.231	994.5
251.465	1012.5
251.698	993.5
251.931	962.5
252.164	1006.5
252.397	1039.5
252.63	1031.5
252.863	912.5
253.096	862.5
253.329	939.5
253.562	976.5
253.795	1056.5
254.028	1042.5
254.261	973.5
254.494	978.5
254.727	904.5
254.96	932.5
255.193	1025.5
255.426	1124.5
255.659	1313.5
255.892	1370.5
256.124	1122.5
256.357	1075.5
256.59	1137.5
256.823	1163.5
257.056	1153.5
257.289	1381.5
257.521	1564.5
257.754	1385.5
257.987	1302.5
258.22	1460.5
258.452	1429.5
258.685	1152.5
258.918	1126.5
259.151	1106.5
259.383	1092.5
259.616	968.5
259.849	1029.5
260.081	1132.5
260.314	1256.5
260.547	1370.5
260.779	1422.5
261.012	1294.5
261.244	1166.5
261.477	1080.5
261.71	1118.5
261.942	1162.5
262.175	1106.5
262.407	1192.5
262.64	1129.5
262.872	1064.5
263.105	1017.5
263.337	1055.5
263.57	1060.5
263.802	1032.5
264.035	992.5
264.267	938.5
264.499	912.5
264.732	982.5
264.964	1081.5
265.197	1076.5
265.429	1141.5
265.661	1285.5
265.894	1396.5
266.126	1465.5
266.358	1276.5
266.591	1347.5
266.823	1482.5
267.055	1330.5
267.287	1306.5
267.52	1284.5
267.752	1239.5
267.984	1239.5
268.216	1298.5
268.448	1304.5
268.681	1335.5
268.913	1232.5
269.145	1182.5
269.377	1150.5
269.609	1226.5
269.841	1386.5
270.073	1623.5
270.306	1794.5
270.538	1956.5
270.77	1673.5
271.002	1395.5
271.234	1299.5
271.466	1307.5
271.698	1477.5
271.93	1758.5
272.162	1765.5
272.394	1597.5
272.626	1506.5
272.858	1366.5
273.09	1204.5
273.322	1190.5
273.553	1170.5
273.785	1141.5
274.017	1207.5
274.249	1311.5
274.481	1310.5
274.713	1177.5
274.945	1164.5
275.176	1182.5
275.408	1149.5
275.64	1122.5
275.872	1164.5
276.104	1204.5
276.335	1329.5
276.567	1545.5
276.799	1587.5
277.031	1398.5
277.262	1283.5
277.494	1353.5
277.726	1473.5
277.957	1510.5
278.189	1356.5
278.421	1239.5
278.652	1258.5
278.884	1213.5
279.115	1212.5
279.347	1232.5
279.579	1224.5
279.81	1219.5
280.042	1315.5
280.273	1461.5
280.505	1426.5
280.736	1502.5
280.968	1423.5
281.199	1231.5
281.431	1225.5
281.662	1238.5
281.894	1161.5
282.125	1243.5
282.356	1299.5
282.588	1326.5
282.819	1298.5
283.051	1360.5
283.282	1442.5
283.513	1384.5
283.745	1261.5
283.976	1183.5
284.207	1188.5
284.439	1205.5
284.67	1217.5
284.901	1237.5
285.132	1311.5
285.364	1275.5
285.595	1317.5
285.826	1243.5
286.057	1252.5
286.288	1269.5
286.52	1284.5
286.751	1391.5
286.982	1473.5
287.213	1340.5
287.444	1271.5
287.675	1233.5
287.906	1288.5
288.138	1367.5
288.369	1313.5
288.6	1271.5
288.831	1230.5
289.062	1223.5
289.293	1255.5
289.524	1288.5
289.755	1279.5
289.986	1290.5
290.217	1221.5
290.448	1249.5
290.679	1263.5
290.91	1296.5
291.141	1341.5
291.371	1346.5
291.602	1365.5
291.833	1302.5
292.064	1364.5
292.295	1332.5
292.526	1365.5
292.757	1446.5
292.987	1371.5
293.218	1290.5
293.449	1384.5
293.68	1570.5
293.91	1654.5
294.141	1542.5
294.372	1455.5
294.603	1447.5
294.833	1493.5
295.064	1476.5
295.295	1328.5
295.525	1368.5
295.756	1281.5
295.987	1190.5
296.217	1226.5
296.448	1264.5
296.679	1218.5
296.909	1260.5
297.14	1247.5
297.37	1277.5
297.601	1329.5
297.831	1438.5
298.062	1456.5
298.292	1304.5
298.523	1254.5
298.753	1291.5
298.984	1327.5
299.214	1300.5
299.445	1308.5
299.675	1364.5
299.905	1394.5
300.136	1368.5
300.366	1331.5
300.597	1253.5
300.827	1258.5
301.057	1315.5
301.288	1395.5
301.518	1371.5
301.748	1358.5
301.979	1473.5
302.209	1464.5
302.439	1527.5
302.669	1600.5
302.9	1497.5
303.13	1349.5
303.36	1380.5
303.59	1406.5
303.82	1389.5
304.051	1359.5
304.281	1328.5
304.511	1391.5
304.741	1424.5
304.971	1569.5
305.201	1708.5
305.431	1609.5
305.661	1345.5
305.891	1233.5
306.121	1256.5
306.352	1278.5
306.582	1360.5
306.812	1437.5
307.042	1540.5
307.272	1534.5
307.502	1535.5
307.731	1658.5
307.961	1794.5
308.191	1680.5
308.421	1456.5
308.651	1372.5
308.881	1328.5
309.111	1321.5
309.341	1316.5
309.571	1350.5
309.8	1340.5
310.03	1390.5
310.26	1326.5
310.49	1315.5
310.72	1376.5
310.949	1400.5
311.179	1420.5
311.409	1422.5
311.639	1403.5
311.868	1329.5
312.098	1362.5
312.328	1396.5
312.557	1369.5
312.787	1402.5
313.017	1446.5
313.246	1434.5
313.476	1423.5
313.706	1477.5
313.935	1432.5
314.165	1448.5
314.394	1449.5
314.624	1503.5
314.853	1607.5
315.083	1687.5
315.312	1734.5
315.542	1663.5
315.771	1437.5
316.001	1455.5
316.23	1536.5
316.46	1520.5
316.689	1494.5
316.919	1444.5
317.148	1392.5
317.377	1394.5
317.607	1472.5
317.836	1674.5
318.065	1722.5
318.295	1680.5
318.524	1627.5
318.753	1553.5
318.983	1532.5
319.212	1486.5
319.441	1487.5
319.67	1478.5
319.9	1458.5
320.129	1544.5
320.358	1581.5
320.587	1628.5
320.816	1655.5
321.046	1543.5
321.275	1497.5
321.504	1522.5
321.733	1647.5
321.962	1600.5
322.191	1502.5
322.42	1463.5
322.649	1471.5
322.878	1498.5
323.108	1449.5
323.337	1517.5
323.566	1535.5
323.795	1511.5
324.024	1515.5
324.253	1513.5
324.482	1522.5
324.71	1488.5
324.939	1396.5
325.168	1441.5
325.397	1445.5
325.626	1547.5
325.855	1516.5
326.084	1469.5
326.313	1496.5
326.542	1527.5
326.77	1559.5
326.999	1562.5
327.228	1509.5
327.457	1418.5
327.686	1423.5
327.914	1464.5
328.143	1532.5
328.372	1493.5
328.6	1482.5
328.829	1493.5
329.058	1462.5
329.287	1492.5
329.515	1488.5
329.744	1513.5
329.972	1575.5
330.201	1635.5
330.43	1595.5
330.658	1533.5
330.887	1610.5
331.115	1597.5
331.344	1566.5
331.572	1567.5
331.801	1554.5
332.03	1569.5
332.258	1568.5
332.486	1609.5
332.715	1612.5
332.943	1600.5
333.172	1620.5
333.4	1638.5
333.629	1686.5
333.857	1747.5
334.085	1896.5
334.314	2078.5
334.542	2273.5
334.771	2139.5
334.999	1891.5
335.227	1808.5
335.455	1746.5
335.684	1677.5
335.912	1719.5
336.14	1773.5
336.369	1718.5
336.597	1656.5
336.825	1616.5
337.053	1647.5
337.281	1713.5
337.51	1792.5
337.738	1872.5
337.966	1844.5
338.194	1687.5
338.422	1587.5
338.65	1588.5
338.878	1528.5
339.106	1567.5
339.334	1516.5
339.562	1479.5
339.79	1540.5
340.018	1608.5
340.246	1671.5
340.474	1702.5
340.702	1655.5
340.93	1615.5
341.158	1638.5
341.386	1585.5
341.614	1588.5
341.842	1580.5
342.07	1593.5
342.298	1584.5
342.526	1596.5
342.754	1561.5
342.981	1500.5
343.209	1543.5
343.437	1577.5
343.665	1575.5
343.893	1662.5
344.12	1716.5
344.348	1718.5
344.576	1637.5
344.804	1557.5
345.031	1548.5
345.259	1607.5
345.487	1556.5
345.714	1482.5
345.942	1442.5
346.17	1468.5
346.397	1501.5
346.625	1508.5
346.853	1440.5
347.08	1427.5
347.308	1429.5
347.535	1466.5
347.763	1508.5
347.99	1494.5
348.218	1404.5
348.445	1417.5
348.673	1464.5
348.9	1503.5
349.128	1520.5
349.355	1550.5
349.583	1500.5
349.81	1457.5
350.037	1358.5
350.265	1358.5
350.492	1381.5
350.72	1428.5
350.947	1454.5
351.174	1499.5
351.402	1433.5
351.629	1362.5
351.856	1397.5
352.083	1420.5
352.311	1421.5
352.538	1390.5
352.765	1480.5
352.992	1514.5
353.22	1466.5
353.447	1426.5
353.674	1430.5
353.901	1426.5
354.128	1407.5
354.355	1405.5
354.583	1470.5
354.81	1491.5
355.037	1472.5
355.264	1549.5
355.491	1473.5
355.718	1479.5
355.945	1459.5
356.172	1443.5
356.399	1410.5
356.626	1417.5
356.853	1459.5
357.08	1556.5
357.307	1640.5
357.534	1708.5
357.761	1535.5
357.988	1412.5
358.215	1379.5
358.441	1432.5
358.668	1422.5
358.895	1409.5
359.122	1491.5
359.349	1580.5
359.576	1619.5
359.802	1500.5
360.029	1407.5
360.256	1407.5
360.483	1409.5
360.709	1420.5
360.936	1491.5
361.163	1553.5
361.39	1648.5
361.616	1809.5
361.843	1685.5
362.07	1617.5
362.296	1470.5
362.523	1432.5
362.749	1460.5
362.976	1432.5
363.203	1480.5
363.429	1461.5
363.656	1393.5
363.882	1431.5
364.109	1540.5
364.335	1713.5
364.562	1629.5
364.788	1559.5
365.015	1483.5
365.241	1429.5
365.468	1482.5
365.694	1486.5
365.92	1553.5
366.147	1494.5
366.373	1469.5
366.599	1438.5
366.826	1392.5
367.052	1363.5
367.278	1436.5
367.505	1473.5
367.731	1489.5
367.957	1472.5
368.184	1508.5
368.41	1536.5
368.636	1611.5
368.862	1600.5
369.089	1657.5
369.315	1578.5
369.541	1569.5
369.767	1493.5
369.993	1486.5
370.219	1448.5
370.445	1463.5
370.672	1556.5
370.898	1620.5
371.124	1605.5
371.35	1531.5
371.576	1573.5
371.802	1636.5
372.028	1574.5
372.254	1516.5
372.48	1490.5
372.706	1507.5
372.932	1490.5
373.158	1495.5
373.384	1524.5
373.61	1532.5
373.835	1634.5
374.061	1589.5
374.287	1526.5
374.513	1533.5
374.739	1575.5
374.965	1591.5
375.191	1616.5
375.416	1597.5
375.642	1609.5
375.868	1623.5
376.094	1667.5
376.319	1621.5
376.545	1557.5
376.771	1573.5
376.997	1587.5
377.222	1610.5
377.448	1596.5
377.674	1575.5
377.899	1602.5
378.125	1657.5
378.35	1691.5
378.576	1522.5
378.802	1512.5
379.027	1534.5
379.253	1542.5
379.478	1533.5
379.704	1491.5
379.929	1517.5
380.155	1535.5
380.38	1527.5
380.606	1555.5
380.831	1567.5
381.057	1577.5
381.282	1586.5
381.507	1565.5
381.733	1672.5
381.958	1716.5
382.184	1626.5
382.409	1590.5
382.634	1641.5
382.86	1611.5
383.085	1608.5
383.31	1608.5
383.535	1748.5
383.761	1799.5
383.986	1765.5
384.211	1724.5
384.436	1722.5
384.662	1789.5
384.887	1848.5
385.112	1781.5
385.337	1793.5
385.562	1791.5
385.787	1792.5
386.013	1812.5
386.238	1844.5
386.463	1806.5
386.688	1884.5
386.913	1928.5
387.138	1939.5
387.363	1797.5
387.588	1769.5
387.813	1797.5
388.038	1812.5
388.263	1858.5
388.488	1816.5
388.713	1729.5
388.938	1720.5
389.163	1725.5
389.387	1804.5
389.612	1774.5
389.837	1778.5
390.062	1844.5
390.287	1776.5
390.512	1746.5
390.736	1752.5
390.961	1779.5
391.186	1748.5
391.411	1777.5
391.636	1817.5
391.86	1846.5
392.085	1816.5
392.31	1789.5
392.534	1836.5
392.759	1854.5
392.984	1869.5
393.208	2028.5
393.433	2304.5
393.658	2425.5
393.882	2031.5
394.107	1887.5
394.331	1801.5
394.556	1783.5
394.78	1825.5
395.005	1888.5
395.229	1897.5
395.454	2037.5
395.678	2034.5
395.903	1936.5
396.127	1918.5
396.352	1904.5
396.576	2020.5
396.801	2140.5
397.025	2246.5
397.249	2113.5
397.474	1962.5
397.698	1930.5
397.922	1957.5
398.147	2006.5
398.371	2059.5
398.595	2090.5
398.82	2034.5
399.044	2097.5
399.268	2202.5
399.492	2383.5
399.717	2476.5
399.941	2492.5
400.165	2417.5
400.389	2329.5
400.613	2270.5
400.837	2404.5
401.062	2673.5
401.286	2372.5
401.51	2176.5
401.734	2280.5
401.958	2251.5
402.182	2170.5
402.406	2024.5
402.63	2021.5
402.854	2041.5
403.078	2069.5
403.302	2122.5
403.526	2142.5
403.75	2157.5
403.974	2174.5
404.198	2133.5
404.422	2206.5
404.645	2215.5
404.869	2284.5
405.093	2121.5
405.317	2044.5
405.541	2191.5
405.765	2178.5
405.988	2207.5
406.212	2223.5
406.436	2255.5
406.66	2231.5
406.883	2253.5
407.107	2492.5
407.331	2697.5
407.555	2813.5
407.778	2646.5
408.002	2453.5
408.226	2282.5
408.449	2253.5
408.673	2202.5
408.896	2244.5
409.12	2210.5
409.344	2196.5
409.567	2141.5
409.791	2194.5
410.014	2194.5
410.238	2226.5
410.461	2333.5
410.685	2158.5
410.908	2089.5
411.132	2159.5
411.355	2140.5
411.578	2089.5
411.802	2092.5
412.025	2062.5
412.249	2100.5
412.472	2052.5
412.695	2025.5
412.919	1970.5
413.142	1999.5
413.365	2052.5
413.589	2110.5
413.812	2145.5
414.035	2204.5
414.258	2072.5
414.482	2041.5
414.705	2070.5
414.928	2070.5
415.151	2051.5
415.374	2089.5
415.597	2097.5
415.821	2047.5
416.044	2182.5
416.267	2172.5
416.49	1983.5
416.713	1959.5
416.936	2022.5
417.159	2072.5
417.382	2046.5
417.605	2004.5
417.828	2063.5
418.051	2093.5
418.274	2076.5
418.497	1965.5
418.72	2019.5
418.943	1990.5
419.166	2130.5
419.389	2261.5
419.611	2106.5
419.834	2035.5
420.057	2058.5
420.28	1954.5
420.503	1975.5
420.726	1986.5
420.948	1995.5
421.171	1967.5
421.394	2005.5
421.617	2045.5
421.839	2067.5
422.062	2008.5
422.285	1929.5
422.507	1966.5
422.73	1956.5
422.953	1988.5
423.175	1942.5
423.398	1984.5
423.621	1950.5
423.843	1976.5
424.066	2005.5
424.288	2037.5
424.511	2036.5
424.733	2016.5
424.956	1911.5
425.178	1904.5
425.401	1944.5
425.623	1955.5
425.846	1896.5
426.068	1974.5
426.291	1978.5
426.513	1974.5
426.735	1946.5
426.958	2047.5
427.18	2168.5
427.402	2021.5
427.625	2024.5
427.847	2064.5
428.069	1968.5
428.292	1918.5
428.514	1840.5
428.736	1852.5
428.958	1877.5
429.181	1913.5
429.403	2064.5
429.625	2444.5
429.847	2250.5
430.069	1926.5
430.292	2082.5
430.514	2110.5
430.736	1980.5
430.958	2069.5
431.18	2018.5
431.402	1902.5
431.624	1895.5
431.846	1908.5
432.068	1838.5
432.29	1870.5
432.512	1930.5
432.734	1938.5
432.956	1976.5
433.178	2048.5
433.4	1998.5
433.622	2055.5
433.844	1987.5
434.066	1901.5
434.287	1863.5
434.509	1976.5
434.731	1977.5
434.953	2165.5
435.175	2129.5
435.397	2003.5
435.618	1964.5
435.84	2015.5
436.062	1960.5
436.284	1948.5
436.505	1986.5
436.727	2008.5
436.949	1937.5
437.17	1927.5
437.392	1881.5
437.614	1942.5
437.835	1865.5
438.057	1980.5
438.278	2038.5
438.5	1878.5
438.721	1930.5
438.943	1938.5
439.165	1892.5
439.386	1854.5
439.608	1886.5
439.829	1878.5
440.05	1892.5
440.272	1894.5
440.493	1827.5
440.715	1875.5
440.936	1966.5
441.158	2240.5
441.379	2100.5
441.6	2103.5
441.822	2065.5
442.043	2058.5
442.264	1998.5
442.486	1910.5
442.707	1873.5
442.928	1897.5
443.149	1963.5
443.371	2066.5
443.592	2115.5
443.813	2062.5
444.034	2061.5
444.255	2103.5
444.476	2094.5
444.698	2178.5
444.919	2167.5
445.14	2242.5
445.361	2217.5
445.582	2278.5
445.803	2142.5
446.024	2074.5
446.245	2131.5
446.466	2117.5
446.687	1977.5
446.908	1967.5
447.129	1906.5
447.35	1939.5
447.571	1924.5
447.792	1882.5
448.013	1813.5
448.234	1918.5
448.455	1934.5
448.675	1925.5
448.896	1806.5
449.117	1814.5
449.338	1848.5
449.559	1890.5
449.779	2011.5
450	2185.5
450.221	2340.5
450.442	2308.5
450.662	1989.5
450.883	1777.5
451.104	1767.5
451.324	1837.5
451.545	1868.5
451.766	1832.5
451.986	1767.5
452.207	1772.5
452.428	1704.5
452.648	1690.5
452.869	1719.5
453.089	1786.5
453.31	1813.5
453.53	1856.5
453.751	1830.5
453.971	1709.5
454.192	1748.5
454.412	1844.5
454.633	1765.5
454.853	1737.5
455.073	1634.5
455.294	1609.5
455.514	1632.5
455.734	1667.5
455.955	1697.5
456.175	1657.5
456.395	1689.5
456.616	1702.5
456.836	1753.5
457.056	1713.5
457.276	1730.5
457.497	1650.5
457.717	1676.5
457.937	1681.5
458.157	1715.5
458.377	1670.5
458.598	1685.5
458.818	1682.5
459.038	1795.5
459.258	1891.5
459.478	1890.5
459.698	1838.5
459.918	1893.5
460.138	1976.5
460.358	1985.5
460.578	2029.5
460.798	2100.5
461.018	2216.5
461.238	2142.5
461.458	1999.5
461.678	2070.5
461.898	2037.5
462.118	2015.5
462.338	2058.5
462.558	2074.5
462.777	2084.5
462.997	2138.5
463.217	2320.5
463.437	2300.5
463.657	2129.5
463.876	2096.5
464.096	2071.5
464.316	2057.5
464.536	2132.5
464.755	2153.5
464.975	2171.5
465.195	2054.5
465.414	2168.5
465.634	2126.5
465.854	2009.5
466.073	2074.5
466.293	2016.5
466.512	1857.5
466.732	1869.5
466.951	1984.5
467.171	1927.5
467.391	1824.5
467.61	1823.5
467.829	1799.5
468.049	1883.5
468.268	2065.5
468.488	1985.5
468.707	1916.5
468.927	1837.5
469.146	1844.5
469.365	1785.5
469.585	1847.5
469.804	1808.5
470.023	1834.5
470.243	1841.5
470.462	1861.5
470.681	1833.5
470.901	1886.5
471.12	1862.5
471.339	1822.5
471.558	1785.5
471.777	1806.5
471.997	1800.5
472.216	1773.5
472.435	1762.5
472.654	1738.5
472.873	1825.5
473.092	1958.5
473.311	1838.5
473.53	1767.5
473.749	1745.5
473.968	1829.5
474.187	1864.5
474.406	2025.5
474.625	1944.5
474.844	1804.5
475.063	1838.5
475.282	1899.5
475.501	1852.5
475.72	1844.5
475.939	1885.5
476.158	1897.5
476.377	1858.5
476.596	1876.5
476.814	1887.5
477.033	1890.5
477.252	2054.5
477.471	2074.5
477.69	1925.5
477.908	1929.5
478.127	2061.5
478.346	2205.5
478.564	2245.5
478.783	2176.5
479.002	2272.5
479.22	2232.5
479.439	2272.5
479.658	2568.5
479.876	2542.5
480.095	2233.5
480.313	2126.5
480.532	2077.5
480.751	2088.5
480.969	2142.5
481.188	2095.5
481.406	2034.5
481.624	1951.5
481.843	2006.5
482.061	2057.5
482.28	2071.5
482.498	2132.5
482.717	2073.5
482.935	2047.5
483.153	2024.5
483.372	2015.5
483.59	1947.5
483.808	2038.5
484.027	2085.5
484.245	2220.5
484.463	2414.5
484.681	2688.5
484.9	2276.5
485.118	2101.5
485.336	2057.5
485.554	2110.5
485.772	2246.5
485.99	2182.5
486.209	2176.5
486.427	2148.5
486.645	2167.5
486.863	2153.5
487.081	2205.5
487.299	2262.5
487.517	2200.5
487.735	2160.5
487.953	2161.5
488.171	2082.5
488.389	2087.5
488.607	2089.5
488.825	2226.5
489.043	2256.5
489.261	2076.5
489.479	2213.5
489.696	2284.5
489.914	2239.5
490.132	2176.5
490.35	2199.5
490.568	2230.5
490.786	2172.5
491.003	2122.5
491.221	2127.5
491.439	2182.5
491.657	2188.5
491.874	2220.5
492.092	2233.5
492.31	2243.5
492.527	2252.5
492.745	2225.5
492.963	2182.5
493.18	2278.5
493.398	2418.5
493.615	2481.5
493.833	2278.5
494.05	2261.5
494.268	2237.5
494.485	2338.5
494.703	2252.5
494.92	2209.5
495.138	2206.5
495.355	2226.5
495.573	2341.5
495.79	2450.5
496.008	2512.5
496.225	2337.5
496.442	2336.5
496.66	2377.5
496.877	2360.5
497.094	2466.5
497.312	2522.5
497.529	2412.5
497.746	2458.5
497.963	2873.5
498.181	3238.5
498.398	2903.5
498.615	2848.5
498.832	2906.5
499.049	2904.5
499.267	2958.5
499.484	3145.5
499.701	3424.5
499.918	3444.5
500.135	3706.5
500.352	3979.5
500.569	3945.5
500.786	4062.5
501.003	3803.5
501.22	3588.5
501.437	3438.5
501.654	3328.5
501.871	3172.5
502.088	2922.5
502.305	2911.5
502.522	2807.5
502.739	2612.5
502.956	2582.5
503.172	2516.5
503.389	2458.5
503.606	2424.5
503.823	2396.5
