Data from WStandard_LampEnergy5.5LIBS07252019.E.O._I.C._HRD10591_16-07-38-920.txt Node
Date: Thu Jul 25 16:07:38 EDT 2019
User: cochatt
Spectrometer: HR+D1059
Trigger mode: 1
Integration Time (sec): 1.000000E-1
Scans to average: 1
Electric dark correction enabled: true
Nonlinearity correction enabled: false
Boxcar width: 0
XAxis mode: Wavelengths
Number of Pixels in Spectrum: 2048
>>>>>Begin Spectral Data<<<<<
223.165	-16.75
223.4	-16.75
223.635	-16.75
223.869	-18.75
224.104	-20.75
224.338	-15.75
224.573	-19.75
224.808	-15.75
225.042	6.25
225.277	-11.75
225.511	-9.75
225.746	11.25
225.98	8.25
226.215	0.25
226.449	17.25
226.683	21.25
226.918	25.25
227.152	39.25
227.387	38.25
227.621	46.25
227.856	43.25
228.09	43.25
228.324	59.25
228.559	67.25
228.793	149.25
229.027	351.25
229.262	400.25
229.496	398.25
229.73	398.25
229.964	464.25
230.199	478.25
230.433	473.25
230.667	509.25
230.901	554.25
231.136	531.25
231.37	487.25
231.604	463.25
231.838	475.25
232.072	503.25
232.306	457.25
232.541	464.25
232.775	552.25
233.009	628.25
233.243	613.25
233.477	549.25
233.711	578.25
233.945	574.25
234.179	579.25
234.413	620.25
234.647	675.25
234.881	618.25
235.115	566.25
235.349	591.25
235.583	610.25
235.817	575.25
236.051	549.25
236.285	565.25
236.519	603.25
236.753	673.25
236.987	693.25
237.221	684.25
237.455	784.25
237.689	751.25
237.922	702.25
238.156	668.25
238.39	695.25
238.624	742.25
238.858	772.25
239.091	810.25
239.325	820.25
239.559	960.25
239.793	992.25
240.027	1110.25
240.26	1094.25
240.494	759.25
240.728	739.25
240.961	760.25
241.195	777.25
241.429	874.25
241.662	846.25
241.896	767.25
242.13	798.25
242.363	896.25
242.597	954.25
242.83	892.25
243.064	919.25
243.298	983.25
243.531	959.25
243.765	958.25
243.998	999.25
244.232	858.25
244.465	820.25
244.699	823.25
244.932	929.25
245.166	1084.25
245.399	1022.25
245.633	922.25
245.866	940.25
246.099	981.25
246.333	984.25
246.566	1033.25
246.8	1113.25
247.033	1210.25
247.266	1129.25
247.5	1103.25
247.733	1087.25
247.966	1151.25
248.2	1307.25
248.433	1250.25
248.666	1282.25
248.899	1392.25
249.133	1573.25
249.366	1822.25
249.599	1471.25
249.832	1288.25
250.066	1316.25
250.299	1371.25
250.532	1255.25
250.765	1131.25
250.998	1230.25
251.231	1249.25
251.465	1296.25
251.698	1218.25
251.931	1233.25
252.164	1251.25
252.397	1307.25
252.63	1294.25
252.863	1164.25
253.096	1119.25
253.329	1212.25
253.562	1224.25
253.795	1342.25
254.028	1340.25
254.261	1253.25
254.494	1226.25
254.727	1151.25
254.96	1215.25
255.193	1312.25
255.426	1485.25
255.659	1678.25
255.892	1763.25
256.124	1443.25
256.357	1372.25
256.59	1466.25
256.823	1492.25
257.056	1444.25
257.289	1758.25
257.521	2011.25
257.754	1814.25
257.987	1700.25
258.22	1831.25
258.452	1874.25
258.685	1450.25
258.918	1423.25
259.151	1468.25
259.383	1399.25
259.616	1214.25
259.849	1291.25
260.081	1474.25
260.314	1624.25
260.547	1784.25
260.779	1803.25
261.012	1677.25
261.244	1498.25
261.477	1442.25
261.71	1465.25
261.942	1466.25
262.175	1417.25
262.407	1537.25
262.64	1450.25
262.872	1355.25
263.105	1300.25
263.337	1356.25
263.57	1369.25
263.802	1364.25
264.035	1238.25
264.267	1195.25
264.499	1168.25
264.732	1260.25
264.964	1335.25
265.197	1388.25
265.429	1466.25
265.661	1636.25
265.894	1842.25
266.126	1886.25
266.358	1661.25
266.591	1750.25
266.823	1916.25
267.055	1699.25
267.287	1703.25
267.52	1619.25
267.752	1627.25
267.984	1625.25
268.216	1704.25
268.448	1755.25
268.681	1727.25
268.913	1577.25
269.145	1472.25
269.377	1423.25
269.609	1526.25
269.841	1800.25
270.073	2123.25
270.306	2344.25
270.538	2538.25
270.77	2142.25
271.002	1764.25
271.234	1710.25
271.466	1716.25
271.698	1919.25
271.93	2317.25
272.162	2328.25
272.394	2134.25
272.626	2028.25
272.858	1772.25
273.09	1495.25
273.322	1503.25
273.553	1417.25
273.785	1420.25
274.017	1493.25
274.249	1600.25
274.481	1637.25
274.713	1519.25
274.945	1440.25
275.176	1478.25
275.408	1449.25
275.64	1463.25
275.872	1426.25
276.104	1538.25
276.335	1690.25
276.567	1983.25
276.799	1967.25
277.031	1790.25
277.262	1636.25
277.494	1760.25
277.726	1933.25
277.957	1920.25
278.189	1749.25
278.421	1592.25
278.652	1540.25
278.884	1534.25
279.115	1532.25
279.347	1590.25
279.579	1497.25
279.81	1520.25
280.042	1670.25
280.273	1875.25
280.505	1866.25
280.736	1889.25
280.968	1782.25
281.199	1571.25
281.431	1501.25
281.662	1470.25
281.894	1460.25
282.125	1515.25
282.356	1587.25
282.588	1630.25
282.819	1614.25
283.051	1705.25
283.282	1845.25
283.513	1798.25
283.745	1587.25
283.976	1503.25
284.207	1449.25
284.439	1492.25
284.67	1532.25
284.901	1581.25
285.132	1628.25
285.364	1570.25
285.595	1615.25
285.826	1569.25
286.057	1543.25
286.288	1568.25
286.52	1653.25
286.751	1738.25
286.982	1839.25
287.213	1657.25
287.444	1521.25
287.675	1510.25
287.906	1586.25
288.138	1718.25
288.369	1691.25
288.6	1588.25
288.831	1508.25
289.062	1554.25
289.293	1544.25
289.524	1542.25
289.755	1622.25
289.986	1644.25
290.217	1478.25
290.448	1551.25
290.679	1618.25
290.91	1594.25
291.141	1669.25
291.371	1714.25
291.602	1724.25
291.833	1656.25
292.064	1749.25
292.295	1670.25
292.526	1737.25
292.757	1783.25
292.987	1699.25
293.218	1622.25
293.449	1741.25
293.68	1990.25
293.91	2121.25
294.141	1961.25
294.372	1820.25
294.603	1896.25
294.833	2041.25
295.064	1903.25
295.295	1656.25
295.525	1672.25
295.756	1514.25
295.987	1468.25
296.217	1513.25
296.448	1558.25
296.679	1603.25
296.909	1563.25
297.14	1541.25
297.37	1565.25
297.601	1696.25
297.831	1784.25
298.062	1815.25
298.292	1660.25
298.523	1541.25
298.753	1576.25
298.984	1603.25
299.214	1581.25
299.445	1660.25
299.675	1671.25
299.905	1688.25
300.136	1635.25
300.366	1622.25
300.597	1561.25
300.827	1511.25
301.057	1609.25
301.288	1680.25
301.518	1696.25
301.748	1703.25
301.979	1770.25
302.209	1820.25
302.439	1947.25
302.669	2040.25
302.9	1863.25
303.13	1714.25
303.36	1692.25
303.59	1747.25
303.82	1691.25
304.051	1693.25
304.281	1722.25
304.511	1675.25
304.741	1801.25
304.971	1988.25
305.201	2166.25
305.431	2022.25
305.661	1658.25
305.891	1498.25
306.121	1458.25
306.352	1568.25
306.582	1621.25
306.812	1778.25
307.042	1882.25
307.272	1892.25
307.502	1905.25
307.731	2074.25
307.961	2251.25
308.191	2084.25
308.421	1767.25
308.651	1696.25
308.881	1613.25
309.111	1622.25
309.341	1582.25
309.571	1661.25
309.8	1589.25
310.03	1603.25
310.26	1613.25
310.49	1592.25
310.72	1642.25
310.949	1732.25
311.179	1736.25
311.409	1725.25
311.639	1677.25
311.868	1655.25
312.098	1660.25
312.328	1646.25
312.557	1623.25
312.787	1679.25
313.017	1664.25
313.246	1679.25
313.476	1662.25
313.706	1740.25
313.935	1771.25
314.165	1738.25
314.394	1787.25
314.624	1886.25
314.853	1990.25
315.083	2054.25
315.312	2132.25
315.542	2006.25
315.771	1772.25
316.001	1758.25
316.23	1903.25
316.46	1872.25
316.689	1829.25
316.919	1726.25
317.148	1700.25
317.377	1660.25
317.607	1805.25
317.836	2040.25
318.065	2125.25
318.295	2044.25
318.524	1951.25
318.753	1825.25
318.983	1842.25
319.212	1817.25
319.441	1784.25
319.67	1754.25
319.9	1800.25
320.129	1911.25
320.358	1955.25
320.587	2041.25
320.816	2014.25
321.046	1929.25
321.275	1846.25
321.504	1851.25
321.733	1999.25
321.962	1970.25
322.191	1833.25
322.42	1801.25
322.649	1772.25
322.878	1737.25
323.108	1774.25
323.337	1879.25
323.566	1866.25
323.795	1852.25
324.024	1826.25
324.253	1812.25
324.482	1806.25
324.71	1804.25
324.939	1691.25
325.168	1704.25
325.397	1759.25
325.626	1822.25
325.855	1866.25
326.084	1747.25
326.313	1807.25
326.542	1808.25
326.77	1867.25
326.999	1894.25
327.228	1843.25
327.457	1719.25
327.686	1711.25
327.914	1689.25
328.143	1779.25
328.372	1807.25
328.6	1806.25
328.829	1788.25
329.058	1754.25
329.287	1736.25
329.515	1836.25
329.744	1817.25
329.972	1906.25
330.201	2007.25
330.43	1948.25
330.658	1872.25
330.887	1841.25
331.115	1876.25
331.344	1869.25
331.572	1846.25
331.801	1883.25
332.03	1876.25
332.258	1908.25
332.486	1924.25
332.715	1934.25
332.943	1915.25
333.172	1861.25
333.4	1922.25
333.629	1924.25
333.857	2083.25
334.085	2274.25
334.314	2555.25
334.542	2826.25
334.771	2619.25
334.999	2264.25
335.227	2136.25
335.455	2035.25
335.684	1993.25
335.912	2066.25
336.14	2134.25
336.369	2063.25
336.597	1955.25
336.825	1872.25
337.053	2005.25
337.281	2071.25
337.51	2228.25
337.738	2250.25
337.966	2203.25
338.194	1965.25
338.422	1899.25
338.65	1848.25
338.878	1836.25
339.106	1826.25
339.334	1800.25
339.562	1761.25
339.79	1776.25
340.018	1877.25
340.246	2044.25
340.474	1955.25
340.702	1928.25
340.93	1928.25
341.158	1897.25
341.386	1877.25
341.614	1891.25
341.842	1883.25
342.07	1875.25
342.298	1908.25
342.526	1884.25
342.754	1825.25
342.981	1858.25
343.209	1816.25
343.437	1856.25
343.665	1830.25
343.893	1888.25
344.12	1972.25
344.348	2039.25
344.576	1932.25
344.804	1849.25
345.031	1820.25
345.259	1884.25
345.487	1775.25
345.714	1734.25
345.942	1717.25
346.17	1719.25
346.397	1755.25
346.625	1809.25
346.853	1710.25
347.08	1650.25
347.308	1695.25
347.535	1708.25
347.763	1762.25
347.99	1712.25
348.218	1680.25
348.445	1687.25
348.673	1710.25
348.9	1770.25
349.128	1821.25
349.355	1888.25
349.583	1854.25
349.81	1768.25
350.037	1652.25
350.265	1599.25
350.492	1662.25
350.72	1700.25
350.947	1746.25
351.174	1786.25
351.402	1691.25
351.629	1633.25
351.856	1581.25
352.083	1579.25
352.311	1616.25
352.538	1658.25
352.765	1748.25
352.992	1767.25
353.22	1716.25
353.447	1636.25
353.674	1644.25
353.901	1752.25
354.128	1665.25
354.355	1645.25
354.583	1720.25
354.81	1782.25
355.037	1748.25
355.264	1772.25
355.491	1670.25
355.718	1690.25
355.945	1714.25
356.172	1674.25
356.399	1662.25
356.626	1645.25
356.853	1682.25
357.08	1836.25
357.307	2047.25
357.534	2054.25
357.761	1773.25
357.988	1657.25
358.215	1572.25
358.441	1633.25
358.668	1629.25
358.895	1616.25
359.122	1746.25
359.349	1930.25
359.576	1915.25
359.802	1760.25
360.029	1616.25
360.256	1597.25
360.483	1662.25
360.709	1705.25
360.936	1757.25
361.163	1819.25
361.39	2004.25
361.616	2158.25
361.843	2114.25
362.07	1994.25
362.296	1702.25
362.523	1635.25
362.749	1677.25
362.976	1738.25
363.203	1755.25
363.429	1706.25
363.656	1668.25
363.882	1703.25
364.109	1858.25
364.335	2057.25
364.562	1908.25
364.788	1811.25
365.015	1741.25
365.241	1629.25
365.468	1706.25
365.694	1748.25
365.92	1839.25
366.147	1806.25
366.373	1695.25
366.599	1638.25
366.826	1644.25
367.052	1696.25
367.278	1703.25
367.505	1733.25
367.731	1714.25
367.957	1725.25
368.184	1756.25
368.41	1890.25
368.636	1900.25
368.862	1929.25
369.089	1950.25
369.315	1886.25
369.541	1757.25
369.767	1714.25
369.993	1680.25
370.219	1673.25
370.445	1692.25
370.672	1843.25
370.898	1953.25
371.124	1918.25
371.35	1767.25
371.576	1821.25
371.802	1940.25
372.028	1848.25
372.254	1744.25
372.48	1758.25
372.706	1690.25
372.932	1693.25
373.158	1701.25
373.384	1738.25
373.61	1779.25
373.835	1898.25
374.061	1824.25
374.287	1798.25
374.513	1807.25
374.739	1783.25
374.965	1791.25
375.191	1807.25
375.416	1838.25
375.642	1849.25
375.868	1915.25
376.094	1983.25
376.319	1926.25
376.545	1815.25
376.771	1793.25
376.997	1883.25
377.222	1884.25
377.448	1838.25
377.674	1868.25
377.899	1840.25
378.125	1958.25
378.35	2008.25
378.576	1820.25
378.802	1686.25
379.027	1703.25
379.253	1704.25
379.478	1762.25
379.704	1790.25
379.929	1758.25
380.155	1763.25
380.38	1772.25
380.606	1823.25
380.831	1760.25
381.057	1899.25
381.282	1921.25
381.507	1868.25
381.733	1966.25
381.958	2065.25
382.184	1898.25
382.409	1814.25
382.634	1888.25
382.86	1837.25
383.085	1830.25
383.31	1901.25
383.535	2075.25
383.761	2138.25
383.986	2086.25
384.211	2038.25
384.436	1942.25
384.662	2043.25
384.887	2166.25
385.112	2052.25
385.337	2057.25
385.562	2048.25
385.787	2055.25
386.013	2119.25
386.238	2102.25
386.463	2104.25
386.688	2190.25
386.913	2313.25
387.138	2332.25
387.363	2123.25
387.588	2084.25
387.813	2082.25
388.038	2111.25
388.263	2172.25
388.488	2169.25
388.713	1950.25
388.938	1942.25
389.163	1996.25
389.387	2022.25
389.612	1980.25
389.837	2074.25
390.062	2068.25
390.287	2045.25
390.512	2040.25
390.736	1948.25
390.961	1978.25
391.186	1963.25
391.411	1925.25
391.636	2012.25
391.86	2025.25
392.085	2061.25
392.31	2060.25
392.534	2074.25
392.759	2074.25
392.984	2011.25
393.208	2058.25
393.433	2089.25
393.658	2172.25
393.882	2205.25
394.107	2090.25
394.331	1986.25
394.556	2003.25
394.78	2067.25
395.005	2126.25
395.229	2170.25
395.454	2326.25
395.678	2365.25
395.903	2281.25
396.127	2139.25
396.352	2165.25
396.576	2243.25
396.801	2256.25
397.025	2220.25
397.249	2186.25
397.474	2177.25
397.698	2146.25
397.922	2302.25
398.147	2355.25
398.371	2423.25
398.595	2412.25
398.82	2312.25
399.044	2360.25
399.268	2425.25
399.492	2652.25
399.717	2671.25
399.941	2721.25
400.165	2704.25
400.389	2603.25
400.613	2540.25
400.837	2828.25
401.062	3262.25
401.286	2848.25
401.51	2516.25
401.734	2662.25
401.958	2590.25
402.182	2410.25
402.406	2335.25
402.63	2312.25
402.854	2278.25
403.078	2328.25
403.302	2394.25
403.526	2396.25
403.75	2387.25
403.974	2415.25
404.198	2379.25
404.422	2502.25
404.645	2614.25
404.869	2525.25
405.093	2373.25
405.317	2326.25
405.541	2441.25
405.765	2438.25
405.988	2399.25
406.212	2477.25
406.436	2500.25
406.66	2577.25
406.883	2599.25
407.107	2934.25
407.331	3163.25
407.555	3368.25
407.778	3184.25
408.002	2630.25
408.226	2579.25
408.449	2546.25
408.673	2525.25
408.896	2484.25
409.12	2566.25
409.344	2430.25
409.567	2325.25
409.791	2430.25
410.014	2462.25
410.238	2542.25
410.461	2722.25
410.685	2491.25
410.908	2328.25
411.132	2388.25
411.355	2420.25
411.578	2398.25
411.802	2354.25
412.025	2424.25
412.249	2323.25
412.472	2328.25
412.695	2240.25
412.919	2311.25
413.142	2259.25
413.365	2298.25
413.589	2398.25
413.812	2437.25
414.035	2524.25
414.258	2387.25
414.482	2280.25
414.705	2374.25
414.928	2314.25
415.151	2274.25
415.374	2300.25
415.597	2391.25
415.821	2350.25
416.044	2443.25
416.267	2413.25
416.49	2192.25
416.713	2182.25
416.936	2245.25
417.159	2379.25
417.382	2421.25
417.605	2228.25
417.828	2340.25
418.051	2384.25
418.274	2294.25
418.497	2213.25
418.72	2246.25
418.943	2226.25
419.166	2362.25
419.389	2477.25
419.611	2307.25
419.834	2272.25
420.057	2352.25
420.28	2240.25
420.503	2233.25
420.726	2312.25
420.948	2284.25
421.171	2217.25
421.394	2230.25
421.617	2273.25
421.839	2243.25
422.062	2269.25
422.285	2214.25
422.507	2209.25
422.73	2195.25
422.953	2136.25
423.175	2163.25
423.398	2194.25
423.621	2177.25
423.843	2259.25
424.066	2254.25
424.288	2342.25
424.511	2355.25
424.733	2339.25
424.956	2105.25
425.178	2116.25
425.401	2136.25
425.623	2156.25
425.846	2117.25
426.068	2241.25
426.291	2320.25
426.513	2291.25
426.735	2234.25
426.958	2402.25
427.18	2618.25
427.402	2355.25
427.625	2355.25
427.847	2473.25
428.069	2278.25
428.292	2123.25
428.514	2102.25
428.736	2102.25
428.958	2163.25
429.181	2212.25
429.403	2426.25
429.625	3021.25
429.847	2618.25
430.069	2239.25
430.292	2427.25
430.514	2547.25
430.736	2351.25
430.958	2472.25
431.18	2347.25
431.402	2126.25
431.624	2076.25
431.846	2137.25
432.068	2119.25
432.29	2118.25
432.512	2137.25
432.734	2188.25
432.956	2264.25
433.178	2332.25
433.4	2328.25
433.622	2352.25
433.844	2185.25
434.066	2115.25
434.287	2087.25
434.509	2192.25
434.731	2356.25
434.953	2442.25
435.175	2436.25
435.397	2263.25
435.618	2292.25
435.84	2296.25
436.062	2207.25
436.284	2253.25
436.505	2270.25
436.727	2355.25
436.949	2284.25
437.17	2194.25
437.392	2168.25
437.614	2190.25
437.835	2108.25
438.057	2239.25
438.278	2326.25
438.5	2232.25
438.721	2125.25
438.943	2138.25
439.165	2103.25
439.386	2092.25
439.608	2104.25
439.829	2114.25
440.05	2176.25
440.272	2062.25
440.493	2058.25
440.715	2145.25
440.936	2294.25
441.158	2519.25
441.379	2453.25
441.6	2378.25
441.822	2292.25
442.043	2255.25
442.264	2240.25
442.486	2098.25
442.707	2128.25
442.928	2121.25
443.149	2203.25
443.371	2334.25
443.592	2425.25
443.813	2359.25
444.034	2345.25
444.255	2297.25
444.476	2406.25
444.698	2453.25
444.919	2443.25
445.14	2515.25
445.361	2446.25
445.582	2607.25
445.803	2463.25
446.024	2339.25
446.245	2462.25
446.466	2359.25
446.687	2259.25
446.908	2254.25
447.129	2220.25
447.35	2178.25
447.571	2227.25
447.792	2124.25
448.013	2104.25
448.234	2130.25
448.455	2221.25
448.675	2291.25
448.896	2102.25
449.117	2031.25
449.338	2138.25
449.559	2222.25
449.779	2316.25
450	2586.25
450.221	2735.25
450.442	2641.25
450.662	2356.25
450.883	2061.25
451.104	2067.25
451.324	2068.25
451.545	2165.25
451.766	2124.25
451.986	2018.25
452.207	2002.25
452.428	1935.25
452.648	1874.25
452.869	1938.25
453.089	2107.25
453.31	2148.25
453.53	2170.25
453.751	2124.25
453.971	1955.25
454.192	2012.25
454.412	2133.25
454.633	2071.25
454.853	1975.25
455.073	1886.25
455.294	1855.25
455.514	1876.25
455.734	1904.25
455.955	1936.25
456.175	1926.25
456.395	1902.25
456.616	1975.25
456.836	2028.25
457.056	1968.25
457.276	1939.25
457.497	1897.25
457.717	1813.25
457.937	1866.25
458.157	1927.25
458.377	1958.25
458.598	1903.25
458.818	1932.25
459.038	2054.25
459.258	2180.25
459.478	2177.25
459.698	2212.25
459.918	2159.25
460.138	2256.25
460.358	2282.25
460.578	2322.25
460.798	2398.25
461.018	2552.25
461.238	2400.25
461.458	2274.25
461.678	2355.25
461.898	2266.25
462.118	2188.25
462.338	2265.25
462.558	2303.25
462.777	2301.25
462.997	2412.25
463.217	2529.25
463.437	2505.25
463.657	2339.25
463.876	2342.25
464.096	2288.25
464.316	2296.25
464.536	2372.25
464.755	2364.25
464.975	2444.25
465.195	2345.25
465.414	2446.25
465.634	2427.25
465.854	2293.25
466.073	2466.25
466.293	2398.25
466.512	2122.25
466.732	2076.25
466.951	2190.25
467.171	2152.25
467.391	2091.25
467.61	2065.25
467.829	2089.25
468.049	2266.25
468.268	2502.25
468.488	2354.25
468.707	2230.25
468.927	2154.25
469.146	2105.25
469.365	2053.25
469.585	2090.25
469.804	2084.25
470.023	2101.25
470.243	2131.25
470.462	2080.25
470.681	2058.25
470.901	2103.25
471.12	2116.25
471.339	2117.25
471.558	2072.25
471.777	1993.25
471.997	2084.25
472.216	2070.25
472.435	1999.25
472.654	1991.25
472.873	2125.25
473.092	2260.25
473.311	2159.25
473.53	2004.25
473.749	1985.25
473.968	2052.25
474.187	2186.25
474.406	2328.25
474.625	2219.25
474.844	2114.25
475.063	2106.25
475.282	2222.25
475.501	2138.25
475.72	2127.25
475.939	2244.25
476.158	2186.25
476.377	2115.25
476.596	2140.25
476.814	2202.25
477.033	2239.25
477.252	2370.25
477.471	2366.25
477.69	2239.25
477.908	2217.25
478.127	2335.25
478.346	2557.25
478.564	2590.25
478.783	2508.25
479.002	2602.25
479.22	2521.25
479.439	2630.25
479.658	2994.25
479.876	3026.25
480.095	2570.25
480.313	2418.25
480.532	2293.25
480.751	2368.25
480.969	2445.25
481.188	2345.25
481.406	2379.25
481.624	2288.25
481.843	2324.25
482.061	2385.25
482.28	2446.25
482.498	2485.25
482.717	2457.25
482.935	2353.25
483.153	2350.25
483.372	2326.25
483.59	2289.25
483.808	2349.25
484.027	2342.25
484.245	2562.25
484.463	2935.25
484.681	3454.25
484.9	2598.25
485.118	2434.25
485.336	2350.25
485.554	2506.25
485.772	2604.25
485.99	2560.25
486.209	2562.25
486.427	2488.25
486.645	2514.25
486.863	2467.25
487.081	2525.25
487.299	2586.25
