Data from WStandard_LampEnergy8_LIBS07252019.E.O._I.C._HRD10591_16-00-16-929.txt Node
Date: Thu Jul 25 16:00:16 EDT 2019
User: cochatt
Spectrometer: HR+D1059
Trigger mode: 1
Integration Time (sec): 1.000000E-1
Scans to average: 1
Electric dark correction enabled: true
Nonlinearity correction enabled: false
Boxcar width: 0
XAxis mode: Wavelengths
Number of Pixels in Spectrum: 2048
>>>>>Begin Spectral Data<<<<<
223.165	-16.81
223.4	-16.81
223.635	-16.81
223.869	-16.81
224.104	-9.81
224.338	-6.81
224.573	-16.81
224.808	-21.81
225.042	-7.81
225.277	-8.81
225.511	1.19
225.746	1.19
225.98	1.19
226.215	11.19
226.449	9.19
226.683	31.19
226.918	24.19
227.152	26.19
227.387	25.19
227.621	25.19
227.856	38.19
228.09	35.19
228.324	35.19
228.559	43.19
228.793	95.19
229.027	211.19
229.262	214.19
229.496	216.19
229.73	201.19
229.964	239.19
230.199	237.19
230.433	248.19
230.667	274.19
230.901	318.19
231.136	263.19
231.37	258.19
231.604	250.19
231.838	267.19
232.072	241.19
232.306	262.19
232.541	260.19
232.775	296.19
233.009	318.19
233.243	297.19
233.477	280.19
233.711	307.19
233.945	304.19
234.179	299.19
234.413	296.19
234.647	314.19
234.881	311.19
235.115	302.19
235.349	287.19
235.583	292.19
235.817	298.19
236.051	293.19
236.285	324.19
236.519	305.19
236.753	347.19
236.987	338.19
237.221	342.19
237.455	367.19
237.689	374.19
237.922	335.19
238.156	343.19
238.39	338.19
238.624	350.19
238.858	366.19
239.091	383.19
239.325	404.19
239.559	469.19
239.793	490.19
240.027	498.19
240.26	495.19
240.494	379.19
240.728	345.19
240.961	368.19
241.195	395.19
241.429	413.19
241.662	406.19
241.896	389.19
242.13	394.19
242.363	422.19
242.597	430.19
242.83	445.19
243.064	456.19
243.298	486.19
243.531	447.19
243.765	449.19
243.998	457.19
244.232	402.19
244.465	404.19
244.699	416.19
244.932	442.19
245.166	523.19
245.399	467.19
245.633	447.19
245.866	454.19
246.099	487.19
246.333	475.19
246.566	487.19
246.8	497.19
247.033	557.19
247.266	527.19
247.5	535.19
247.733	532.19
247.966	557.19
248.2	589.19
248.433	587.19
248.666	617.19
248.899	654.19
249.133	730.19
249.366	814.19
249.599	659.19
249.832	606.19
250.066	610.19
250.299	595.19
250.532	570.19
250.765	545.19
250.998	561.19
251.231	574.19
251.465	621.19
251.698	569.19
251.931	597.19
252.164	609.19
252.397	594.19
252.63	589.19
252.863	551.19
253.096	522.19
253.329	567.19
253.562	590.19
253.795	635.19
254.028	605.19
254.261	571.19
254.494	554.19
254.727	561.19
254.96	552.19
255.193	611.19
255.426	680.19
255.659	751.19
255.892	786.19
256.124	679.19
256.357	650.19
256.59	695.19
256.823	669.19
257.056	680.19
257.289	837.19
257.521	872.19
257.754	804.19
257.987	785.19
258.22	819.19
258.452	790.19
258.685	658.19
258.918	661.19
259.151	637.19
259.383	635.19
259.616	593.19
259.849	629.19
260.081	679.19
260.314	749.19
260.547	803.19
260.779	808.19
261.012	756.19
261.244	689.19
261.477	663.19
261.71	689.19
261.942	676.19
262.175	670.19
262.407	704.19
262.64	633.19
262.872	614.19
263.105	632.19
263.337	613.19
263.57	631.19
263.802	612.19
264.035	585.19
264.267	583.19
264.499	570.19
264.732	616.19
264.964	623.19
265.197	665.19
265.429	682.19
265.661	772.19
265.894	847.19
266.126	869.19
266.358	795.19
266.591	793.19
266.823	832.19
267.055	769.19
267.287	779.19
267.52	736.19
267.752	743.19
267.984	741.19
268.216	786.19
268.448	764.19
268.681	751.19
268.913	718.19
269.145	686.19
269.377	678.19
269.609	749.19
269.841	847.19
270.073	975.19
270.306	1067.19
270.538	1112.19
270.77	945.19
271.002	820.19
271.234	807.19
271.466	809.19
271.698	917.19
271.93	1047.19
272.162	1039.19
272.394	923.19
272.626	880.19
272.858	775.19
273.09	675.19
273.322	679.19
273.553	688.19
273.785	687.19
274.017	703.19
274.249	775.19
274.481	766.19
274.713	689.19
274.945	696.19
275.176	703.19
275.408	670.19
275.64	667.19
275.872	658.19
276.104	736.19
276.335	818.19
276.567	897.19
276.799	893.19
277.031	821.19
277.262	812.19
277.494	817.19
277.726	901.19
277.957	878.19
278.189	809.19
278.421	716.19
278.652	735.19
278.884	724.19
279.115	705.19
279.347	725.19
279.579	705.19
279.81	749.19
280.042	821.19
280.273	851.19
280.505	871.19
280.736	888.19
280.968	790.19
281.199	728.19
281.431	697.19
281.662	727.19
281.894	714.19
282.125	756.19
282.356	759.19
282.588	774.19
282.819	743.19
283.051	812.19
283.282	896.19
283.513	861.19
283.745	755.19
283.976	713.19
284.207	734.19
284.439	712.19
284.67	746.19
284.901	758.19
285.132	763.19
285.364	761.19
285.595	751.19
285.826	751.19
286.057	760.19
286.288	771.19
286.52	801.19
286.751	839.19
286.982	849.19
287.213	765.19
287.444	741.19
287.675	730.19
287.906	773.19
288.138	809.19
288.369	802.19
288.6	755.19
288.831	711.19
289.062	743.19
289.293	766.19
289.524	762.19
289.755	780.19
289.986	767.19
290.217	739.19
290.448	746.19
290.679	763.19
290.91	752.19
291.141	781.19
291.371	828.19
291.602	809.19
291.833	827.19
292.064	820.19
292.295	805.19
292.526	824.19
292.757	837.19
292.987	785.19
293.218	789.19
293.449	886.19
293.68	975.19
293.91	1033.19
294.141	919.19
294.372	889.19
294.603	935.19
294.833	967.19
295.064	902.19
295.295	828.19
295.525	803.19
295.756	755.19
295.987	733.19
296.217	754.19
296.448	769.19
296.679	767.19
296.909	738.19
297.14	745.19
297.37	784.19
297.601	823.19
297.831	877.19
298.062	883.19
298.292	795.19
298.523	776.19
298.753	756.19
298.984	792.19
299.214	786.19
299.445	806.19
299.675	842.19
299.905	815.19
300.136	825.19
300.366	766.19
300.597	761.19
300.827	746.19
301.057	811.19
301.288	820.19
301.518	833.19
301.748	843.19
301.979	892.19
302.209	915.19
302.439	963.19
302.669	978.19
302.9	941.19
303.13	864.19
303.36	852.19
303.59	847.19
303.82	835.19
304.051	829.19
304.281	869.19
304.511	855.19
304.741	946.19
304.971	1014.19
305.201	1072.19
305.431	965.19
305.661	811.19
305.891	747.19
306.121	768.19
306.352	796.19
306.582	839.19
306.812	870.19
307.042	949.19
307.272	935.19
307.502	980.19
307.731	1015.19
307.961	1073.19
308.191	985.19
308.421	884.19
308.651	831.19
308.881	795.19
309.111	792.19
309.341	813.19
309.571	800.19
309.8	821.19
310.03	818.19
310.26	807.19
310.49	813.19
310.72	818.19
310.949	869.19
311.179	874.19
311.409	867.19
311.639	822.19
311.868	837.19
312.098	851.19
312.328	836.19
312.557	829.19
312.787	849.19
313.017	884.19
313.246	877.19
313.476	881.19
313.706	901.19
313.935	867.19
314.165	876.19
314.394	913.19
314.624	971.19
314.853	1027.19
315.083	1056.19
315.312	1065.19
315.542	959.19
315.771	887.19
316.001	903.19
316.23	915.19
316.46	945.19
316.689	898.19
316.919	858.19
317.148	843.19
317.377	881.19
317.607	978.19
317.836	1043.19
318.065	1073.19
318.295	993.19
318.524	942.19
318.753	934.19
318.983	945.19
319.212	929.19
319.441	904.19
319.67	899.19
319.9	925.19
320.129	989.19
320.358	1009.19
320.587	1014.19
320.816	1028.19
321.046	988.19
321.275	947.19
321.504	965.19
321.733	1039.19
321.962	989.19
322.191	926.19
322.42	928.19
322.649	907.19
322.878	908.19
323.108	928.19
323.337	935.19
323.566	965.19
323.795	958.19
324.024	950.19
324.253	906.19
324.482	905.19
324.71	862.19
324.939	882.19
325.168	890.19
325.397	900.19
325.626	959.19
325.855	933.19
326.084	895.19
326.313	911.19
326.542	931.19
326.77	949.19
326.999	959.19
327.228	909.19
327.457	842.19
327.686	877.19
327.914	935.19
328.143	933.19
328.372	922.19
328.6	900.19
328.829	911.19
329.058	915.19
329.287	909.19
329.515	928.19
329.744	931.19
329.972	969.19
330.201	1014.19
330.43	983.19
330.658	975.19
330.887	944.19
331.115	968.19
331.344	979.19
331.572	941.19
331.801	971.19
332.03	974.19
332.258	959.19
332.486	1018.19
332.715	994.19
332.943	988.19
333.172	966.19
333.4	966.19
333.629	987.19
333.857	1095.19
334.085	1195.19
334.314	1343.19
334.542	1377.19
334.771	1268.19
334.999	1146.19
335.227	1088.19
335.455	1047.19
335.684	1033.19
335.912	1066.19
336.14	1092.19
336.369	1087.19
336.597	997.19
336.825	983.19
337.053	1045.19
337.281	1075.19
337.51	1133.19
337.738	1133.19
337.966	1072.19
338.194	1016.19
338.422	983.19
338.65	953.19
338.878	949.19
339.106	936.19
339.334	938.19
339.562	925.19
339.79	966.19
340.018	1009.19
340.246	1034.19
340.474	1033.19
340.702	1009.19
340.93	985.19
341.158	1003.19
341.386	979.19
341.614	967.19
341.842	980.19
342.07	970.19
342.298	996.19
342.526	947.19
342.754	969.19
342.981	963.19
343.209	971.19
343.437	945.19
343.665	973.19
343.893	983.19
344.12	1029.19
344.348	1046.19
344.576	991.19
344.804	962.19
345.031	981.19
345.259	946.19
345.487	913.19
345.714	871.19
345.942	884.19
346.17	915.19
346.397	928.19
346.625	929.19
346.853	877.19
347.08	882.19
347.308	894.19
347.535	910.19
347.763	898.19
347.99	897.19
348.218	894.19
348.445	900.19
348.673	905.19
348.9	919.19
349.128	966.19
349.355	1005.19
349.583	948.19
349.81	928.19
350.037	880.19
350.265	866.19
350.492	899.19
350.72	926.19
350.947	946.19
351.174	947.19
351.402	899.19
351.629	889.19
351.856	843.19
352.083	831.19
352.311	840.19
352.538	859.19
352.765	921.19
352.992	936.19
353.22	898.19
353.447	898.19
353.674	919.19
353.901	903.19
354.128	889.19
354.355	911.19
354.583	942.19
354.81	961.19
355.037	955.19
355.264	950.19
355.491	916.19
355.718	926.19
355.945	887.19
356.172	877.19
356.399	867.19
356.626	884.19
356.853	933.19
357.08	1005.19
357.307	1095.19
357.534	1058.19
357.761	954.19
357.988	866.19
358.215	845.19
358.441	877.19
358.668	866.19
358.895	899.19
359.122	949.19
359.349	1011.19
359.576	948.19
359.802	915.19
360.029	882.19
360.256	874.19
360.483	910.19
360.709	901.19
360.936	969.19
361.163	980.19
361.39	1075.19
361.616	1140.19
361.843	1088.19
362.07	1029.19
362.296	937.19
362.523	886.19
362.749	935.19
362.976	945.19
363.203	935.19
363.429	889.19
363.656	878.19
363.882	943.19
364.109	1052.19
364.335	1071.19
364.562	991.19
364.788	963.19
365.015	931.19
365.241	913.19
365.468	929.19
365.694	982.19
365.92	992.19
366.147	969.19
366.373	864.19
366.599	908.19
366.826	903.19
367.052	877.19
367.278	927.19
367.505	922.19
367.731	958.19
367.957	945.19
368.184	992.19
368.41	1022.19
368.636	1062.19
368.862	1082.19
369.089	1046.19
369.315	1009.19
369.541	953.19
369.767	936.19
369.993	899.19
370.219	932.19
370.445	987.19
370.672	1018.19
370.898	1063.19
371.124	1006.19
371.35	994.19
371.576	1005.19
371.802	1024.19
372.028	990.19
372.254	957.19
372.48	957.19
372.706	923.19
372.932	893.19
373.158	930.19
373.384	976.19
373.61	974.19
373.835	1014.19
374.061	982.19
374.287	987.19
374.513	948.19
374.739	986.19
374.965	1004.19
375.191	1005.19
375.416	992.19
375.642	1033.19
375.868	1064.19
376.094	1059.19
376.319	1020.19
376.545	966.19
376.771	1010.19
376.997	1058.19
377.222	1042.19
377.448	1005.19
377.674	1024.19
377.899	1055.19
378.125	1082.19
378.35	1091.19
378.576	991.19
378.802	934.19
379.027	908.19
379.253	992.19
379.478	984.19
379.704	972.19
379.929	982.19
380.155	958.19
380.38	991.19
380.606	982.19
380.831	981.19
381.057	1048.19
381.282	1029.19
381.507	1012.19
381.733	1108.19
381.958	1120.19
382.184	1069.19
382.409	1027.19
382.634	1039.19
382.86	1046.19
383.085	1022.19
383.31	1069.19
383.535	1159.19
383.761	1219.19
383.986	1123.19
384.211	1098.19
384.436	1101.19
384.662	1167.19
384.887	1192.19
385.112	1122.19
385.337	1116.19
385.562	1110.19
385.787	1122.19
386.013	1181.19
386.238	1141.19
386.463	1130.19
386.688	1241.19
386.913	1284.19
387.138	1220.19
387.363	1168.19
387.588	1143.19
387.813	1157.19
388.038	1170.19
388.263	1213.19
388.488	1117.19
388.713	1047.19
388.938	1116.19
389.163	1095.19
389.387	1144.19
389.612	1085.19
389.837	1126.19
390.062	1129.19
390.287	1111.19
390.512	1082.19
390.736	1117.19
390.961	1069.19
391.186	1059.19
391.411	1056.19
391.636	1120.19
391.86	1103.19
392.085	1107.19
392.31	1118.19
392.534	1131.19
392.759	1142.19
392.984	1096.19
393.208	1146.19
393.433	1159.19
393.658	1179.19
393.882	1247.19
394.107	1169.19
394.331	1119.19
394.556	1122.19
394.78	1150.19
395.005	1210.19
395.229	1222.19
395.454	1311.19
395.678	1279.19
395.903	1206.19
396.127	1179.19
396.352	1216.19
396.576	1227.19
396.801	1235.19
397.025	1209.19
397.249	1225.19
397.474	1258.19
397.698	1209.19
397.922	1227.19
398.147	1262.19
398.371	1350.19
398.595	1315.19
398.82	1276.19
399.044	1305.19
399.268	1367.19
399.492	1441.19
399.717	1498.19
399.941	1455.19
400.165	1427.19
400.389	1447.19
400.613	1445.19
400.837	1613.19
401.062	1790.19
401.286	1521.19
401.51	1412.19
401.734	1449.19
401.958	1396.19
402.182	1343.19
402.406	1286.19
402.63	1270.19
402.854	1282.19
403.078	1261.19
403.302	1296.19
403.526	1329.19
403.75	1298.19
403.974	1383.19
404.198	1327.19
404.422	1393.19
404.645	1467.19
404.869	1399.19
405.093	1291.19
405.317	1285.19
405.541	1305.19
405.765	1369.19
405.988	1346.19
406.212	1350.19
406.436	1365.19
406.66	1455.19
406.883	1469.19
407.107	1661.19
407.331	1776.19
407.555	1910.19
407.778	1679.19
408.002	1477.19
408.226	1393.19
408.449	1374.19
408.673	1336.19
408.896	1346.19
409.12	1357.19
409.344	1333.19
409.567	1289.19
409.791	1322.19
410.014	1409.19
410.238	1473.19
410.461	1536.19
410.685	1351.19
410.908	1338.19
411.132	1347.19
411.355	1299.19
411.578	1281.19
411.802	1298.19
412.025	1349.19
412.249	1311.19
412.472	1281.19
412.695	1250.19
412.919	1287.19
413.142	1267.19
413.365	1297.19
413.589	1314.19
413.812	1402.19
414.035	1414.19
414.258	1320.19
414.482	1327.19
414.705	1279.19
414.928	1273.19
415.151	1271.19
415.374	1298.19
415.597	1303.19
415.821	1337.19
416.044	1304.19
416.267	1345.19
416.49	1256.19
416.713	1239.19
416.936	1307.19
417.159	1320.19
417.382	1350.19
417.605	1291.19
417.828	1311.19
418.051	1321.19
418.274	1297.19
418.497	1218.19
418.72	1234.19
418.943	1212.19
419.166	1321.19
419.389	1369.19
419.611	1295.19
419.834	1289.19
420.057	1286.19
420.28	1265.19
420.503	1255.19
420.726	1312.19
420.948	1278.19
421.171	1263.19
421.394	1254.19
421.617	1301.19
421.839	1342.19
422.062	1291.19
422.285	1281.19
422.507	1250.19
422.73	1226.19
422.953	1186.19
423.175	1231.19
423.398	1258.19
423.621	1287.19
423.843	1267.19
424.066	1283.19
424.288	1328.19
424.511	1427.19
424.733	1362.19
424.956	1251.19
425.178	1222.19
425.401	1230.19
425.623	1227.19
425.846	1215.19
426.068	1342.19
426.291	1312.19
426.513	1325.19
426.735	1319.19
426.958	1402.19
427.18	1449.19
427.402	1356.19
427.625	1365.19
427.847	1338.19
428.069	1279.19
428.292	1251.19
428.514	1218.19
428.736	1199.19
428.958	1229.19
429.181	1277.19
429.403	1484.19
429.625	1739.19
429.847	1464.19
430.069	1297.19
430.292	1445.19
430.514	1423.19
430.736	1383.19
430.958	1353.19
431.18	1278.19
431.402	1189.19
431.624	1183.19
431.846	1151.19
432.068	1111.19
432.29	1112.19
432.512	1173.19
432.734	1233.19
432.956	1262.19
433.178	1295.19
433.4	1311.19
433.622	1296.19
433.844	1253.19
434.066	1197.19
434.287	1137.19
434.509	1170.19
434.731	1219.19
434.953	1341.19
435.175	1299.19
435.397	1276.19
435.618	1241.19
435.84	1228.19
436.062	1195.19
436.284	1245.19
436.505	1254.19
436.727	1314.19
436.949	1244.19
437.17	1205.19
437.392	1210.19
437.614	1193.19
437.835	1147.19
438.057	1190.19
438.278	1251.19
438.5	1207.19
438.721	1232.19
438.943	1239.19
439.165	1210.19
439.386	1204.19
439.608	1227.19
439.829	1238.19
440.05	1263.19
440.272	1233.19
440.493	1222.19
440.715	1292.19
440.936	1321.19
441.158	1425.19
441.379	1396.19
441.6	1354.19
441.822	1311.19
442.043	1328.19
442.264	1325.19
442.486	1237.19
442.707	1223.19
442.928	1240.19
443.149	1279.19
443.371	1319.19
443.592	1385.19
443.813	1379.19
444.034	1341.19
444.255	1331.19
444.476	1368.19
444.698	1389.19
444.919	1364.19
445.14	1485.19
445.361	1429.19
445.582	1461.19
445.803	1390.19
446.024	1354.19
446.245	1390.19
446.466	1350.19
446.687	1332.19
446.908	1323.19
447.129	1303.19
447.35	1259.19
447.571	1269.19
447.792	1219.19
448.013	1209.19
448.234	1269.19
448.455	1295.19
448.675	1296.19
448.896	1191.19
449.117	1171.19
449.338	1246.19
449.559	1281.19
449.779	1309.19
450	1431.19
450.221	1453.19
450.442	1421.19
450.662	1287.19
450.883	1157.19
451.104	1144.19
451.324	1163.19
451.545	1205.19
451.766	1173.19
451.986	1103.19
452.207	1136.19
452.428	1103.19
452.648	1071.19
452.869	1078.19
453.089	1125.19
453.31	1133.19
453.53	1162.19
453.751	1088.19
453.971	1045.19
454.192	1073.19
454.412	1155.19
454.633	1111.19
454.853	1093.19
455.073	1030.19
455.294	1073.19
455.514	1058.19
455.734	1068.19
455.955	1079.19
456.175	1075.19
456.395	1053.19
456.616	1082.19
456.836	1073.19
457.056	1084.19
457.276	1066.19
457.497	1033.19
457.717	1002.19
457.937	1050.19
458.157	1039.19
458.377	1050.19
458.598	1023.19
458.818	1013.19
459.038	1066.19
459.258	1119.19
459.478	1136.19
459.698	1103.19
459.918	1139.19
460.138	1185.19
460.358	1205.19
460.578	1237.19
460.798	1270.19
461.018	1333.19
461.238	1286.19
461.458	1255.19
461.678	1258.19
461.898	1224.19
462.118	1206.19
462.338	1232.19
462.558	1227.19
462.777	1269.19
462.997	1270.19
463.217	1331.19
463.437	1336.19
463.657	1249.19
463.876	1238.19
464.096	1240.19
464.316	1222.19
464.536	1270.19
464.755	1279.19
464.975	1257.19
465.195	1296.19
465.414	1316.19
465.634	1322.19
465.854	1280.19
466.073	1366.19
466.293	1333.19
466.512	1194.19
466.732	1217.19
466.951	1233.19
467.171	1248.19
467.391	1180.19
467.61	1177.19
467.829	1185.19
468.049	1275.19
468.268	1413.19
468.488	1304.19
468.707	1248.19
468.927	1210.19
469.146	1172.19
469.365	1185.19
469.585	1245.19
469.804	1219.19
470.023	1202.19
470.243	1256.19
470.462	1227.19
470.681	1188.19
470.901	1237.19
471.12	1233.19
471.339	1236.19
471.558	1194.19
471.777	1183.19
471.997	1170.19
472.216	1156.19
472.435	1101.19
472.654	1085.19
472.873	1200.19
473.092	1227.19
473.311	1176.19
473.53	1137.19
473.749	1122.19
473.968	1170.19
474.187	1207.19
474.406	1225.19
474.625	1171.19
474.844	1191.19
475.063	1192.19
475.282	1211.19
475.501	1185.19
475.72	1191.19
475.939	1259.19
476.158	1251.19
476.377	1235.19
476.596	1176.19
476.814	1187.19
477.033	1199.19
477.252	1264.19
477.471	1281.19
477.69	1257.19
477.908	1286.19
478.127	1334.19
478.346	1423.19
478.564	1395.19
478.783	1398.19
479.002	1435.19
479.22	1389.19
479.439	1429.19
479.658	1573.19
479.876	1509.19
480.095	1341.19
480.313	1298.19
480.532	1283.19
480.751	1322.19
480.969	1283.19
481.188	1252.19
481.406	1219.19
481.624	1220.19
481.843	1230.19
482.061	1264.19
482.28	1289.19
482.498	1308.19
482.717	1297.19
482.935	1254.19
483.153	1322.19
483.372	1358.19
483.59	1316.19
483.808	1327.19
484.027	1349.19
484.245	1475.19
484.463	1722.19
484.681	1823.19
484.9	1457.19
485.118	1350.19
485.336	1303.19
485.554	1349.19
485.772	1392.19
485.99	1348.19
486.209	1339.19
486.427	1343.19
486.645	1399.19
486.863	1377.19
487.081	1433.19
487.299	1431.19
487.517	1410.19
487.735	1440.19
487.953	1476.19
488.171	1450.19
488.389	1434.19
488.607	1423.19
488.825	1554.19
489.043	1508.19
489.261	1343.19
489.479	1459.19
489.696	1476.19
489.914	1443.19
490.132	1419.19
490.35	1424.19
490.568	1508.19
490.786	1475.19
491.003	1419.19
491.221	1495.19
491.439	1563.19
491.657	1577.19
491.874	1591.19
492.092	1654.19
492.31	1654.19
492.527	1642.19
492.745	1578.19
492.963	1542.19
493.18	1572.19
493.398	1655.19
493.615	1675.19
493.833	1595.19
494.05	1524.19
