Data from WStandard_LampEnergy5.5LIBS07252019.E.O._I.C._HRD10591_16-06-29-919.txt Node
Date: Thu Jul 25 16:06:29 EDT 2019
User: cochatt
Spectrometer: HR+D1059
Trigger mode: 1
Integration Time (sec): 1.000000E-1
Scans to average: 1
Electric dark correction enabled: true
Nonlinearity correction enabled: false
Boxcar width: 0
XAxis mode: Wavelengths
Number of Pixels in Spectrum: 2048
>>>>>Begin Spectral Data<<<<<
223.165	-9.56
223.4	-9.56
223.635	-9.56
223.869	-8.56
224.104	-18.56
224.338	-22.56
224.573	-20.56
224.808	-17.56
225.042	-14.56
225.277	-12.56
225.511	2.44
225.746	7.44
225.98	15.44
226.215	0.44
226.449	15.44
226.683	27.44
226.918	20.44
227.152	35.44
227.387	42.44
227.621	33.44
227.856	56.44
228.09	46.44
228.324	33.44
228.559	54.44
228.793	143.44
229.027	339.44
229.262	333.44
229.496	350.44
229.73	370.44
229.964	422.44
230.199	443.44
230.433	446.44
230.667	462.44
230.901	497.44
231.136	467.44
231.37	429.44
231.604	447.44
231.838	454.44
232.072	460.44
232.306	420.44
232.541	447.44
232.775	502.44
233.009	581.44
233.243	554.44
233.477	521.44
233.711	515.44
233.945	515.44
234.179	515.44
234.413	562.44
234.647	605.44
234.881	563.44
235.115	536.44
235.349	520.44
235.583	535.44
235.817	537.44
236.051	500.44
236.285	500.44
236.519	559.44
236.753	617.44
236.987	659.44
237.221	626.44
237.455	679.44
237.689	676.44
237.922	643.44
238.156	611.44
238.39	647.44
238.624	672.44
238.858	718.44
239.091	754.44
239.325	744.44
239.559	858.44
239.793	897.44
240.027	960.44
240.26	946.44
240.494	739.44
240.728	669.44
240.961	664.44
241.195	682.44
241.429	750.44
241.662	796.44
241.896	727.44
242.13	717.44
242.363	820.44
242.597	837.44
242.83	824.44
243.064	834.44
243.298	863.44
243.531	864.44
243.765	867.44
243.998	864.44
244.232	754.44
244.465	727.44
244.699	726.44
244.932	839.44
245.166	948.44
245.399	914.44
245.633	844.44
245.866	798.44
246.099	886.44
246.333	893.44
246.566	894.44
246.8	947.44
247.033	1081.44
247.266	1003.44
247.5	1000.44
247.733	979.44
247.966	1036.44
248.2	1112.44
248.433	1103.44
248.666	1107.44
248.899	1193.44
249.133	1418.44
249.366	1621.44
249.599	1336.44
249.832	1174.44
250.066	1136.44
250.299	1204.44
250.532	1155.44
250.765	994.44
250.998	1073.44
251.231	1128.44
251.465	1162.44
251.698	1110.44
251.931	1097.44
252.164	1130.44
252.397	1137.44
252.63	1162.44
252.863	1034.44
253.096	1049.44
253.329	1063.44
253.562	1118.44
253.795	1193.44
254.028	1167.44
254.261	1091.44
254.494	1104.44
254.727	1036.44
254.96	1066.44
255.193	1164.44
255.426	1293.44
255.659	1488.44
255.892	1598.44
256.124	1269.44
256.357	1205.44
256.59	1296.44
256.823	1320.44
257.056	1303.44
257.289	1545.44
257.521	1778.44
257.754	1572.44
257.987	1447.44
258.22	1637.44
258.452	1584.44
258.685	1291.44
258.918	1268.44
259.151	1296.44
259.383	1226.44
259.616	1080.44
259.849	1183.44
260.081	1282.44
260.314	1427.44
260.547	1567.44
260.779	1596.44
261.012	1459.44
261.244	1308.44
261.477	1267.44
261.71	1291.44
261.942	1299.44
262.175	1303.44
262.407	1358.44
262.64	1259.44
262.872	1176.44
263.105	1152.44
263.337	1164.44
263.57	1233.44
263.802	1199.44
264.035	1129.44
264.267	1074.44
264.499	1044.44
264.732	1147.44
264.964	1182.44
265.197	1269.44
265.429	1284.44
265.661	1427.44
265.894	1566.44
266.126	1660.44
266.358	1490.44
266.591	1514.44
266.823	1695.44
267.055	1511.44
267.287	1488.44
267.52	1415.44
267.752	1442.44
267.984	1444.44
268.216	1478.44
268.448	1499.44
268.681	1493.44
268.913	1406.44
269.145	1312.44
269.377	1288.44
269.609	1428.44
269.841	1615.44
270.073	1840.44
270.306	2061.44
270.538	2221.44
270.77	1913.44
271.002	1567.44
271.234	1511.44
271.466	1524.44
271.698	1662.44
271.93	1993.44
272.162	2036.44
272.394	1852.44
272.626	1764.44
272.858	1556.44
273.09	1348.44
273.322	1323.44
273.553	1271.44
273.785	1288.44
274.017	1351.44
274.249	1506.44
274.481	1496.44
274.713	1368.44
274.945	1322.44
275.176	1342.44
275.408	1303.44
275.64	1314.44
275.872	1255.44
276.104	1350.44
276.335	1515.44
276.567	1720.44
276.799	1761.44
277.031	1593.44
277.262	1452.44
277.494	1514.44
277.726	1691.44
277.957	1683.44
278.189	1578.44
278.421	1446.44
278.652	1402.44
278.884	1361.44
279.115	1356.44
279.347	1388.44
279.579	1348.44
279.81	1372.44
280.042	1504.44
280.273	1634.44
280.505	1613.44
280.736	1635.44
280.968	1583.44
281.199	1412.44
281.431	1352.44
281.662	1348.44
281.894	1368.44
282.125	1364.44
282.356	1414.44
282.588	1489.44
282.819	1408.44
283.051	1513.44
283.282	1669.44
283.513	1611.44
283.745	1400.44
283.976	1312.44
284.207	1346.44
284.439	1396.44
284.67	1391.44
284.901	1418.44
285.132	1458.44
285.364	1446.44
285.595	1429.44
285.826	1415.44
286.057	1414.44
286.288	1414.44
286.52	1452.44
286.751	1558.44
286.982	1610.44
287.213	1518.44
287.444	1390.44
287.675	1346.44
287.906	1398.44
288.138	1506.44
288.369	1462.44
288.6	1407.44
288.831	1354.44
289.062	1370.44
289.293	1394.44
289.524	1400.44
289.755	1466.44
289.986	1438.44
290.217	1344.44
290.448	1392.44
290.679	1451.44
290.91	1425.44
291.141	1466.44
291.371	1503.44
291.602	1492.44
291.833	1471.44
292.064	1542.44
292.295	1493.44
292.526	1526.44
292.757	1633.44
292.987	1505.44
293.218	1433.44
293.449	1531.44
293.68	1704.44
293.91	1874.44
294.141	1757.44
294.372	1628.44
294.603	1665.44
294.833	1734.44
295.064	1665.44
295.295	1524.44
295.525	1515.44
295.756	1391.44
295.987	1327.44
296.217	1328.44
296.448	1378.44
296.679	1401.44
296.909	1426.44
297.14	1399.44
297.37	1396.44
297.601	1465.44
297.831	1580.44
298.062	1612.44
298.292	1469.44
298.523	1406.44
298.753	1417.44
298.984	1450.44
299.214	1479.44
299.445	1472.44
299.675	1510.44
299.905	1488.44
300.136	1463.44
300.366	1449.44
300.597	1394.44
300.827	1396.44
301.057	1434.44
301.288	1510.44
301.518	1548.44
301.748	1542.44
301.979	1597.44
302.209	1626.44
302.439	1711.44
302.669	1831.44
302.9	1689.44
303.13	1508.44
303.36	1574.44
303.59	1558.44
303.82	1528.44
304.051	1523.44
304.281	1532.44
304.511	1491.44
304.741	1625.44
304.971	1758.44
305.201	1927.44
305.431	1801.44
305.661	1500.44
305.891	1364.44
306.121	1355.44
306.352	1414.44
306.582	1462.44
306.812	1564.44
307.042	1673.44
307.272	1686.44
307.502	1736.44
307.731	1870.44
307.961	2030.44
308.191	1894.44
308.421	1612.44
308.651	1511.44
308.881	1485.44
309.111	1512.44
309.341	1449.44
309.571	1462.44
309.8	1485.44
310.03	1466.44
310.26	1454.44
310.49	1474.44
310.72	1466.44
310.949	1576.44
311.179	1563.44
311.409	1535.44
311.639	1520.44
311.868	1477.44
312.098	1504.44
312.328	1542.44
312.557	1503.44
312.787	1502.44
313.017	1562.44
313.246	1555.44
313.476	1543.44
313.706	1576.44
313.935	1584.44
314.165	1603.44
314.394	1633.44
314.624	1703.44
314.853	1819.44
315.083	1855.44
315.312	1918.44
315.542	1793.44
315.771	1600.44
316.001	1586.44
316.23	1687.44
316.46	1690.44
316.689	1636.44
316.919	1567.44
317.148	1523.44
317.377	1531.44
317.607	1643.44
317.836	1828.44
318.065	1954.44
318.295	1831.44
318.524	1711.44
318.753	1666.44
318.983	1672.44
319.212	1638.44
319.441	1612.44
319.67	1617.44
319.9	1630.44
320.129	1709.44
320.358	1754.44
320.587	1803.44
320.816	1769.44
321.046	1761.44
321.275	1608.44
321.504	1670.44
321.733	1799.44
321.962	1770.44
322.191	1644.44
322.42	1662.44
322.649	1593.44
322.878	1565.44
323.108	1621.44
323.337	1654.44
323.566	1658.44
323.795	1675.44
324.024	1688.44
324.253	1628.44
324.482	1679.44
324.71	1668.44
324.939	1550.44
325.168	1529.44
325.397	1623.44
325.626	1641.44
325.855	1668.44
326.084	1626.44
326.313	1622.44
326.542	1657.44
326.77	1666.44
326.999	1703.44
327.228	1630.44
327.457	1591.44
327.686	1558.44
327.914	1588.44
328.143	1640.44
328.372	1606.44
328.6	1603.44
328.829	1623.44
329.058	1598.44
329.287	1631.44
329.515	1617.44
329.744	1635.44
329.972	1768.44
330.201	1799.44
330.43	1763.44
330.658	1728.44
330.887	1748.44
331.115	1725.44
331.344	1749.44
331.572	1740.44
331.801	1688.44
332.03	1714.44
332.258	1744.44
332.486	1762.44
332.715	1758.44
332.943	1775.44
333.172	1698.44
333.4	1768.44
333.629	1777.44
333.857	1919.44
334.085	2045.44
334.314	2312.44
334.542	2548.44
334.771	2350.44
334.999	2102.44
335.227	1938.44
335.455	1854.44
335.684	1802.44
335.912	1872.44
336.14	1961.44
336.369	1890.44
336.597	1773.44
336.825	1749.44
337.053	1796.44
337.281	1880.44
337.51	1949.44
337.738	2058.44
337.966	2000.44
338.194	1789.44
338.422	1739.44
338.65	1765.44
338.878	1704.44
339.106	1651.44
339.334	1650.44
339.562	1620.44
339.79	1662.44
340.018	1737.44
340.246	1801.44
340.474	1848.44
340.702	1746.44
340.93	1748.44
341.158	1759.44
341.386	1702.44
341.614	1714.44
341.842	1686.44
342.07	1700.44
342.298	1725.44
342.526	1730.44
342.754	1714.44
342.981	1663.44
343.209	1713.44
343.437	1688.44
343.665	1698.44
343.893	1741.44
344.12	1838.44
344.348	1868.44
344.576	1758.44
344.804	1703.44
345.031	1728.44
345.259	1741.44
345.487	1675.44
345.714	1576.44
345.942	1562.44
346.17	1610.44
346.397	1620.44
346.625	1663.44
346.853	1528.44
347.08	1486.44
347.308	1566.44
347.535	1580.44
347.763	1610.44
347.99	1577.44
348.218	1539.44
348.445	1570.44
348.673	1588.44
348.9	1648.44
349.128	1632.44
349.355	1718.44
349.583	1691.44
349.81	1613.44
350.037	1501.44
350.265	1507.44
350.492	1513.44
350.72	1527.44
350.947	1588.44
351.174	1639.44
351.402	1523.44
351.629	1497.44
351.856	1451.44
352.083	1456.44
352.311	1496.44
352.538	1537.44
352.765	1592.44
352.992	1586.44
353.22	1598.44
353.447	1495.44
353.674	1544.44
353.901	1579.44
354.128	1528.44
354.355	1531.44
354.583	1595.44
354.81	1621.44
355.037	1665.44
355.264	1608.44
355.491	1582.44
355.718	1598.44
355.945	1583.44
356.172	1526.44
356.399	1519.44
356.626	1514.44
356.853	1578.44
357.08	1668.44
357.307	1824.44
357.534	1891.44
357.761	1654.44
357.988	1540.44
358.215	1473.44
358.441	1509.44
358.668	1497.44
358.895	1528.44
359.122	1563.44
359.349	1723.44
359.576	1755.44
359.802	1577.44
360.029	1531.44
360.256	1515.44
360.483	1488.44
360.709	1547.44
360.936	1611.44
361.163	1663.44
361.39	1763.44
361.616	1943.44
361.843	1872.44
362.07	1801.44
362.296	1569.44
362.523	1521.44
362.749	1533.44
362.976	1594.44
363.203	1599.44
363.429	1582.44
363.656	1496.44
363.882	1611.44
364.109	1721.44
364.335	1849.44
364.562	1747.44
364.788	1665.44
365.015	1577.44
365.241	1550.44
365.468	1572.44
365.694	1620.44
365.92	1675.44
366.147	1636.44
366.373	1547.44
366.599	1540.44
366.826	1526.44
367.052	1528.44
367.278	1545.44
367.505	1556.44
367.731	1594.44
367.957	1591.44
368.184	1614.44
368.41	1711.44
368.636	1687.44
368.862	1711.44
369.089	1763.44
369.315	1740.44
369.541	1657.44
369.767	1593.44
369.993	1536.44
370.219	1552.44
370.445	1615.44
370.672	1673.44
370.898	1738.44
371.124	1743.44
371.35	1658.44
371.576	1681.44
371.802	1751.44
372.028	1694.44
372.254	1637.44
372.48	1594.44
372.706	1606.44
372.932	1567.44
373.158	1610.44
373.384	1605.44
373.61	1663.44
373.835	1749.44
374.061	1686.44
374.287	1694.44
374.513	1621.44
374.739	1680.44
374.965	1670.44
375.191	1684.44
375.416	1712.44
375.642	1697.44
375.868	1772.44
376.094	1859.44
376.319	1735.44
376.545	1600.44
376.771	1664.44
376.997	1743.44
377.222	1759.44
377.448	1723.44
377.674	1734.44
377.899	1697.44
378.125	1779.44
378.35	1795.44
378.576	1663.44
378.802	1598.44
379.027	1598.44
379.253	1632.44
379.478	1611.44
379.704	1652.44
379.929	1602.44
380.155	1607.44
380.38	1657.44
380.606	1705.44
380.831	1690.44
381.057	1713.44
381.282	1739.44
381.507	1728.44
381.733	1787.44
381.958	1880.44
382.184	1724.44
382.409	1723.44
382.634	1735.44
382.86	1733.44
383.085	1716.44
383.31	1763.44
383.535	1887.44
383.761	1970.44
383.986	1901.44
384.211	1863.44
384.436	1848.44
384.662	1903.44
384.887	2011.44
385.112	1895.44
385.337	1926.44
385.562	1890.44
385.787	1878.44
386.013	1946.44
386.238	1939.44
386.463	1926.44
386.688	2022.44
386.913	2131.44
387.138	2083.44
387.363	1953.44
387.588	1919.44
387.813	1938.44
388.038	1984.44
388.263	2000.44
388.488	1927.44
388.713	1807.44
388.938	1810.44
389.163	1814.44
389.387	1842.44
389.612	1841.44
389.837	1882.44
390.062	1913.44
390.287	1920.44
390.512	1883.44
390.736	1861.44
390.961	1862.44
391.186	1813.44
391.411	1819.44
391.636	1907.44
391.86	1932.44
392.085	1907.44
392.31	1908.44
392.534	1928.44
392.759	1904.44
392.984	1914.44
393.208	1941.44
393.433	2041.44
393.658	2104.44
393.882	2086.44
394.107	1930.44
394.331	1862.44
394.556	1906.44
394.78	1906.44
395.005	1956.44
395.229	1993.44
395.454	2129.44
395.678	2152.44
395.903	2118.44
396.127	2002.44
396.352	2005.44
396.576	2046.44
396.801	2073.44
397.025	2102.44
397.249	2058.44
397.474	2036.44
397.698	2055.44
397.922	2090.44
398.147	2166.44
398.371	2204.44
398.595	2247.44
398.82	2154.44
399.044	2247.44
399.268	2311.44
399.492	2480.44
399.717	2574.44
399.941	2598.44
400.165	2561.44
400.389	2443.44
400.613	2398.44
400.837	2518.44
401.062	2937.44
401.286	2580.44
401.51	2354.44
401.734	2421.44
401.958	2412.44
402.182	2243.44
402.406	2200.44
402.63	2186.44
402.854	2156.44
403.078	2238.44
403.302	2238.44
403.526	2295.44
403.75	2260.44
403.974	2279.44
404.198	2258.44
404.422	2315.44
404.645	2399.44
404.869	2366.44
405.093	2228.44
405.317	2174.44
405.541	2224.44
405.765	2333.44
405.988	2267.44
406.212	2298.44
406.436	2402.44
406.66	2424.44
406.883	2406.44
407.107	2679.44
407.331	2919.44
407.555	3111.44
407.778	2878.44
408.002	2435.44
408.226	2403.44
408.449	2417.44
408.673	2345.44
408.896	2316.44
409.12	2387.44
409.344	2347.44
409.567	2267.44
409.791	2282.44
410.014	2376.44
410.238	2363.44
410.461	2515.44
410.685	2313.44
410.908	2208.44
411.132	2252.44
411.355	2278.44
411.578	2178.44
411.802	2225.44
412.025	2264.44
412.249	2228.44
412.472	2168.44
412.695	2143.44
412.919	2160.44
413.142	2122.44
413.365	2152.44
413.589	2174.44
413.812	2265.44
414.035	2371.44
414.258	2213.44
414.482	2145.44
414.705	2196.44
414.928	2173.44
415.151	2151.44
415.374	2166.44
415.597	2194.44
415.821	2202.44
416.044	2290.44
416.267	2283.44
416.49	2089.44
416.713	2074.44
416.936	2124.44
417.159	2162.44
417.382	2207.44
417.605	2076.44
417.828	2214.44
418.051	2202.44
418.274	2116.44
418.497	2078.44
418.72	2075.44
418.943	2065.44
419.166	2240.44
419.389	2376.44
419.611	2214.44
419.834	2150.44
420.057	2136.44
420.28	2096.44
420.503	2103.44
420.726	2111.44
420.948	2143.44
421.171	2067.44
421.394	2099.44
421.617	2159.44
421.839	2138.44
422.062	2106.44
422.285	2091.44
422.507	2067.44
422.73	2034.44
422.953	1988.44
423.175	1979.44
423.398	2081.44
423.621	2046.44
423.843	2077.44
424.066	2128.44
424.288	2162.44
424.511	2212.44
424.733	2138.44
424.956	2036.44
425.178	1977.44
425.401	2018.44
425.623	2006.44
425.846	2047.44
426.068	2091.44
426.291	2111.44
426.513	2110.44
426.735	2112.44
426.958	2163.44
427.18	2324.44
427.402	2192.44
427.625	2173.44
427.847	2227.44
428.069	2130.44
428.292	2061.44
428.514	1976.44
428.736	1974.44
428.958	1966.44
429.181	2047.44
429.403	2193.44
429.625	2720.44
429.847	2426.44
430.069	2025.44
430.292	2228.44
430.514	2342.44
430.736	2126.44
430.958	2255.44
431.18	2160.44
431.402	2017.44
431.624	1990.44
431.846	2044.44
432.068	1931.44
432.29	1954.44
432.512	1995.44
432.734	2055.44
432.956	2142.44
433.178	2165.44
433.4	2182.44
433.622	2194.44
433.844	2076.44
434.066	2023.44
434.287	2003.44
434.509	2060.44
434.731	2161.44
434.953	2341.44
435.175	2267.44
435.397	2151.44
435.618	2102.44
435.84	2137.44
436.062	2126.44
436.284	2128.44
436.505	2089.44
436.727	2156.44
436.949	2094.44
437.17	2043.44
437.392	2027.44
437.614	1974.44
437.835	1973.44
438.057	2109.44
438.278	2231.44
438.5	2055.44
438.721	2003.44
438.943	2017.44
439.165	2029.44
439.386	1951.44
439.608	2000.44
439.829	1970.44
440.05	2025.44
440.272	1976.44
440.493	1937.44
440.715	1996.44
440.936	2113.44
441.158	2371.44
441.379	2325.44
441.6	2263.44
441.822	2222.44
442.043	2200.44
442.264	2122.44
442.486	2051.44
442.707	2010.44
442.928	2022.44
443.149	2067.44
443.371	2200.44
443.592	2304.44
443.813	2223.44
444.034	2186.44
444.255	2200.44
444.476	2258.44
444.698	2306.44
444.919	2274.44
445.14	2356.44
445.361	2323.44
445.582	2414.44
445.803	2330.44
446.024	2235.44
446.245	2308.44
446.466	2228.44
446.687	2126.44
446.908	2087.44
447.129	2043.44
447.35	2059.44
447.571	2069.44
447.792	2007.44
448.013	1987.44
448.234	2033.44
448.455	2058.44
448.675	2058.44
448.896	1920.44
449.117	1904.44
449.338	1942.44
449.559	2041.44
449.779	2110.44
450	2357.44
450.221	2528.44
450.442	2448.44
450.662	2148.44
450.883	1927.44
451.104	1887.44
451.324	1914.44
451.545	1984.44
451.766	1982.44
451.986	1872.44
452.207	1891.44
452.428	1800.44
452.648	1792.44
452.869	1834.44
453.089	1952.44
453.31	1939.44
453.53	1993.44
453.751	1938.44
453.971	1848.44
454.192	1859.44
454.412	1999.44
454.633	1898.44
454.853	1862.44
455.073	1743.44
455.294	1762.44
455.514	1760.44
455.734	1771.44
455.955	1823.44
456.175	1766.44
456.395	1802.44
456.616	1867.44
456.836	1910.44
457.056	1830.44
457.276	1830.44
457.497	1776.44
457.717	1739.44
457.937	1762.44
458.157	1774.44
458.377	1800.44
458.598	1818.44
458.818	1782.44
459.038	1904.44
459.258	2050.44
459.478	2050.44
459.698	1974.44
459.918	2044.44
460.138	2117.44
460.358	2172.44
460.578	2153.44
460.798	2245.44
461.018	2386.44
461.238	2283.44
461.458	2158.44
461.678	2154.44
461.898	2139.44
462.118	2083.44
462.338	2180.44
462.558	2186.44
462.777	2173.44
462.997	2323.44
463.217	2447.44
463.437	2390.44
463.657	2236.44
463.876	2222.44
464.096	2180.44
464.316	2155.44
464.536	2239.44
464.755	2222.44
464.975	2275.44
465.195	2162.44
465.414	2270.44
465.634	2264.44
465.854	2116.44
466.073	2259.44
466.293	2222.44
466.512	1974.44
466.732	1977.44
466.951	2059.44
467.171	2059.44
467.391	1933.44
467.61	1914.44
467.829	1916.44
468.049	2063.44
468.268	2339.44
468.488	2126.44
468.707	2039.44
468.927	2031.44
469.146	1976.44
469.365	1967.44
469.585	1958.44
469.804	1946.44
470.023	1962.44
470.243	2017.44
470.462	1975.44
470.681	1931.44
470.901	2007.44
471.12	1970.44
471.339	1955.44
471.558	1919.44
471.777	1842.44
471.997	1931.44
472.216	1946.44
472.435	1859.44
472.654	1893.44
472.873	1994.44
473.092	2128.44
473.311	1984.44
473.53	1881.44
473.749	1893.44
473.968	1946.44
474.187	2082.44
474.406	2139.44
474.625	2033.44
474.844	1984.44
475.063	1982.44
475.282	2068.44
475.501	1975.44
475.72	1983.44
475.939	2102.44
476.158	2047.44
476.377	2007.44
476.596	2000.44
476.814	2062.44
477.033	2031.44
477.252	2151.44
477.471	2182.44
477.69	2114.44
477.908	2132.44
478.127	2184.44
478.346	2363.44
478.564	2426.44
478.783	2352.44
479.002	2390.44
479.22	2355.44
479.439	2451.44
479.658	2739.44
479.876	2756.44
480.095	2359.44
480.313	2326.44
480.532	2222.44
480.751	2206.44
480.969	2302.44
481.188	2215.44
481.406	2228.44
481.624	2163.44
481.843	2199.44
482.061	2180.44
482.28	2286.44
482.498	2278.44
482.717	2272.44
482.935	2199.44
483.153	2219.44
483.372	2224.44
483.59	2171.44
483.808	2167.44
484.027	2274.44
484.245	2395.44
484.463	2704.44
484.681	3141.44
484.9	2471.44
485.118	2321.44
485.336	2210.44
485.554	2304.44
485.772	2358.44
485.99	2425.44
486.209	2406.44
486.427	2381.44
486.645	2322.44
486.863	2342.44
487.081	2394.44
487.299	2432.44
487.517	2375.44
