Data from WStandard_LampEnergy10_LIBS07252019.E.O._I.C._HRD10591_15-54-24-928.txt Node
Date: Thu Jul 25 15:54:24 EDT 2019
User: cochatt
Spectrometer: HR+D1059
Trigger mode: 1
Integration Time (sec): 1.000000E-1
Scans to average: 1
Electric dark correction enabled: true
Nonlinearity correction enabled: false
Boxcar width: 0
XAxis mode: Wavelengths
Number of Pixels in Spectrum: 2048
>>>>>Begin Spectral Data<<<<<
223.165	-14.62
223.4	-14.62
223.635	-14.62
223.869	3.38
224.104	-24.62
224.338	-10.62
224.573	-15.62
224.808	-8.62
225.042	-15.62
225.277	-5.62
225.511	-12.62
225.746	3.38
225.98	2.38
226.215	23.38
226.449	13.38
226.683	11.38
226.918	29.38
227.152	21.38
227.387	34.38
227.621	33.38
227.856	42.38
228.09	36.38
228.324	38.38
228.559	49.38
228.793	89.38
229.027	119.38
229.262	155.38
229.496	127.38
229.73	176.38
229.964	178.38
230.199	181.38
230.433	151.38
230.667	185.38
230.901	200.38
231.136	187.38
231.37	168.38
231.604	175.38
231.838	174.38
232.072	180.38
232.306	155.38
232.541	188.38
232.775	223.38
233.009	220.38
233.243	222.38
233.477	196.38
233.711	205.38
233.945	188.38
234.179	199.38
234.413	200.38
234.647	213.38
234.881	211.38
235.115	213.38
235.349	196.38
235.583	200.38
235.817	197.38
236.051	209.38
236.285	190.38
236.519	202.38
236.753	212.38
236.987	215.38
237.221	233.38
237.455	256.38
237.689	229.38
237.922	228.38
238.156	214.38
238.39	216.38
238.624	218.38
238.858	260.38
239.091	256.38
239.325	256.38
239.559	290.38
239.793	281.38
240.027	303.38
240.26	275.38
240.494	216.38
240.728	229.38
240.961	238.38
241.195	243.38
241.429	256.38
241.662	251.38
241.896	249.38
242.13	230.38
242.363	269.38
242.597	282.38
242.83	274.38
243.064	261.38
243.298	295.38
243.531	301.38
243.765	276.38
243.998	283.38
244.232	248.38
244.465	241.38
244.699	255.38
244.932	279.38
245.166	294.38
245.399	275.38
245.633	279.38
245.866	268.38
246.099	280.38
246.333	285.38
246.566	303.38
246.8	320.38
247.033	353.38
247.266	328.38
247.5	315.38
247.733	321.38
247.966	333.38
248.2	367.38
248.433	355.38
248.666	371.38
248.899	384.38
249.133	431.38
249.366	460.38
249.599	391.38
249.832	383.38
250.066	364.38
250.299	366.38
250.532	357.38
250.765	335.38
250.998	344.38
251.231	355.38
251.465	351.38
251.698	334.38
251.931	322.38
252.164	359.38
252.397	369.38
252.63	364.38
252.863	343.38
253.096	317.38
253.329	342.38
253.562	360.38
253.795	380.38
254.028	353.38
254.261	337.38
254.494	329.38
254.727	324.38
254.96	341.38
255.193	381.38
255.426	405.38
255.659	479.38
255.892	425.38
256.124	389.38
256.357	395.38
256.59	399.38
256.823	400.38
257.056	428.38
257.289	471.38
257.521	499.38
257.754	472.38
257.987	453.38
258.22	493.38
258.452	448.38
258.685	412.38
258.918	392.38
259.151	388.38
259.383	376.38
259.616	351.38
259.849	373.38
260.081	407.38
260.314	434.38
260.547	455.38
260.779	461.38
261.012	424.38
261.244	408.38
261.477	412.38
261.71	422.38
261.942	418.38
262.175	406.38
262.407	407.38
262.64	389.38
262.872	361.38
263.105	362.38
263.337	360.38
263.57	397.38
263.802	373.38
264.035	355.38
264.267	338.38
264.499	348.38
264.732	389.38
264.964	383.38
265.197	369.38
265.429	423.38
265.661	460.38
265.894	484.38
266.126	505.38
266.358	455.38
266.591	472.38
266.823	493.38
267.055	457.38
267.287	460.38
267.52	448.38
267.752	445.38
267.984	461.38
268.216	471.38
268.448	450.38
268.681	474.38
268.913	443.38
269.145	429.38
269.377	420.38
269.609	446.38
269.841	517.38
270.073	587.38
270.306	625.38
270.538	633.38
270.77	525.38
271.002	501.38
271.234	460.38
271.466	476.38
271.698	509.38
271.93	589.38
272.162	604.38
272.394	534.38
272.626	524.38
272.858	450.38
273.09	399.38
273.322	406.38
273.553	400.38
273.785	410.38
274.017	420.38
274.249	449.38
274.481	437.38
274.713	428.38
274.945	431.38
275.176	401.38
275.408	400.38
275.64	409.38
275.872	395.38
276.104	427.38
276.335	518.38
276.567	528.38
276.799	530.38
277.031	490.38
277.262	467.38
277.494	499.38
277.726	529.38
277.957	494.38
278.189	452.38
278.421	439.38
278.652	437.38
278.884	427.38
279.115	437.38
279.347	459.38
279.579	437.38
279.81	440.38
280.042	476.38
280.273	512.38
280.505	505.38
280.736	491.38
280.968	487.38
281.199	433.38
281.431	407.38
281.662	435.38
281.894	435.38
282.125	443.38
282.356	435.38
282.588	440.38
282.819	461.38
283.051	507.38
283.282	510.38
283.513	477.38
283.745	438.38
283.976	417.38
284.207	414.38
284.439	447.38
284.67	460.38
284.901	460.38
285.132	453.38
285.364	454.38
285.595	451.38
285.826	435.38
286.057	449.38
286.288	446.38
286.52	473.38
286.751	490.38
286.982	509.38
287.213	453.38
287.444	444.38
287.675	442.38
287.906	491.38
288.138	486.38
288.369	470.38
288.6	451.38
288.831	431.38
289.062	445.38
289.293	449.38
289.524	432.38
289.755	457.38
289.986	445.38
290.217	443.38
290.448	442.38
290.679	454.38
290.91	476.38
291.141	461.38
291.371	494.38
291.602	483.38
291.833	493.38
292.064	476.38
292.295	481.38
292.526	503.38
292.757	515.38
292.987	512.38
293.218	480.38
293.449	549.38
293.68	590.38
293.91	600.38
294.141	563.38
294.372	556.38
294.603	573.38
294.833	567.38
295.064	528.38
295.295	471.38
295.525	487.38
295.756	464.38
295.987	442.38
296.217	435.38
296.448	468.38
296.679	458.38
296.909	467.38
297.14	440.38
297.37	482.38
297.601	516.38
297.831	537.38
298.062	525.38
298.292	481.38
298.523	463.38
298.753	483.38
298.984	472.38
299.214	489.38
299.445	490.38
299.675	519.38
299.905	482.38
300.136	480.38
300.366	467.38
300.597	453.38
300.827	480.38
301.057	498.38
301.288	494.38
301.518	501.38
301.748	538.38
301.979	576.38
302.209	543.38
302.439	564.38
302.669	602.38
302.9	555.38
303.13	525.38
303.36	523.38
303.59	508.38
303.82	522.38
304.051	522.38
304.281	531.38
304.511	539.38
304.741	576.38
304.971	616.38
305.201	629.38
305.431	579.38
305.661	500.38
305.891	454.38
306.121	469.38
306.352	478.38
306.582	517.38
306.812	559.38
307.042	573.38
307.272	591.38
307.502	583.38
307.731	632.38
307.961	627.38
308.191	573.38
308.421	536.38
308.651	513.38
308.881	500.38
309.111	479.38
309.341	485.38
309.571	502.38
309.8	497.38
310.03	515.38
310.26	501.38
310.49	494.38
310.72	512.38
310.949	539.38
311.179	522.38
311.409	509.38
311.639	503.38
311.868	503.38
312.098	536.38
312.328	488.38
312.557	504.38
312.787	498.38
313.017	531.38
313.246	525.38
313.476	531.38
313.706	531.38
313.935	533.38
314.165	537.38
314.394	571.38
314.624	585.38
314.853	629.38
315.083	624.38
315.312	625.38
315.542	595.38
315.771	544.38
316.001	561.38
316.23	585.38
316.46	556.38
316.689	566.38
316.919	533.38
317.148	522.38
317.377	555.38
317.607	611.38
317.836	643.38
318.065	651.38
318.295	619.38
318.524	582.38
318.753	580.38
318.983	568.38
319.212	543.38
319.441	556.38
319.67	555.38
319.9	574.38
320.129	611.38
320.358	605.38
320.587	649.38
320.816	635.38
321.046	599.38
321.275	576.38
321.504	578.38
321.733	615.38
321.962	594.38
322.191	569.38
322.42	551.38
322.649	565.38
322.878	556.38
323.108	580.38
323.337	592.38
323.566	579.38
323.795	557.38
324.024	576.38
324.253	543.38
324.482	556.38
324.71	534.38
324.939	557.38
325.168	558.38
325.397	579.38
325.626	587.38
325.855	584.38
326.084	591.38
326.313	579.38
326.542	576.38
326.77	587.38
326.999	572.38
327.228	551.38
327.457	519.38
327.686	534.38
327.914	557.38
328.143	567.38
328.372	581.38
328.6	551.38
328.829	574.38
329.058	564.38
329.287	550.38
329.515	546.38
329.744	592.38
329.972	613.38
330.201	630.38
330.43	585.38
330.658	576.38
330.887	587.38
331.115	602.38
331.344	604.38
331.572	600.38
331.801	603.38
332.03	592.38
332.258	606.38
332.486	593.38
332.715	605.38
332.943	608.38
333.172	594.38
333.4	613.38
333.629	643.38
333.857	673.38
334.085	737.38
334.314	843.38
334.542	844.38
334.771	773.38
334.999	705.38
335.227	638.38
335.455	649.38
335.684	639.38
335.912	668.38
336.14	656.38
336.369	617.38
336.597	621.38
336.825	603.38
337.053	621.38
337.281	684.38
337.51	690.38
337.738	702.38
337.966	641.38
338.194	608.38
338.422	612.38
338.65	597.38
338.878	586.38
339.106	573.38
339.334	589.38
339.562	562.38
339.79	566.38
340.018	632.38
340.246	639.38
340.474	643.38
340.702	635.38
340.93	599.38
341.158	610.38
341.386	600.38
341.614	600.38
341.842	611.38
342.07	611.38
342.298	593.38
342.526	593.38
342.754	611.38
342.981	596.38
343.209	591.38
343.437	604.38
343.665	599.38
343.893	608.38
344.12	647.38
344.348	627.38
344.576	614.38
344.804	603.38
345.031	597.38
345.259	593.38
345.487	575.38
345.714	551.38
345.942	553.38
346.17	562.38
346.397	565.38
346.625	576.38
346.853	559.38
347.08	556.38
347.308	564.38
347.535	562.38
347.763	570.38
347.99	551.38
348.218	556.38
348.445	554.38
348.673	565.38
348.9	598.38
349.128	602.38
349.355	603.38
349.583	589.38
349.81	546.38
350.037	529.38
350.265	521.38
350.492	540.38
350.72	552.38
350.947	565.38
351.174	582.38
351.402	535.38
351.629	515.38
351.856	531.38
352.083	547.38
352.311	536.38
352.538	563.38
352.765	577.38
352.992	576.38
353.22	561.38
353.447	548.38
353.674	563.38
353.901	575.38
354.128	549.38
354.355	578.38
354.583	582.38
354.81	593.38
355.037	610.38
355.264	587.38
355.491	581.38
355.718	563.38
355.945	562.38
356.172	557.38
356.399	528.38
356.626	555.38
356.853	596.38
357.08	629.38
357.307	668.38
357.534	654.38
357.761	577.38
357.988	537.38
358.215	569.38
358.441	559.38
358.668	546.38
358.895	571.38
359.122	618.38
359.349	664.38
359.576	616.38
359.802	570.38
360.029	556.38
360.256	540.38
360.483	568.38
360.709	593.38
360.936	620.38
361.163	634.38
361.39	703.38
361.616	707.38
361.843	714.38
362.07	618.38
362.296	580.38
362.523	563.38
362.749	569.38
362.976	596.38
363.203	606.38
363.429	561.38
363.656	559.38
363.882	596.38
364.109	655.38
364.335	687.38
364.562	618.38
364.788	597.38
365.015	584.38
365.241	583.38
365.468	597.38
365.694	606.38
365.92	616.38
366.147	590.38
366.373	578.38
366.599	553.38
366.826	580.38
367.052	565.38
367.278	573.38
367.505	606.38
367.731	605.38
367.957	601.38
368.184	615.38
368.41	675.38
368.636	678.38
368.862	696.38
369.089	687.38
369.315	639.38
369.541	617.38
369.767	587.38
369.993	601.38
370.219	614.38
370.445	611.38
370.672	644.38
370.898	678.38
371.124	655.38
371.35	629.38
371.576	657.38
371.802	657.38
372.028	638.38
372.254	599.38
372.48	585.38
372.706	610.38
372.932	600.38
373.158	599.38
373.384	618.38
373.61	650.38
373.835	667.38
374.061	636.38
374.287	608.38
374.513	617.38
374.739	631.38
374.965	652.38
375.191	663.38
375.416	655.38
375.642	680.38
375.868	697.38
376.094	704.38
376.319	661.38
376.545	665.38
376.771	661.38
376.997	709.38
377.222	690.38
377.448	677.38
377.674	673.38
377.899	679.38
378.125	705.38
378.35	700.38
378.576	631.38
378.802	609.38
379.027	641.38
379.253	652.38
379.478	645.38
379.704	665.38
379.929	661.38
380.155	669.38
380.38	656.38
380.606	638.38
380.831	651.38
381.057	705.38
381.282	691.38
381.507	708.38
381.733	739.38
381.958	754.38
382.184	697.38
382.409	678.38
382.634	698.38
382.86	687.38
383.085	711.38
383.31	742.38
383.535	793.38
383.761	801.38
383.986	743.38
384.211	733.38
384.436	715.38
384.662	780.38
384.887	755.38
385.112	745.38
385.337	731.38
385.562	737.38
385.787	728.38
386.013	767.38
386.238	748.38
386.463	755.38
386.688	815.38
386.913	884.38
387.138	840.38
387.363	767.38
387.588	780.38
387.813	784.38
388.038	778.38
388.263	826.38
388.488	765.38
388.713	704.38
388.938	751.38
389.163	725.38
389.387	760.38
389.612	749.38
389.837	757.38
390.062	748.38
390.287	757.38
390.512	781.38
390.736	728.38
390.961	713.38
391.186	743.38
391.411	740.38
391.636	743.38
391.86	770.38
392.085	769.38
392.31	739.38
392.534	748.38
392.759	787.38
392.984	771.38
393.208	782.38
393.433	811.38
393.658	833.38
393.882	842.38
394.107	755.38
394.331	789.38
394.556	781.38
394.78	787.38
395.005	797.38
395.229	838.38
395.454	879.38
395.678	890.38
395.903	844.38
396.127	830.38
396.352	847.38
396.576	846.38
396.801	872.38
397.025	849.38
397.249	835.38
397.474	849.38
397.698	811.38
397.922	868.38
398.147	901.38
398.371	935.38
398.595	905.38
398.82	883.38
399.044	871.38
399.268	927.38
399.492	963.38
399.717	983.38
399.941	987.38
400.165	963.38
400.389	1011.38
400.613	983.38
400.837	1099.38
401.062	1216.38
401.286	1021.38
401.51	954.38
401.734	1024.38
401.958	956.38
402.182	927.38
402.406	871.38
402.63	866.38
402.854	899.38
403.078	891.38
403.302	888.38
403.526	915.38
403.75	921.38
403.974	963.38
404.198	951.38
404.422	996.38
404.645	1017.38
404.869	981.38
405.093	906.38
405.317	894.38
405.541	917.38
405.765	948.38
405.988	944.38
406.212	957.38
406.436	972.38
406.66	999.38
406.883	1049.38
407.107	1111.38
407.331	1248.38
407.555	1286.38
407.778	1110.38
408.002	999.38
408.226	947.38
408.449	958.38
408.673	948.38
408.896	963.38
409.12	986.38
409.344	952.38
409.567	941.38
409.791	984.38
410.014	974.38
410.238	1012.38
410.461	1051.38
410.685	991.38
410.908	924.38
411.132	959.38
411.355	927.38
411.578	941.38
411.802	972.38
412.025	948.38
412.249	937.38
412.472	933.38
412.695	917.38
412.919	889.38
413.142	923.38
413.365	931.38
413.589	959.38
413.812	998.38
414.035	986.38
414.258	930.38
414.482	899.38
414.705	922.38
414.928	945.38
415.151	943.38
415.374	943.38
415.597	946.38
415.821	927.38
416.044	947.38
416.267	934.38
416.49	935.38
416.713	913.38
416.936	928.38
417.159	972.38
417.382	959.38
417.605	911.38
417.828	954.38
418.051	969.38
418.274	948.38
418.497	930.38
418.72	929.38
418.943	937.38
419.166	935.38
419.389	995.38
419.611	954.38
419.834	936.38
420.057	930.38
420.28	968.38
420.503	947.38
420.726	965.38
420.948	978.38
421.171	905.38
421.394	947.38
421.617	987.38
421.839	993.38
422.062	972.38
422.285	921.38
422.507	930.38
422.73	891.38
422.953	885.38
423.175	901.38
423.398	944.38
423.621	940.38
423.843	933.38
424.066	981.38
424.288	1021.38
424.511	1045.38
424.733	999.38
424.956	914.38
425.178	945.38
425.401	945.38
425.623	961.38
425.846	918.38
426.068	981.38
426.291	974.38
426.513	969.38
426.735	981.38
426.958	1012.38
427.18	1081.38
427.402	1004.38
427.625	1016.38
427.847	1003.38
428.069	926.38
428.292	913.38
428.514	892.38
428.736	924.38
428.958	912.38
429.181	952.38
429.403	1066.38
429.625	1231.38
429.847	1053.38
430.069	925.38
430.292	1066.38
430.514	1032.38
430.736	987.38
430.958	999.38
431.18	955.38
431.402	888.38
431.624	865.38
431.846	809.38
432.068	745.38
432.29	785.38
432.512	803.38
432.734	902.38
432.956	941.38
433.178	951.38
433.4	939.38
433.622	964.38
433.844	895.38
434.066	868.38
434.287	807.38
434.509	785.38
434.731	822.38
434.953	900.38
435.175	946.38
435.397	908.38
435.618	898.38
435.84	837.38
436.062	846.38
436.284	899.38
436.505	942.38
436.727	970.38
436.949	925.38
437.17	899.38
437.392	889.38
437.614	834.38
437.835	801.38
438.057	827.38
438.278	853.38
438.5	858.38
438.721	893.38
438.943	938.38
439.165	923.38
439.386	933.38
439.608	953.38
439.829	971.38
440.05	945.38
440.272	970.38
440.493	980.38
440.715	973.38
440.936	1024.38
441.158	1078.38
441.379	1031.38
441.6	1018.38
441.822	1033.38
442.043	1009.38
442.264	987.38
442.486	978.38
442.707	989.38
442.928	965.38
443.149	972.38
443.371	1001.38
443.592	1044.38
443.813	1039.38
444.034	1017.38
444.255	1008.38
444.476	1034.38
444.698	1044.38
444.919	1035.38
445.14	1168.38
445.361	1114.38
445.582	1097.38
445.803	1052.38
446.024	1052.38
446.245	1075.38
446.466	1040.38
446.687	1041.38
446.908	1029.38
447.129	1031.38
447.35	998.38
447.571	1008.38
447.792	966.38
448.013	949.38
448.234	954.38
448.455	1025.38
448.675	1000.38
448.896	889.38
449.117	917.38
449.338	924.38
449.559	954.38
449.779	964.38
450	1035.38
450.221	1029.38
450.442	1040.38
450.662	949.38
450.883	899.38
451.104	892.38
451.324	891.38
451.545	872.38
451.766	888.38
451.986	845.38
452.207	835.38
452.428	785.38
452.648	825.38
452.869	810.38
453.089	817.38
453.31	807.38
453.53	789.38
453.751	752.38
453.971	706.38
454.192	727.38
454.412	794.38
454.633	782.38
454.853	794.38
455.073	781.38
455.294	768.38
455.514	780.38
455.734	789.38
455.955	782.38
456.175	756.38
456.395	766.38
456.616	738.38
456.836	744.38
457.056	744.38
457.276	720.38
457.497	703.38
457.717	693.38
457.937	730.38
458.157	722.38
458.377	698.38
458.598	682.38
458.818	698.38
459.038	710.38
459.258	706.38
459.478	693.38
459.698	725.38
459.918	754.38
460.138	815.38
460.358	801.38
460.578	820.38
460.798	885.38
461.018	913.38
461.238	876.38
461.458	866.38
461.678	844.38
461.898	838.38
462.118	817.38
462.338	825.38
462.558	859.38
462.777	857.38
462.997	845.38
463.217	915.38
463.437	885.38
463.657	874.38
463.876	845.38
464.096	829.38
464.316	853.38
464.536	858.38
464.755	884.38
464.975	871.38
465.195	883.38
465.414	896.38
465.634	876.38
465.854	909.38
466.073	967.38
466.293	914.38
466.512	887.38
466.732	877.38
466.951	893.38
467.171	890.38
467.391	875.38
467.61	897.38
467.829	913.38
468.049	987.38
468.268	1014.38
468.488	959.38
468.707	935.38
468.927	907.38
469.146	899.38
469.365	921.38
469.585	918.38
469.804	931.38
470.023	936.38
470.243	968.38
470.462	942.38
470.681	939.38
470.901	917.38
471.12	923.38
471.339	943.38
471.558	932.38
471.777	908.38
471.997	894.38
472.216	857.38
472.435	803.38
472.654	747.38
472.873	779.38
473.092	830.38
473.311	841.38
473.53	819.38
473.749	808.38
473.968	861.38
474.187	844.38
474.406	851.38
474.625	870.38
474.844	857.38
475.063	856.38
475.282	857.38
475.501	830.38
475.72	829.38
475.939	936.38
476.158	899.38
476.377	901.38
476.596	846.38
476.814	842.38
477.033	818.38
477.252	875.38
477.471	874.38
477.69	937.38
477.908	937.38
478.127	1000.38
478.346	1023.38
478.564	1007.38
478.783	975.38
479.002	1018.38
479.22	1012.38
479.439	1048.38
479.658	1046.38
479.876	976.38
480.095	937.38
480.313	891.38
480.532	894.38
480.751	888.38
480.969	839.38
481.188	807.38
481.406	785.38
481.624	765.38
481.843	815.38
482.061	831.38
482.28	884.38
482.498	891.38
482.717	875.38
482.935	883.38
483.153	979.38
483.372	999.38
483.59	1000.38
483.808	964.38
484.027	967.38
484.245	1015.38
484.463	1221.38
484.681	1277.38
484.9	1050.38
485.118	967.38
485.336	925.38
485.554	927.38
485.772	897.38
485.99	874.38
486.209	895.38
486.427	923.38
486.645	953.38
486.863	1013.38
487.081	1007.38
487.299	1029.38
487.517	1024.38
487.735	1132.38
487.953	1218.38
488.171	1213.38
488.389	1142.38
488.607	1128.38
488.825	1138.38
489.043	1059.38
489.261	991.38
489.479	1038.38
489.696	1067.38
489.914	1057.38
490.132	1051.38
490.35	1107.38
490.568	1148.38
490.786	1199.38
491.003	1206.38
491.221	1287.38
491.439	1300.38
491.657	1327.38
491.874	1401.38
492.092	1463.38
492.31	1514.38
492.527	1443.38
492.745	1395.38
492.963	1354.38
493.18	1324.38
493.398	1359.38
493.615	1348.38
493.833	1287.38
494.05	1239.38
494.268	1233.38
494.485	1233.38
494.703	1265.38
494.92	1211.38
495.138	1233.38
495.355	1279.38
495.573	1240.38
495.79	1305.38
496.008	1300.38
496.225	1253.38
496.442	1248.38
496.66	1230.38
496.877	1242.38
497.094	1232.38
497.312	1219.38
497.529	1232.38
497.746	1206.38
497.963	1254.38
498.181	1292.38
498.398	1248.38
498.615	1226.38
498.832	1169.38
499.049	1159.38
499.267	1210.38
499.484	1283.38
499.701	1344.38
499.918	1394.38
500.135	1462.38
500.352	1587.38
