Data from WStandard_LampEnergy8_LIBS07252019.E.O._I.C._HRD10591_15-58-38-929.txt Node
Date: Thu Jul 25 15:58:38 EDT 2019
User: cochatt
Spectrometer: HR+D1059
Trigger mode: 1
Integration Time (sec): 1.000000E-1
Scans to average: 1
Electric dark correction enabled: true
Nonlinearity correction enabled: false
Boxcar width: 0
XAxis mode: Wavelengths
Number of Pixels in Spectrum: 2048
>>>>>Begin Spectral Data<<<<<
223.165	-25.31
223.4	-25.31
223.635	-25.31
223.869	-27.31
224.104	-20.31
224.338	-5.31
224.573	-13.31
224.808	-17.31
225.042	-13.31
225.277	7.69
225.511	4.69
225.746	3.69
225.98	4.69
226.215	14.69
226.449	17.69
226.683	13.69
226.918	29.69
227.152	25.69
227.387	33.69
227.621	36.69
227.856	50.69
228.09	34.69
228.324	40.69
228.559	46.69
228.793	96.69
229.027	184.69
229.262	211.69
229.496	207.69
229.73	236.69
229.964	233.69
230.199	249.69
230.433	261.69
230.667	277.69
230.901	281.69
231.136	262.69
231.37	253.69
231.604	250.69
231.838	261.69
232.072	247.69
232.306	257.69
232.541	279.69
232.775	298.69
233.009	321.69
233.243	309.69
233.477	292.69
233.711	281.69
233.945	315.69
234.179	317.69
234.413	309.69
234.647	345.69
234.881	318.69
235.115	284.69
235.349	305.69
235.583	317.69
235.817	317.69
236.051	270.69
236.285	306.69
236.519	315.69
236.753	351.69
236.987	360.69
237.221	349.69
237.455	372.69
237.689	376.69
237.922	342.69
238.156	331.69
238.39	352.69
238.624	354.69
238.858	382.69
239.091	400.69
239.325	427.69
239.559	484.69
239.793	482.69
240.027	496.69
240.26	502.69
240.494	404.69
240.728	360.69
240.961	363.69
241.195	374.69
241.429	396.69
241.662	401.69
241.896	388.69
242.13	399.69
242.363	437.69
242.597	473.69
242.83	469.69
243.064	451.69
243.298	469.69
243.531	450.69
243.765	454.69
243.998	455.69
244.232	406.69
244.465	381.69
244.699	415.69
244.932	471.69
245.166	522.69
245.399	493.69
245.633	442.69
245.866	458.69
246.099	473.69
246.333	476.69
246.566	508.69
246.8	537.69
247.033	569.69
247.266	529.69
247.5	513.69
247.733	528.69
247.966	559.69
248.2	599.69
248.433	591.69
248.666	617.69
248.899	647.69
249.133	752.69
249.366	817.69
249.599	662.69
249.832	609.69
250.066	600.69
250.299	603.69
250.532	576.69
250.765	545.69
250.998	571.69
251.231	581.69
251.465	627.69
251.698	557.69
251.931	576.69
252.164	609.69
252.397	617.69
252.63	613.69
252.863	523.69
253.096	564.69
253.329	585.69
253.562	578.69
253.795	633.69
254.028	606.69
254.261	550.69
254.494	579.69
254.727	557.69
254.96	583.69
255.193	659.69
255.426	710.69
255.659	778.69
255.892	792.69
256.124	673.69
256.357	635.69
256.59	685.69
256.823	714.69
257.056	703.69
257.289	822.69
257.521	903.69
257.754	811.69
257.987	734.69
258.22	850.69
258.452	777.69
258.685	660.69
258.918	682.69
259.151	656.69
259.383	657.69
259.616	570.69
259.849	599.69
260.081	709.69
260.314	744.69
260.547	814.69
260.779	790.69
261.012	749.69
261.244	701.69
261.477	677.69
261.71	706.69
261.942	704.69
262.175	681.69
262.407	691.69
262.64	658.69
262.872	621.69
263.105	616.69
263.337	629.69
263.57	630.69
263.802	621.69
264.035	588.69
264.267	569.69
264.499	577.69
264.732	609.69
264.964	665.69
265.197	678.69
265.429	709.69
265.661	783.69
265.894	866.69
266.126	837.69
266.358	806.69
266.591	796.69
266.823	837.69
267.055	769.69
267.287	789.69
267.52	755.69
267.752	779.69
267.984	750.69
268.216	804.69
268.448	807.69
268.681	798.69
268.913	733.69
269.145	691.69
269.377	701.69
269.609	754.69
269.841	879.69
270.073	1017.69
270.306	1066.69
270.538	1146.69
270.77	955.69
271.002	846.69
271.234	847.69
271.466	814.69
271.698	900.69
271.93	1061.69
272.162	1022.69
272.394	915.69
272.626	928.69
272.858	792.69
273.09	689.69
273.322	689.69
273.553	662.69
273.785	695.69
274.017	717.69
274.249	755.69
274.481	745.69
274.713	726.69
274.945	697.69
275.176	700.69
275.408	687.69
275.64	685.69
275.872	668.69
276.104	731.69
276.335	834.69
276.567	926.69
276.799	895.69
277.031	844.69
277.262	807.69
277.494	843.69
277.726	904.69
277.957	889.69
278.189	793.69
278.421	765.69
278.652	736.69
278.884	745.69
279.115	728.69
279.347	746.69
279.579	721.69
279.81	753.69
280.042	805.69
280.273	885.69
280.505	877.69
280.736	887.69
280.968	838.69
281.199	750.69
281.431	721.69
281.662	719.69
281.894	711.69
282.125	735.69
282.356	738.69
282.588	777.69
282.819	785.69
283.051	858.69
283.282	887.69
283.513	873.69
283.745	740.69
283.976	713.69
284.207	726.69
284.439	729.69
284.67	733.69
284.901	774.69
285.132	788.69
285.364	797.69
285.595	753.69
285.826	769.69
286.057	767.69
286.288	774.69
286.52	756.69
286.751	847.69
286.982	855.69
287.213	799.69
287.444	726.69
287.675	743.69
287.906	772.69
288.138	820.69
288.369	792.69
288.6	773.69
288.831	731.69
289.062	769.69
289.293	775.69
289.524	781.69
289.755	777.69
289.986	811.69
290.217	747.69
290.448	749.69
290.679	781.69
290.91	770.69
291.141	809.69
291.371	825.69
291.602	841.69
291.833	804.69
292.064	817.69
292.295	833.69
292.526	848.69
292.757	865.69
292.987	843.69
293.218	822.69
293.449	893.69
293.68	978.69
293.91	1019.69
294.141	948.69
294.372	902.69
294.603	952.69
294.833	957.69
295.064	897.69
295.295	837.69
295.525	821.69
295.756	752.69
295.987	737.69
296.217	745.69
296.448	764.69
296.679	777.69
296.909	772.69
297.14	777.69
297.37	780.69
297.601	862.69
297.831	906.69
298.062	884.69
298.292	811.69
298.523	787.69
298.753	801.69
298.984	806.69
299.214	805.69
299.445	799.69
299.675	819.69
299.905	854.69
300.136	809.69
300.366	791.69
300.597	769.69
300.827	802.69
301.057	829.69
301.288	867.69
301.518	838.69
301.748	855.69
301.979	896.69
302.209	928.69
302.439	994.69
302.669	990.69
302.9	928.69
303.13	860.69
303.36	851.69
303.59	847.69
303.82	852.69
304.051	858.69
304.281	843.69
304.511	885.69
304.741	939.69
304.971	1015.69
305.201	1077.69
305.431	934.69
305.661	817.69
305.891	773.69
306.121	738.69
306.352	772.69
306.582	839.69
306.812	897.69
307.042	947.69
307.272	946.69
307.502	950.69
307.731	1060.69
307.961	1087.69
308.191	999.69
308.421	885.69
308.651	844.69
308.881	817.69
309.111	827.69
309.341	833.69
309.571	820.69
309.8	821.69
310.03	812.69
310.26	823.69
310.49	814.69
310.72	840.69
310.949	899.69
311.179	886.69
311.409	850.69
311.639	853.69
311.868	829.69
312.098	843.69
312.328	854.69
312.557	841.69
312.787	831.69
313.017	891.69
313.246	872.69
313.476	894.69
313.706	905.69
313.935	886.69
314.165	892.69
314.394	933.69
314.624	994.69
314.853	1021.69
315.083	1057.69
315.312	1061.69
315.542	985.69
315.771	909.69
316.001	946.69
316.23	950.69
316.46	953.69
316.689	912.69
316.919	870.69
317.148	876.69
317.377	885.69
317.607	945.69
317.836	1047.69
318.065	1079.69
318.295	1031.69
318.524	986.69
318.753	985.69
318.983	959.69
319.212	934.69
319.441	929.69
319.67	929.69
319.9	945.69
320.129	996.69
320.358	1025.69
320.587	1041.69
320.816	1029.69
321.046	997.69
321.275	955.69
321.504	973.69
321.733	1043.69
321.962	982.69
322.191	927.69
322.42	903.69
322.649	925.69
322.878	927.69
323.108	925.69
323.337	974.69
323.566	974.69
323.795	958.69
324.024	933.69
324.253	951.69
324.482	936.69
324.71	926.69
324.939	879.69
325.168	909.69
325.397	925.69
325.626	971.69
325.855	957.69
326.084	975.69
326.313	935.69
326.542	973.69
326.77	998.69
326.999	971.69
327.228	921.69
327.457	893.69
327.686	878.69
327.914	932.69
328.143	981.69
328.372	951.69
328.6	918.69
328.829	925.69
329.058	910.69
329.287	912.69
329.515	914.69
329.744	959.69
329.972	1019.69
330.201	1025.69
330.43	1033.69
330.658	989.69
330.887	976.69
331.115	1018.69
331.344	1015.69
331.572	971.69
331.801	975.69
332.03	986.69
332.258	1025.69
332.486	998.69
332.715	1004.69
332.943	1003.69
333.172	992.69
333.4	997.69
333.629	1011.69
333.857	1105.69
334.085	1226.69
334.314	1382.69
334.542	1435.69
334.771	1289.69
334.999	1155.69
335.227	1085.69
335.455	1087.69
335.684	1050.69
335.912	1095.69
336.14	1080.69
336.369	1061.69
336.597	1005.69
336.825	996.69
337.053	1029.69
337.281	1090.69
337.51	1150.69
337.738	1159.69
337.966	1094.69
338.194	1025.69
338.422	1001.69
338.65	981.69
338.878	983.69
339.106	959.69
339.334	923.69
339.562	963.69
339.79	1017.69
340.018	1013.69
340.246	1058.69
340.474	1043.69
340.702	1027.69
340.93	1026.69
341.158	1015.69
341.386	992.69
341.614	977.69
341.842	998.69
342.07	997.69
342.298	1016.69
342.526	1011.69
342.754	999.69
342.981	1013.69
343.209	985.69
343.437	985.69
343.665	1007.69
343.893	1019.69
344.12	1027.69
344.348	1057.69
344.576	1018.69
344.804	951.69
345.031	974.69
345.259	994.69
345.487	978.69
345.714	931.69
345.942	934.69
346.17	948.69
346.397	953.69
346.625	949.69
346.853	883.69
347.08	863.69
347.308	887.69
347.535	917.69
347.763	923.69
347.99	913.69
348.218	926.69
348.445	935.69
348.673	930.69
348.9	961.69
349.128	981.69
349.355	993.69
349.583	982.69
349.81	917.69
350.037	873.69
350.265	870.69
350.492	885.69
350.72	909.69
350.947	977.69
351.174	959.69
351.402	897.69
351.629	884.69
351.856	872.69
352.083	861.69
352.311	895.69
352.538	879.69
352.765	951.69
352.992	967.69
353.22	934.69
353.447	861.69
353.674	923.69
353.901	915.69
354.128	922.69
354.355	924.69
354.583	955.69
354.81	977.69
355.037	932.69
355.264	968.69
355.491	905.69
355.718	925.69
355.945	929.69
356.172	924.69
356.399	878.69
356.626	902.69
356.853	946.69
357.08	1067.69
357.307	1121.69
357.534	1068.69
357.761	978.69
357.988	894.69
358.215	879.69
358.441	890.69
358.668	875.69
358.895	921.69
359.122	983.69
359.349	1047.69
359.576	1028.69
359.802	949.69
360.029	895.69
360.256	898.69
360.483	922.69
360.709	929.69
360.936	956.69
361.163	1005.69
361.39	1090.69
361.616	1147.69
361.843	1137.69
362.07	1045.69
362.296	961.69
362.523	889.69
362.749	922.69
362.976	945.69
363.203	929.69
363.429	915.69
363.656	916.69
363.882	971.69
364.109	1055.69
364.335	1108.69
364.562	1029.69
364.788	980.69
365.015	937.69
365.241	908.69
365.468	942.69
365.694	1000.69
365.92	1000.69
366.147	929.69
366.373	902.69
366.599	889.69
366.826	906.69
367.052	916.69
367.278	940.69
367.505	938.69
367.731	956.69
367.957	951.69
368.184	989.69
368.41	1053.69
368.636	1073.69
368.862	1051.69
369.089	1013.69
369.315	1002.69
369.541	967.69
369.767	952.69
369.993	910.69
370.219	934.69
370.445	961.69
370.672	1039.69
370.898	1071.69
371.124	1011.69
371.35	1021.69
371.576	1040.69
371.802	1018.69
372.028	985.69
372.254	953.69
372.48	954.69
372.706	935.69
372.932	938.69
373.158	974.69
373.384	979.69
373.61	1016.69
373.835	1026.69
374.061	979.69
374.287	989.69
374.513	982.69
374.739	1011.69
374.965	1000.69
375.191	1017.69
375.416	1016.69
375.642	1014.69
375.868	1092.69
376.094	1127.69
376.319	1079.69
376.545	1044.69
376.771	1036.69
376.997	1103.69
377.222	1070.69
377.448	1032.69
377.674	1003.69
377.899	1029.69
378.125	1127.69
378.35	1096.69
378.576	996.69
378.802	971.69
379.027	968.69
379.253	990.69
379.478	986.69
379.704	986.69
379.929	1008.69
380.155	997.69
380.38	1005.69
380.606	1009.69
380.831	1013.69
381.057	1053.69
381.282	1076.69
381.507	1056.69
381.733	1124.69
381.958	1179.69
382.184	1071.69
382.409	1027.69
382.634	1060.69
382.86	1039.69
383.085	1065.69
383.31	1106.69
383.535	1202.69
383.761	1239.69
383.986	1141.69
384.211	1133.69
384.436	1114.69
384.662	1143.69
384.887	1169.69
385.112	1137.69
385.337	1157.69
385.562	1143.69
385.787	1155.69
386.013	1155.69
386.238	1187.69
386.463	1179.69
386.688	1278.69
386.913	1309.69
387.138	1246.69
387.363	1185.69
387.588	1159.69
387.813	1179.69
388.038	1179.69
388.263	1253.69
388.488	1186.69
388.713	1081.69
388.938	1088.69
389.163	1096.69
389.387	1117.69
389.612	1109.69
389.837	1127.69
390.062	1155.69
390.287	1115.69
390.512	1120.69
390.736	1072.69
390.961	1087.69
391.186	1082.69
391.411	1128.69
391.636	1086.69
391.86	1130.69
392.085	1123.69
392.31	1122.69
392.534	1122.69
392.759	1129.69
392.984	1139.69
393.208	1174.69
393.433	1189.69
393.658	1242.69
393.882	1206.69
394.107	1129.69
394.331	1163.69
394.556	1111.69
394.78	1137.69
395.005	1177.69
395.229	1242.69
395.454	1301.69
395.678	1289.69
395.903	1239.69
396.127	1188.69
396.352	1191.69
396.576	1230.69
396.801	1247.69
397.025	1262.69
397.249	1254.69
397.474	1251.69
397.698	1226.69
397.922	1271.69
398.147	1339.69
398.371	1363.69
398.595	1369.69
398.82	1314.69
399.044	1306.69
399.268	1361.69
399.492	1450.69
399.717	1506.69
399.941	1506.69
400.165	1485.69
400.389	1439.69
400.613	1450.69
400.837	1672.69
401.062	1810.69
401.286	1567.69
401.51	1425.69
401.734	1493.69
401.958	1442.69
402.182	1330.69
402.406	1268.69
402.63	1269.69
402.854	1319.69
403.078	1330.69
403.302	1342.69
403.526	1347.69
403.75	1360.69
403.974	1396.69
404.198	1379.69
404.422	1411.69
404.645	1482.69
404.869	1428.69
405.093	1329.69
405.317	1288.69
405.541	1355.69
405.765	1391.69
405.988	1345.69
406.212	1382.69
406.436	1370.69
406.66	1470.69
406.883	1520.69
407.107	1670.69
407.331	1801.69
407.555	1922.69
407.778	1683.69
408.002	1439.69
408.226	1407.69
408.449	1397.69
408.673	1334.69
408.896	1361.69
409.12	1401.69
409.344	1375.69
409.567	1375.69
409.791	1361.69
410.014	1418.69
410.238	1471.69
410.461	1523.69
410.685	1403.69
410.908	1313.69
411.132	1391.69
411.355	1325.69
411.578	1293.69
411.802	1325.69
412.025	1373.69
412.249	1333.69
412.472	1283.69
412.695	1313.69
412.919	1296.69
413.142	1292.69
413.365	1278.69
413.589	1414.69
413.812	1427.69
414.035	1473.69
414.258	1338.69
414.482	1303.69
414.705	1339.69
414.928	1295.69
415.151	1286.69
415.374	1349.69
415.597	1343.69
415.821	1318.69
416.044	1337.69
416.267	1336.69
416.49	1246.69
416.713	1254.69
416.936	1333.69
417.159	1399.69
417.382	1370.69
417.605	1297.69
417.828	1343.69
418.051	1305.69
418.274	1291.69
418.497	1280.69
418.72	1293.69
418.943	1269.69
419.166	1319.69
419.389	1364.69
419.611	1292.69
419.834	1319.69
420.057	1314.69
420.28	1275.69
420.503	1313.69
420.726	1312.69
420.948	1307.69
421.171	1246.69
421.394	1337.69
421.617	1331.69
421.839	1322.69
422.062	1355.69
422.285	1288.69
422.507	1268.69
422.73	1282.69
422.953	1229.69
423.175	1241.69
423.398	1240.69
423.621	1287.69
423.843	1283.69
424.066	1348.69
424.288	1399.69
424.511	1482.69
424.733	1357.69
424.956	1240.69
425.178	1251.69
425.401	1248.69
425.623	1277.69
425.846	1270.69
426.068	1329.69
426.291	1349.69
426.513	1301.69
426.735	1330.69
426.958	1378.69
427.18	1490.69
427.402	1367.69
427.625	1449.69
427.847	1370.69
428.069	1293.69
428.292	1265.69
428.514	1202.69
428.736	1213.69
428.958	1256.69
429.181	1277.69
429.403	1479.69
429.625	1776.69
429.847	1489.69
430.069	1304.69
430.292	1454.69
430.514	1468.69
430.736	1349.69
430.958	1362.69
431.18	1293.69
431.402	1233.69
431.624	1188.69
431.846	1173.69
432.068	1145.69
432.29	1131.69
432.512	1191.69
432.734	1217.69
432.956	1249.69
433.178	1306.69
433.4	1301.69
433.622	1322.69
433.844	1259.69
434.066	1183.69
434.287	1171.69
434.509	1220.69
434.731	1275.69
434.953	1369.69
435.175	1318.69
435.397	1303.69
435.618	1292.69
435.84	1246.69
436.062	1222.69
436.284	1274.69
436.505	1279.69
436.727	1327.69
436.949	1251.69
437.17	1217.69
437.392	1231.69
437.614	1205.69
437.835	1185.69
438.057	1228.69
438.278	1264.69
438.5	1244.69
438.721	1236.69
438.943	1229.69
439.165	1215.69
439.386	1242.69
439.608	1242.69
439.829	1256.69
440.05	1280.69
440.272	1233.69
440.493	1297.69
440.715	1279.69
440.936	1365.69
441.158	1427.69
441.379	1403.69
441.6	1365.69
441.822	1384.69
442.043	1356.69
442.264	1334.69
442.486	1262.69
442.707	1258.69
442.928	1273.69
443.149	1281.69
443.371	1323.69
443.592	1377.69
443.813	1397.69
444.034	1349.69
444.255	1344.69
444.476	1370.69
444.698	1442.69
444.919	1376.69
445.14	1490.69
445.361	1419.69
445.582	1469.69
445.803	1397.69
446.024	1396.69
446.245	1389.69
446.466	1378.69
446.687	1337.69
446.908	1369.69
447.129	1325.69
447.35	1305.69
447.571	1303.69
447.792	1277.69
448.013	1275.69
448.234	1310.69
448.455	1342.69
448.675	1334.69
448.896	1215.69
449.117	1176.69
449.338	1219.69
449.559	1281.69
449.779	1350.69
450	1412.69
450.221	1483.69
450.442	1403.69
450.662	1291.69
450.883	1175.69
451.104	1171.69
451.324	1159.69
451.545	1237.69
451.766	1200.69
451.986	1137.69
452.207	1151.69
452.428	1119.69
452.648	1087.69
452.869	1127.69
453.089	1147.69
453.31	1140.69
453.53	1159.69
453.751	1123.69
453.971	1065.69
454.192	1094.69
454.412	1168.69
454.633	1137.69
454.853	1106.69
455.073	1037.69
455.294	1045.69
455.514	1071.69
455.734	1087.69
455.955	1079.69
456.175	1070.69
456.395	1073.69
456.616	1094.69
456.836	1098.69
457.056	1087.69
457.276	1055.69
457.497	1052.69
457.717	1013.69
457.937	1051.69
458.157	1081.69
458.377	1053.69
458.598	1023.69
458.818	1086.69
459.038	1109.69
459.258	1149.69
459.478	1147.69
459.698	1114.69
459.918	1173.69
460.138	1213.69
460.358	1227.69
460.578	1244.69
460.798	1267.69
461.018	1350.69
461.238	1322.69
461.458	1241.69
461.678	1245.69
461.898	1236.69
462.118	1178.69
462.338	1273.69
462.558	1265.69
462.777	1250.69
462.997	1303.69
463.217	1362.69
463.437	1354.69
463.657	1300.69
463.876	1241.69
464.096	1254.69
464.316	1283.69
464.536	1304.69
464.755	1320.69
464.975	1311.69
465.195	1261.69
465.414	1302.69
465.634	1288.69
465.854	1272.69
466.073	1413.69
466.293	1369.69
466.512	1215.69
466.732	1200.69
466.951	1277.69
467.171	1240.69
467.391	1210.69
467.61	1183.69
467.829	1237.69
468.049	1315.69
468.268	1462.69
468.488	1353.69
468.707	1250.69
468.927	1223.69
469.146	1220.69
469.365	1221.69
469.585	1216.69
469.804	1251.69
470.023	1248.69
470.243	1241.69
470.462	1221.69
470.681	1195.69
470.901	1224.69
471.12	1233.69
471.339	1261.69
471.558	1198.69
471.777	1184.69
471.997	1214.69
472.216	1174.69
472.435	1129.69
472.654	1143.69
472.873	1191.69
473.092	1246.69
473.311	1203.69
473.53	1144.69
473.749	1128.69
473.968	1198.69
474.187	1235.69
474.406	1238.69
474.625	1213.69
474.844	1226.69
475.063	1249.69
475.282	1233.69
475.501	1205.69
475.72	1248.69
475.939	1310.69
476.158	1256.69
476.377	1201.69
476.596	1223.69
476.814	1199.69
477.033	1225.69
477.252	1277.69
477.471	1258.69
477.69	1261.69
477.908	1309.69
478.127	1335.69
478.346	1429.69
478.564	1427.69
478.783	1408.69
479.002	1489.69
479.22	1447.69
479.439	1448.69
479.658	1567.69
479.876	1494.69
480.095	1385.69
480.313	1363.69
480.532	1306.69
480.751	1293.69
480.969	1313.69
481.188	1263.69
481.406	1231.69
481.624	1245.69
481.843	1245.69
482.061	1286.69
482.28	1335.69
482.498	1343.69
482.717	1304.69
482.935	1291.69
483.153	1363.69
483.372	1370.69
483.59	1375.69
483.808	1363.69
484.027	1359.69
484.245	1429.69
484.463	1748.69
484.681	1921.69
484.9	1479.69
485.118	1359.69
485.336	1324.69
485.554	1370.69
485.772	1369.69
485.99	1348.69
486.209	1405.69
486.427	1365.69
486.645	1405.69
486.863	1395.69
487.081	1435.69
487.299	1462.69
487.517	1447.69
487.735	1473.69
487.953	1491.69
488.171	1531.69
488.389	1485.69
488.607	1466.69
488.825	1621.69
489.043	1535.69
489.261	1432.69
489.479	1475.69
489.696	1487.69
489.914	1457.69
490.132	1425.69
490.35	1473.69
490.568	1502.69
490.786	1514.69
491.003	1497.69
491.221	1561.69
491.439	1562.69
491.657	1595.69
491.874	1644.69
492.092	1711.69
492.31	1712.69
492.527	1687.69
492.745	1612.69
492.963	1561.69
493.18	1601.69
493.398	1713.69
493.615	1685.69
