Data from WStandard_LampEnergy8_LIBS07252019.E.O._I.C._HRD10591_15-57-57-929.txt Node
Date: Thu Jul 25 15:57:57 EDT 2019
User: cochatt
Spectrometer: HR+D1059
Trigger mode: 1
Integration Time (sec): 1.000000E-1
Scans to average: 1
Electric dark correction enabled: true
Nonlinearity correction enabled: false
Boxcar width: 0
XAxis mode: Wavelengths
Number of Pixels in Spectrum: 2048
>>>>>Begin Spectral Data<<<<<
223.165	-25.94
223.4	-25.94
223.635	-25.94
223.869	-26.94
224.104	-19.94
224.338	-22.94
224.573	3.06
224.808	-9.94
225.042	-4.94
225.277	-3.94
225.511	9.06
225.746	11.06
225.98	-3.94
226.215	20.06
226.449	6.06
226.683	14.06
226.918	24.06
227.152	31.06
227.387	44.06
227.621	51.06
227.856	49.06
228.09	45.06
228.324	43.06
228.559	48.06
228.793	90.06
229.027	200.06
229.262	214.06
229.496	218.06
229.73	218.06
229.964	228.06
230.199	267.06
230.433	287.06
230.667	283.06
230.901	285.06
231.136	278.06
231.37	278.06
231.604	265.06
231.838	247.06
232.072	257.06
232.306	254.06
232.541	253.06
232.775	298.06
233.009	334.06
233.243	332.06
233.477	307.06
233.711	317.06
233.945	301.06
234.179	305.06
234.413	316.06
234.647	336.06
234.881	330.06
235.115	296.06
235.349	299.06
235.583	320.06
235.817	310.06
236.051	293.06
236.285	305.06
236.519	308.06
236.753	337.06
236.987	380.06
237.221	358.06
237.455	392.06
237.689	380.06
237.922	354.06
238.156	344.06
238.39	348.06
238.624	351.06
238.858	381.06
239.091	424.06
239.325	417.06
239.559	484.06
239.793	501.06
240.027	527.06
240.26	505.06
240.494	404.06
240.728	383.06
240.961	388.06
241.195	402.06
241.429	416.06
241.662	432.06
241.896	394.06
242.13	401.06
242.363	452.06
242.597	480.06
242.83	439.06
243.064	439.06
243.298	485.06
243.531	465.06
243.765	472.06
243.998	477.06
244.232	430.06
244.465	410.06
244.699	440.06
244.932	488.06
245.166	514.06
245.399	505.06
245.633	462.06
245.866	450.06
246.099	456.06
246.333	495.06
246.566	508.06
246.8	524.06
247.033	590.06
247.266	516.06
247.5	540.06
247.733	527.06
247.966	564.06
248.2	627.06
248.433	589.06
248.666	630.06
248.899	674.06
249.133	749.06
249.366	827.06
249.599	680.06
249.832	618.06
250.066	636.06
250.299	621.06
250.532	594.06
250.765	570.06
250.998	577.06
251.231	606.06
251.465	635.06
251.698	593.06
251.931	592.06
252.164	607.06
252.397	635.06
252.63	605.06
252.863	566.06
253.096	567.06
253.329	596.06
253.562	609.06
253.795	632.06
254.028	608.06
254.261	602.06
254.494	587.06
254.727	570.06
254.96	603.06
255.193	628.06
255.426	712.06
255.659	791.06
255.892	832.06
256.124	700.06
256.357	668.06
256.59	715.06
256.823	712.06
257.056	721.06
257.289	841.06
257.521	913.06
257.754	816.06
257.987	780.06
258.22	825.06
258.452	826.06
258.685	699.06
258.918	684.06
259.151	680.06
259.383	648.06
259.616	594.06
259.849	635.06
260.081	682.06
260.314	733.06
260.547	827.06
260.779	839.06
261.012	756.06
261.244	703.06
261.477	679.06
261.71	712.06
261.942	706.06
262.175	682.06
262.407	694.06
262.64	690.06
262.872	648.06
263.105	634.06
263.337	637.06
263.57	637.06
263.802	652.06
264.035	611.06
264.267	590.06
264.499	580.06
264.732	634.06
264.964	679.06
265.197	696.06
265.429	719.06
265.661	817.06
265.894	861.06
266.126	877.06
266.358	802.06
266.591	832.06
266.823	884.06
267.055	802.06
267.287	792.06
267.52	770.06
267.752	762.06
267.984	785.06
268.216	829.06
268.448	829.06
268.681	805.06
268.913	738.06
269.145	715.06
269.377	704.06
269.609	784.06
269.841	907.06
270.073	1024.06
270.306	1095.06
270.538	1119.06
270.77	971.06
271.002	821.06
271.234	835.06
271.466	845.06
271.698	950.06
271.93	1086.06
272.162	1053.06
272.394	972.06
272.626	909.06
272.858	799.06
273.09	711.06
273.322	725.06
273.553	677.06
273.785	679.06
274.017	733.06
274.249	774.06
274.481	768.06
274.713	724.06
274.945	688.06
275.176	712.06
275.408	693.06
275.64	690.06
275.872	695.06
276.104	746.06
276.335	872.06
276.567	927.06
276.799	919.06
277.031	831.06
277.262	838.06
277.494	860.06
277.726	918.06
277.957	854.06
278.189	819.06
278.421	776.06
278.652	743.06
278.884	736.06
279.115	754.06
279.347	766.06
279.579	760.06
279.81	769.06
280.042	815.06
280.273	862.06
280.505	902.06
280.736	875.06
280.968	827.06
281.199	755.06
281.431	717.06
281.662	714.06
281.894	745.06
282.125	772.06
282.356	776.06
282.588	787.06
282.819	796.06
283.051	846.06
283.282	916.06
283.513	874.06
283.745	788.06
283.976	726.06
284.207	739.06
284.439	756.06
284.67	761.06
284.901	784.06
285.132	792.06
285.364	776.06
285.595	780.06
285.826	786.06
286.057	774.06
286.288	776.06
286.52	811.06
286.751	855.06
286.982	887.06
287.213	827.06
287.444	753.06
287.675	756.06
287.906	785.06
288.138	856.06
288.369	823.06
288.6	759.06
288.831	719.06
289.062	772.06
289.293	776.06
289.524	791.06
289.755	817.06
289.986	774.06
290.217	746.06
290.448	761.06
290.679	782.06
290.91	825.06
291.141	828.06
291.371	845.06
291.602	830.06
291.833	826.06
292.064	868.06
292.295	833.06
292.526	846.06
292.757	884.06
292.987	824.06
293.218	804.06
293.449	878.06
293.68	1003.06
293.91	1044.06
294.141	955.06
294.372	926.06
294.603	978.06
294.833	998.06
295.064	905.06
295.295	837.06
295.525	824.06
295.756	762.06
295.987	744.06
296.217	777.06
296.448	763.06
296.679	776.06
296.909	768.06
297.14	788.06
297.37	824.06
297.601	872.06
297.831	893.06
298.062	875.06
298.292	818.06
298.523	786.06
298.753	799.06
298.984	807.06
299.214	809.06
299.445	857.06
299.675	858.06
299.905	853.06
300.136	831.06
300.366	822.06
300.597	767.06
300.827	793.06
301.057	846.06
301.288	859.06
301.518	869.06
301.748	893.06
301.979	912.06
302.209	946.06
302.439	1005.06
302.669	1038.06
302.9	946.06
303.13	862.06
303.36	889.06
303.59	920.06
303.82	856.06
304.051	847.06
304.281	902.06
304.511	880.06
304.741	944.06
304.971	1067.06
305.201	1092.06
305.431	974.06
305.661	818.06
305.891	780.06
306.121	803.06
306.352	824.06
306.582	864.06
306.812	914.06
307.042	965.06
307.272	984.06
307.502	1034.06
307.731	1098.06
307.961	1115.06
308.191	993.06
308.421	902.06
308.651	857.06
308.881	849.06
309.111	852.06
309.341	811.06
309.571	830.06
309.8	846.06
310.03	829.06
310.26	834.06
310.49	828.06
310.72	867.06
310.949	887.06
311.179	898.06
311.409	867.06
311.639	863.06
311.868	855.06
312.098	906.06
312.328	874.06
312.557	828.06
312.787	883.06
313.017	880.06
313.246	870.06
313.476	882.06
313.706	896.06
313.935	900.06
314.165	902.06
314.394	970.06
314.624	997.06
314.853	1057.06
315.083	1078.06
315.312	1102.06
315.542	1017.06
315.771	944.06
316.001	923.06
316.23	992.06
316.46	985.06
316.689	943.06
316.919	900.06
317.148	883.06
317.377	908.06
317.607	985.06
317.836	1106.06
318.065	1081.06
318.295	1047.06
318.524	1013.06
318.753	962.06
318.983	937.06
319.212	941.06
319.441	905.06
319.67	956.06
319.9	970.06
320.129	1005.06
320.358	1057.06
320.587	1052.06
320.816	1028.06
321.046	1032.06
321.275	977.06
321.504	1005.06
321.733	1072.06
321.962	1020.06
322.191	929.06
322.42	922.06
322.649	921.06
322.878	941.06
323.108	945.06
323.337	981.06
323.566	984.06
323.795	992.06
324.024	968.06
324.253	949.06
324.482	944.06
324.71	900.06
324.939	878.06
325.168	899.06
325.397	956.06
325.626	967.06
325.855	980.06
326.084	920.06
326.313	931.06
326.542	947.06
326.77	1008.06
326.999	1005.06
327.228	929.06
327.457	910.06
327.686	898.06
327.914	944.06
328.143	953.06
328.372	944.06
328.6	958.06
328.829	920.06
329.058	919.06
329.287	931.06
329.515	1003.06
329.744	986.06
329.972	1039.06
330.201	1065.06
330.43	1033.06
330.658	997.06
330.887	1000.06
331.115	1032.06
331.344	1015.06
331.572	1008.06
331.801	989.06
332.03	1014.06
332.258	1034.06
332.486	1020.06
332.715	1039.06
332.943	1033.06
333.172	1037.06
333.4	1048.06
333.629	1032.06
333.857	1094.06
334.085	1241.06
334.314	1352.06
334.542	1426.06
334.771	1312.06
334.999	1186.06
335.227	1110.06
335.455	1065.06
335.684	1098.06
335.912	1105.06
336.14	1119.06
336.369	1059.06
336.597	1028.06
336.825	1008.06
337.053	1057.06
337.281	1112.06
337.51	1177.06
337.738	1195.06
337.966	1136.06
338.194	1026.06
338.422	1010.06
338.65	1001.06
338.878	986.06
339.106	977.06
339.334	945.06
339.562	961.06
339.79	986.06
340.018	1037.06
340.246	1051.06
340.474	1046.06
340.702	1045.06
340.93	1049.06
341.158	1040.06
341.386	1021.06
341.614	1024.06
341.842	994.06
342.07	981.06
342.298	1021.06
342.526	997.06
342.754	1006.06
342.981	1003.06
343.209	1004.06
343.437	959.06
343.665	982.06
343.893	1046.06
344.12	1068.06
344.348	1057.06
344.576	1023.06
344.804	999.06
345.031	987.06
345.259	997.06
345.487	964.06
345.714	948.06
345.942	908.06
346.17	953.06
346.397	966.06
346.625	974.06
346.853	906.06
347.08	922.06
347.308	928.06
347.535	925.06
347.763	954.06
347.99	938.06
348.218	923.06
348.445	908.06
348.673	947.06
348.9	967.06
349.128	1022.06
349.355	1033.06
349.583	987.06
349.81	957.06
350.037	889.06
350.265	875.06
350.492	878.06
350.72	884.06
350.947	964.06
351.174	986.06
351.402	922.06
351.629	869.06
351.856	865.06
352.083	867.06
352.311	903.06
352.538	936.06
352.765	931.06
352.992	933.06
353.22	910.06
353.447	920.06
353.674	935.06
353.901	911.06
354.128	895.06
354.355	928.06
354.583	937.06
354.81	977.06
355.037	994.06
355.264	955.06
355.491	963.06
355.718	922.06
355.945	922.06
356.172	925.06
356.399	917.06
356.626	895.06
356.853	960.06
357.08	1022.06
357.307	1123.06
357.534	1082.06
357.761	978.06
357.988	888.06
358.215	888.06
358.441	889.06
358.668	900.06
358.895	930.06
359.122	1002.06
359.349	1051.06
359.576	1000.06
359.802	950.06
360.029	916.06
360.256	918.06
360.483	934.06
360.709	954.06
360.936	993.06
361.163	1020.06
361.39	1116.06
361.616	1159.06
361.843	1160.06
362.07	1034.06
362.296	941.06
362.523	939.06
362.749	961.06
362.976	955.06
363.203	968.06
363.429	924.06
363.656	948.06
363.882	1001.06
364.109	1097.06
364.335	1123.06
364.562	1036.06
364.788	1012.06
365.015	927.06
365.241	906.06
365.468	961.06
365.694	985.06
365.92	1025.06
366.147	978.06
366.373	929.06
366.599	892.06
366.826	946.06
367.052	931.06
367.278	914.06
367.505	944.06
367.731	976.06
367.957	995.06
368.184	1041.06
368.41	1094.06
368.636	1065.06
368.862	1079.06
369.089	1072.06
369.315	1004.06
369.541	989.06
369.767	965.06
369.993	924.06
370.219	939.06
370.445	984.06
370.672	1032.06
370.898	1108.06
371.124	1074.06
371.35	1004.06
371.576	1078.06
371.802	1082.06
372.028	1015.06
372.254	982.06
372.48	938.06
372.706	976.06
372.932	974.06
373.158	958.06
373.384	972.06
373.61	1009.06
373.835	1059.06
374.061	1001.06
374.287	993.06
374.513	1001.06
374.739	1028.06
374.965	1015.06
375.191	988.06
375.416	1018.06
375.642	1039.06
375.868	1133.06
376.094	1115.06
376.319	1074.06
376.545	1003.06
376.771	1052.06
376.997	1110.06
377.222	1081.06
377.448	1079.06
377.674	1045.06
377.899	1054.06
378.125	1121.06
378.35	1114.06
378.576	1004.06
378.802	949.06
379.027	992.06
379.253	993.06
379.478	997.06
379.704	1000.06
379.929	995.06
380.155	1003.06
380.38	1010.06
380.606	1010.06
380.831	1031.06
381.057	1085.06
381.282	1086.06
381.507	1041.06
381.733	1116.06
381.958	1170.06
382.184	1066.06
382.409	1044.06
382.634	1070.06
382.86	1066.06
383.085	1065.06
383.31	1102.06
383.535	1188.06
383.761	1238.06
383.986	1191.06
384.211	1132.06
384.436	1142.06
384.662	1188.06
384.887	1238.06
385.112	1169.06
385.337	1183.06
385.562	1147.06
385.787	1133.06
386.013	1174.06
386.238	1186.06
386.463	1178.06
386.688	1254.06
386.913	1336.06
387.138	1285.06
387.363	1215.06
387.588	1158.06
387.813	1191.06
388.038	1173.06
388.263	1269.06
388.488	1162.06
388.713	1105.06
388.938	1098.06
389.163	1114.06
389.387	1138.06
389.612	1130.06
389.837	1157.06
390.062	1146.06
390.287	1174.06
390.512	1147.06
390.736	1108.06
390.961	1110.06
391.186	1124.06
391.411	1119.06
391.636	1124.06
391.86	1132.06
392.085	1157.06
392.31	1143.06
392.534	1161.06
392.759	1166.06
392.984	1139.06
393.208	1150.06
393.433	1194.06
393.658	1252.06
393.882	1246.06
394.107	1174.06
394.331	1154.06
394.556	1160.06
394.78	1173.06
395.005	1211.06
395.229	1264.06
395.454	1281.06
395.678	1313.06
395.903	1238.06
396.127	1234.06
396.352	1254.06
396.576	1287.06
396.801	1244.06
397.025	1287.06
397.249	1281.06
397.474	1237.06
397.698	1264.06
397.922	1309.06
398.147	1352.06
398.371	1387.06
398.595	1373.06
398.82	1317.06
399.044	1365.06
399.268	1368.06
399.492	1472.06
399.717	1516.06
399.941	1521.06
400.165	1513.06
400.389	1450.06
400.613	1474.06
400.837	1656.06
401.062	1832.06
401.286	1524.06
401.51	1456.06
401.734	1493.06
401.958	1443.06
402.182	1352.06
402.406	1328.06
402.63	1321.06
402.854	1270.06
403.078	1325.06
403.302	1349.06
403.526	1365.06
403.75	1378.06
403.974	1354.06
404.198	1379.06
404.422	1451.06
404.645	1527.06
404.869	1451.06
405.093	1329.06
405.317	1340.06
405.541	1349.06
405.765	1372.06
405.988	1383.06
406.212	1395.06
406.436	1405.06
406.66	1472.06
406.883	1500.06
407.107	1672.06
407.331	1812.06
407.555	1971.06
407.778	1715.06
408.002	1459.06
408.226	1445.06
408.449	1418.06
408.673	1408.06
408.896	1415.06
409.12	1433.06
409.344	1395.06
409.567	1341.06
409.791	1389.06
410.014	1448.06
410.238	1500.06
410.461	1547.06
410.685	1400.06
410.908	1368.06
411.132	1378.06
411.355	1349.06
411.578	1320.06
411.802	1323.06
412.025	1378.06
412.249	1335.06
412.472	1284.06
412.695	1353.06
412.919	1309.06
413.142	1289.06
413.365	1330.06
413.589	1409.06
413.812	1434.06
414.035	1460.06
414.258	1337.06
414.482	1342.06
414.705	1335.06
414.928	1337.06
415.151	1287.06
415.374	1318.06
415.597	1345.06
415.821	1344.06
416.044	1366.06
416.267	1354.06
416.49	1298.06
416.713	1291.06
416.936	1332.06
417.159	1394.06
417.382	1400.06
417.605	1336.06
417.828	1388.06
418.051	1332.06
418.274	1330.06
418.497	1290.06
418.72	1301.06
418.943	1254.06
419.166	1331.06
419.389	1400.06
419.611	1329.06
419.834	1319.06
420.057	1325.06
420.28	1306.06
420.503	1294.06
420.726	1347.06
420.948	1306.06
421.171	1302.06
421.394	1312.06
421.617	1371.06
421.839	1349.06
422.062	1372.06
422.285	1295.06
422.507	1288.06
422.73	1288.06
422.953	1240.06
423.175	1232.06
423.398	1276.06
423.621	1290.06
423.843	1305.06
424.066	1314.06
424.288	1385.06
424.511	1440.06
424.733	1434.06
424.956	1303.06
425.178	1243.06
425.401	1288.06
425.623	1290.06
425.846	1278.06
426.068	1358.06
426.291	1377.06
426.513	1359.06
426.735	1325.06
426.958	1460.06
427.18	1544.06
427.402	1382.06
427.625	1455.06
427.847	1396.06
428.069	1308.06
428.292	1280.06
428.514	1264.06
428.736	1223.06
428.958	1271.06
429.181	1292.06
429.403	1522.06
429.625	1821.06
429.847	1485.06
430.069	1331.06
430.292	1480.06
430.514	1467.06
430.736	1371.06
430.958	1394.06
431.18	1318.06
431.402	1230.06
431.624	1194.06
431.846	1160.06
432.068	1142.06
432.29	1153.06
432.512	1212.06
432.734	1239.06
432.956	1305.06
433.178	1357.06
433.4	1312.06
433.622	1332.06
433.844	1267.06
434.066	1229.06
434.287	1186.06
434.509	1218.06
434.731	1296.06
434.953	1396.06
435.175	1348.06
435.397	1281.06
435.618	1265.06
435.84	1261.06
436.062	1244.06
436.284	1270.06
436.505	1322.06
436.727	1313.06
436.949	1272.06
437.17	1239.06
437.392	1250.06
437.614	1206.06
437.835	1201.06
438.057	1252.06
438.278	1264.06
438.5	1229.06
438.721	1254.06
438.943	1270.06
439.165	1261.06
439.386	1251.06
439.608	1259.06
439.829	1248.06
440.05	1292.06
440.272	1262.06
440.493	1251.06
440.715	1295.06
440.936	1375.06
441.158	1458.06
441.379	1406.06
441.6	1377.06
441.822	1373.06
442.043	1353.06
442.264	1313.06
442.486	1263.06
442.707	1269.06
442.928	1262.06
443.149	1336.06
443.371	1362.06
443.592	1404.06
443.813	1399.06
444.034	1365.06
444.255	1368.06
444.476	1416.06
444.698	1443.06
444.919	1432.06
445.14	1542.06
445.361	1436.06
445.582	1457.06
445.803	1434.06
446.024	1379.06
446.245	1419.06
446.466	1364.06
446.687	1334.06
446.908	1372.06
447.129	1294.06
447.35	1312.06
447.571	1366.06
447.792	1290.06
448.013	1253.06
448.234	1266.06
448.455	1353.06
448.675	1330.06
448.896	1275.06
449.117	1240.06
449.338	1254.06
449.559	1298.06
449.779	1357.06
450	1429.06
450.221	1501.06
450.442	1411.06
450.662	1309.06
450.883	1227.06
451.104	1177.06
451.324	1209.06
451.545	1257.06
451.766	1178.06
451.986	1148.06
452.207	1148.06
452.428	1108.06
452.648	1106.06
452.869	1138.06
453.089	1152.06
453.31	1183.06
453.53	1155.06
453.751	1110.06
453.971	1072.06
454.192	1084.06
454.412	1169.06
454.633	1145.06
454.853	1122.06
455.073	1084.06
455.294	1088.06
455.514	1105.06
455.734	1105.06
455.955	1085.06
456.175	1070.06
456.395	1078.06
456.616	1117.06
456.836	1064.06
457.056	1110.06
457.276	1068.06
457.497	1059.06
457.717	1034.06
457.937	1059.06
458.157	1057.06
458.377	1048.06
458.598	1045.06
458.818	1086.06
459.038	1111.06
459.258	1174.06
459.478	1154.06
459.698	1132.06
459.918	1180.06
460.138	1253.06
460.358	1277.06
460.578	1266.06
460.798	1291.06
461.018	1382.06
461.238	1308.06
461.458	1306.06
461.678	1277.06
461.898	1262.06
462.118	1227.06
462.338	1288.06
462.558	1232.06
462.777	1284.06
462.997	1344.06
463.217	1399.06
463.437	1359.06
463.657	1293.06
463.876	1247.06
464.096	1275.06
464.316	1301.06
464.536	1331.06
464.755	1304.06
464.975	1330.06
465.195	1280.06
465.414	1348.06
465.634	1326.06
465.854	1314.06
466.073	1402.06
466.293	1398.06
466.512	1225.06
466.732	1217.06
466.951	1277.06
467.171	1244.06
467.391	1176.06
467.61	1165.06
467.829	1228.06
468.049	1333.06
468.268	1458.06
468.488	1356.06
468.707	1293.06
468.927	1250.06
469.146	1232.06
469.365	1227.06
469.585	1270.06
469.804	1227.06
470.023	1242.06
470.243	1270.06
470.462	1247.06
470.681	1188.06
470.901	1228.06
471.12	1222.06
471.339	1233.06
471.558	1233.06
471.777	1207.06
471.997	1205.06
472.216	1172.06
472.435	1144.06
472.654	1140.06
472.873	1164.06
473.092	1299.06
473.311	1191.06
473.53	1125.06
473.749	1149.06
473.968	1188.06
474.187	1252.06
474.406	1301.06
474.625	1233.06
474.844	1202.06
475.063	1246.06
475.282	1252.06
475.501	1197.06
475.72	1250.06
475.939	1346.06
476.158	1276.06
476.377	1233.06
476.596	1222.06
476.814	1231.06
477.033	1266.06
477.252	1260.06
477.471	1316.06
477.69	1290.06
477.908	1313.06
478.127	1364.06
478.346	1443.06
478.564	1439.06
478.783	1406.06
479.002	1440.06
479.22	1437.06
479.439	1504.06
479.658	1566.06
479.876	1494.06
480.095	1414.06
480.313	1371.06
480.532	1323.06
480.751	1344.06
480.969	1341.06
481.188	1276.06
481.406	1264.06
481.624	1244.06
481.843	1298.06
482.061	1274.06
482.28	1371.06
482.498	1358.06
482.717	1312.06
482.935	1300.06
483.153	1338.06
483.372	1402.06
483.59	1371.06
483.808	1376.06
484.027	1388.06
484.245	1483.06
484.463	1750.06
484.681	1902.06
484.9	1490.06
485.118	1412.06
485.336	1369.06
485.554	1402.06
485.772	1428.06
485.99	1404.06
486.209	1376.06
486.427	1370.06
486.645	1395.06
486.863	1456.06
487.081	1500.06
487.299	1459.06
487.517	1439.06
487.735	1494.06
487.953	1549.06
488.171	1505.06
488.389	1475.06
488.607	1460.06
488.825	1664.06
489.043	1584.06
489.261	1443.06
489.479	1486.06
489.696	1479.06
489.914	1465.06
490.132	1447.06
490.35	1458.06
490.568	1541.06
490.786	1501.06
491.003	1499.06
491.221	1545.06
491.439	1615.06
491.657	1615.06
491.874	1661.06
492.092	1691.06
492.31	1725.06
492.527	1714.06
492.745	1660.06
492.963	1636.06
493.18	1628.06
