Data from WStandard_LampEnergy8_LIBS07252019.E.O._I.C._HRD10591_15-59-08-929.txt Node
Date: Thu Jul 25 15:59:08 EDT 2019
User: cochatt
Spectrometer: HR+D1059
Trigger mode: 1
Integration Time (sec): 1.000000E-1
Scans to average: 1
Electric dark correction enabled: true
Nonlinearity correction enabled: false
Boxcar width: 0
XAxis mode: Wavelengths
Number of Pixels in Spectrum: 2048
>>>>>Begin Spectral Data<<<<<
223.165	-9.88
223.4	-9.88
223.635	-9.88
223.869	-12.88
224.104	-22.88
224.338	-10.88
224.573	-16.88
224.808	-14.88
225.042	-15.88
225.277	-0.88
225.511	-9.88
225.746	5.12
225.98	14.12
226.215	7.12
226.449	9.12
226.683	26.12
226.918	29.12
227.152	24.12
227.387	40.12
227.621	39.12
227.856	50.12
228.09	50.12
228.324	74.12
228.559	67.12
228.793	111.12
229.027	195.12
229.262	215.12
229.496	216.12
229.73	221.12
229.964	252.12
230.199	253.12
230.433	272.12
230.667	273.12
230.901	286.12
231.136	272.12
231.37	255.12
231.604	265.12
231.838	260.12
232.072	272.12
232.306	257.12
232.541	287.12
232.775	303.12
233.009	311.12
233.243	318.12
233.477	306.12
233.711	304.12
233.945	309.12
234.179	288.12
234.413	309.12
234.647	333.12
234.881	316.12
235.115	281.12
235.349	307.12
235.583	301.12
235.817	300.12
236.051	284.12
236.285	312.12
236.519	321.12
236.753	368.12
236.987	352.12
237.221	358.12
237.455	376.12
237.689	366.12
237.922	357.12
238.156	345.12
238.39	348.12
238.624	376.12
238.858	393.12
239.091	416.12
239.325	443.12
239.559	456.12
239.793	471.12
240.027	495.12
240.26	523.12
240.494	399.12
240.728	363.12
240.961	399.12
241.195	373.12
241.429	412.12
241.662	399.12
241.896	383.12
242.13	401.12
242.363	441.12
242.597	444.12
242.83	451.12
243.064	455.12
243.298	467.12
243.531	470.12
243.765	467.12
243.998	459.12
244.232	413.12
244.465	396.12
244.699	408.12
244.932	464.12
245.166	493.12
245.399	497.12
245.633	484.12
245.866	479.12
246.099	472.12
246.333	491.12
246.566	495.12
246.8	536.12
247.033	589.12
247.266	536.12
247.5	518.12
247.733	541.12
247.966	558.12
248.2	615.12
248.433	603.12
248.666	605.12
248.899	656.12
249.133	772.12
249.366	815.12
249.599	686.12
249.832	623.12
250.066	629.12
250.299	629.12
250.532	584.12
250.765	557.12
250.998	567.12
251.231	579.12
251.465	592.12
251.698	574.12
251.931	581.12
252.164	575.12
252.397	635.12
252.63	628.12
252.863	565.12
253.096	550.12
253.329	565.12
253.562	610.12
253.795	631.12
254.028	626.12
254.261	573.12
254.494	587.12
254.727	540.12
254.96	595.12
255.193	639.12
255.426	717.12
255.659	791.12
255.892	781.12
256.124	662.12
256.357	644.12
256.59	722.12
256.823	705.12
257.056	707.12
257.289	838.12
257.521	905.12
257.754	832.12
257.987	797.12
258.22	819.12
258.452	795.12
258.685	687.12
258.918	667.12
259.151	690.12
259.383	629.12
259.616	573.12
259.849	626.12
260.081	682.12
260.314	781.12
260.547	824.12
260.779	831.12
261.012	767.12
261.244	693.12
261.477	670.12
261.71	696.12
261.942	697.12
262.175	663.12
262.407	698.12
262.64	683.12
262.872	644.12
263.105	618.12
263.337	636.12
263.57	639.12
263.802	640.12
264.035	620.12
264.267	582.12
264.499	576.12
264.732	602.12
264.964	641.12
265.197	671.12
265.429	715.12
265.661	804.12
265.894	839.12
266.126	865.12
266.358	780.12
266.591	825.12
266.823	848.12
267.055	773.12
267.287	791.12
267.52	781.12
267.752	774.12
267.984	771.12
268.216	820.12
268.448	815.12
268.681	811.12
268.913	731.12
269.145	690.12
269.377	687.12
269.609	773.12
269.841	907.12
270.073	1000.12
270.306	1086.12
270.538	1115.12
270.77	979.12
271.002	836.12
271.234	830.12
271.466	798.12
271.698	911.12
271.93	1069.12
272.162	1044.12
272.394	943.12
272.626	912.12
272.858	799.12
273.09	713.12
273.322	697.12
273.553	676.12
273.785	693.12
274.017	713.12
274.249	772.12
274.481	765.12
274.713	694.12
274.945	688.12
275.176	699.12
275.408	707.12
275.64	676.12
275.872	665.12
276.104	719.12
276.335	810.12
276.567	907.12
276.799	936.12
277.031	835.12
277.262	813.12
277.494	829.12
277.726	903.12
277.957	879.12
278.189	830.12
278.421	757.12
278.652	719.12
278.884	757.12
279.115	726.12
279.347	748.12
279.579	753.12
279.81	774.12
280.042	800.12
280.273	895.12
280.505	865.12
280.736	888.12
280.968	825.12
281.199	746.12
281.431	691.12
281.662	732.12
281.894	733.12
282.125	742.12
282.356	793.12
282.588	750.12
282.819	779.12
283.051	835.12
283.282	911.12
283.513	850.12
283.745	737.12
283.976	708.12
284.207	734.12
284.439	736.12
284.67	775.12
284.901	763.12
285.132	796.12
285.364	771.12
285.595	762.12
285.826	753.12
286.057	760.12
286.288	750.12
286.52	803.12
286.751	846.12
286.982	840.12
287.213	782.12
287.444	750.12
287.675	735.12
287.906	799.12
288.138	850.12
288.369	799.12
288.6	742.12
288.831	710.12
289.062	744.12
289.293	776.12
289.524	757.12
289.755	788.12
289.986	776.12
290.217	740.12
290.448	760.12
290.679	767.12
290.91	749.12
291.141	800.12
291.371	803.12
291.602	791.12
291.833	800.12
292.064	832.12
292.295	814.12
292.526	840.12
292.757	876.12
292.987	838.12
293.218	824.12
293.449	871.12
293.68	947.12
293.91	1006.12
294.141	941.12
294.372	908.12
294.603	944.12
294.833	980.12
295.064	904.12
295.295	836.12
295.525	805.12
295.756	745.12
295.987	730.12
296.217	759.12
296.448	777.12
296.679	783.12
296.909	786.12
297.14	775.12
297.37	803.12
297.601	835.12
297.831	890.12
298.062	890.12
298.292	829.12
298.523	796.12
298.753	794.12
298.984	797.12
299.214	809.12
299.445	820.12
299.675	825.12
299.905	819.12
300.136	840.12
300.366	796.12
300.597	773.12
300.827	777.12
301.057	821.12
301.288	856.12
301.518	853.12
301.748	877.12
301.979	905.12
302.209	954.12
302.439	977.12
302.669	977.12
302.9	932.12
303.13	856.12
303.36	868.12
303.59	886.12
303.82	885.12
304.051	873.12
304.281	864.12
304.511	889.12
304.741	944.12
304.971	1014.12
305.201	1083.12
305.431	975.12
305.661	807.12
305.891	769.12
306.121	764.12
306.352	821.12
306.582	861.12
306.812	898.12
307.042	948.12
307.272	958.12
307.502	1019.12
307.731	1046.12
307.961	1099.12
308.191	971.12
308.421	894.12
308.651	807.12
308.881	831.12
309.111	796.12
309.341	809.12
309.571	831.12
309.8	844.12
310.03	811.12
310.26	828.12
310.49	808.12
310.72	840.12
310.949	867.12
311.179	877.12
311.409	855.12
311.639	853.12
311.868	845.12
312.098	837.12
312.328	852.12
312.557	845.12
312.787	853.12
313.017	900.12
313.246	888.12
313.476	866.12
313.706	911.12
313.935	875.12
314.165	883.12
314.394	939.12
314.624	960.12
314.853	1012.12
315.083	1021.12
315.312	1064.12
315.542	970.12
315.771	901.12
316.001	907.12
316.23	928.12
316.46	925.12
316.689	918.12
316.919	884.12
317.148	857.12
317.377	895.12
317.607	959.12
317.836	1086.12
318.065	1110.12
318.295	1036.12
318.524	965.12
318.753	935.12
318.983	913.12
319.212	925.12
319.441	919.12
319.67	902.12
319.9	949.12
320.129	994.12
320.358	1015.12
320.587	1029.12
320.816	1042.12
321.046	990.12
321.275	982.12
321.504	1000.12
321.733	1049.12
321.962	1031.12
322.191	968.12
322.42	925.12
322.649	941.12
322.878	906.12
323.108	934.12
323.337	961.12
323.566	939.12
323.795	925.12
324.024	935.12
324.253	924.12
324.482	911.12
324.71	889.12
324.939	873.12
325.168	893.12
325.397	939.12
325.626	948.12
325.855	931.12
326.084	931.12
326.313	947.12
326.542	941.12
326.77	974.12
326.999	949.12
327.228	907.12
327.457	887.12
327.686	874.12
327.914	899.12
328.143	939.12
328.372	953.12
328.6	901.12
328.829	920.12
329.058	890.12
329.287	893.12
329.515	932.12
329.744	949.12
329.972	1033.12
330.201	1056.12
330.43	1010.12
330.658	998.12
330.887	1008.12
331.115	975.12
331.344	1004.12
331.572	954.12
331.801	958.12
332.03	948.12
332.258	995.12
332.486	1011.12
332.715	976.12
332.943	1003.12
333.172	974.12
333.4	982.12
333.629	1048.12
333.857	1095.12
334.085	1226.12
334.314	1358.12
334.542	1408.12
334.771	1289.12
334.999	1165.12
335.227	1089.12
335.455	1038.12
335.684	1076.12
335.912	1086.12
336.14	1120.12
336.369	1063.12
336.597	998.12
336.825	1029.12
337.053	1040.12
337.281	1085.12
337.51	1135.12
337.738	1155.12
337.966	1113.12
338.194	996.12
338.422	985.12
338.65	976.12
338.878	946.12
339.106	936.12
339.334	951.12
339.562	909.12
339.79	964.12
340.018	989.12
340.246	1097.12
340.474	1061.12
340.702	1014.12
340.93	1006.12
341.158	1031.12
341.386	998.12
341.614	1009.12
341.842	973.12
342.07	998.12
342.298	1007.12
342.526	966.12
342.754	959.12
342.981	957.12
343.209	963.12
343.437	951.12
343.665	973.12
343.893	1013.12
344.12	1062.12
344.348	1065.12
344.576	1001.12
344.804	979.12
345.031	981.12
345.259	969.12
345.487	947.12
345.714	905.12
345.942	881.12
346.17	927.12
346.397	944.12
346.625	959.12
346.853	868.12
347.08	871.12
347.308	892.12
347.535	935.12
347.763	963.12
347.99	925.12
348.218	901.12
348.445	917.12
348.673	931.12
348.9	943.12
349.128	979.12
349.355	992.12
349.583	938.12
349.81	939.12
350.037	880.12
350.265	876.12
350.492	879.12
350.72	903.12
350.947	933.12
351.174	915.12
351.402	905.12
351.629	873.12
351.856	823.12
352.083	847.12
352.311	865.12
352.538	889.12
352.765	936.12
352.992	933.12
353.22	909.12
353.447	890.12
353.674	931.12
353.901	918.12
354.128	877.12
354.355	902.12
354.583	947.12
354.81	949.12
355.037	932.12
355.264	928.12
355.491	933.12
355.718	927.12
355.945	903.12
356.172	933.12
356.399	899.12
356.626	907.12
356.853	922.12
357.08	1012.12
357.307	1070.12
357.534	1055.12
357.761	944.12
357.988	888.12
358.215	868.12
358.441	896.12
358.668	871.12
358.895	860.12
359.122	953.12
359.349	1031.12
359.576	981.12
359.802	920.12
360.029	888.12
360.256	861.12
360.483	886.12
360.709	926.12
360.936	961.12
361.163	998.12
361.39	1093.12
361.616	1151.12
361.843	1160.12
362.07	1059.12
362.296	935.12
362.523	900.12
362.749	916.12
362.976	948.12
363.203	933.12
363.429	928.12
363.656	869.12
363.882	957.12
364.109	1075.12
364.335	1090.12
364.562	989.12
364.788	959.12
365.015	938.12
365.241	905.12
365.468	929.12
365.694	977.12
365.92	1021.12
366.147	971.12
366.373	906.12
366.599	886.12
366.826	896.12
367.052	909.12
367.278	897.12
367.505	926.12
367.731	953.12
367.957	967.12
368.184	1002.12
368.41	1033.12
368.636	1023.12
368.862	1029.12
369.089	1051.12
369.315	998.12
369.541	996.12
369.767	917.12
369.993	925.12
370.219	934.12
370.445	981.12
370.672	1051.12
370.898	1051.12
371.124	1057.12
371.35	987.12
371.576	1047.12
371.802	1053.12
372.028	1020.12
372.254	968.12
372.48	951.12
372.706	935.12
372.932	956.12
373.158	925.12
373.384	968.12
373.61	981.12
373.835	998.12
374.061	997.12
374.287	972.12
374.513	974.12
374.739	991.12
374.965	967.12
375.191	1008.12
375.416	990.12
375.642	1012.12
375.868	1133.12
376.094	1110.12
376.319	1049.12
376.545	972.12
376.771	1027.12
376.997	1070.12
377.222	1068.12
377.448	1015.12
377.674	1019.12
377.899	1051.12
378.125	1112.12
378.35	1083.12
378.576	990.12
378.802	944.12
379.027	933.12
379.253	936.12
379.478	982.12
379.704	985.12
379.929	997.12
380.155	1000.12
380.38	995.12
380.606	975.12
380.831	1020.12
381.057	1049.12
381.282	1075.12
381.507	1024.12
381.733	1101.12
381.958	1147.12
382.184	1037.12
382.409	1001.12
382.634	1018.12
382.86	1013.12
383.085	1035.12
383.31	1116.12
383.535	1169.12
383.761	1208.12
383.986	1172.12
384.211	1102.12
384.436	1140.12
384.662	1168.12
384.887	1184.12
385.112	1126.12
385.337	1157.12
385.562	1103.12
385.787	1109.12
386.013	1175.12
386.238	1144.12
386.463	1130.12
386.688	1267.12
386.913	1273.12
387.138	1265.12
387.363	1169.12
387.588	1161.12
387.813	1155.12
388.038	1173.12
388.263	1209.12
388.488	1151.12
388.713	1098.12
388.938	1063.12
389.163	1093.12
389.387	1115.12
389.612	1129.12
389.837	1163.12
390.062	1118.12
390.287	1128.12
390.512	1131.12
390.736	1076.12
390.961	1085.12
391.186	1070.12
391.411	1105.12
391.636	1130.12
391.86	1097.12
392.085	1135.12
392.31	1123.12
392.534	1114.12
392.759	1109.12
392.984	1144.12
393.208	1127.12
393.433	1153.12
393.658	1201.12
393.882	1222.12
394.107	1148.12
394.331	1099.12
394.556	1111.12
394.78	1158.12
395.005	1207.12
395.229	1230.12
395.454	1275.12
395.678	1254.12
395.903	1243.12
396.127	1183.12
396.352	1196.12
396.576	1223.12
396.801	1253.12
397.025	1232.12
397.249	1224.12
397.474	1216.12
397.698	1237.12
397.922	1245.12
398.147	1315.12
398.371	1347.12
398.595	1349.12
398.82	1323.12
399.044	1319.12
399.268	1389.12
399.492	1439.12
399.717	1462.12
399.941	1475.12
400.165	1464.12
400.389	1433.12
400.613	1437.12
400.837	1678.12
401.062	1789.12
401.286	1525.12
401.51	1415.12
401.734	1471.12
401.958	1406.12
402.182	1314.12
402.406	1312.12
402.63	1254.12
402.854	1291.12
403.078	1306.12
403.302	1317.12
403.526	1341.12
403.75	1326.12
403.974	1384.12
404.198	1341.12
404.422	1444.12
404.645	1453.12
404.869	1419.12
405.093	1305.12
405.317	1325.12
405.541	1313.12
405.765	1352.12
405.988	1355.12
406.212	1374.12
406.436	1366.12
406.66	1456.12
406.883	1481.12
407.107	1662.12
407.331	1790.12
407.555	1920.12
407.778	1695.12
408.002	1426.12
408.226	1386.12
408.449	1384.12
408.673	1348.12
408.896	1379.12
409.12	1419.12
409.344	1359.12
409.567	1307.12
409.791	1348.12
410.014	1413.12
410.238	1452.12
410.461	1541.12
410.685	1382.12
410.908	1334.12
411.132	1373.12
411.355	1347.12
411.578	1372.12
411.802	1337.12
412.025	1359.12
412.249	1344.12
412.472	1312.12
412.695	1313.12
412.919	1292.12
413.142	1305.12
413.365	1281.12
413.589	1348.12
413.812	1384.12
414.035	1422.12
414.258	1363.12
414.482	1271.12
414.705	1276.12
414.928	1291.12
415.151	1285.12
415.374	1292.12
415.597	1319.12
415.821	1333.12
416.044	1333.12
416.267	1332.12
416.49	1256.12
416.713	1240.12
416.936	1348.12
417.159	1383.12
417.382	1367.12
417.605	1299.12
417.828	1304.12
418.051	1315.12
418.274	1310.12
418.497	1302.12
418.72	1289.12
418.943	1239.12
419.166	1329.12
419.389	1357.12
419.611	1301.12
419.834	1296.12
420.057	1286.12
420.28	1292.12
420.503	1334.12
420.726	1317.12
420.948	1307.12
421.171	1205.12
421.394	1262.12
421.617	1332.12
421.839	1307.12
422.062	1323.12
422.285	1271.12
422.507	1257.12
422.73	1243.12
422.953	1216.12
423.175	1200.12
423.398	1264.12
423.621	1260.12
423.843	1262.12
424.066	1304.12
424.288	1378.12
424.511	1366.12
424.733	1333.12
424.956	1201.12
425.178	1203.12
425.401	1193.12
425.623	1255.12
425.846	1239.12
426.068	1362.12
426.291	1327.12
426.513	1318.12
426.735	1336.12
426.958	1411.12
427.18	1452.12
427.402	1387.12
427.625	1409.12
427.847	1379.12
428.069	1285.12
428.292	1248.12
428.514	1244.12
428.736	1230.12
428.958	1245.12
429.181	1256.12
429.403	1468.12
429.625	1749.12
429.847	1492.12
430.069	1317.12
430.292	1468.12
430.514	1489.12
430.736	1354.12
430.958	1339.12
431.18	1274.12
431.402	1210.12
431.624	1179.12
431.846	1165.12
432.068	1119.12
432.29	1155.12
432.512	1171.12
432.734	1276.12
432.956	1259.12
433.178	1303.12
433.4	1331.12
433.622	1285.12
433.844	1252.12
434.066	1179.12
434.287	1179.12
434.509	1214.12
434.731	1285.12
434.953	1341.12
435.175	1318.12
435.397	1272.12
435.618	1256.12
435.84	1230.12
436.062	1228.12
436.284	1223.12
436.505	1301.12
436.727	1303.12
436.949	1233.12
437.17	1237.12
437.392	1215.12
437.614	1212.12
437.835	1184.12
438.057	1242.12
438.278	1261.12
438.5	1182.12
438.721	1223.12
438.943	1218.12
439.165	1217.12
439.386	1197.12
439.608	1231.12
439.829	1221.12
440.05	1246.12
440.272	1263.12
440.493	1231.12
440.715	1264.12
440.936	1364.12
441.158	1439.12
441.379	1391.12
441.6	1350.12
441.822	1336.12
442.043	1308.12
442.264	1289.12
442.486	1269.12
442.707	1252.12
442.928	1228.12
443.149	1285.12
443.371	1331.12
443.592	1384.12
443.813	1391.12
444.034	1334.12
444.255	1365.12
444.476	1348.12
444.698	1386.12
444.919	1359.12
445.14	1529.12
445.361	1451.12
445.582	1464.12
445.803	1370.12
446.024	1382.12
446.245	1412.12
446.466	1342.12
446.687	1318.12
446.908	1322.12
447.129	1314.12
447.35	1321.12
447.571	1267.12
447.792	1216.12
448.013	1206.12
448.234	1246.12
448.455	1296.12
448.675	1305.12
448.896	1203.12
449.117	1191.12
449.338	1253.12
449.559	1292.12
449.779	1335.12
450	1411.12
450.221	1459.12
450.442	1412.12
450.662	1246.12
450.883	1179.12
451.104	1156.12
451.324	1185.12
451.545	1205.12
451.766	1196.12
451.986	1125.12
452.207	1124.12
452.428	1086.12
452.648	1067.12
452.869	1096.12
453.089	1157.12
453.31	1130.12
453.53	1160.12
453.751	1105.12
453.971	1059.12
454.192	1098.12
454.412	1142.12
454.633	1104.12
454.853	1091.12
455.073	1059.12
455.294	1055.12
455.514	1105.12
455.734	1075.12
455.955	1104.12
456.175	1069.12
456.395	1067.12
456.616	1082.12
456.836	1107.12
457.056	1098.12
457.276	1056.12
457.497	1051.12
457.717	1023.12
457.937	1031.12
458.157	1051.12
458.377	1043.12
458.598	1039.12
458.818	1030.12
459.038	1072.12
459.258	1110.12
459.478	1127.12
459.698	1103.12
459.918	1113.12
460.138	1180.12
460.358	1233.12
460.578	1234.12
460.798	1285.12
461.018	1345.12
461.238	1274.12
461.458	1253.12
461.678	1237.12
461.898	1229.12
462.118	1179.12
462.338	1231.12
462.558	1255.12
462.777	1254.12
462.997	1295.12
463.217	1342.12
463.437	1349.12
463.657	1256.12
463.876	1212.12
464.096	1228.12
464.316	1298.12
464.536	1271.12
464.755	1259.12
464.975	1291.12
465.195	1241.12
465.414	1307.12
465.634	1307.12
465.854	1321.12
466.073	1414.12
466.293	1371.12
466.512	1157.12
466.732	1195.12
466.951	1249.12
467.171	1229.12
467.391	1181.12
467.61	1163.12
467.829	1182.12
468.049	1347.12
468.268	1451.12
468.488	1327.12
468.707	1277.12
468.927	1203.12
469.146	1168.12
469.365	1174.12
469.585	1207.12
469.804	1214.12
470.023	1196.12
470.243	1233.12
470.462	1208.12
470.681	1201.12
470.901	1225.12
471.12	1237.12
471.339	1224.12
471.558	1212.12
471.777	1202.12
471.997	1216.12
472.216	1157.12
472.435	1110.12
472.654	1108.12
472.873	1176.12
473.092	1223.12
473.311	1183.12
473.53	1141.12
473.749	1131.12
473.968	1175.12
474.187	1194.12
474.406	1223.12
474.625	1206.12
474.844	1205.12
475.063	1230.12
475.282	1225.12
475.501	1172.12
475.72	1200.12
475.939	1278.12
476.158	1247.12
476.377	1198.12
476.596	1229.12
476.814	1231.12
477.033	1229.12
477.252	1268.12
477.471	1300.12
477.69	1298.12
477.908	1269.12
478.127	1353.12
478.346	1431.12
478.564	1411.12
478.783	1407.12
479.002	1414.12
479.22	1414.12
479.439	1479.12
479.658	1578.12
479.876	1546.12
480.095	1340.12
480.313	1326.12
480.532	1260.12
480.751	1278.12
480.969	1301.12
481.188	1243.12
481.406	1247.12
481.624	1226.12
481.843	1284.12
482.061	1284.12
482.28	1317.12
482.498	1331.12
482.717	1293.12
482.935	1300.12
483.153	1383.12
483.372	1327.12
483.59	1352.12
483.808	1364.12
484.027	1372.12
484.245	1419.12
484.463	1738.12
484.681	1901.12
484.9	1442.12
485.118	1343.12
485.336	1340.12
485.554	1348.12
485.772	1380.12
485.99	1372.12
486.209	1398.12
486.427	1388.12
486.645	1381.12
486.863	1374.12
487.081	1439.12
487.299	1446.12
487.517	1414.12
487.735	1436.12
487.953	1479.12
488.171	1485.12
488.389	1434.12
488.607	1468.12
488.825	1620.12
489.043	1525.12
489.261	1415.12
489.479	1435.12
489.696	1465.12
489.914	1459.12
490.132	1413.12
490.35	1434.12
490.568	1506.12
490.786	1516.12
491.003	1474.12
491.221	1532.12
491.439	1567.12
491.657	1587.12
491.874	1609.12
492.092	1707.12
492.31	1703.12
492.527	1673.12
492.745	1630.12
492.963	1613.12
493.18	1570.12
493.398	1715.12
493.615	1688.12
493.833	1567.12
