Data from WStandard_LampEnergy8_LIBS07252019.E.O._I.C._HRD10591_15-59-52-929.txt Node
Date: Thu Jul 25 15:59:52 EDT 2019
User: cochatt
Spectrometer: HR+D1059
Trigger mode: 1
Integration Time (sec): 1.000000E-1
Scans to average: 1
Electric dark correction enabled: true
Nonlinearity correction enabled: false
Boxcar width: 0
XAxis mode: Wavelengths
Number of Pixels in Spectrum: 2048
>>>>>Begin Spectral Data<<<<<
223.165	-8.81
223.4	-8.81
223.635	-8.81
223.869	-14.81
224.104	-14.81
224.338	-25.81
224.573	-10.81
224.808	-14.81
225.042	-25.81
225.277	-1.81
225.511	-6.81
225.746	-8.81
225.98	6.19
226.215	15.19
226.449	18.19
226.683	22.19
226.918	41.19
227.152	30.19
227.387	38.19
227.621	44.19
227.856	57.19
228.09	49.19
228.324	51.19
228.559	57.19
228.793	88.19
229.027	210.19
229.262	181.19
229.496	211.19
229.73	229.19
229.964	256.19
230.199	220.19
230.433	238.19
230.667	272.19
230.901	276.19
231.136	261.19
231.37	254.19
231.604	246.19
231.838	261.19
232.072	250.19
232.306	248.19
232.541	254.19
232.775	284.19
233.009	294.19
233.243	301.19
233.477	263.19
233.711	298.19
233.945	284.19
234.179	289.19
234.413	295.19
234.647	337.19
234.881	291.19
235.115	287.19
235.349	292.19
235.583	306.19
235.817	283.19
236.051	289.19
236.285	277.19
236.519	314.19
236.753	333.19
236.987	349.19
237.221	351.19
237.455	350.19
237.689	359.19
237.922	356.19
238.156	342.19
238.39	336.19
238.624	345.19
238.858	375.19
239.091	360.19
239.325	396.19
239.559	434.19
239.793	467.19
240.027	502.19
240.26	479.19
240.494	370.19
240.728	343.19
240.961	359.19
241.195	380.19
241.429	396.19
241.662	401.19
241.896	380.19
242.13	382.19
242.363	417.19
242.597	431.19
242.83	444.19
243.064	438.19
243.298	462.19
243.531	451.19
243.765	440.19
243.998	447.19
244.232	390.19
244.465	382.19
244.699	396.19
244.932	448.19
245.166	481.19
245.399	462.19
245.633	437.19
245.866	428.19
246.099	452.19
246.333	467.19
246.566	487.19
246.8	505.19
247.033	546.19
247.266	516.19
247.5	521.19
247.733	520.19
247.966	561.19
248.2	580.19
248.433	572.19
248.666	565.19
248.899	641.19
249.133	723.19
249.366	760.19
249.599	657.19
249.832	588.19
250.066	583.19
250.299	580.19
250.532	569.19
250.765	531.19
250.998	543.19
251.231	560.19
251.465	567.19
251.698	545.19
251.931	561.19
252.164	563.19
252.397	587.19
252.63	578.19
252.863	520.19
253.096	508.19
253.329	551.19
253.562	562.19
253.795	605.19
254.028	608.19
254.261	564.19
254.494	521.19
254.727	528.19
254.96	549.19
255.193	591.19
255.426	674.19
255.659	752.19
255.892	757.19
256.124	657.19
256.357	646.19
256.59	673.19
256.823	670.19
257.056	677.19
257.289	806.19
257.521	861.19
257.754	773.19
257.987	721.19
258.22	789.19
258.452	795.19
258.685	652.19
258.918	651.19
259.151	678.19
259.383	616.19
259.616	570.19
259.849	605.19
260.081	651.19
260.314	741.19
260.547	807.19
260.779	770.19
261.012	748.19
261.244	686.19
261.477	628.19
261.71	672.19
261.942	673.19
262.175	665.19
262.407	671.19
262.64	639.19
262.872	602.19
263.105	597.19
263.337	625.19
263.57	612.19
263.802	603.19
264.035	563.19
264.267	554.19
264.499	557.19
264.732	608.19
264.964	618.19
265.197	647.19
265.429	699.19
265.661	767.19
265.894	809.19
266.126	807.19
266.358	751.19
266.591	764.19
266.823	799.19
267.055	772.19
267.287	740.19
267.52	726.19
267.752	740.19
267.984	732.19
268.216	763.19
268.448	803.19
268.681	770.19
268.913	697.19
269.145	664.19
269.377	672.19
269.609	750.19
269.841	839.19
270.073	967.19
270.306	1060.19
270.538	1078.19
270.77	889.19
271.002	782.19
271.234	768.19
271.466	773.19
271.698	880.19
271.93	1028.19
272.162	992.19
272.394	928.19
272.626	850.19
272.858	764.19
273.09	661.19
273.322	663.19
273.553	680.19
273.785	684.19
274.017	699.19
274.249	741.19
274.481	714.19
274.713	673.19
274.945	679.19
275.176	675.19
275.408	690.19
275.64	641.19
275.872	689.19
276.104	731.19
276.335	807.19
276.567	872.19
276.799	861.19
277.031	776.19
277.262	780.19
277.494	805.19
277.726	886.19
277.957	812.19
278.189	788.19
278.421	732.19
278.652	712.19
278.884	703.19
279.115	703.19
279.347	697.19
279.579	709.19
279.81	716.19
280.042	789.19
280.273	839.19
280.505	842.19
280.736	830.19
280.968	802.19
281.199	698.19
281.431	710.19
281.662	707.19
281.894	691.19
282.125	731.19
282.356	753.19
282.588	741.19
282.819	750.19
283.051	802.19
283.282	880.19
283.513	814.19
283.745	739.19
283.976	694.19
284.207	701.19
284.439	691.19
284.67	737.19
284.901	744.19
285.132	754.19
285.364	740.19
285.595	742.19
285.826	743.19
286.057	727.19
286.288	732.19
286.52	783.19
286.751	826.19
286.982	811.19
287.213	768.19
287.444	726.19
287.675	708.19
287.906	786.19
288.138	798.19
288.369	774.19
288.6	756.19
288.831	726.19
289.062	717.19
289.293	743.19
289.524	740.19
289.755	763.19
289.986	767.19
290.217	717.19
290.448	726.19
290.679	746.19
290.91	764.19
291.141	797.19
291.371	780.19
291.602	769.19
291.833	756.19
292.064	803.19
292.295	784.19
292.526	806.19
292.757	813.19
292.987	788.19
293.218	779.19
293.449	850.19
293.68	928.19
293.91	951.19
294.141	901.19
294.372	888.19
294.603	919.19
294.833	944.19
295.064	898.19
295.295	819.19
295.525	786.19
295.756	733.19
295.987	721.19
296.217	708.19
296.448	768.19
296.679	761.19
296.909	735.19
297.14	745.19
297.37	747.19
297.601	823.19
297.831	862.19
298.062	858.19
298.292	792.19
298.523	772.19
298.753	748.19
298.984	777.19
299.214	795.19
299.445	791.19
299.675	802.19
299.905	804.19
300.136	788.19
300.366	780.19
300.597	724.19
300.827	774.19
301.057	766.19
301.288	825.19
301.518	816.19
301.748	841.19
301.979	872.19
302.209	900.19
302.439	946.19
302.669	977.19
302.9	896.19
303.13	833.19
303.36	822.19
303.59	846.19
303.82	827.19
304.051	806.19
304.281	829.19
304.511	842.19
304.741	897.19
304.971	974.19
305.201	1024.19
305.431	936.19
305.661	777.19
305.891	725.19
306.121	731.19
306.352	786.19
306.582	828.19
306.812	885.19
307.042	913.19
307.272	950.19
307.502	950.19
307.731	1024.19
307.961	1071.19
308.191	989.19
308.421	863.19
308.651	802.19
308.881	807.19
309.111	798.19
309.341	804.19
309.571	806.19
309.8	818.19
310.03	798.19
310.26	807.19
310.49	807.19
310.72	810.19
310.949	857.19
311.179	868.19
311.409	861.19
311.639	840.19
311.868	833.19
312.098	815.19
312.328	849.19
312.557	827.19
312.787	839.19
313.017	853.19
313.246	852.19
313.476	849.19
313.706	837.19
313.935	873.19
314.165	882.19
314.394	888.19
314.624	903.19
314.853	986.19
315.083	976.19
315.312	1021.19
315.542	957.19
315.771	877.19
316.001	893.19
316.23	931.19
316.46	938.19
316.689	888.19
316.919	861.19
317.148	842.19
317.377	861.19
317.607	944.19
317.836	1030.19
318.065	1042.19
318.295	1002.19
318.524	973.19
318.753	915.19
318.983	939.19
319.212	897.19
319.441	865.19
319.67	883.19
319.9	918.19
320.129	964.19
320.358	986.19
320.587	980.19
320.816	977.19
321.046	962.19
321.275	931.19
321.504	953.19
321.733	985.19
321.962	981.19
322.191	902.19
322.42	893.19
322.649	892.19
322.878	881.19
323.108	893.19
323.337	905.19
323.566	925.19
323.795	926.19
324.024	913.19
324.253	899.19
324.482	910.19
324.71	887.19
324.939	876.19
325.168	870.19
325.397	924.19
325.626	946.19
325.855	934.19
326.084	907.19
326.313	893.19
326.542	937.19
326.77	922.19
326.999	937.19
327.228	905.19
327.457	860.19
327.686	838.19
327.914	864.19
328.143	900.19
328.372	906.19
328.6	907.19
328.829	882.19
329.058	876.19
329.287	893.19
329.515	943.19
329.744	930.19
329.972	983.19
330.201	994.19
330.43	966.19
330.658	942.19
330.887	947.19
331.115	933.19
331.344	969.19
331.572	950.19
331.801	968.19
332.03	973.19
332.258	952.19
332.486	958.19
332.715	982.19
332.943	975.19
333.172	944.19
333.4	986.19
333.629	995.19
333.857	1088.19
334.085	1189.19
334.314	1326.19
334.542	1373.19
334.771	1241.19
334.999	1121.19
335.227	1095.19
335.455	1013.19
335.684	1070.19
335.912	1048.19
336.14	1056.19
336.369	1018.19
336.597	973.19
336.825	966.19
337.053	973.19
337.281	1055.19
337.51	1116.19
337.738	1120.19
337.966	1044.19
338.194	981.19
338.422	963.19
338.65	931.19
338.878	944.19
339.106	910.19
339.334	911.19
339.562	906.19
339.79	946.19
340.018	1012.19
340.246	1029.19
340.474	1007.19
340.702	1007.19
340.93	1001.19
341.158	951.19
341.386	966.19
341.614	976.19
341.842	955.19
342.07	973.19
342.298	1006.19
342.526	961.19
342.754	946.19
342.981	936.19
343.209	963.19
343.437	938.19
343.665	965.19
343.893	998.19
344.12	1037.19
344.348	999.19
344.576	1001.19
344.804	962.19
345.031	961.19
345.259	952.19
345.487	910.19
345.714	912.19
345.942	906.19
346.17	894.19
346.397	906.19
346.625	893.19
346.853	853.19
347.08	852.19
347.308	857.19
347.535	909.19
347.763	944.19
347.99	889.19
348.218	889.19
348.445	880.19
348.673	900.19
348.9	948.19
349.128	954.19
349.355	950.19
349.583	974.19
349.81	890.19
350.037	862.19
350.265	830.19
350.492	879.19
350.72	866.19
350.947	916.19
351.174	896.19
351.402	862.19
351.629	866.19
351.856	855.19
352.083	828.19
352.311	841.19
352.538	899.19
352.765	885.19
352.992	931.19
353.22	881.19
353.447	862.19
353.674	877.19
353.901	874.19
354.128	864.19
354.355	854.19
354.583	916.19
354.81	910.19
355.037	922.19
355.264	951.19
355.491	915.19
355.718	900.19
355.945	902.19
356.172	876.19
356.399	853.19
356.626	862.19
356.853	920.19
357.08	1005.19
357.307	1084.19
357.534	1045.19
357.761	927.19
357.988	855.19
358.215	841.19
358.441	855.19
358.668	872.19
358.895	869.19
359.122	940.19
359.349	1014.19
359.576	986.19
359.802	912.19
360.029	864.19
360.256	845.19
360.483	884.19
360.709	921.19
360.936	977.19
361.163	982.19
361.39	1058.19
361.616	1108.19
361.843	1114.19
362.07	1022.19
362.296	920.19
362.523	905.19
362.749	882.19
362.976	891.19
363.203	952.19
363.429	886.19
363.656	890.19
363.882	941.19
364.109	1033.19
364.335	1075.19
364.562	977.19
364.788	964.19
365.015	912.19
365.241	893.19
365.468	916.19
365.694	973.19
365.92	978.19
366.147	904.19
366.373	916.19
366.599	869.19
366.826	894.19
367.052	883.19
367.278	903.19
367.505	907.19
367.731	925.19
367.957	926.19
368.184	974.19
368.41	1034.19
368.636	1027.19
368.862	1027.19
369.089	1053.19
369.315	960.19
369.541	942.19
369.767	932.19
369.993	900.19
370.219	917.19
370.445	938.19
370.672	977.19
370.898	1050.19
371.124	983.19
371.35	953.19
371.576	979.19
371.802	1015.19
372.028	999.19
372.254	968.19
372.48	905.19
372.706	920.19
372.932	897.19
373.158	936.19
373.384	954.19
373.61	985.19
373.835	1017.19
374.061	969.19
374.287	981.19
374.513	957.19
374.739	949.19
374.965	958.19
375.191	980.19
375.416	978.19
375.642	1016.19
375.868	1060.19
376.094	1082.19
376.319	1032.19
376.545	981.19
376.771	1020.19
376.997	1056.19
377.222	1022.19
377.448	1004.19
377.674	1001.19
377.899	1025.19
378.125	1088.19
378.35	1035.19
378.576	936.19
378.802	913.19
379.027	943.19
379.253	945.19
379.478	978.19
379.704	963.19
379.929	977.19
380.155	987.19
380.38	988.19
380.606	951.19
380.831	962.19
381.057	1043.19
381.282	1045.19
381.507	1021.19
381.733	1100.19
381.958	1103.19
382.184	1023.19
382.409	976.19
382.634	1015.19
382.86	1006.19
383.085	980.19
383.31	1038.19
383.535	1161.19
383.761	1172.19
383.986	1115.19
384.211	1091.19
384.436	1094.19
384.662	1134.19
384.887	1145.19
385.112	1098.19
385.337	1121.19
385.562	1097.19
385.787	1102.19
386.013	1136.19
386.238	1137.19
386.463	1144.19
386.688	1200.19
386.913	1271.19
387.138	1214.19
387.363	1138.19
387.588	1114.19
387.813	1144.19
388.038	1157.19
388.263	1170.19
388.488	1111.19
388.713	1045.19
388.938	1056.19
389.163	1098.19
389.387	1095.19
389.612	1109.19
389.837	1118.19
390.062	1122.19
390.287	1099.19
390.512	1068.19
390.736	1084.19
390.961	1061.19
391.186	1058.19
391.411	1080.19
391.636	1081.19
391.86	1119.19
392.085	1105.19
392.31	1103.19
392.534	1082.19
392.759	1096.19
392.984	1080.19
393.208	1089.19
393.433	1142.19
393.658	1172.19
393.882	1199.19
394.107	1133.19
394.331	1114.19
394.556	1123.19
394.78	1134.19
395.005	1180.19
395.229	1205.19
395.454	1266.19
395.678	1247.19
395.903	1191.19
396.127	1151.19
396.352	1190.19
396.576	1238.19
396.801	1240.19
397.025	1197.19
397.249	1205.19
397.474	1183.19
397.698	1183.19
397.922	1254.19
398.147	1279.19
398.371	1326.19
398.595	1315.19
398.82	1252.19
399.044	1317.19
399.268	1334.19
399.492	1401.19
399.717	1420.19
399.941	1418.19
400.165	1446.19
400.389	1412.19
400.613	1414.19
400.837	1621.19
401.062	1745.19
401.286	1474.19
401.51	1412.19
401.734	1467.19
401.958	1385.19
402.182	1318.19
402.406	1250.19
402.63	1245.19
402.854	1259.19
403.078	1280.19
403.302	1256.19
403.526	1285.19
403.75	1298.19
403.974	1341.19
404.198	1342.19
404.422	1390.19
404.645	1457.19
404.869	1422.19
405.093	1304.19
405.317	1267.19
405.541	1296.19
405.765	1312.19
405.988	1327.19
406.212	1352.19
406.436	1366.19
406.66	1403.19
406.883	1452.19
407.107	1665.19
407.331	1771.19
407.555	1866.19
407.778	1637.19
408.002	1432.19
408.226	1373.19
408.449	1400.19
408.673	1380.19
408.896	1361.19
409.12	1377.19
409.344	1308.19
409.567	1323.19
409.791	1343.19
410.014	1374.19
410.238	1442.19
410.461	1502.19
410.685	1343.19
410.908	1299.19
411.132	1288.19
411.355	1336.19
411.578	1318.19
411.802	1311.19
412.025	1325.19
412.249	1299.19
412.472	1258.19
412.695	1278.19
412.919	1269.19
413.142	1239.19
413.365	1305.19
413.589	1336.19
413.812	1363.19
414.035	1422.19
414.258	1320.19
414.482	1278.19
414.705	1297.19
414.928	1280.19
415.151	1291.19
415.374	1251.19
415.597	1326.19
415.821	1318.19
416.044	1286.19
416.267	1285.19
416.49	1244.19
416.713	1229.19
416.936	1264.19
417.159	1322.19
417.382	1332.19
417.605	1278.19
417.828	1295.19
418.051	1309.19
418.274	1295.19
418.497	1246.19
418.72	1250.19
418.943	1237.19
419.166	1298.19
419.389	1320.19
419.611	1291.19
419.834	1251.19
420.057	1283.19
420.28	1235.19
420.503	1255.19
420.726	1299.19
420.948	1263.19
421.171	1230.19
421.394	1270.19
421.617	1314.19
421.839	1308.19
422.062	1287.19
422.285	1247.19
422.507	1244.19
422.73	1234.19
422.953	1198.19
423.175	1208.19
423.398	1219.19
423.621	1223.19
423.843	1264.19
424.066	1274.19
424.288	1333.19
424.511	1393.19
424.733	1328.19
424.956	1210.19
425.178	1220.19
425.401	1223.19
425.623	1253.19
425.846	1244.19
426.068	1299.19
426.291	1324.19
426.513	1280.19
426.735	1320.19
426.958	1394.19
427.18	1470.19
427.402	1335.19
427.625	1397.19
427.847	1349.19
428.069	1235.19
428.292	1234.19
428.514	1214.19
428.736	1212.19
428.958	1210.19
429.181	1244.19
429.403	1417.19
429.625	1730.19
429.847	1465.19
430.069	1282.19
430.292	1442.19
430.514	1439.19
430.736	1333.19
430.958	1324.19
431.18	1264.19
431.402	1185.19
431.624	1172.19
431.846	1149.19
432.068	1106.19
432.29	1122.19
432.512	1157.19
432.734	1247.19
432.956	1263.19
433.178	1300.19
433.4	1288.19
433.622	1280.19
433.844	1204.19
434.066	1191.19
434.287	1142.19
434.509	1220.19
434.731	1233.19
434.953	1318.19
435.175	1325.19
435.397	1234.19
435.618	1241.19
435.84	1199.19
436.062	1186.19
436.284	1232.19
436.505	1253.19
436.727	1261.19
436.949	1242.19
437.17	1196.19
437.392	1217.19
437.614	1192.19
437.835	1128.19
438.057	1198.19
438.278	1227.19
438.5	1202.19
438.721	1174.19
438.943	1193.19
439.165	1211.19
439.386	1221.19
439.608	1226.19
439.829	1232.19
440.05	1222.19
440.272	1207.19
440.493	1192.19
440.715	1276.19
440.936	1299.19
441.158	1418.19
441.379	1328.19
441.6	1339.19
441.822	1302.19
442.043	1321.19
442.264	1281.19
442.486	1216.19
442.707	1223.19
442.928	1224.19
443.149	1275.19
443.371	1315.19
443.592	1361.19
443.813	1337.19
444.034	1318.19
444.255	1321.19
444.476	1336.19
444.698	1390.19
444.919	1338.19
445.14	1494.19
445.361	1432.19
445.582	1422.19
445.803	1348.19
446.024	1342.19
446.245	1408.19
446.466	1332.19
446.687	1310.19
446.908	1318.19
447.129	1247.19
447.35	1246.19
447.571	1264.19
447.792	1210.19
448.013	1223.19
448.234	1258.19
448.455	1266.19
448.675	1264.19
448.896	1159.19
449.117	1170.19
449.338	1232.19
449.559	1262.19
449.779	1260.19
450	1368.19
450.221	1433.19
450.442	1365.19
450.662	1243.19
450.883	1144.19
451.104	1132.19
451.324	1166.19
451.545	1198.19
451.766	1155.19
451.986	1119.19
452.207	1092.19
452.428	1088.19
452.648	1078.19
452.869	1083.19
453.089	1121.19
453.31	1139.19
453.53	1110.19
453.751	1094.19
453.971	1013.19
454.192	1081.19
454.412	1128.19
454.633	1118.19
454.853	1096.19
455.073	1009.19
455.294	1045.19
455.514	1042.19
455.734	1057.19
455.955	1056.19
456.175	1081.19
456.395	1040.19
456.616	1018.19
456.836	1079.19
457.056	1046.19
457.276	1070.19
457.497	1026.19
457.717	996.19
457.937	1007.19
458.157	1030.19
458.377	1000.19
458.598	993.19
458.818	1040.19
459.038	1091.19
459.258	1116.19
459.478	1121.19
459.698	1088.19
459.918	1111.19
460.138	1193.19
460.358	1203.19
460.578	1218.19
460.798	1285.19
461.018	1306.19
461.238	1283.19
461.458	1215.19
461.678	1217.19
461.898	1193.19
462.118	1192.19
462.338	1243.19
462.558	1233.19
462.777	1241.19
462.997	1253.19
463.217	1316.19
463.437	1315.19
463.657	1227.19
463.876	1214.19
464.096	1218.19
464.316	1231.19
464.536	1288.19
464.755	1280.19
464.975	1297.19
465.195	1255.19
465.414	1308.19
465.634	1285.19
465.854	1260.19
466.073	1332.19
466.293	1280.19
466.512	1169.19
466.732	1146.19
466.951	1225.19
467.171	1188.19
467.391	1146.19
467.61	1167.19
467.829	1156.19
468.049	1303.19
468.268	1393.19
468.488	1296.19
468.707	1191.19
468.927	1189.19
469.146	1174.19
469.365	1174.19
469.585	1203.19
469.804	1212.19
470.023	1193.19
470.243	1185.19
470.462	1205.19
470.681	1188.19
470.901	1190.19
471.12	1174.19
471.339	1186.19
471.558	1188.19
471.777	1162.19
471.997	1159.19
472.216	1145.19
472.435	1101.19
472.654	1087.19
472.873	1143.19
473.092	1191.19
473.311	1144.19
473.53	1115.19
473.749	1137.19
473.968	1137.19
474.187	1178.19
474.406	1183.19
474.625	1184.19
474.844	1168.19
475.063	1191.19
475.282	1221.19
475.501	1158.19
475.72	1172.19
475.939	1246.19
476.158	1231.19
476.377	1188.19
476.596	1183.19
476.814	1188.19
477.033	1199.19
477.252	1244.19
477.471	1276.19
477.69	1258.19
477.908	1266.19
478.127	1322.19
478.346	1386.19
478.564	1414.19
478.783	1386.19
479.002	1418.19
479.22	1388.19
479.439	1404.19
479.658	1539.19
479.876	1464.19
480.095	1351.19
480.313	1347.19
480.532	1252.19
480.751	1271.19
480.969	1267.19
481.188	1244.19
481.406	1212.19
481.624	1207.19
481.843	1247.19
482.061	1210.19
482.28	1286.19
482.498	1334.19
482.717	1300.19
482.935	1261.19
483.153	1316.19
483.372	1348.19
483.59	1340.19
483.808	1306.19
484.027	1351.19
484.245	1436.19
484.463	1692.19
484.681	1820.19
484.9	1413.19
485.118	1322.19
485.336	1314.19
485.554	1361.19
485.772	1367.19
485.99	1303.19
486.209	1337.19
486.427	1337.19
486.645	1331.19
486.863	1419.19
487.081	1401.19
487.299	1419.19
487.517	1401.19
487.735	1445.19
487.953	1484.19
488.171	1479.19
488.389	1419.19
488.607	1445.19
488.825	1558.19
489.043	1520.19
489.261	1402.19
489.479	1448.19
489.696	1412.19
489.914	1434.19
490.132	1404.19
490.35	1408.19
490.568	1509.19
490.786	1481.19
491.003	1462.19
491.221	1502.19
491.439	1575.19
491.657	1532.19
491.874	1601.19
492.092	1625.19
492.31	1671.19
492.527	1627.19
492.745	1594.19
492.963	1577.19
493.18	1607.19
493.398	1666.19
493.615	1680.19
493.833	1580.19
494.05	1523.19
494.268	1533.19
