Data from WStandard_LampEnergy10_LIBS07252019.E.O._I.C._HRD10591_15-55-54-929.txt Node
Date: Thu Jul 25 15:55:54 EDT 2019
User: cochatt
Spectrometer: HR+D1059
Trigger mode: 1
Integration Time (sec): 1.000000E-1
Scans to average: 1
Electric dark correction enabled: true
Nonlinearity correction enabled: false
Boxcar width: 0
XAxis mode: Wavelengths
Number of Pixels in Spectrum: 2048
>>>>>Begin Spectral Data<<<<<
223.165	-2.69
223.4	-2.69
223.635	-2.69
223.869	-28.69
224.104	-13.69
224.338	-28.69
224.573	-12.69
224.808	-5.69
225.042	-6.69
225.277	8.31
225.511	1.31
225.746	-3.69
225.98	7.31
226.215	16.31
226.449	15.31
226.683	7.31
226.918	16.31
227.152	30.31
227.387	25.31
227.621	27.31
227.856	33.31
228.09	41.31
228.324	67.31
228.559	63.31
228.793	76.31
229.027	137.31
229.262	132.31
229.496	133.31
229.73	143.31
229.964	158.31
230.199	174.31
230.433	166.31
230.667	172.31
230.901	190.31
231.136	178.31
231.37	167.31
231.604	174.31
231.838	170.31
232.072	181.31
232.306	167.31
232.541	187.31
232.775	199.31
233.009	204.31
233.243	185.31
233.477	176.31
233.711	185.31
233.945	199.31
234.179	194.31
234.413	208.31
234.647	217.31
234.881	211.31
235.115	190.31
235.349	197.31
235.583	197.31
235.817	181.31
236.051	204.31
236.285	196.31
236.519	196.31
236.753	231.31
236.987	225.31
237.221	202.31
237.455	254.31
237.689	227.31
237.922	217.31
238.156	214.31
238.39	206.31
238.624	221.31
238.858	224.31
239.091	239.31
239.325	242.31
239.559	292.31
239.793	279.31
240.027	292.31
240.26	293.31
240.494	219.31
240.728	218.31
240.961	234.31
241.195	229.31
241.429	240.31
241.662	245.31
241.896	243.31
242.13	229.31
242.363	260.31
242.597	270.31
242.83	260.31
243.064	263.31
243.298	291.31
243.531	290.31
243.765	266.31
243.998	261.31
244.232	243.31
244.465	238.31
244.699	241.31
244.932	275.31
245.166	293.31
245.399	282.31
245.633	266.31
245.866	281.31
246.099	298.31
246.333	275.31
246.566	282.31
246.8	322.31
247.033	335.31
247.266	309.31
247.5	316.31
247.733	294.31
247.966	314.31
248.2	354.31
248.433	357.31
248.666	379.31
248.899	383.31
249.133	414.31
249.366	453.31
249.599	378.31
249.832	345.31
250.066	378.31
250.299	372.31
250.532	329.31
250.765	312.31
250.998	336.31
251.231	334.31
251.465	352.31
251.698	322.31
251.931	340.31
252.164	329.31
252.397	336.31
252.63	349.31
252.863	312.31
253.096	322.31
253.329	347.31
253.562	349.31
253.795	364.31
254.028	343.31
254.261	346.31
254.494	346.31
254.727	330.31
254.96	337.31
255.193	401.31
255.426	411.31
255.659	453.31
255.892	444.31
256.124	391.31
256.357	371.31
256.59	390.31
256.823	425.31
257.056	419.31
257.289	458.31
257.521	514.31
257.754	472.31
257.987	434.31
258.22	479.31
258.452	453.31
258.685	391.31
258.918	391.31
259.151	390.31
259.383	368.31
259.616	342.31
259.849	356.31
260.081	389.31
260.314	427.31
260.547	447.31
260.779	444.31
261.012	424.31
261.244	376.31
261.477	383.31
261.71	388.31
261.942	391.31
262.175	397.31
262.407	392.31
262.64	375.31
262.872	348.31
263.105	369.31
263.337	352.31
263.57	367.31
263.802	364.31
264.035	356.31
264.267	352.31
264.499	314.31
264.732	369.31
264.964	366.31
265.197	383.31
265.429	407.31
265.661	436.31
265.894	476.31
266.126	493.31
266.358	442.31
266.591	455.31
266.823	470.31
267.055	440.31
267.287	459.31
267.52	431.31
267.752	437.31
267.984	449.31
268.216	446.31
268.448	458.31
268.681	448.31
268.913	425.31
269.145	406.31
269.377	399.31
269.609	457.31
269.841	508.31
270.073	553.31
270.306	618.31
270.538	609.31
270.77	533.31
271.002	464.31
271.234	473.31
271.466	468.31
271.698	529.31
271.93	609.31
272.162	590.31
272.394	536.31
272.626	495.31
272.858	455.31
273.09	405.31
273.322	421.31
273.553	391.31
273.785	387.31
274.017	410.31
274.249	426.31
274.481	436.31
274.713	415.31
274.945	403.31
275.176	410.31
275.408	418.31
275.64	397.31
275.872	390.31
276.104	436.31
276.335	488.31
276.567	504.31
276.799	519.31
277.031	472.31
277.262	486.31
277.494	476.31
277.726	513.31
277.957	523.31
278.189	456.31
278.421	432.31
278.652	415.31
278.884	410.31
279.115	417.31
279.347	454.31
279.579	429.31
279.81	438.31
280.042	465.31
280.273	488.31
280.505	504.31
280.736	506.31
280.968	463.31
281.199	436.31
281.431	400.31
281.662	415.31
281.894	436.31
282.125	462.31
282.356	446.31
282.588	436.31
282.819	433.31
283.051	481.31
283.282	509.31
283.513	477.31
283.745	445.31
283.976	401.31
284.207	422.31
284.439	425.31
284.67	442.31
284.901	442.31
285.132	445.31
285.364	446.31
285.595	441.31
285.826	426.31
286.057	432.31
286.288	422.31
286.52	469.31
286.751	482.31
286.982	486.31
287.213	465.31
287.444	425.31
287.675	443.31
287.906	476.31
288.138	484.31
288.369	450.31
288.6	414.31
288.831	411.31
289.062	444.31
289.293	448.31
289.524	449.31
289.755	454.31
289.986	450.31
290.217	433.31
290.448	429.31
290.679	426.31
290.91	477.31
291.141	476.31
291.371	483.31
291.602	489.31
291.833	468.31
292.064	501.31
292.295	474.31
292.526	484.31
292.757	485.31
292.987	493.31
293.218	471.31
293.449	501.31
293.68	560.31
293.91	577.31
294.141	544.31
294.372	546.31
294.603	560.31
294.833	556.31
295.064	542.31
295.295	497.31
295.525	461.31
295.756	453.31
295.987	439.31
296.217	431.31
296.448	435.31
296.679	469.31
296.909	458.31
297.14	455.31
297.37	480.31
297.601	502.31
297.831	499.31
298.062	502.31
298.292	478.31
298.523	478.31
298.753	461.31
298.984	458.31
299.214	467.31
299.445	470.31
299.675	503.31
299.905	496.31
300.136	469.31
300.366	462.31
300.597	444.31
300.827	471.31
301.057	447.31
301.288	476.31
301.518	492.31
301.748	521.31
301.979	524.31
302.209	554.31
302.439	569.31
302.669	581.31
302.9	536.31
303.13	497.31
303.36	489.31
303.59	508.31
303.82	490.31
304.051	510.31
304.281	547.31
304.511	506.31
304.741	558.31
304.971	617.31
305.201	623.31
305.431	560.31
305.661	483.31
305.891	452.31
306.121	452.31
306.352	496.31
306.582	519.31
306.812	521.31
307.042	556.31
307.272	530.31
307.502	586.31
307.731	628.31
307.961	645.31
308.191	578.31
308.421	514.31
308.651	502.31
308.881	486.31
309.111	482.31
309.341	495.31
309.571	502.31
309.8	486.31
310.03	484.31
310.26	465.31
310.49	510.31
310.72	518.31
310.949	501.31
311.179	513.31
311.409	513.31
311.639	513.31
311.868	493.31
312.098	488.31
312.328	502.31
312.557	499.31
312.787	510.31
313.017	529.31
313.246	504.31
313.476	492.31
313.706	537.31
313.935	520.31
314.165	536.31
314.394	551.31
314.624	559.31
314.853	606.31
315.083	632.31
315.312	620.31
315.542	576.31
315.771	549.31
316.001	532.31
316.23	568.31
316.46	556.31
316.689	526.31
316.919	515.31
317.148	528.31
317.377	545.31
317.607	576.31
317.836	634.31
318.065	632.31
318.295	609.31
318.524	583.31
318.753	564.31
318.983	564.31
319.212	538.31
319.441	551.31
319.67	524.31
319.9	565.31
320.129	586.31
320.358	584.31
320.587	624.31
320.816	600.31
321.046	583.31
321.275	568.31
321.504	588.31
321.733	630.31
321.962	597.31
322.191	549.31
322.42	534.31
322.649	537.31
322.878	536.31
323.108	535.31
323.337	584.31
323.566	571.31
323.795	550.31
324.024	588.31
324.253	565.31
324.482	531.31
324.71	540.31
324.939	500.31
325.168	552.31
325.397	553.31
325.626	579.31
325.855	571.31
326.084	566.31
326.313	554.31
326.542	565.31
326.77	578.31
326.999	573.31
327.228	527.31
327.457	526.31
327.686	526.31
327.914	514.31
328.143	541.31
328.372	556.31
328.6	548.31
328.829	558.31
329.058	546.31
329.287	548.31
329.515	557.31
329.744	555.31
329.972	577.31
330.201	629.31
330.43	598.31
330.658	583.31
330.887	569.31
331.115	591.31
331.344	594.31
331.572	556.31
331.801	561.31
332.03	553.31
332.258	624.31
332.486	610.31
332.715	586.31
332.943	603.31
333.172	584.31
333.4	621.31
333.629	620.31
333.857	659.31
334.085	757.31
334.314	804.31
334.542	824.31
334.771	741.31
334.999	668.31
335.227	646.31
335.455	616.31
335.684	606.31
335.912	637.31
336.14	673.31
336.369	616.31
336.597	584.31
336.825	604.31
337.053	617.31
337.281	655.31
337.51	692.31
337.738	678.31
337.966	651.31
338.194	606.31
338.422	609.31
338.65	590.31
338.878	575.31
339.106	579.31
339.334	538.31
339.562	569.31
339.79	587.31
340.018	624.31
340.246	636.31
340.474	618.31
340.702	601.31
340.93	627.31
341.158	614.31
341.386	601.31
341.614	566.31
341.842	584.31
342.07	563.31
342.298	590.31
342.526	575.31
342.754	586.31
342.981	587.31
343.209	597.31
343.437	554.31
343.665	581.31
343.893	616.31
344.12	636.31
344.348	618.31
344.576	618.31
344.804	594.31
345.031	594.31
345.259	574.31
345.487	564.31
345.714	543.31
345.942	548.31
346.17	558.31
346.397	562.31
346.625	550.31
346.853	551.31
347.08	538.31
347.308	540.31
347.535	539.31
347.763	558.31
347.99	543.31
348.218	540.31
348.445	546.31
348.673	582.31
348.9	593.31
349.128	572.31
349.355	601.31
349.583	592.31
349.81	556.31
350.037	514.31
350.265	541.31
350.492	522.31
350.72	567.31
350.947	566.31
351.174	560.31
351.402	549.31
351.629	534.31
351.856	518.31
352.083	509.31
352.311	523.31
352.538	547.31
352.765	593.31
352.992	558.31
353.22	561.31
353.447	542.31
353.674	550.31
353.901	545.31
354.128	544.31
354.355	573.31
354.583	577.31
354.81	604.31
355.037	588.31
355.264	569.31
355.491	545.31
355.718	563.31
355.945	560.31
356.172	547.31
356.399	540.31
356.626	531.31
356.853	592.31
357.08	625.31
357.307	660.31
357.534	636.31
357.761	551.31
357.988	532.31
358.215	559.31
358.441	543.31
358.668	534.31
358.895	576.31
359.122	593.31
359.349	616.31
359.576	611.31
359.802	551.31
360.029	526.31
360.256	538.31
360.483	559.31
360.709	586.31
360.936	597.31
361.163	601.31
361.39	702.31
361.616	698.31
361.843	679.31
362.07	669.31
362.296	564.31
362.523	553.31
362.749	553.31
362.976	571.31
363.203	568.31
363.429	563.31
363.656	534.31
363.882	593.31
364.109	640.31
364.335	664.31
364.562	632.31
364.788	590.31
365.015	547.31
365.241	540.31
365.468	590.31
365.694	592.31
365.92	614.31
366.147	560.31
366.373	547.31
366.599	560.31
366.826	560.31
367.052	535.31
367.278	572.31
367.505	562.31
367.731	613.31
367.957	606.31
368.184	639.31
368.41	673.31
368.636	659.31
368.862	654.31
369.089	634.31
369.315	633.31
369.541	611.31
369.767	622.31
369.993	564.31
370.219	566.31
370.445	621.31
370.672	636.31
370.898	670.31
371.124	645.31
371.35	628.31
371.576	654.31
371.802	646.31
372.028	636.31
372.254	617.31
372.48	588.31
372.706	583.31
372.932	607.31
373.158	595.31
373.384	629.31
373.61	634.31
373.835	661.31
374.061	624.31
374.287	644.31
374.513	617.31
374.739	615.31
374.965	639.31
375.191	630.31
375.416	638.31
375.642	657.31
375.868	694.31
376.094	697.31
376.319	671.31
376.545	620.31
376.771	688.31
376.997	671.31
377.222	668.31
377.448	631.31
377.674	663.31
377.899	691.31
378.125	707.31
378.35	670.31
378.576	641.31
378.802	610.31
379.027	613.31
379.253	637.31
379.478	603.31
379.704	613.31
379.929	635.31
380.155	623.31
380.38	644.31
380.606	657.31
380.831	664.31
381.057	689.31
381.282	692.31
381.507	688.31
381.733	730.31
381.958	743.31
382.184	697.31
382.409	670.31
382.634	650.31
382.86	682.31
383.085	668.31
383.31	708.31
383.535	778.31
383.761	804.31
383.986	775.31
384.211	705.31
384.436	721.31
384.662	752.31
384.887	746.31
385.112	708.31
385.337	736.31
385.562	731.31
385.787	733.31
386.013	736.31
386.238	749.31
386.463	736.31
386.688	825.31
386.913	861.31
387.138	800.31
387.363	766.31
387.588	750.31
387.813	733.31
388.038	768.31
388.263	791.31
388.488	732.31
388.713	702.31
388.938	702.31
389.163	714.31
389.387	762.31
389.612	753.31
389.837	737.31
390.062	729.31
390.287	748.31
390.512	727.31
390.736	709.31
390.961	716.31
391.186	700.31
391.411	749.31
391.636	734.31
391.86	730.31
392.085	737.31
392.31	753.31
392.534	749.31
392.759	793.31
392.984	743.31
393.208	759.31
393.433	780.31
393.658	841.31
393.882	805.31
394.107	767.31
394.331	750.31
394.556	740.31
394.78	788.31
395.005	770.31
395.229	836.31
395.454	854.31
395.678	872.31
395.903	841.31
396.127	793.31
396.352	808.31
396.576	813.31
396.801	828.31
397.025	821.31
397.249	825.31
397.474	802.31
397.698	788.31
397.922	852.31
398.147	866.31
398.371	896.31
398.595	859.31
398.82	853.31
399.044	882.31
399.268	906.31
399.492	925.31
399.717	953.31
399.941	975.31
400.165	975.31
400.389	924.31
400.613	959.31
400.837	1110.31
401.062	1174.31
401.286	1013.31
401.51	929.31
401.734	968.31
401.958	909.31
402.182	884.31
402.406	855.31
402.63	850.31
402.854	884.31
403.078	885.31
403.302	891.31
403.526	894.31
403.75	908.31
403.974	914.31
404.198	910.31
404.422	965.31
404.645	996.31
404.869	978.31
405.093	909.31
405.317	895.31
405.541	913.31
405.765	922.31
405.988	922.31
406.212	959.31
406.436	961.31
406.66	1004.31
406.883	998.31
407.107	1112.31
407.331	1208.31
407.555	1265.31
407.778	1120.31
408.002	980.31
408.226	947.31
408.449	951.31
408.673	946.31
408.896	920.31
409.12	930.31
409.344	937.31
409.567	888.31
409.791	944.31
410.014	951.31
410.238	1010.31
410.461	1062.31
410.685	970.31
410.908	923.31
411.132	913.31
411.355	925.31
411.578	922.31
411.802	925.31
412.025	967.31
412.249	915.31
412.472	896.31
412.695	900.31
412.919	923.31
413.142	892.31
413.365	953.31
413.589	943.31
413.812	969.31
414.035	976.31
414.258	926.31
414.482	922.31
414.705	908.31
414.928	922.31
415.151	923.31
415.374	910.31
415.597	910.31
415.821	953.31
416.044	941.31
416.267	943.31
416.49	899.31
416.713	911.31
416.936	956.31
417.159	967.31
417.382	931.31
417.605	924.31
417.828	921.31
418.051	935.31
418.274	931.31
418.497	914.31
418.72	885.31
418.943	900.31
419.166	946.31
419.389	971.31
419.611	948.31
419.834	917.31
420.057	941.31
420.28	923.31
420.503	951.31
420.726	933.31
420.948	941.31
421.171	888.31
421.394	928.31
421.617	960.31
421.839	1004.31
422.062	954.31
422.285	933.31
422.507	916.31
422.73	864.31
422.953	870.31
423.175	871.31
423.398	911.31
423.621	901.31
423.843	934.31
424.066	977.31
424.288	1057.31
424.511	1020.31
424.733	984.31
424.956	917.31
425.178	908.31
425.401	906.31
425.623	926.31
425.846	931.31
426.068	967.31
426.291	962.31
426.513	959.31
426.735	953.31
426.958	1046.31
427.18	1045.31
427.402	967.31
427.625	1008.31
427.847	958.31
428.069	886.31
428.292	913.31
428.514	890.31
428.736	890.31
428.958	871.31
429.181	942.31
429.403	1056.31
429.625	1219.31
429.847	1009.31
430.069	928.31
430.292	1032.31
430.514	1006.31
430.736	964.31
430.958	956.31
431.18	911.31
431.402	866.31
431.624	823.31
431.846	769.31
432.068	733.31
432.29	734.31
432.512	805.31
432.734	902.31
432.956	923.31
433.178	940.31
433.4	956.31
433.622	920.31
433.844	880.31
434.066	857.31
434.287	798.31
434.509	776.31
434.731	802.31
434.953	905.31
435.175	947.31
435.397	904.31
435.618	887.31
435.84	845.31
436.062	807.31
436.284	890.31
436.505	917.31
436.727	916.31
436.949	915.31
437.17	913.31
437.392	869.31
437.614	844.31
437.835	800.31
438.057	799.31
438.278	845.31
438.5	860.31
438.721	874.31
438.943	894.31
439.165	898.31
439.386	917.31
439.608	942.31
439.829	947.31
440.05	934.31
440.272	976.31
440.493	938.31
440.715	929.31
440.936	999.31
441.158	1051.31
441.379	1043.31
441.6	1031.31
441.822	975.31
442.043	988.31
442.264	966.31
442.486	942.31
442.707	947.31
442.928	960.31
443.149	969.31
443.371	1017.31
443.592	1026.31
443.813	1031.31
444.034	998.31
444.255	1000.31
444.476	967.31
444.698	1012.31
444.919	1030.31
445.14	1090.31
445.361	1070.31
445.582	1054.31
445.803	1057.31
446.024	1033.31
446.245	1081.31
446.466	1050.31
446.687	1007.31
446.908	1057.31
447.129	1029.31
447.35	992.31
447.571	1004.31
447.792	963.31
448.013	950.31
448.234	965.31
448.455	949.31
448.675	956.31
448.896	929.31
449.117	911.31
449.338	918.31
449.559	928.31
449.779	962.31
450	1021.31
450.221	1024.31
450.442	995.31
450.662	936.31
450.883	890.31
451.104	884.31
451.324	872.31
451.545	897.31
451.766	857.31
451.986	816.31
452.207	785.31
452.428	775.31
452.648	794.31
452.869	787.31
453.089	776.31
453.31	778.31
453.53	754.31
453.751	737.31
453.971	688.31
454.192	709.31
454.412	776.31
454.633	773.31
454.853	775.31
455.073	769.31
455.294	782.31
455.514	753.31
455.734	760.31
455.955	769.31
456.175	744.31
456.395	725.31
456.616	718.31
456.836	742.31
457.056	723.31
457.276	725.31
457.497	709.31
457.717	680.31
457.937	700.31
458.157	700.31
458.377	661.31
458.598	678.31
458.818	666.31
459.038	686.31
459.258	711.31
459.478	718.31
459.698	684.31
459.918	719.31
460.138	766.31
460.358	799.31
460.578	831.31
460.798	832.31
461.018	882.31
461.238	842.31
461.458	864.31
461.678	832.31
461.898	818.31
462.118	816.31
462.338	845.31
462.558	838.31
462.777	848.31
462.997	851.31
463.217	896.31
463.437	865.31
463.657	816.31
463.876	797.31
464.096	816.31
464.316	848.31
464.536	870.31
464.755	850.31
464.975	864.31
465.195	857.31
465.414	865.31
465.634	884.31
465.854	876.31
466.073	933.31
466.293	931.31
466.512	868.31
466.732	881.31
466.951	897.31
467.171	905.31
467.391	857.31
467.61	876.31
467.829	888.31
468.049	953.31
468.268	1056.31
468.488	964.31
468.707	932.31
468.927	909.31
469.146	897.31
469.365	916.31
469.585	892.31
469.804	892.31
470.023	929.31
470.243	926.31
470.462	937.31
470.681	889.31
470.901	930.31
471.12	934.31
471.339	957.31
471.558	908.31
471.777	910.31
471.997	895.31
472.216	832.31
472.435	767.31
472.654	744.31
472.873	750.31
473.092	836.31
473.311	800.31
473.53	817.31
473.749	783.31
473.968	842.31
474.187	828.31
474.406	854.31
474.625	823.31
474.844	879.31
475.063	890.31
475.282	845.31
475.501	814.31
475.72	844.31
475.939	889.31
476.158	867.31
476.377	857.31
476.596	838.31
476.814	820.31
477.033	788.31
477.252	823.31
477.471	905.31
477.69	912.31
477.908	928.31
478.127	981.31
478.346	990.31
478.564	995.31
478.783	981.31
479.002	1032.31
479.22	1002.31
479.439	995.31
479.658	1021.31
479.876	967.31
480.095	898.31
480.313	881.31
480.532	856.31
480.751	855.31
480.969	810.31
481.188	806.31
481.406	785.31
481.624	777.31
481.843	810.31
482.061	784.31
482.28	879.31
482.498	870.31
482.717	844.31
482.935	865.31
483.153	950.31
483.372	1022.31
483.59	979.31
483.808	982.31
484.027	935.31
484.245	966.31
484.463	1211.31
484.681	1259.31
484.9	1016.31
485.118	974.31
485.336	943.31
485.554	914.31
485.772	875.31
485.99	869.31
486.209	900.31
486.427	942.31
486.645	949.31
486.863	983.31
487.081	1020.31
487.299	1010.31
487.517	997.31
487.735	1110.31
487.953	1174.31
488.171	1158.31
488.389	1126.31
488.607	1089.31
488.825	1141.31
489.043	1078.31
489.261	976.31
489.479	1020.31
489.696	1022.31
489.914	1005.31
490.132	1012.31
490.35	1056.31
490.568	1160.31
490.786	1179.31
491.003	1165.31
491.221	1231.31
491.439	1285.31
491.657	1266.31
491.874	1328.31
492.092	1429.31
492.31	1500.31
492.527	1436.31
492.745	1369.31
492.963	1302.31
493.18	1317.31
493.398	1320.31
493.615	1337.31
493.833	1238.31
494.05	1224.31
494.268	1239.31
494.485	1231.31
494.703	1213.31
494.92	1257.31
495.138	1236.31
495.355	1212.31
495.573	1276.31
495.79	1280.31
496.008	1277.31
496.225	1236.31
496.442	1210.31
496.66	1229.31
496.877	1154.31
497.094	1230.31
497.312	1178.31
497.529	1192.31
497.746	1200.31
497.963	1249.31
498.181	1312.31
498.398	1240.31
498.615	1188.31
498.832	1142.31
499.049	1145.31
499.267	1153.31
499.484	1240.31
499.701	1345.31
499.918	1310.31
500.135	1473.31
500.352	1537.31
500.569	1539.31
