Data from WStandard_LampEnergy8_LIBS07252019.E.O._I.C._HRD10591_15-59-53-929.txt Node
Date: Thu Jul 25 15:59:53 EDT 2019
User: cochatt
Spectrometer: HR+D1059
Trigger mode: 1
Integration Time (sec): 1.000000E-1
Scans to average: 1
Electric dark correction enabled: true
Nonlinearity correction enabled: false
Boxcar width: 0
XAxis mode: Wavelengths
Number of Pixels in Spectrum: 2048
>>>>>Begin Spectral Data<<<<<
223.165	-11.81
223.4	-11.81
223.635	-11.81
223.869	-6.81
224.104	-25.81
224.338	-21.81
224.573	-10.81
224.808	-12.81
225.042	-0.81
225.277	-10.81
225.511	0.19
225.746	5.19
225.98	4.19
226.215	-2.81
226.449	19.19
226.683	30.19
226.918	21.19
227.152	24.19
227.387	40.19
227.621	58.19
227.856	39.19
228.09	49.19
228.324	45.19
228.559	60.19
228.793	84.19
229.027	187.19
229.262	213.19
229.496	221.19
229.73	214.19
229.964	241.19
230.199	246.19
230.433	246.19
230.667	258.19
230.901	287.19
231.136	265.19
231.37	232.19
231.604	247.19
231.838	237.19
232.072	228.19
232.306	257.19
232.541	281.19
232.775	282.19
233.009	312.19
233.243	311.19
233.477	267.19
233.711	293.19
233.945	305.19
234.179	272.19
234.413	318.19
234.647	329.19
234.881	310.19
235.115	296.19
235.349	282.19
235.583	287.19
235.817	289.19
236.051	286.19
236.285	294.19
236.519	321.19
236.753	342.19
236.987	375.19
237.221	337.19
237.455	373.19
237.689	365.19
237.922	341.19
238.156	337.19
238.39	333.19
238.624	346.19
238.858	369.19
239.091	374.19
239.325	399.19
239.559	444.19
239.793	465.19
240.027	476.19
240.26	476.19
240.494	386.19
240.728	362.19
240.961	349.19
241.195	386.19
241.429	379.19
241.662	385.19
241.896	362.19
242.13	371.19
242.363	405.19
242.597	419.19
242.83	417.19
243.064	441.19
243.298	453.19
243.531	445.19
243.765	451.19
243.998	437.19
244.232	382.19
244.465	398.19
244.699	399.19
244.932	437.19
245.166	489.19
245.399	468.19
245.633	429.19
245.866	418.19
246.099	444.19
246.333	465.19
246.566	481.19
246.8	514.19
247.033	545.19
247.266	509.19
247.5	518.19
247.733	513.19
247.966	535.19
248.2	581.19
248.433	567.19
248.666	610.19
248.899	639.19
249.133	715.19
249.366	801.19
249.599	650.19
249.832	580.19
250.066	607.19
250.299	589.19
250.532	587.19
250.765	511.19
250.998	537.19
251.231	547.19
251.465	589.19
251.698	548.19
251.931	572.19
252.164	562.19
252.397	580.19
252.63	603.19
252.863	507.19
253.096	512.19
253.329	583.19
253.562	561.19
253.795	605.19
254.028	582.19
254.261	566.19
254.494	546.19
254.727	538.19
254.96	561.19
255.193	582.19
255.426	664.19
255.659	749.19
255.892	747.19
256.124	645.19
256.357	655.19
256.59	665.19
256.823	690.19
257.056	653.19
257.289	795.19
257.521	868.19
257.754	769.19
257.987	736.19
258.22	805.19
258.452	771.19
258.685	651.19
258.918	625.19
259.151	643.19
259.383	602.19
259.616	557.19
259.849	592.19
260.081	689.19
260.314	719.19
260.547	803.19
260.779	785.19
261.012	743.19
261.244	643.19
261.477	631.19
261.71	654.19
261.942	635.19
262.175	635.19
262.407	677.19
262.64	637.19
262.872	595.19
263.105	584.19
263.337	611.19
263.57	614.19
263.802	611.19
264.035	582.19
264.267	545.19
264.499	561.19
264.732	608.19
264.964	621.19
265.197	641.19
265.429	665.19
265.661	720.19
265.894	802.19
266.126	833.19
266.358	741.19
266.591	802.19
266.823	824.19
267.055	733.19
267.287	753.19
267.52	733.19
267.752	719.19
267.984	758.19
268.216	765.19
268.448	745.19
268.681	762.19
268.913	689.19
269.145	679.19
269.377	653.19
269.609	735.19
269.841	832.19
270.073	960.19
270.306	1046.19
270.538	1018.19
270.77	896.19
271.002	792.19
271.234	790.19
271.466	775.19
271.698	872.19
271.93	1009.19
272.162	995.19
272.394	915.19
272.626	838.19
272.858	789.19
273.09	676.19
273.322	655.19
273.553	630.19
273.785	668.19
274.017	687.19
274.249	736.19
274.481	701.19
274.713	677.19
274.945	646.19
275.176	652.19
275.408	650.19
275.64	647.19
275.872	659.19
276.104	697.19
276.335	799.19
276.567	868.19
276.799	854.19
277.031	775.19
277.262	750.19
277.494	784.19
277.726	863.19
277.957	841.19
278.189	789.19
278.421	721.19
278.652	697.19
278.884	704.19
279.115	695.19
279.347	717.19
279.579	700.19
279.81	705.19
280.042	761.19
280.273	843.19
280.505	817.19
280.736	824.19
280.968	789.19
281.199	710.19
281.431	676.19
281.662	675.19
281.894	707.19
282.125	738.19
282.356	727.19
282.588	747.19
282.819	771.19
283.051	799.19
283.282	855.19
283.513	796.19
283.745	688.19
283.976	676.19
284.207	689.19
284.439	708.19
284.67	694.19
284.901	734.19
285.132	758.19
285.364	757.19
285.595	752.19
285.826	723.19
286.057	731.19
286.288	706.19
286.52	769.19
286.751	794.19
286.982	809.19
287.213	744.19
287.444	683.19
287.675	718.19
287.906	737.19
288.138	778.19
288.369	789.19
288.6	734.19
288.831	711.19
289.062	702.19
289.293	687.19
289.524	738.19
289.755	764.19
289.986	742.19
290.217	736.19
290.448	719.19
290.679	735.19
290.91	746.19
291.141	786.19
291.371	776.19
291.602	774.19
291.833	801.19
292.064	811.19
292.295	773.19
292.526	799.19
292.757	836.19
292.987	786.19
293.218	777.19
293.449	834.19
293.68	938.19
293.91	999.19
294.141	907.19
294.372	857.19
294.603	908.19
294.833	957.19
295.064	888.19
295.295	787.19
295.525	777.19
295.756	721.19
295.987	679.19
296.217	714.19
296.448	746.19
296.679	764.19
296.909	742.19
297.14	712.19
297.37	770.19
297.601	796.19
297.831	848.19
298.062	829.19
298.292	798.19
298.523	736.19
298.753	755.19
298.984	741.19
299.214	756.19
299.445	777.19
299.675	780.19
299.905	800.19
300.136	813.19
300.366	773.19
300.597	722.19
300.827	759.19
301.057	766.19
301.288	802.19
301.518	806.19
301.748	847.19
301.979	868.19
302.209	904.19
302.439	929.19
302.669	969.19
302.9	903.19
303.13	810.19
303.36	806.19
303.59	852.19
303.82	806.19
304.051	829.19
304.281	833.19
304.511	860.19
304.741	903.19
304.971	999.19
305.201	985.19
305.431	893.19
305.661	768.19
305.891	718.19
306.121	747.19
306.352	753.19
306.582	831.19
306.812	857.19
307.042	931.19
307.272	915.19
307.502	953.19
307.731	1011.19
307.961	1033.19
308.191	953.19
308.421	862.19
308.651	805.19
308.881	818.19
309.111	817.19
309.341	783.19
309.571	791.19
309.8	789.19
310.03	816.19
310.26	783.19
310.49	781.19
310.72	815.19
310.949	883.19
311.179	858.19
311.409	817.19
311.639	797.19
311.868	799.19
312.098	821.19
312.328	783.19
312.557	795.19
312.787	841.19
313.017	838.19
313.246	824.19
313.476	835.19
313.706	837.19
313.935	855.19
314.165	871.19
314.394	881.19
314.624	919.19
314.853	976.19
315.083	1025.19
315.312	1005.19
315.542	913.19
315.771	871.19
316.001	887.19
316.23	912.19
316.46	895.19
316.689	878.19
316.919	835.19
317.148	825.19
317.377	851.19
317.607	926.19
317.836	1017.19
318.065	1027.19
318.295	981.19
318.524	949.19
318.753	898.19
318.983	908.19
319.212	878.19
319.441	871.19
319.67	879.19
319.9	889.19
320.129	941.19
320.358	981.19
320.587	986.19
320.816	986.19
321.046	966.19
321.275	904.19
321.504	925.19
321.733	998.19
321.962	937.19
322.191	904.19
322.42	854.19
322.649	865.19
322.878	903.19
323.108	909.19
323.337	920.19
323.566	896.19
323.795	878.19
324.024	931.19
324.253	888.19
324.482	911.19
324.71	876.19
324.939	801.19
325.168	868.19
325.397	897.19
325.626	930.19
325.855	913.19
326.084	869.19
326.313	917.19
326.542	919.19
326.77	967.19
326.999	913.19
327.228	858.19
327.457	821.19
327.686	845.19
327.914	865.19
328.143	908.19
328.372	890.19
328.6	891.19
328.829	890.19
329.058	853.19
329.287	888.19
329.515	877.19
329.744	889.19
329.972	959.19
330.201	991.19
330.43	966.19
330.658	964.19
330.887	915.19
331.115	951.19
331.344	971.19
331.572	958.19
331.801	923.19
332.03	928.19
332.258	936.19
332.486	950.19
332.715	944.19
332.943	958.19
333.172	914.19
333.4	972.19
333.629	1021.19
333.857	1043.19
334.085	1188.19
334.314	1309.19
334.542	1361.19
334.771	1235.19
334.999	1083.19
335.227	1028.19
335.455	1011.19
335.684	1005.19
335.912	1029.19
336.14	1041.19
336.369	985.19
336.597	949.19
336.825	954.19
337.053	984.19
337.281	1043.19
337.51	1095.19
337.738	1114.19
337.966	1069.19
338.194	965.19
338.422	951.19
338.65	931.19
338.878	915.19
339.106	891.19
339.334	912.19
339.562	885.19
339.79	917.19
340.018	952.19
340.246	975.19
340.474	1009.19
340.702	995.19
340.93	993.19
341.158	945.19
341.386	955.19
341.614	957.19
341.842	921.19
342.07	955.19
342.298	966.19
342.526	954.19
342.754	947.19
342.981	917.19
343.209	933.19
343.437	952.19
343.665	937.19
343.893	969.19
344.12	1013.19
344.348	976.19
344.576	961.19
344.804	914.19
345.031	944.19
345.259	922.19
345.487	921.19
345.714	875.19
345.942	867.19
346.17	879.19
346.397	881.19
346.625	898.19
346.853	853.19
347.08	845.19
347.308	853.19
347.535	899.19
347.763	921.19
347.99	889.19
348.218	854.19
348.445	865.19
348.673	899.19
348.9	914.19
349.128	947.19
349.355	947.19
349.583	932.19
349.81	877.19
350.037	824.19
350.265	835.19
350.492	825.19
350.72	871.19
350.947	921.19
351.174	921.19
351.402	858.19
351.629	829.19
351.856	824.19
352.083	822.19
352.311	842.19
352.538	850.19
352.765	914.19
352.992	893.19
353.22	859.19
353.447	868.19
353.674	907.19
353.901	879.19
354.128	858.19
354.355	849.19
354.583	901.19
354.81	905.19
355.037	919.19
355.264	891.19
355.491	884.19
355.718	885.19
355.945	893.19
356.172	868.19
356.399	847.19
356.626	839.19
356.853	888.19
357.08	991.19
357.307	1065.19
357.534	1007.19
357.761	902.19
357.988	871.19
358.215	825.19
358.441	847.19
358.668	837.19
358.895	868.19
359.122	928.19
359.349	1009.19
359.576	985.19
359.802	888.19
360.029	837.19
360.256	815.19
360.483	862.19
360.709	919.19
360.936	925.19
361.163	978.19
361.39	1052.19
361.616	1097.19
361.843	1069.19
362.07	1000.19
362.296	879.19
362.523	865.19
362.749	887.19
362.976	885.19
363.203	925.19
363.429	861.19
363.656	911.19
363.882	901.19
364.109	1022.19
364.335	1058.19
364.562	962.19
364.788	930.19
365.015	871.19
365.241	856.19
365.468	887.19
365.694	933.19
365.92	952.19
366.147	907.19
366.373	887.19
366.599	849.19
366.826	854.19
367.052	860.19
367.278	886.19
367.505	931.19
367.731	915.19
367.957	940.19
368.184	953.19
368.41	1017.19
368.636	1021.19
368.862	1001.19
369.089	1017.19
369.315	993.19
369.541	946.19
369.767	902.19
369.993	874.19
370.219	891.19
370.445	931.19
370.672	985.19
370.898	1025.19
371.124	984.19
371.35	960.19
371.576	969.19
371.802	1005.19
372.028	957.19
372.254	911.19
372.48	907.19
372.706	904.19
372.932	888.19
373.158	934.19
373.384	926.19
373.61	962.19
373.835	1030.19
374.061	974.19
374.287	937.19
374.513	946.19
374.739	965.19
374.965	945.19
375.191	963.19
375.416	960.19
375.642	971.19
375.868	1024.19
376.094	1047.19
376.319	1013.19
376.545	961.19
376.771	993.19
376.997	1043.19
377.222	1008.19
377.448	998.19
377.674	993.19
377.899	1018.19
378.125	1053.19
378.35	1013.19
378.576	947.19
378.802	897.19
379.027	917.19
379.253	920.19
379.478	937.19
379.704	948.19
379.929	928.19
380.155	911.19
380.38	926.19
380.606	942.19
380.831	959.19
381.057	1073.19
381.282	1015.19
381.507	1005.19
381.733	1079.19
381.958	1078.19
382.184	1006.19
382.409	984.19
382.634	996.19
382.86	1023.19
383.085	992.19
383.31	1017.19
383.535	1110.19
383.761	1144.19
383.986	1096.19
384.211	1061.19
384.436	1054.19
384.662	1145.19
384.887	1149.19
385.112	1106.19
385.337	1087.19
385.562	1052.19
385.787	1112.19
386.013	1127.19
386.238	1136.19
386.463	1128.19
386.688	1197.19
386.913	1257.19
387.138	1211.19
387.363	1135.19
387.588	1116.19
387.813	1088.19
388.038	1111.19
388.263	1182.19
388.488	1097.19
388.713	1013.19
388.938	1018.19
389.163	1067.19
389.387	1058.19
389.612	1066.19
389.837	1098.19
390.062	1124.19
390.287	1103.19
390.512	1069.19
390.736	1049.19
390.961	1074.19
391.186	1063.19
391.411	1053.19
391.636	1092.19
391.86	1085.19
392.085	1058.19
392.31	1071.19
392.534	1064.19
392.759	1081.19
392.984	1092.19
393.208	1090.19
393.433	1131.19
393.658	1157.19
393.882	1155.19
394.107	1102.19
394.331	1055.19
394.556	1089.19
394.78	1103.19
395.005	1149.19
395.229	1194.19
395.454	1247.19
395.678	1227.19
395.903	1194.19
396.127	1159.19
396.352	1158.19
396.576	1190.19
396.801	1203.19
397.025	1185.19
397.249	1203.19
397.474	1183.19
397.698	1160.19
397.922	1169.19
398.147	1254.19
398.371	1290.19
398.595	1247.19
398.82	1240.19
399.044	1304.19
399.268	1310.19
399.492	1361.19
399.717	1405.19
399.941	1417.19
400.165	1398.19
400.389	1361.19
400.613	1409.19
400.837	1595.19
401.062	1726.19
401.286	1463.19
401.51	1395.19
401.734	1422.19
401.958	1331.19
402.182	1295.19
402.406	1233.19
402.63	1210.19
402.854	1273.19
403.078	1242.19
403.302	1290.19
403.526	1277.19
403.75	1298.19
403.974	1295.19
404.198	1339.19
404.422	1350.19
404.645	1411.19
404.869	1349.19
405.093	1271.19
405.317	1248.19
405.541	1316.19
405.765	1296.19
405.988	1299.19
406.212	1283.19
406.436	1323.19
406.66	1409.19
406.883	1380.19
407.107	1605.19
407.331	1701.19
407.555	1800.19
407.778	1629.19
408.002	1378.19
408.226	1361.19
408.449	1366.19
408.673	1315.19
408.896	1328.19
409.12	1319.19
409.344	1317.19
409.567	1295.19
409.791	1286.19
410.014	1317.19
410.238	1374.19
410.461	1423.19
410.685	1326.19
410.908	1255.19
411.132	1305.19
411.355	1286.19
411.578	1255.19
411.802	1263.19
412.025	1275.19
412.249	1293.19
412.472	1222.19
412.695	1240.19
412.919	1233.19
413.142	1217.19
413.365	1238.19
413.589	1287.19
413.812	1346.19
414.035	1382.19
414.258	1299.19
414.482	1256.19
414.705	1253.19
414.928	1239.19
415.151	1246.19
415.374	1238.19
415.597	1243.19
415.821	1266.19
416.044	1293.19
416.267	1275.19
416.49	1185.19
416.713	1189.19
416.936	1252.19
417.159	1341.19
417.382	1307.19
417.605	1236.19
417.828	1242.19
418.051	1275.19
418.274	1262.19
418.497	1218.19
418.72	1241.19
418.943	1212.19
419.166	1279.19
419.389	1263.19
419.611	1241.19
419.834	1247.19
420.057	1253.19
420.28	1215.19
420.503	1237.19
420.726	1256.19
420.948	1265.19
421.171	1201.19
421.394	1230.19
421.617	1283.19
421.839	1287.19
422.062	1316.19
422.285	1235.19
422.507	1215.19
422.73	1186.19
422.953	1171.19
423.175	1161.19
423.398	1207.19
423.621	1195.19
423.843	1222.19
424.066	1289.19
424.288	1334.19
424.511	1364.19
424.733	1315.19
424.956	1183.19
425.178	1171.19
425.401	1200.19
425.623	1210.19
425.846	1207.19
426.068	1266.19
426.291	1256.19
426.513	1259.19
426.735	1220.19
426.958	1354.19
427.18	1413.19
427.402	1297.19
427.625	1385.19
427.847	1312.19
428.069	1247.19
428.292	1165.19
428.514	1184.19
428.736	1171.19
428.958	1171.19
429.181	1232.19
429.403	1370.19
429.625	1649.19
429.847	1414.19
430.069	1250.19
430.292	1388.19
430.514	1384.19
430.736	1298.19
430.958	1359.19
431.18	1240.19
431.402	1182.19
431.624	1175.19
431.846	1126.19
432.068	1107.19
432.29	1089.19
432.512	1122.19
432.734	1217.19
432.956	1259.19
433.178	1248.19
433.4	1264.19
433.622	1252.19
433.844	1175.19
434.066	1139.19
434.287	1103.19
434.509	1153.19
434.731	1218.19
434.953	1285.19
435.175	1285.19
435.397	1245.19
435.618	1188.19
435.84	1204.19
436.062	1197.19
436.284	1215.19
436.505	1205.19
436.727	1251.19
436.949	1219.19
437.17	1175.19
437.392	1186.19
437.614	1145.19
437.835	1114.19
438.057	1167.19
438.278	1233.19
438.5	1180.19
438.721	1166.19
438.943	1165.19
439.165	1171.19
439.386	1189.19
439.608	1199.19
439.829	1210.19
440.05	1199.19
440.272	1178.19
440.493	1202.19
440.715	1229.19
440.936	1288.19
441.158	1346.19
441.379	1322.19
441.6	1300.19
441.822	1282.19
442.043	1270.19
442.264	1276.19
442.486	1193.19
442.707	1184.19
442.928	1233.19
443.149	1230.19
443.371	1292.19
443.592	1326.19
443.813	1322.19
444.034	1303.19
444.255	1285.19
444.476	1296.19
444.698	1339.19
444.919	1344.19
445.14	1495.19
445.361	1425.19
445.582	1401.19
445.803	1361.19
446.024	1325.19
446.245	1367.19
446.466	1318.19
446.687	1261.19
446.908	1304.19
447.129	1232.19
447.35	1259.19
447.571	1237.19
447.792	1185.19
448.013	1171.19
448.234	1205.19
448.455	1261.19
448.675	1219.19
448.896	1151.19
449.117	1161.19
449.338	1197.19
449.559	1224.19
449.779	1281.19
450	1348.19
450.221	1426.19
450.442	1384.19
450.662	1227.19
450.883	1155.19
451.104	1153.19
451.324	1130.19
451.545	1163.19
451.766	1107.19
451.986	1090.19
452.207	1085.19
452.428	1036.19
452.648	1049.19
452.869	1060.19
453.089	1114.19
453.31	1091.19
453.53	1113.19
453.751	1085.19
453.971	1027.19
454.192	1050.19
454.412	1116.19
454.633	1098.19
454.853	1058.19
455.073	983.19
455.294	1034.19
455.514	1049.19
455.734	1030.19
455.955	1027.19
456.175	1035.19
456.395	1026.19
456.616	1000.19
456.836	1041.19
457.056	1029.19
457.276	1032.19
457.497	1009.19
457.717	963.19
457.937	973.19
458.157	1007.19
458.377	971.19
458.598	970.19
458.818	979.19
459.038	1063.19
459.258	1067.19
459.478	1109.19
459.698	1057.19
459.918	1094.19
460.138	1123.19
460.358	1171.19
460.578	1190.19
460.798	1231.19
461.018	1290.19
461.238	1243.19
461.458	1234.19
461.678	1196.19
461.898	1184.19
462.118	1152.19
462.338	1204.19
462.558	1199.19
462.777	1218.19
462.997	1263.19
463.217	1321.19
463.437	1280.19
463.657	1219.19
463.876	1153.19
464.096	1168.19
464.316	1192.19
464.536	1232.19
464.755	1238.19
464.975	1255.19
465.195	1208.19
465.414	1241.19
465.634	1236.19
465.854	1243.19
466.073	1303.19
466.293	1289.19
466.512	1149.19
466.732	1138.19
466.951	1200.19
467.171	1174.19
467.391	1133.19
467.61	1149.19
467.829	1154.19
468.049	1243.19
468.268	1371.19
468.488	1265.19
468.707	1187.19
468.927	1184.19
469.146	1148.19
469.365	1185.19
469.585	1211.19
469.804	1197.19
470.023	1174.19
470.243	1212.19
470.462	1211.19
470.681	1151.19
470.901	1184.19
471.12	1186.19
471.339	1172.19
471.558	1179.19
471.777	1145.19
471.997	1183.19
472.216	1115.19
472.435	1053.19
472.654	1085.19
472.873	1134.19
473.092	1188.19
473.311	1129.19
473.53	1075.19
473.749	1079.19
473.968	1115.19
474.187	1172.19
474.406	1158.19
474.625	1151.19
474.844	1151.19
475.063	1164.19
475.282	1194.19
475.501	1149.19
475.72	1169.19
475.939	1246.19
476.158	1189.19
476.377	1170.19
476.596	1140.19
476.814	1118.19
477.033	1159.19
477.252	1215.19
477.471	1252.19
477.69	1221.19
477.908	1213.19
478.127	1279.19
478.346	1382.19
478.564	1368.19
478.783	1335.19
479.002	1374.19
479.22	1385.19
479.439	1404.19
479.658	1505.19
479.876	1460.19
480.095	1327.19
480.313	1313.19
480.532	1225.19
480.751	1238.19
480.969	1224.19
481.188	1202.19
481.406	1195.19
481.624	1182.19
481.843	1231.19
482.061	1209.19
482.28	1287.19
482.498	1250.19
482.717	1245.19
482.935	1244.19
483.153	1304.19
483.372	1316.19
483.59	1317.19
483.808	1282.19
484.027	1279.19
484.245	1375.19
484.463	1682.19
484.681	1769.19
484.9	1386.19
485.118	1315.19
485.336	1284.19
485.554	1301.19
485.772	1330.19
485.99	1318.19
486.209	1301.19
486.427	1364.19
486.645	1361.19
486.863	1340.19
487.081	1386.19
487.299	1409.19
487.517	1358.19
487.735	1403.19
487.953	1443.19
488.171	1437.19
488.389	1399.19
488.607	1385.19
488.825	1511.19
489.043	1450.19
489.261	1336.19
489.479	1391.19
489.696	1419.19
489.914	1376.19
490.132	1395.19
490.35	1397.19
490.568	1449.19
490.786	1451.19
491.003	1408.19
491.221	1458.19
491.439	1523.19
491.657	1533.19
491.874	1546.19
492.092	1586.19
492.31	1619.19
492.527	1587.19
492.745	1558.19
492.963	1544.19
493.18	1543.19
493.398	1606.19
493.615	1611.19
493.833	1519.19
494.05	1491.19
494.268	1469.19
494.485	1494.19
