Data from WStandard_LampEnergy5.5LIBS07252019.E.O._I.C._HRD10591_16-07-41-919.txt Node
Date: Thu Jul 25 16:07:41 EDT 2019
User: cochatt
Spectrometer: HR+D1059
Trigger mode: 1
Integration Time (sec): 1.000000E-1
Scans to average: 1
Electric dark correction enabled: true
Nonlinearity correction enabled: false
Boxcar width: 0
XAxis mode: Wavelengths
Number of Pixels in Spectrum: 2048
>>>>>Begin Spectral Data<<<<<
223.165	-21.94
223.4	-21.94
223.635	-21.94
223.869	-17.94
224.104	-20.94
224.338	-13.94
224.573	-16.94
224.808	-11.94
225.042	-13.94
225.277	-2.94
225.511	13.06
225.746	5.06
225.98	0.06
226.215	12.06
226.449	29.06
226.683	16.06
226.918	33.06
227.152	12.06
227.387	31.06
227.621	36.06
227.856	42.06
228.09	41.06
228.324	57.06
228.559	56.06
228.793	143.06
229.027	356.06
229.262	367.06
229.496	391.06
229.73	398.06
229.964	455.06
230.199	470.06
230.433	498.06
230.667	509.06
230.901	549.06
231.136	517.06
231.37	474.06
231.604	462.06
231.838	474.06
232.072	488.06
232.306	442.06
232.541	497.06
232.775	580.06
233.009	647.06
233.243	596.06
233.477	552.06
233.711	574.06
233.945	585.06
234.179	572.06
234.413	593.06
234.647	673.06
234.881	608.06
235.115	555.06
235.349	568.06
235.583	586.06
235.817	580.06
236.051	562.06
236.285	556.06
236.519	607.06
236.753	684.06
236.987	718.06
237.221	687.06
237.455	800.06
237.689	775.06
237.922	697.06
238.156	668.06
238.39	693.06
238.624	730.06
238.858	791.06
239.091	788.06
239.325	843.06
239.559	961.06
239.793	1011.06
240.027	1065.06
240.26	1073.06
240.494	791.06
240.728	739.06
240.961	785.06
241.195	774.06
241.429	843.06
241.662	866.06
241.896	793.06
242.13	779.06
242.363	866.06
242.597	924.06
242.83	930.06
243.064	917.06
243.298	1009.06
243.531	967.06
243.765	984.06
243.998	938.06
244.232	846.06
244.465	807.06
244.699	818.06
244.932	927.06
245.166	1073.06
245.399	1008.06
245.633	945.06
245.866	928.06
246.099	993.06
246.333	1018.06
246.566	1003.06
246.8	1104.06
247.033	1235.06
247.266	1161.06
247.5	1090.06
247.733	1071.06
247.966	1159.06
248.2	1281.06
248.433	1227.06
248.666	1267.06
248.899	1363.06
249.133	1583.06
249.366	1821.06
249.599	1475.06
249.832	1268.06
250.066	1297.06
250.299	1354.06
250.532	1269.06
250.765	1116.06
250.998	1173.06
251.231	1237.06
251.465	1265.06
251.698	1221.06
251.931	1213.06
252.164	1266.06
252.397	1317.06
252.63	1303.06
252.863	1161.06
253.096	1124.06
253.329	1196.06
253.562	1208.06
253.795	1336.06
254.028	1344.06
254.261	1249.06
254.494	1203.06
254.727	1139.06
254.96	1153.06
255.193	1299.06
255.426	1449.06
255.659	1675.06
255.892	1766.06
256.124	1446.06
256.357	1353.06
256.59	1478.06
256.823	1467.06
257.056	1465.06
257.289	1727.06
257.521	2004.06
257.754	1761.06
257.987	1646.06
258.22	1791.06
258.452	1824.06
258.685	1458.06
258.918	1411.06
259.151	1424.06
259.383	1355.06
259.616	1186.06
259.849	1256.06
260.081	1429.06
260.314	1593.06
260.547	1752.06
260.779	1802.06
261.012	1658.06
261.244	1493.06
261.477	1428.06
261.71	1448.06
261.942	1447.06
262.175	1399.06
262.407	1521.06
262.64	1442.06
262.872	1353.06
263.105	1261.06
263.337	1324.06
263.57	1329.06
263.802	1359.06
264.035	1277.06
264.267	1211.06
264.499	1160.06
264.732	1240.06
264.964	1329.06
265.197	1391.06
265.429	1457.06
265.661	1617.06
265.894	1802.06
266.126	1845.06
266.358	1654.06
266.591	1719.06
266.823	1860.06
267.055	1667.06
267.287	1667.06
267.52	1627.06
267.752	1624.06
267.984	1580.06
268.216	1649.06
268.448	1734.06
268.681	1715.06
268.913	1567.06
269.145	1455.06
269.377	1436.06
269.609	1551.06
269.841	1809.06
270.073	2083.06
270.306	2357.06
270.538	2575.06
270.77	2100.06
271.002	1770.06
271.234	1689.06
271.466	1674.06
271.698	1881.06
271.93	2279.06
272.162	2307.06
272.394	2031.06
272.626	1988.06
272.858	1746.06
273.09	1531.06
273.322	1493.06
273.553	1405.06
273.785	1407.06
274.017	1464.06
274.249	1603.06
274.481	1629.06
274.713	1499.06
274.945	1441.06
275.176	1447.06
275.408	1439.06
275.64	1428.06
275.872	1393.06
276.104	1501.06
276.335	1701.06
276.567	1918.06
276.799	1988.06
277.031	1757.06
277.262	1679.06
277.494	1735.06
277.726	1916.06
277.957	1908.06
278.189	1731.06
278.421	1575.06
278.652	1562.06
278.884	1514.06
279.115	1499.06
279.347	1588.06
279.579	1508.06
279.81	1488.06
280.042	1676.06
280.273	1845.06
280.505	1841.06
280.736	1874.06
280.968	1741.06
281.199	1565.06
281.431	1496.06
281.662	1464.06
281.894	1491.06
282.125	1498.06
282.356	1565.06
282.588	1610.06
282.819	1605.06
283.051	1680.06
283.282	1865.06
283.513	1815.06
283.745	1556.06
283.976	1453.06
284.207	1463.06
284.439	1527.06
284.67	1512.06
284.901	1561.06
285.132	1588.06
285.364	1594.06
285.595	1590.06
285.826	1552.06
286.057	1565.06
286.288	1520.06
286.52	1589.06
286.751	1728.06
286.982	1785.06
287.213	1653.06
287.444	1530.06
287.675	1474.06
287.906	1585.06
288.138	1666.06
288.369	1629.06
288.6	1538.06
288.831	1505.06
289.062	1510.06
289.293	1583.06
289.524	1561.06
289.755	1645.06
289.986	1642.06
290.217	1485.06
290.448	1509.06
290.679	1621.06
290.91	1589.06
291.141	1636.06
291.371	1715.06
291.602	1651.06
291.833	1621.06
292.064	1764.06
292.295	1632.06
292.526	1740.06
292.757	1793.06
292.987	1668.06
293.218	1584.06
293.449	1681.06
293.68	1912.06
293.91	2090.06
294.141	1936.06
294.372	1816.06
294.603	1885.06
294.833	1997.06
295.064	1881.06
295.295	1702.06
295.525	1644.06
295.756	1519.06
295.987	1411.06
296.217	1481.06
296.448	1506.06
296.679	1567.06
296.909	1572.06
297.14	1507.06
297.37	1542.06
297.601	1638.06
297.831	1786.06
298.062	1825.06
298.292	1642.06
298.523	1556.06
298.753	1550.06
298.984	1619.06
299.214	1608.06
299.445	1616.06
299.675	1644.06
299.905	1641.06
300.136	1595.06
300.366	1584.06
300.597	1548.06
300.827	1525.06
301.057	1612.06
301.288	1666.06
301.518	1681.06
301.748	1685.06
301.979	1773.06
302.209	1800.06
302.439	1937.06
302.669	2026.06
302.9	1866.06
303.13	1687.06
303.36	1699.06
303.59	1731.06
303.82	1719.06
304.051	1708.06
304.281	1701.06
304.511	1660.06
304.741	1791.06
304.971	1949.06
305.201	2140.06
305.431	2018.06
305.661	1655.06
305.891	1495.06
306.121	1467.06
306.352	1548.06
306.582	1634.06
306.812	1717.06
307.042	1878.06
307.272	1865.06
307.502	1941.06
307.731	2079.06
307.961	2220.06
308.191	2080.06
308.421	1775.06
308.651	1647.06
308.881	1612.06
309.111	1619.06
309.341	1598.06
309.571	1604.06
309.8	1584.06
310.03	1607.06
310.26	1618.06
310.49	1606.06
310.72	1655.06
310.949	1689.06
311.179	1731.06
311.409	1694.06
311.639	1655.06
311.868	1629.06
312.098	1665.06
312.328	1663.06
312.557	1589.06
312.787	1669.06
313.017	1688.06
313.246	1719.06
313.476	1668.06
313.706	1779.06
313.935	1740.06
314.165	1736.06
314.394	1766.06
314.624	1861.06
314.853	1950.06
315.083	2085.06
315.312	2147.06
315.542	1956.06
315.771	1765.06
316.001	1733.06
316.23	1850.06
316.46	1846.06
316.689	1808.06
316.919	1689.06
317.148	1677.06
317.377	1653.06
317.607	1761.06
317.836	1998.06
318.065	2088.06
318.295	2010.06
318.524	1954.06
318.753	1825.06
318.983	1841.06
319.212	1833.06
319.441	1768.06
319.67	1744.06
319.9	1770.06
320.129	1862.06
320.358	1927.06
320.587	2034.06
320.816	1959.06
321.046	1964.06
321.275	1818.06
321.504	1825.06
321.733	2009.06
321.962	1944.06
322.191	1775.06
322.42	1752.06
322.649	1747.06
322.878	1759.06
323.108	1753.06
323.337	1836.06
323.566	1872.06
323.795	1814.06
324.024	1824.06
324.253	1782.06
324.482	1843.06
324.71	1767.06
324.939	1656.06
325.168	1704.06
325.397	1749.06
325.626	1806.06
325.855	1831.06
326.084	1773.06
326.313	1764.06
326.542	1804.06
326.77	1830.06
326.999	1849.06
327.228	1778.06
327.457	1692.06
327.686	1705.06
327.914	1731.06
328.143	1785.06
328.372	1767.06
328.6	1785.06
328.829	1775.06
329.058	1711.06
329.287	1698.06
329.515	1769.06
329.744	1794.06
329.972	1876.06
330.201	1997.06
330.43	1930.06
330.658	1878.06
330.887	1833.06
331.115	1885.06
331.344	1915.06
331.572	1835.06
331.801	1839.06
332.03	1843.06
332.258	1883.06
332.486	1948.06
332.715	1888.06
332.943	1929.06
333.172	1867.06
333.4	1902.06
333.629	1913.06
333.857	2039.06
334.085	2239.06
334.314	2488.06
334.542	2792.06
334.771	2585.06
334.999	2233.06
335.227	2111.06
335.455	2006.06
335.684	1988.06
335.912	2010.06
336.14	2118.06
336.369	2026.06
336.597	1921.06
336.825	1907.06
337.053	1959.06
337.281	2057.06
337.51	2110.06
337.738	2236.06
337.966	2144.06
338.194	1911.06
338.422	1878.06
338.65	1858.06
338.878	1831.06
339.106	1796.06
339.334	1732.06
339.562	1733.06
339.79	1728.06
340.018	1891.06
340.246	1967.06
340.474	1981.06
340.702	1954.06
340.93	1967.06
341.158	1922.06
341.386	1833.06
341.614	1858.06
341.842	1822.06
342.07	1829.06
342.298	1861.06
342.526	1862.06
342.754	1844.06
342.981	1830.06
343.209	1822.06
343.437	1788.06
343.665	1851.06
343.893	1868.06
344.12	1948.06
344.348	2016.06
344.576	1920.06
344.804	1857.06
345.031	1828.06
345.259	1858.06
345.487	1791.06
345.714	1727.06
345.942	1664.06
346.17	1739.06
346.397	1713.06
346.625	1785.06
346.853	1686.06
347.08	1613.06
347.308	1670.06
347.535	1699.06
347.763	1798.06
347.99	1742.06
348.218	1661.06
348.445	1661.06
348.673	1713.06
348.9	1759.06
349.128	1789.06
349.355	1873.06
349.583	1804.06
349.81	1726.06
350.037	1609.06
350.265	1585.06
350.492	1617.06
350.72	1661.06
350.947	1735.06
351.174	1764.06
351.402	1689.06
351.629	1599.06
351.856	1578.06
352.083	1575.06
352.311	1566.06
352.538	1662.06
352.765	1706.06
352.992	1757.06
353.22	1685.06
353.447	1642.06
353.674	1662.06
353.901	1707.06
354.128	1691.06
354.355	1613.06
354.583	1728.06
354.81	1753.06
355.037	1760.06
355.264	1777.06
355.491	1694.06
355.718	1724.06
355.945	1705.06
356.172	1649.06
356.399	1621.06
356.626	1660.06
356.853	1696.06
357.08	1805.06
357.307	1983.06
357.534	2002.06
357.761	1766.06
357.988	1628.06
358.215	1609.06
358.441	1601.06
358.668	1611.06
358.895	1598.06
359.122	1685.06
359.349	1918.06
359.576	1881.06
359.802	1685.06
360.029	1654.06
360.256	1610.06
360.483	1659.06
360.709	1675.06
360.936	1768.06
361.163	1831.06
361.39	1940.06
361.616	2159.06
361.843	2065.06
362.07	1947.06
362.296	1721.06
362.523	1655.06
362.749	1671.06
362.976	1705.06
363.203	1728.06
363.429	1663.06
363.656	1645.06
363.882	1700.06
364.109	1860.06
364.335	2049.06
364.562	1864.06
364.788	1816.06
365.015	1743.06
365.241	1657.06
365.468	1676.06
365.694	1698.06
365.92	1821.06
366.147	1779.06
366.373	1636.06
366.599	1610.06
366.826	1608.06
367.052	1692.06
367.278	1665.06
367.505	1706.06
367.731	1722.06
367.957	1707.06
368.184	1782.06
368.41	1847.06
368.636	1872.06
368.862	1859.06
369.089	1922.06
369.315	1804.06
369.541	1782.06
369.767	1706.06
369.993	1639.06
370.219	1657.06
370.445	1714.06
370.672	1802.06
370.898	1904.06
371.124	1917.06
371.35	1768.06
371.576	1784.06
371.802	1893.06
372.028	1820.06
372.254	1720.06
372.48	1706.06
372.706	1686.06
372.932	1715.06
373.158	1695.06
373.384	1727.06
373.61	1803.06
373.835	1835.06
374.061	1792.06
374.287	1743.06
374.513	1741.06
374.739	1789.06
374.965	1786.06
375.191	1819.06
375.416	1850.06
375.642	1827.06
375.868	1925.06
376.094	1980.06
376.319	1941.06
376.545	1752.06
376.771	1767.06
376.997	1891.06
377.222	1870.06
377.448	1828.06
377.674	1844.06
377.899	1848.06
378.125	1934.06
378.35	1959.06
378.576	1800.06
378.802	1745.06
379.027	1728.06
379.253	1716.06
379.478	1771.06
379.704	1784.06
379.929	1741.06
380.155	1758.06
380.38	1759.06
380.606	1806.06
380.831	1787.06
381.057	1875.06
381.282	1854.06
381.507	1849.06
381.733	1961.06
381.958	2035.06
382.184	1893.06
382.409	1810.06
382.634	1851.06
382.86	1830.06
383.085	1838.06
383.31	1852.06
383.535	2010.06
383.761	2148.06
383.986	2062.06
384.211	1970.06
384.436	1956.06
384.662	2048.06
384.887	2136.06
385.112	2073.06
385.337	2088.06
385.562	2009.06
385.787	2048.06
386.013	2101.06
386.238	2051.06
386.463	2064.06
386.688	2168.06
386.913	2324.06
387.138	2307.06
387.363	2058.06
387.588	2087.06
387.813	2088.06
388.038	2080.06
388.263	2173.06
388.488	2096.06
388.713	1885.06
388.938	1923.06
389.163	1920.06
389.387	1994.06
389.612	1974.06
389.837	2042.06
390.062	2029.06
390.287	2012.06
390.512	2004.06
390.736	1982.06
390.961	1921.06
391.186	1916.06
391.411	1916.06
391.636	1988.06
391.86	2024.06
392.085	2021.06
392.31	1973.06
392.534	2027.06
392.759	2021.06
392.984	2012.06
393.208	2073.06
393.433	2102.06
393.658	2170.06
393.882	2203.06
394.107	2052.06
394.331	1985.06
394.556	1991.06
394.78	2033.06
395.005	2100.06
395.229	2154.06
395.454	2337.06
395.678	2329.06
395.903	2241.06
396.127	2107.06
396.352	2186.06
396.576	2145.06
396.801	2220.06
397.025	2157.06
397.249	2248.06
397.474	2177.06
397.698	2150.06
397.922	2219.06
398.147	2307.06
398.371	2408.06
398.595	2387.06
398.82	2266.06
399.044	2355.06
399.268	2412.06
399.492	2613.06
399.717	2702.06
399.941	2701.06
400.165	2710.06
400.389	2571.06
400.613	2548.06
400.837	2779.06
401.062	3199.06
401.286	2821.06
401.51	2538.06
401.734	2648.06
401.958	2557.06
402.182	2394.06
402.406	2254.06
402.63	2257.06
402.854	2257.06
403.078	2278.06
403.302	2385.06
403.526	2402.06
403.75	2409.06
403.974	2382.06
404.198	2406.06
404.422	2506.06
404.645	2577.06
404.869	2562.06
405.093	2359.06
405.317	2333.06
405.541	2440.06
405.765	2447.06
405.988	2377.06
406.212	2463.06
406.436	2492.06
406.66	2539.06
406.883	2578.06
407.107	2848.06
407.331	3173.06
407.555	3334.06
407.778	3158.06
408.002	2609.06
408.226	2526.06
408.449	2526.06
408.673	2452.06
408.896	2494.06
409.12	2521.06
409.344	2489.06
409.567	2323.06
409.791	2401.06
410.014	2430.06
410.238	2585.06
410.461	2697.06
410.685	2502.06
410.908	2316.06
411.132	2359.06
411.355	2343.06
411.578	2344.06
411.802	2385.06
412.025	2350.06
412.249	2350.06
412.472	2292.06
412.695	2270.06
412.919	2261.06
413.142	2241.06
413.365	2305.06
413.589	2369.06
413.812	2445.06
414.035	2533.06
414.258	2323.06
414.482	2259.06
414.705	2279.06
414.928	2280.06
415.151	2292.06
415.374	2266.06
415.597	2327.06
415.821	2349.06
416.044	2428.06
416.267	2449.06
416.49	2217.06
416.713	2169.06
416.936	2273.06
417.159	2391.06
417.382	2402.06
417.605	2224.06
417.828	2337.06
418.051	2388.06
418.274	2297.06
418.497	2212.06
418.72	2195.06
418.943	2181.06
419.166	2359.06
419.389	2508.06
419.611	2301.06
419.834	2256.06
420.057	2304.06
420.28	2210.06
420.503	2191.06
420.726	2282.06
420.948	2266.06
421.171	2169.06
421.394	2198.06
421.617	2273.06
421.839	2268.06
422.062	2201.06
422.285	2160.06
422.507	2163.06
422.73	2156.06
422.953	2061.06
423.175	2101.06
423.398	2207.06
423.621	2206.06
423.843	2195.06
424.066	2260.06
424.288	2316.06
424.511	2335.06
424.733	2296.06
424.956	2047.06
425.178	2082.06
425.401	2137.06
425.623	2121.06
425.846	2149.06
426.068	2254.06
426.291	2271.06
426.513	2225.06
426.735	2276.06
426.958	2395.06
427.18	2567.06
427.402	2307.06
427.625	2409.06
427.847	2398.06
428.069	2275.06
428.292	2186.06
428.514	2107.06
428.736	2079.06
428.958	2146.06
429.181	2125.06
429.403	2440.06
429.625	3010.06
429.847	2621.06
430.069	2177.06
430.292	2361.06
430.514	2492.06
430.736	2299.06
430.958	2400.06
431.18	2321.06
431.402	2129.06
431.624	2135.06
431.846	2150.06
432.068	2068.06
432.29	2089.06
432.512	2120.06
432.734	2199.06
432.956	2179.06
433.178	2316.06
433.4	2293.06
433.622	2319.06
433.844	2169.06
434.066	2109.06
434.287	2106.06
434.509	2199.06
434.731	2282.06
434.953	2434.06
435.175	2431.06
435.397	2238.06
435.618	2237.06
435.84	2272.06
436.062	2259.06
436.284	2263.06
436.505	2236.06
436.727	2276.06
436.949	2226.06
437.17	2168.06
437.392	2150.06
437.614	2185.06
437.835	2117.06
438.057	2261.06
438.278	2357.06
438.5	2163.06
438.721	2129.06
438.943	2144.06
439.165	2135.06
439.386	2093.06
439.608	2116.06
439.829	2115.06
440.05	2124.06
440.272	2071.06
440.493	2073.06
440.715	2086.06
440.936	2291.06
441.158	2536.06
441.379	2425.06
441.6	2411.06
441.822	2283.06
442.043	2289.06
442.264	2243.06
442.486	2136.06
442.707	2163.06
442.928	2085.06
443.149	2168.06
443.371	2334.06
443.592	2415.06
443.813	2360.06
444.034	2351.06
444.255	2334.06
444.476	2356.06
444.698	2440.06
444.919	2429.06
445.14	2481.06
445.361	2481.06
445.582	2585.06
445.803	2422.06
446.024	2347.06
446.245	2422.06
446.466	2351.06
446.687	2275.06
446.908	2229.06
447.129	2170.06
447.35	2174.06
447.571	2209.06
447.792	2113.06
448.013	2058.06
448.234	2115.06
448.455	2201.06
448.675	2258.06
448.896	2079.06
449.117	2009.06
449.338	2074.06
449.559	2154.06
449.779	2335.06
450	2521.06
450.221	2764.06
450.442	2646.06
450.662	2332.06
450.883	2007.06
451.104	1961.06
451.324	2045.06
451.545	2134.06
451.766	2079.06
451.986	1996.06
452.207	1989.06
452.428	1945.06
452.648	1882.06
452.869	1963.06
453.089	2079.06
453.31	2117.06
453.53	2138.06
453.751	2055.06
453.971	1905.06
454.192	1992.06
454.412	2121.06
454.633	2070.06
454.853	2008.06
455.073	1856.06
455.294	1833.06
455.514	1882.06
455.734	1891.06
455.955	1901.06
456.175	1929.06
456.395	1942.06
456.616	1991.06
456.836	1975.06
457.056	1938.06
457.276	1977.06
457.497	1899.06
457.717	1873.06
457.937	1917.06
458.157	1934.06
458.377	1892.06
458.598	1921.06
458.818	1889.06
459.038	2035.06
459.258	2206.06
459.478	2127.06
459.698	2102.06
459.918	2154.06
460.138	2231.06
460.358	2315.06
460.578	2309.06
460.798	2375.06
461.018	2482.06
461.238	2364.06
461.458	2298.06
461.678	2325.06
461.898	2289.06
462.118	2148.06
462.338	2297.06
462.558	2277.06
462.777	2262.06
462.997	2349.06
463.217	2552.06
463.437	2526.06
463.657	2311.06
463.876	2343.06
464.096	2268.06
464.316	2282.06
464.536	2386.06
464.755	2394.06
464.975	2385.06
465.195	2269.06
465.414	2444.06
465.634	2466.06
465.854	2275.06
466.073	2407.06
466.293	2430.06
466.512	2105.06
466.732	2093.06
466.951	2184.06
467.171	2181.06
467.391	2069.06
467.61	2034.06
467.829	2073.06
468.049	2184.06
468.268	2475.06
468.488	2364.06
468.707	2243.06
468.927	2153.06
469.146	2107.06
469.365	2055.06
469.585	2092.06
469.804	2058.06
470.023	2063.06
470.243	2101.06
470.462	2071.06
470.681	2028.06
470.901	2091.06
471.12	2081.06
471.339	2064.06
471.558	1977.06
471.777	1951.06
471.997	2040.06
472.216	2035.06
472.435	1978.06
472.654	2004.06
472.873	2092.06
473.092	2244.06
473.311	2182.06
473.53	1953.06
473.749	1962.06
473.968	2050.06
474.187	2167.06
474.406	2286.06
474.625	2167.06
474.844	2121.06
475.063	2084.06
475.282	2170.06
475.501	2080.06
475.72	2139.06
475.939	2253.06
476.158	2199.06
476.377	2069.06
476.596	2151.06
476.814	2179.06
477.033	2183.06
477.252	2284.06
477.471	2331.06
477.69	2199.06
477.908	2214.06
478.127	2276.06
478.346	2518.06
478.564	2508.06
478.783	2514.06
479.002	2529.06
479.22	2540.06
479.439	2592.06
479.658	2977.06
479.876	2906.06
480.095	2545.06
480.313	2447.06
480.532	2355.06
480.751	2367.06
480.969	2417.06
481.188	2370.06
481.406	2390.06
481.624	2302.06
481.843	2298.06
482.061	2407.06
482.28	2410.06
482.498	2444.06
482.717	2471.06
482.935	2360.06
483.153	2315.06
483.372	2381.06
483.59	2289.06
483.808	2339.06
484.027	2350.06
484.245	2542.06
484.463	2875.06
484.681	3349.06
484.9	2567.06
485.118	2387.06
485.336	2337.06
485.554	2432.06
485.772	2577.06
485.99	2500.06
486.209	2587.06
486.427	2501.06
486.645	2516.06
486.863	2472.06
487.081	2505.06
487.299	2592.06
