Data from WStandard_LampEnergy10_LIBS07252019.E.O._I.C._HRD10591_15-53-55-928.txt Node
Date: Thu Jul 25 15:53:55 EDT 2019
User: cochatt
Spectrometer: HR+D1059
Trigger mode: 1
Integration Time (sec): 1.000000E-1
Scans to average: 1
Electric dark correction enabled: true
Nonlinearity correction enabled: false
Boxcar width: 0
XAxis mode: Wavelengths
Number of Pixels in Spectrum: 2048
>>>>>Begin Spectral Data<<<<<
223.165	-18.25
223.4	-18.25
223.635	-18.25
223.869	1.75
224.104	-17.25
224.338	-18.25
224.573	-25.25
224.808	-21.25
225.042	-25.25
225.277	8.75
225.511	1.75
225.746	6.75
225.98	17.75
226.215	11.75
226.449	12.75
226.683	16.75
226.918	27.75
227.152	19.75
227.387	28.75
227.621	45.75
227.856	35.75
228.09	58.75
228.324	47.75
228.559	60.75
228.793	69.75
229.027	129.75
229.262	138.75
229.496	138.75
229.73	161.75
229.964	153.75
230.199	166.75
230.433	171.75
230.667	186.75
230.901	179.75
231.136	171.75
231.37	174.75
231.604	171.75
231.838	181.75
232.072	187.75
232.306	179.75
232.541	198.75
232.775	207.75
233.009	222.75
233.243	191.75
233.477	182.75
233.711	209.75
233.945	196.75
234.179	179.75
234.413	200.75
234.647	227.75
234.881	203.75
235.115	194.75
235.349	214.75
235.583	200.75
235.817	189.75
236.051	202.75
236.285	175.75
236.519	211.75
236.753	222.75
236.987	230.75
237.221	208.75
237.455	241.75
237.689	233.75
237.922	213.75
238.156	214.75
238.39	222.75
238.624	253.75
238.858	260.75
239.091	246.75
239.325	257.75
239.559	292.75
239.793	278.75
240.027	318.75
240.26	294.75
240.494	229.75
240.728	233.75
240.961	267.75
241.195	233.75
241.429	255.75
241.662	258.75
241.896	247.75
242.13	250.75
242.363	259.75
242.597	268.75
242.83	267.75
243.064	276.75
243.298	290.75
243.531	280.75
243.765	273.75
243.998	279.75
244.232	245.75
244.465	251.75
244.699	266.75
244.932	292.75
245.166	320.75
245.399	289.75
245.633	267.75
245.866	263.75
246.099	292.75
246.333	279.75
246.566	308.75
246.8	314.75
247.033	321.75
247.266	318.75
247.5	307.75
247.733	317.75
247.966	335.75
248.2	358.75
248.433	358.75
248.666	364.75
248.899	398.75
249.133	433.75
249.366	478.75
249.599	405.75
249.832	359.75
250.066	376.75
250.299	371.75
250.532	340.75
250.765	319.75
250.998	330.75
251.231	347.75
251.465	362.75
251.698	330.75
251.931	343.75
252.164	352.75
252.397	354.75
252.63	354.75
252.863	344.75
253.096	313.75
253.329	351.75
253.562	343.75
253.795	361.75
254.028	351.75
254.261	349.75
254.494	331.75
254.727	354.75
254.96	349.75
255.193	379.75
255.426	408.75
255.659	448.75
255.892	441.75
256.124	390.75
256.357	367.75
256.59	421.75
256.823	432.75
257.056	428.75
257.289	477.75
257.521	497.75
257.754	462.75
257.987	453.75
258.22	463.75
258.452	460.75
258.685	400.75
258.918	383.75
259.151	386.75
259.383	383.75
259.616	338.75
259.849	371.75
260.081	410.75
260.314	447.75
260.547	475.75
260.779	464.75
261.012	435.75
261.244	405.75
261.477	396.75
261.71	404.75
261.942	389.75
262.175	394.75
262.407	414.75
262.64	396.75
262.872	385.75
263.105	358.75
263.337	365.75
263.57	377.75
263.802	395.75
264.035	338.75
264.267	330.75
264.499	355.75
264.732	364.75
264.964	373.75
265.197	408.75
265.429	415.75
265.661	459.75
265.894	450.75
266.126	497.75
266.358	454.75
266.591	488.75
266.823	505.75
267.055	448.75
267.287	458.75
267.52	438.75
267.752	431.75
267.984	454.75
268.216	474.75
268.448	473.75
268.681	442.75
268.913	409.75
269.145	414.75
269.377	404.75
269.609	452.75
269.841	513.75
270.073	579.75
270.306	630.75
270.538	612.75
270.77	534.75
271.002	485.75
271.234	469.75
271.466	459.75
271.698	521.75
271.93	614.75
272.162	585.75
272.394	526.75
272.626	513.75
272.858	451.75
273.09	413.75
273.322	400.75
273.553	393.75
273.785	357.75
274.017	426.75
274.249	431.75
274.481	454.75
274.713	420.75
274.945	417.75
275.176	411.75
275.408	422.75
275.64	430.75
275.872	416.75
276.104	434.75
276.335	475.75
276.567	528.75
276.799	523.75
277.031	497.75
277.262	478.75
277.494	487.75
277.726	522.75
277.957	511.75
278.189	474.75
278.421	437.75
278.652	416.75
278.884	431.75
279.115	436.75
279.347	458.75
279.579	427.75
279.81	441.75
280.042	472.75
280.273	527.75
280.505	548.75
280.736	513.75
280.968	484.75
281.199	415.75
281.431	428.75
281.662	431.75
281.894	420.75
282.125	433.75
282.356	465.75
282.588	445.75
282.819	438.75
283.051	491.75
283.282	503.75
283.513	516.75
283.745	454.75
283.976	421.75
284.207	437.75
284.439	451.75
284.67	436.75
284.901	443.75
285.132	473.75
285.364	462.75
285.595	469.75
285.826	447.75
286.057	449.75
286.288	432.75
286.52	481.75
286.751	487.75
286.982	491.75
287.213	449.75
287.444	433.75
287.675	446.75
287.906	454.75
288.138	505.75
288.369	480.75
288.6	456.75
288.831	452.75
289.062	450.75
289.293	445.75
289.524	442.75
289.755	468.75
289.986	457.75
290.217	427.75
290.448	437.75
290.679	459.75
290.91	469.75
291.141	488.75
291.371	483.75
291.602	472.75
291.833	484.75
292.064	493.75
292.295	491.75
292.526	513.75
292.757	527.75
292.987	501.75
293.218	458.75
293.449	525.75
293.68	586.75
293.91	598.75
294.141	545.75
294.372	522.75
294.603	548.75
294.833	557.75
295.064	518.75
295.295	484.75
295.525	469.75
295.756	458.75
295.987	443.75
296.217	439.75
296.448	462.75
296.679	453.75
296.909	470.75
297.14	465.75
297.37	484.75
297.601	509.75
297.831	509.75
298.062	516.75
298.292	488.75
298.523	473.75
298.753	467.75
298.984	470.75
299.214	494.75
299.445	500.75
299.675	495.75
299.905	485.75
300.136	493.75
300.366	464.75
300.597	447.75
300.827	477.75
301.057	494.75
301.288	527.75
301.518	531.75
301.748	519.75
301.979	546.75
302.209	563.75
302.439	574.75
302.669	587.75
302.9	533.75
303.13	521.75
303.36	509.75
303.59	502.75
303.82	513.75
304.051	521.75
304.281	526.75
304.511	533.75
304.741	578.75
304.971	606.75
305.201	632.75
305.431	574.75
305.661	467.75
305.891	458.75
306.121	445.75
306.352	489.75
306.582	515.75
306.812	537.75
307.042	574.75
307.272	586.75
307.502	595.75
307.731	631.75
307.961	642.75
308.191	561.75
308.421	513.75
308.651	504.75
308.881	502.75
309.111	481.75
309.341	499.75
309.571	515.75
309.8	487.75
310.03	468.75
310.26	506.75
310.49	481.75
310.72	521.75
310.949	537.75
311.179	536.75
311.409	520.75
311.639	499.75
311.868	504.75
312.098	506.75
312.328	488.75
312.557	519.75
312.787	522.75
313.017	527.75
313.246	535.75
313.476	531.75
313.706	531.75
313.935	542.75
314.165	532.75
314.394	566.75
314.624	583.75
314.853	613.75
315.083	630.75
315.312	643.75
315.542	591.75
315.771	553.75
316.001	546.75
316.23	574.75
316.46	532.75
316.689	561.75
316.919	530.75
317.148	537.75
317.377	537.75
317.607	599.75
317.836	632.75
318.065	631.75
318.295	591.75
318.524	599.75
318.753	574.75
318.983	583.75
319.212	569.75
319.441	542.75
319.67	553.75
319.9	570.75
320.129	612.75
320.358	597.75
320.587	619.75
320.816	613.75
321.046	613.75
321.275	581.75
321.504	584.75
321.733	634.75
321.962	588.75
322.191	567.75
322.42	557.75
322.649	567.75
322.878	533.75
323.108	559.75
323.337	577.75
323.566	564.75
323.795	559.75
324.024	584.75
324.253	561.75
324.482	567.75
324.71	530.75
324.939	526.75
325.168	555.75
325.397	559.75
325.626	551.75
325.855	564.75
326.084	558.75
326.313	560.75
326.542	572.75
326.77	605.75
326.999	561.75
327.228	560.75
327.457	522.75
327.686	549.75
327.914	559.75
328.143	563.75
328.372	552.75
328.6	559.75
328.829	532.75
329.058	543.75
329.287	551.75
329.515	552.75
329.744	577.75
329.972	612.75
330.201	599.75
330.43	614.75
330.658	588.75
330.887	599.75
331.115	591.75
331.344	604.75
331.572	621.75
331.801	583.75
332.03	603.75
332.258	599.75
332.486	614.75
332.715	627.75
332.943	599.75
333.172	594.75
333.4	623.75
333.629	643.75
333.857	655.75
334.085	751.75
334.314	840.75
334.542	849.75
334.771	743.75
334.999	681.75
335.227	647.75
335.455	629.75
335.684	655.75
335.912	642.75
336.14	666.75
336.369	632.75
336.597	609.75
336.825	607.75
337.053	633.75
337.281	647.75
337.51	693.75
337.738	707.75
337.966	652.75
338.194	628.75
338.422	633.75
338.65	572.75
338.878	582.75
339.106	580.75
339.334	569.75
339.562	570.75
339.79	585.75
340.018	600.75
340.246	631.75
340.474	634.75
340.702	618.75
340.93	624.75
341.158	624.75
341.386	590.75
341.614	591.75
341.842	575.75
342.07	625.75
342.298	597.75
342.526	610.75
342.754	585.75
342.981	595.75
343.209	587.75
343.437	597.75
343.665	629.75
343.893	617.75
344.12	627.75
344.348	611.75
344.576	599.75
344.804	609.75
345.031	615.75
345.259	599.75
345.487	571.75
345.714	558.75
345.942	539.75
346.17	549.75
346.397	577.75
346.625	587.75
346.853	541.75
347.08	524.75
347.308	549.75
347.535	589.75
347.763	583.75
347.99	550.75
348.218	569.75
348.445	557.75
348.673	586.75
348.9	606.75
349.128	619.75
349.355	608.75
349.583	602.75
349.81	577.75
350.037	498.75
350.265	529.75
350.492	531.75
350.72	550.75
350.947	569.75
351.174	575.75
351.402	561.75
351.629	552.75
351.856	534.75
352.083	517.75
352.311	570.75
352.538	563.75
352.765	579.75
352.992	601.75
353.22	573.75
353.447	531.75
353.674	551.75
353.901	547.75
354.128	561.75
354.355	554.75
354.583	594.75
354.81	599.75
355.037	583.75
355.264	599.75
355.491	568.75
355.718	574.75
355.945	578.75
356.172	547.75
356.399	544.75
356.626	557.75
356.853	585.75
357.08	657.75
357.307	675.75
357.534	617.75
357.761	574.75
357.988	565.75
358.215	550.75
358.441	558.75
358.668	556.75
358.895	578.75
359.122	610.75
359.349	645.75
359.576	605.75
359.802	584.75
360.029	570.75
360.256	549.75
360.483	570.75
360.709	582.75
360.936	615.75
361.163	631.75
361.39	711.75
361.616	725.75
361.843	713.75
362.07	644.75
362.296	574.75
362.523	554.75
362.749	552.75
362.976	598.75
363.203	593.75
363.429	567.75
363.656	558.75
363.882	606.75
364.109	678.75
364.335	654.75
364.562	641.75
364.788	617.75
365.015	589.75
365.241	563.75
365.468	591.75
365.694	602.75
365.92	635.75
366.147	571.75
366.373	575.75
366.599	581.75
366.826	562.75
367.052	568.75
367.278	582.75
367.505	582.75
367.731	606.75
367.957	607.75
368.184	650.75
368.41	679.75
368.636	675.75
368.862	677.75
369.089	676.75
369.315	642.75
369.541	611.75
369.767	600.75
369.993	570.75
370.219	586.75
370.445	622.75
370.672	657.75
370.898	697.75
371.124	673.75
371.35	621.75
371.576	631.75
371.802	661.75
372.028	621.75
372.254	612.75
372.48	605.75
372.706	609.75
372.932	628.75
373.158	602.75
373.384	607.75
373.61	647.75
373.835	633.75
374.061	640.75
374.287	618.75
374.513	623.75
374.739	610.75
374.965	644.75
375.191	651.75
375.416	668.75
375.642	663.75
375.868	685.75
376.094	720.75
376.319	660.75
376.545	642.75
376.771	694.75
376.997	704.75
377.222	674.75
377.448	668.75
377.674	680.75
377.899	689.75
378.125	728.75
378.35	677.75
378.576	645.75
378.802	629.75
379.027	607.75
379.253	630.75
379.478	612.75
379.704	633.75
379.929	663.75
380.155	669.75
380.38	662.75
380.606	689.75
380.831	681.75
381.057	712.75
381.282	675.75
381.507	692.75
381.733	741.75
381.958	729.75
382.184	675.75
382.409	697.75
382.634	680.75
382.86	679.75
383.085	657.75
383.31	700.75
383.535	805.75
383.761	813.75
383.986	782.75
384.211	733.75
384.436	708.75
384.662	785.75
384.887	785.75
385.112	714.75
385.337	773.75
385.562	724.75
385.787	733.75
386.013	771.75
386.238	753.75
386.463	761.75
386.688	860.75
386.913	859.75
387.138	782.75
387.363	788.75
387.588	771.75
387.813	769.75
388.038	790.75
388.263	813.75
388.488	770.75
388.713	717.75
388.938	706.75
389.163	719.75
389.387	734.75
389.612	751.75
389.837	759.75
390.062	761.75
390.287	760.75
390.512	741.75
390.736	773.75
390.961	737.75
391.186	726.75
391.411	731.75
391.636	726.75
391.86	743.75
392.085	740.75
392.31	751.75
392.534	739.75
392.759	752.75
392.984	752.75
393.208	795.75
393.433	808.75
393.658	836.75
393.882	797.75
394.107	767.75
394.331	785.75
394.556	804.75
394.78	795.75
395.005	827.75
395.229	847.75
395.454	880.75
395.678	865.75
395.903	815.75
396.127	802.75
396.352	849.75
396.576	848.75
396.801	846.75
397.025	839.75
397.249	805.75
397.474	822.75
397.698	829.75
397.922	843.75
398.147	889.75
398.371	893.75
398.595	881.75
398.82	884.75
399.044	915.75
399.268	907.75
399.492	975.75
399.717	1000.75
399.941	1006.75
400.165	988.75
400.389	965.75
400.613	1009.75
400.837	1126.75
401.062	1191.75
401.286	1029.75
401.51	1017.75
401.734	989.75
401.958	955.75
402.182	894.75
402.406	883.75
402.63	895.75
402.854	902.75
403.078	898.75
403.302	937.75
403.526	925.75
403.75	905.75
403.974	950.75
404.198	951.75
404.422	987.75
404.645	1005.75
404.869	965.75
405.093	923.75
405.317	910.75
405.541	898.75
405.765	918.75
405.988	930.75
406.212	954.75
406.436	981.75
406.66	1006.75
406.883	1033.75
407.107	1121.75
407.331	1224.75
407.555	1267.75
407.778	1113.75
408.002	976.75
408.226	962.75
408.449	978.75
408.673	979.75
408.896	931.75
409.12	962.75
409.344	941.75
409.567	909.75
409.791	958.75
410.014	980.75
410.238	1026.75
410.461	1055.75
410.685	949.75
410.908	929.75
411.132	982.75
411.355	943.75
411.578	943.75
411.802	947.75
412.025	952.75
412.249	917.75
412.472	904.75
412.695	907.75
412.919	918.75
413.142	945.75
413.365	938.75
413.589	956.75
413.812	1027.75
414.035	1021.75
414.258	947.75
414.482	897.75
414.705	930.75
414.928	906.75
415.151	912.75
415.374	915.75
415.597	949.75
415.821	931.75
416.044	951.75
416.267	933.75
416.49	903.75
416.713	919.75
416.936	957.75
417.159	968.75
417.382	941.75
417.605	930.75
417.828	930.75
418.051	950.75
418.274	956.75
418.497	932.75
418.72	929.75
418.943	925.75
419.166	949.75
419.389	1001.75
419.611	950.75
419.834	947.75
420.057	957.75
420.28	931.75
420.503	936.75
420.726	987.75
420.948	949.75
421.171	923.75
421.394	928.75
421.617	981.75
421.839	1010.75
422.062	972.75
422.285	936.75
422.507	963.75
422.73	908.75
422.953	901.75
423.175	885.75
423.398	932.75
423.621	919.75
423.843	946.75
424.066	985.75
424.288	1027.75
424.511	1021.75
424.733	1007.75
424.956	953.75
425.178	921.75
425.401	928.75
425.623	928.75
425.846	918.75
426.068	967.75
426.291	974.75
426.513	959.75
426.735	951.75
426.958	1052.75
427.18	1024.75
427.402	1009.75
427.625	1033.75
427.847	980.75
428.069	949.75
428.292	911.75
428.514	902.75
428.736	897.75
428.958	925.75
429.181	953.75
429.403	1090.75
429.625	1240.75
429.847	1060.75
430.069	947.75
430.292	1047.75
430.514	1024.75
430.736	974.75
430.958	1009.75
431.18	931.75
431.402	910.75
431.624	834.75
431.846	804.75
432.068	729.75
432.29	753.75
432.512	767.75
432.734	903.75
432.956	932.75
433.178	977.75
433.4	964.75
433.622	969.75
433.844	901.75
434.066	853.75
434.287	804.75
434.509	788.75
434.731	853.75
434.953	895.75
435.175	945.75
435.397	914.75
435.618	893.75
435.84	845.75
436.062	857.75
436.284	907.75
436.505	920.75
436.727	934.75
436.949	916.75
437.17	915.75
437.392	897.75
437.614	875.75
437.835	779.75
438.057	814.75
438.278	833.75
438.5	854.75
438.721	867.75
438.943	912.75
439.165	941.75
439.386	933.75
439.608	961.75
439.829	953.75
440.05	945.75
440.272	959.75
440.493	992.75
440.715	986.75
440.936	1007.75
441.158	1077.75
441.379	1025.75
441.6	1045.75
441.822	1021.75
442.043	1006.75
442.264	1011.75
442.486	954.75
442.707	961.75
442.928	950.75
443.149	985.75
443.371	980.75
443.592	1033.75
443.813	1027.75
444.034	1033.75
444.255	983.75
444.476	998.75
444.698	1013.75
444.919	1057.75
445.14	1071.75
445.361	1083.75
445.582	1121.75
445.803	1045.75
446.024	1035.75
446.245	1087.75
446.466	1061.75
446.687	1045.75
446.908	1062.75
447.129	1013.75
447.35	1045.75
447.571	981.75
447.792	968.75
448.013	955.75
448.234	971.75
448.455	985.75
448.675	980.75
448.896	926.75
449.117	906.75
449.338	915.75
449.559	988.75
449.779	969.75
450	1021.75
450.221	1052.75
450.442	1018.75
450.662	942.75
450.883	899.75
451.104	867.75
451.324	883.75
451.545	878.75
451.766	870.75
451.986	825.75
452.207	824.75
452.428	778.75
452.648	803.75
452.869	758.75
453.089	773.75
453.31	759.75
453.53	779.75
453.751	752.75
453.971	695.75
454.192	757.75
454.412	759.75
454.633	777.75
454.853	781.75
455.073	736.75
455.294	785.75
455.514	785.75
455.734	782.75
455.955	759.75
456.175	734.75
456.395	736.75
456.616	750.75
456.836	743.75
457.056	737.75
457.276	705.75
457.497	716.75
457.717	677.75
457.937	727.75
458.157	717.75
458.377	696.75
458.598	686.75
458.818	661.75
459.038	696.75
459.258	697.75
459.478	716.75
459.698	697.75
459.918	752.75
460.138	803.75
460.358	808.75
460.578	834.75
460.798	848.75
461.018	898.75
461.238	855.75
461.458	842.75
461.678	842.75
461.898	802.75
462.118	818.75
462.338	849.75
462.558	831.75
462.777	867.75
462.997	871.75
463.217	893.75
463.437	867.75
463.657	873.75
463.876	832.75
464.096	810.75
464.316	834.75
464.536	855.75
464.755	891.75
464.975	869.75
465.195	877.75
465.414	899.75
465.634	906.75
465.854	899.75
466.073	969.75
466.293	938.75
466.512	885.75
466.732	881.75
466.951	906.75
467.171	909.75
467.391	861.75
467.61	886.75
467.829	882.75
468.049	989.75
468.268	1025.75
468.488	963.75
468.707	949.75
468.927	896.75
469.146	910.75
469.365	933.75
469.585	947.75
469.804	921.75
470.023	959.75
470.243	961.75
470.462	965.75
470.681	935.75
470.901	915.75
471.12	903.75
471.339	964.75
471.558	921.75
471.777	905.75
471.997	887.75
472.216	833.75
472.435	767.75
472.654	763.75
472.873	781.75
473.092	826.75
473.311	825.75
473.53	827.75
473.749	832.75
473.968	807.75
474.187	856.75
474.406	853.75
474.625	847.75
474.844	843.75
475.063	881.75
475.282	873.75
475.501	814.75
475.72	849.75
475.939	895.75
476.158	881.75
476.377	864.75
476.596	866.75
476.814	847.75
477.033	824.75
477.252	847.75
477.471	892.75
477.69	921.75
477.908	934.75
478.127	989.75
478.346	1009.75
478.564	1003.75
478.783	1021.75
479.002	1054.75
479.22	1007.75
479.439	1013.75
479.658	1060.75
479.876	977.75
480.095	905.75
480.313	906.75
480.532	897.75
480.751	854.75
480.969	841.75
481.188	813.75
481.406	778.75
481.624	756.75
481.843	789.75
482.061	819.75
482.28	898.75
482.498	919.75
482.717	869.75
482.935	897.75
483.153	985.75
483.372	1020.75
483.59	1011.75
483.808	973.75
484.027	949.75
484.245	1002.75
484.463	1228.75
484.681	1299.75
484.9	1033.75
485.118	963.75
485.336	942.75
485.554	899.75
485.772	903.75
485.99	885.75
486.209	901.75
486.427	931.75
486.645	935.75
486.863	1007.75
487.081	1041.75
487.299	1046.75
487.517	979.75
487.735	1131.75
487.953	1217.75
488.171	1165.75
488.389	1130.75
488.607	1130.75
488.825	1160.75
489.043	1054.75
489.261	999.75
489.479	1039.75
489.696	1056.75
489.914	1063.75
490.132	1041.75
490.35	1095.75
490.568	1156.75
490.786	1136.75
491.003	1203.75
491.221	1257.75
491.439	1286.75
491.657	1371.75
491.874	1370.75
492.092	1458.75
492.31	1516.75
492.527	1473.75
492.745	1373.75
492.963	1275.75
493.18	1329.75
493.398	1344.75
493.615	1320.75
493.833	1299.75
494.05	1230.75
494.268	1265.75
494.485	1265.75
494.703	1252.75
494.92	1233.75
495.138	1232.75
495.355	1232.75
495.573	1281.75
495.79	1268.75
496.008	1271.75
496.225	1253.75
496.442	1246.75
496.66	1256.75
496.877	1207.75
497.094	1237.75
497.312	1237.75
497.529	1206.75
497.746	1225.75
497.963	1281.75
498.181	1303.75
498.398	1265.75
498.615	1230.75
498.832	1167.75
499.049	1130.75
499.267	1182.75
499.484	1271.75
499.701	1348.75
499.918	1385.75
500.135	1466.75
