Data from WStandard_LampEnergy5.5LIBS07252019.E.O._I.C._HRD10591_16-07-22-919.txt Node
Date: Thu Jul 25 16:07:22 EDT 2019
User: cochatt
Spectrometer: HR+D1059
Trigger mode: 1
Integration Time (sec): 1.000000E-1
Scans to average: 1
Electric dark correction enabled: true
Nonlinearity correction enabled: false
Boxcar width: 0
XAxis mode: Wavelengths
Number of Pixels in Spectrum: 2048
>>>>>Begin Spectral Data<<<<<
223.165	-8
223.4	-8
223.635	-8
223.869	-31
224.104	-28
224.338	-15
224.573	6
224.808	-14
225.042	4
225.277	4
225.511	1
225.746	4
225.98	7
226.215	9
226.449	2
226.683	14
226.918	18
227.152	27
227.387	43
227.621	32
227.856	48
228.09	41
228.324	59
228.559	58
228.793	147
229.027	376
229.262	387
229.496	404
229.73	406
229.964	442
230.199	464
230.433	494
230.667	544
230.901	557
231.136	496
231.37	478
231.604	491
231.838	481
232.072	495
232.306	450
232.541	492
232.775	562
233.009	641
233.243	625
233.477	535
233.711	548
233.945	613
234.179	556
234.413	594
234.647	642
234.881	600
235.115	570
235.349	591
235.583	588
235.817	567
236.051	568
236.285	585
236.519	605
236.753	664
236.987	700
237.221	690
237.455	778
237.689	730
237.922	707
238.156	678
238.39	695
238.624	742
238.858	780
239.091	799
239.325	817
239.559	966
239.793	978
240.027	1081
240.26	1080
240.494	800
240.728	739
240.961	740
241.195	789
241.429	838
241.662	868
241.896	769
242.13	818
242.363	886
242.597	954
242.83	909
243.064	916
243.298	974
243.531	981
243.765	960
243.998	959
244.232	848
244.465	820
244.699	830
244.932	907
245.166	1112
245.399	1012
245.633	908
245.866	920
246.099	984
246.333	964
246.566	995
246.8	1075
247.033	1209
247.266	1101
247.5	1094
247.733	1099
247.966	1191
248.2	1278
248.433	1243
248.666	1262
248.899	1369
249.133	1598
249.366	1838
249.599	1496
249.832	1309
250.066	1298
250.299	1325
250.532	1277
250.765	1110
250.998	1183
251.231	1255
251.465	1276
251.698	1217
251.931	1184
252.164	1257
252.397	1279
252.63	1315
252.863	1120
253.096	1150
253.329	1193
253.562	1254
253.795	1342
254.028	1320
254.261	1243
254.494	1196
254.727	1152
254.96	1191
255.193	1292
255.426	1484
255.659	1688
255.892	1771
256.124	1441
256.357	1338
256.59	1478
256.823	1484
257.056	1468
257.289	1774
257.521	2007
257.754	1808
257.987	1686
258.22	1859
258.452	1854
258.685	1452
258.918	1422
259.151	1458
259.383	1381
259.616	1224
259.849	1286
260.081	1427
260.314	1637
260.547	1765
260.779	1793
261.012	1665
261.244	1481
261.477	1416
261.71	1523
261.942	1489
262.175	1454
262.407	1507
262.64	1448
262.872	1355
263.105	1291
263.337	1333
263.57	1348
263.802	1348
264.035	1291
264.267	1199
264.499	1192
264.732	1255
264.964	1377
265.197	1434
265.429	1440
265.661	1651
265.894	1815
266.126	1867
266.358	1679
266.591	1707
266.823	1874
267.055	1676
267.287	1674
267.52	1631
267.752	1620
267.984	1621
268.216	1686
268.448	1752
268.681	1750
268.913	1571
269.145	1485
269.377	1444
269.609	1558
269.841	1804
270.073	2119
270.306	2366
270.538	2537
270.77	2156
271.002	1846
271.234	1736
271.466	1723
271.698	1862
271.93	2336
272.162	2294
272.394	2035
272.626	2008
272.858	1739
273.09	1514
273.322	1497
273.553	1424
273.785	1442
274.017	1494
274.249	1611
274.481	1633
274.713	1493
274.945	1443
275.176	1480
275.408	1490
275.64	1456
275.872	1444
276.104	1475
276.335	1678
276.567	1947
276.799	2016
277.031	1770
277.262	1686
277.494	1731
277.726	1930
277.957	1914
278.189	1718
278.421	1603
278.652	1575
278.884	1534
279.115	1530
279.347	1579
279.579	1497
279.81	1464
280.042	1635
280.273	1886
280.505	1803
280.736	1911
280.968	1789
281.199	1574
281.431	1506
281.662	1489
281.894	1459
282.125	1571
282.356	1621
282.588	1632
282.819	1579
283.051	1688
283.282	1893
283.513	1829
283.745	1569
283.976	1444
284.207	1487
284.439	1502
284.67	1537
284.901	1566
285.132	1642
285.364	1585
285.595	1610
285.826	1555
286.057	1605
286.288	1534
286.52	1634
286.751	1745
286.982	1780
287.213	1701
287.444	1523
287.675	1506
287.906	1554
288.138	1690
288.369	1668
288.6	1567
288.831	1502
289.062	1506
289.293	1551
289.524	1562
289.755	1620
289.986	1630
290.217	1499
290.448	1540
290.679	1616
290.91	1584
291.141	1614
291.371	1690
291.602	1695
291.833	1653
292.064	1713
292.295	1687
292.526	1743
292.757	1842
292.987	1713
293.218	1624
293.449	1737
293.68	1950
293.91	2105
294.141	1960
294.372	1846
294.603	1872
294.833	1968
295.064	1878
295.295	1715
295.525	1684
295.756	1551
295.987	1467
296.217	1502
296.448	1530
296.679	1564
296.909	1584
297.14	1556
297.37	1574
297.601	1646
297.831	1787
298.062	1790
298.292	1642
298.523	1550
298.753	1582
298.984	1573
299.214	1591
299.445	1590
299.675	1675
299.905	1666
300.136	1636
300.366	1582
300.597	1500
300.827	1510
301.057	1631
301.288	1719
301.518	1614
301.748	1688
301.979	1792
302.209	1821
302.439	1915
302.669	2018
302.9	1910
303.13	1726
303.36	1738
303.59	1729
303.82	1710
304.051	1713
304.281	1706
304.511	1691
304.741	1777
304.971	1970
305.201	2193
305.431	1993
305.661	1652
305.891	1483
306.121	1489
306.352	1520
306.582	1624
306.812	1736
307.042	1866
307.272	1880
307.502	1907
307.731	2068
307.961	2243
308.191	2113
308.421	1762
308.651	1665
308.881	1625
309.111	1613
309.341	1578
309.571	1607
309.8	1636
310.03	1609
310.26	1607
310.49	1630
310.72	1626
310.949	1716
311.179	1740
311.409	1747
311.639	1714
311.868	1643
312.098	1597
312.328	1658
312.557	1620
312.787	1665
313.017	1710
313.246	1707
313.476	1691
313.706	1760
313.935	1745
314.165	1746
314.394	1750
314.624	1893
314.853	1990
315.083	2096
315.312	2141
315.542	2002
315.771	1798
316.001	1784
316.23	1868
316.46	1855
316.689	1835
316.919	1703
317.148	1663
317.377	1689
317.607	1814
317.836	2022
318.065	2114
318.295	2034
318.524	1959
318.753	1859
318.983	1883
319.212	1848
319.441	1774
319.67	1771
319.9	1771
320.129	1894
320.358	1966
320.587	1994
320.816	2016
321.046	1954
321.275	1828
321.504	1831
321.733	2023
321.962	1966
322.191	1763
322.42	1786
322.649	1737
322.878	1742
323.108	1800
323.337	1847
323.566	1812
323.795	1830
324.024	1835
324.253	1746
324.482	1818
324.71	1787
324.939	1671
325.168	1722
325.397	1735
325.626	1827
325.855	1850
326.084	1793
326.313	1765
326.542	1819
326.77	1867
326.999	1905
327.228	1829
327.457	1700
327.686	1684
327.914	1739
328.143	1794
328.372	1781
328.6	1798
328.829	1765
329.058	1730
329.287	1732
329.515	1777
329.744	1821
329.972	1915
330.201	1991
330.43	1950
330.658	1861
330.887	1899
331.115	1872
331.344	1945
331.572	1890
331.801	1885
332.03	1867
332.258	1870
332.486	1905
332.715	1938
332.943	1924
333.172	1864
333.4	1891
333.629	1933
333.857	2094
334.085	2250
334.314	2530
334.542	2865
334.771	2618
334.999	2270
335.227	2161
335.455	2028
335.684	2006
335.912	2038
336.14	2149
336.369	2053
336.597	1968
336.825	1846
337.053	1918
337.281	2058
337.51	2148
337.738	2280
337.966	2182
338.194	1971
338.422	1881
338.65	1875
338.878	1854
339.106	1800
339.334	1777
339.562	1731
339.79	1818
340.018	1891
340.246	1984
340.474	1997
340.702	1952
340.93	1994
341.158	1960
341.386	1888
341.614	1888
341.842	1878
342.07	1873
342.298	1890
342.526	1905
342.754	1824
342.981	1834
343.209	1875
343.437	1883
343.665	1859
343.893	1922
344.12	1934
344.348	1989
344.576	1906
344.804	1858
345.031	1849
345.259	1881
345.487	1844
345.714	1717
345.942	1652
346.17	1686
346.397	1810
346.625	1774
346.853	1702
347.08	1658
347.308	1642
347.535	1699
347.763	1770
347.99	1737
348.218	1686
348.445	1710
348.673	1740
348.9	1752
349.128	1833
349.355	1886
349.583	1834
349.81	1751
350.037	1655
350.265	1604
350.492	1620
350.72	1678
350.947	1743
351.174	1790
351.402	1681
351.629	1617
351.856	1576
352.083	1584
352.311	1568
352.538	1660
352.765	1755
352.992	1766
353.22	1736
353.447	1644
353.674	1691
353.901	1688
354.128	1676
354.355	1662
354.583	1738
354.81	1792
355.037	1752
355.264	1779
355.491	1740
355.718	1766
355.945	1706
356.172	1660
356.399	1649
356.626	1662
356.853	1710
357.08	1818
357.307	2010
357.534	2085
357.761	1822
357.988	1664
358.215	1589
358.441	1616
358.668	1638
358.895	1633
359.122	1740
359.349	1923
359.576	1906
359.802	1735
360.029	1670
360.256	1622
360.483	1679
360.709	1694
360.936	1765
361.163	1840
361.39	1948
361.616	2138
361.843	2099
362.07	1981
362.296	1702
362.523	1642
362.749	1683
362.976	1719
363.203	1746
363.429	1675
363.656	1631
363.882	1712
364.109	1858
364.335	2050
364.562	1922
364.788	1843
365.015	1760
365.241	1655
365.468	1718
365.694	1782
365.92	1820
366.147	1818
366.373	1657
366.599	1636
366.826	1623
367.052	1666
367.278	1691
367.505	1684
367.731	1731
367.957	1727
368.184	1796
368.41	1864
368.636	1900
368.862	1907
369.089	1919
369.315	1859
369.541	1801
369.767	1707
369.993	1666
370.219	1685
370.445	1707
370.672	1843
370.898	1915
371.124	1907
371.35	1796
371.576	1824
371.802	1899
372.028	1852
372.254	1752
372.48	1738
372.706	1677
372.932	1727
373.158	1695
373.384	1738
373.61	1810
373.835	1955
374.061	1832
374.287	1801
374.513	1805
374.739	1801
374.965	1806
375.191	1806
375.416	1841
375.642	1834
375.868	1920
376.094	1979
376.319	1920
376.545	1777
376.771	1835
376.997	1893
377.222	1879
377.448	1873
377.674	1843
377.899	1880
378.125	1973
378.35	2005
378.576	1794
378.802	1747
379.027	1729
379.253	1740
379.478	1762
379.704	1735
379.929	1747
380.155	1774
380.38	1812
380.606	1806
380.831	1817
381.057	1876
381.282	1918
381.507	1863
381.733	1944
381.958	2076
382.184	1920
382.409	1809
382.634	1826
382.86	1845
383.085	1862
383.31	1859
383.535	2042
383.761	2207
383.986	2080
384.211	2011
384.436	1982
384.662	2087
384.887	2138
385.112	2071
385.337	2054
385.562	2009
385.787	2043
386.013	2067
386.238	2098
386.463	2051
386.688	2156
386.913	2328
387.138	2277
387.363	2114
387.588	2112
387.813	2096
388.038	2094
388.263	2178
388.488	2107
388.713	1928
388.938	1952
389.163	2008
389.387	2039
389.612	1983
389.837	2049
390.062	2070
390.287	2042
390.512	2011
390.736	1993
390.961	1962
391.186	1918
391.411	1918
391.636	2000
391.86	1989
392.085	1982
392.31	2016
392.534	2012
392.759	2027
392.984	2036
393.208	2042
393.433	2113
393.658	2182
393.882	2184
394.107	2041
394.331	1970
394.556	1988
394.78	2067
395.005	2099
395.229	2217
395.454	2338
395.678	2332
395.903	2236
396.127	2117
396.352	2166
396.576	2239
396.801	2236
397.025	2204
397.249	2220
397.474	2209
397.698	2123
397.922	2225
398.147	2317
398.371	2390
398.595	2435
398.82	2336
399.044	2392
399.268	2462
399.492	2640
399.717	2747
399.941	2754
400.165	2698
400.389	2580
400.613	2557
400.837	2880
401.062	3290
401.286	2842
401.51	2551
401.734	2655
401.958	2596
402.182	2406
402.406	2315
402.63	2305
402.854	2278
403.078	2282
403.302	2387
403.526	2430
403.75	2407
403.974	2463
404.198	2407
404.422	2452
404.645	2593
404.869	2637
405.093	2409
405.317	2303
405.541	2402
405.765	2440
405.988	2444
406.212	2484
406.436	2484
406.66	2582
406.883	2597
407.107	2899
407.331	3132
407.555	3384
407.778	3159
408.002	2597
408.226	2543
408.449	2559
408.673	2444
408.896	2478
409.12	2526
409.344	2434
409.567	2356
409.791	2436
410.014	2469
410.238	2572
410.461	2762
410.685	2510
410.908	2369
411.132	2444
411.355	2407
411.578	2324
411.802	2334
412.025	2416
412.249	2401
412.472	2252
412.695	2249
412.919	2300
413.142	2288
413.365	2326
413.589	2382
413.812	2461
414.035	2570
414.258	2372
414.482	2298
414.705	2326
414.928	2296
415.151	2310
415.374	2268
415.597	2318
415.821	2356
416.044	2452
416.267	2457
416.49	2267
416.713	2197
416.936	2262
417.159	2392
417.382	2391
417.605	2248
417.828	2327
418.051	2350
418.274	2266
418.497	2224
418.72	2240
418.943	2200
419.166	2356
419.389	2433
419.611	2315
419.834	2249
420.057	2323
420.28	2261
420.503	2266
420.726	2258
420.948	2280
421.171	2149
421.394	2258
421.617	2279
421.839	2272
422.062	2262
422.285	2193
422.507	2247
422.73	2151
422.953	2085
423.175	2111
423.398	2206
423.621	2215
423.843	2210
424.066	2324
424.288	2330
424.511	2441
424.733	2319
424.956	2108
425.178	2120
425.401	2107
425.623	2175
425.846	2126
426.068	2268
426.291	2345
426.513	2264
426.735	2309
426.958	2405
427.18	2591
427.402	2344
427.625	2406
427.847	2450
428.069	2236
428.292	2198
428.514	2130
428.736	2078
428.958	2141
429.181	2164
429.403	2431
429.625	3068
429.847	2628
430.069	2241
430.292	2419
430.514	2571
430.736	2342
430.958	2427
431.18	2350
431.402	2135
431.624	2132
431.846	2179
432.068	2108
432.29	2066
432.512	2167
432.734	2215
432.956	2246
433.178	2323
433.4	2360
433.622	2347
433.844	2214
434.066	2112
434.287	2109
434.509	2207
434.731	2297
434.953	2480
435.175	2464
435.397	2284
435.618	2276
435.84	2286
436.062	2217
436.284	2241
436.505	2297
436.727	2361
436.949	2260
437.17	2180
437.392	2215
437.614	2134
437.835	2114
438.057	2266
438.278	2376
438.5	2166
438.721	2152
438.943	2156
439.165	2072
439.386	2079
439.608	2126
439.829	2091
440.05	2166
440.272	2100
440.493	2094
440.715	2119
440.936	2287
441.158	2514
441.379	2471
441.6	2396
441.822	2318
442.043	2283
442.264	2290
442.486	2140
442.707	2180
442.928	2130
443.149	2196
443.371	2385
443.592	2459
443.813	2362
444.034	2325
444.255	2378
444.476	2427
444.698	2462
444.919	2423
445.14	2467
445.361	2491
445.582	2558
445.803	2432
446.024	2357
446.245	2446
446.466	2355
446.687	2252
446.908	2247
447.129	2138
447.35	2197
447.571	2234
447.792	2143
448.013	2059
448.234	2139
448.455	2255
448.675	2297
448.896	2112
449.117	2047
449.338	2089
449.559	2187
449.779	2316
450	2519
450.221	2717
450.442	2632
450.662	2324
450.883	2034
451.104	2018
451.324	2052
451.545	2172
451.766	2127
451.986	1992
452.207	1995
452.428	1920
452.648	1898
452.869	1980
453.089	2094
453.31	2104
453.53	2156
453.751	2074
453.971	1948
454.192	2005
454.412	2165
454.633	2074
454.853	2006
455.073	1859
455.294	1876
455.514	1902
455.734	1895
455.955	1911
456.175	1912
456.395	1924
456.616	2021
456.836	1999
457.056	1958
457.276	1972
457.497	1895
457.717	1872
457.937	1879
458.157	1942
458.377	1929
458.598	1919
458.818	1918
459.038	2074
459.258	2162
459.478	2198
459.698	2113
459.918	2139
460.138	2248
460.358	2282
460.578	2270
460.798	2425
461.018	2531
461.238	2414
461.458	2262
461.678	2296
461.898	2257
462.118	2179
462.338	2340
462.558	2345
462.777	2310
462.997	2420
463.217	2530
463.437	2535
463.657	2391
463.876	2322
464.096	2263
464.316	2312
464.536	2380
464.755	2362
464.975	2415
465.195	2330
465.414	2415
465.634	2444
465.854	2290
466.073	2496
466.293	2418
466.512	2075
466.732	2087
466.951	2199
467.171	2216
467.391	2065
467.61	2057
467.829	2096
468.049	2249
468.268	2499
468.488	2369
468.707	2257
468.927	2120
469.146	2104
469.365	2054
469.585	2106
469.804	2066
470.023	2125
470.243	2149
470.462	2140
470.681	2082
470.901	2086
471.12	2123
471.339	2078
471.558	2015
471.777	2036
471.997	2017
472.216	2081
472.435	2023
472.654	2075
472.873	2110
473.092	2252
473.311	2153
473.53	1990
473.749	1954
473.968	2079
474.187	2237
474.406	2275
474.625	2155
474.844	2110
475.063	2098
475.282	2159
475.501	2164
475.72	2137
475.939	2244
476.158	2200
476.377	2110
476.596	2159
476.814	2193
477.033	2185
477.252	2350
477.471	2399
477.69	2206
477.908	2222
478.127	2337
478.346	2518
478.564	2566
478.783	2504
479.002	2594
479.22	2536
479.439	2595
479.658	2927
479.876	2920
480.095	2552
480.313	2432
480.532	2319
480.751	2358
480.969	2397
481.188	2372
481.406	2363
481.624	2274
481.843	2320
482.061	2420
482.28	2454
482.498	2464
482.717	2442
482.935	2345
483.153	2348
483.372	2316
483.59	2323
483.808	2383
484.027	2424
484.245	2566
484.463	2977
484.681	3394
484.9	2659
485.118	2469
485.336	2383
485.554	2475
485.772	2592
485.99	2530
486.209	2532
486.427	2535
486.645	2501
486.863	2485
487.081	2583
487.299	2594
487.517	2554
487.735	2459
487.953	2455
488.171	2460
488.389	2417
488.607	2413
488.825	2724
489.043	2769
489.261	2510
489.479	2632
489.696	2668
489.914	2597
490.132	2513
490.35	2463
490.568	2556
490.786	2498
491.003	2375
491.221	2437
491.439	2563
491.657	2495
491.874	2504
492.092	2625
492.31	2554
492.527	2510
492.745	2549
492.963	2502
493.18	2602
493.398	2776
493.615	2820
493.833	2664
494.05	2544
494.268	2542
494.485	2620
494.703	2567
494.92	2474
495.138	2467
495.355	2549
495.573	2654
495.79	2859
496.008	2886
496.225	2698
496.442	2646
496.66	2762
496.877	2687
497.094	2829
497.312	2823
497.529	2768
497.746	2845
497.963	3299
498.181	3758
498.398	3444
498.615	3409
498.832	3321
499.049	3333
499.267	3258
499.484	3468
499.701	3734
499.918	3715
500.135	4086
500.352	4395
500.569	4315
500.786	4623
501.003	4346
501.22	3894
501.437	3799
501.654	3812
501.871	3677
502.088	3200
502.305	3206
502.522	3164
502.739	2891
502.956	2855
503.172	2818
503.389	2751
503.606	2686
503.823	2720
504.04	2750
504.256	2698
504.473	2714
504.69	2867
504.907	2658
505.123	2507
505.34	2594
505.557	3464
505.773	2985
505.99	2493
506.207	2350
506.423	2275
506.64	2302
506.856	2328
507.073	2636
507.289	2842
507.506	2741
507.722	2353
507.939	2230
508.155	2209
508.372	2251
508.588	2222
508.805	2160
509.021	2139
509.238	2110
509.454	2115
509.67	2137
509.887	2047
510.103	2046
510.319	2160
510.536	2173
510.752	2299
510.968	2288
511.184	2390
511.401	2377
511.617	2115
511.833	2042
512.049	2059
512.265	2035
512.481	2034
512.698	2082
512.914	2258
513.13	2164
513.346	2058
513.562	2012
513.778	2074
513.994	2166
514.21	2245
514.426	2180
514.642	2491
514.858	2340
515.074	2131
515.29	2008
515.506	2165
515.721	2162
515.937	2175
516.153	2534
516.369	2415
516.585	2262
516.801	2150
517.016	2126
517.232	2180
517.448	2265
517.664	2264
517.879	2268
518.095	2357
518.311	2266
518.527	2170
518.742	2139
518.958	2030
519.173	2032
519.389	2072
519.605	2061
519.82	2116
520.036	2150
520.251	2068
520.467	2097
520.682	2249
520.898	2362
521.113	2114
521.329	2043
521.544	2217
521.76	2104
521.975	1979
522.19	1996
522.406	1917
522.621	2377
522.836	2413
523.052	1990
523.267	1922
523.482	1969
523.698	1918
523.913	1857
524.128	1920
524.343	2007
524.559	2057
524.774	1885
524.989	1893
525.204	1884
525.419	1819
525.634	1805
525.849	1906
526.064	1896
526.28	1936
526.495	1828
526.71	1779
526.925	1856
527.14	1820
527.355	1798
527.57	1767
527.785	1822
527.999	1785
528.214	1734
528.429	1710
528.644	1718
528.859	1753
529.074	1776
529.289	1786
529.503	1809
529.718	1843
529.933	1763
530.148	1732
530.363	1716
530.577	1755
530.792	1809
531.007	1824
531.221	1781
531.436	1838
531.651	1854
531.865	1977
532.08	1861
532.295	1711
532.509	1704
532.724	1743
532.938	1820
533.153	1913
533.367	1840
533.582	1823
533.796	1706
534.011	1776
534.225	1796
534.44	1744
534.654	1734
534.868	1703
535.083	1811
535.297	1792
535.511	1735
535.726	1741
535.94	1720
536.154	1709
536.369	1695
536.583	1706
536.797	1685
537.011	1782
537.225	1706
537.44	1636
537.654	1755
537.868	1655
538.082	1606
538.296	1566
538.51	1586
538.724	1615
538.938	1606
539.153	1667
539.367	1671
539.581	1641
539.795	1766
540.009	1666
540.222	1690
540.436	1714
540.65	1854
540.864	1890
541.078	1775
541.292	1649
541.506	1625
541.72	1624
541.934	1641
