Data from WStandard_LampEnergy10_LIBS07252019.E.O._I.C._HRD10591_15-53-14-928.txt Node
Date: Thu Jul 25 15:53:14 EDT 2019
User: cochatt
Spectrometer: HR+D1059
Trigger mode: 1
Integration Time (sec): 1.000000E-1
Scans to average: 1
Electric dark correction enabled: true
Nonlinearity correction enabled: false
Boxcar width: 0
XAxis mode: Wavelengths
Number of Pixels in Spectrum: 2048
>>>>>Begin Spectral Data<<<<<
223.165	-14.94
223.4	-14.94
223.635	-14.94
223.869	-8.94
224.104	-6.94
224.338	-22.94
224.573	-33.94
224.808	-30.94
225.042	-20.94
225.277	-7.94
225.511	8.06
225.746	-2.94
225.98	25.06
226.215	24.06
226.449	20.06
226.683	2.06
226.918	34.06
227.152	37.06
227.387	46.06
227.621	37.06
227.856	22.06
228.09	51.06
228.324	56.06
228.559	42.06
228.793	75.06
229.027	129.06
229.262	137.06
229.496	144.06
229.73	153.06
229.964	171.06
230.199	160.06
230.433	168.06
230.667	175.06
230.901	178.06
231.136	170.06
231.37	170.06
231.604	167.06
231.838	173.06
232.072	162.06
232.306	177.06
232.541	190.06
232.775	214.06
233.009	187.06
233.243	186.06
233.477	186.06
233.711	218.06
233.945	224.06
234.179	201.06
234.413	214.06
234.647	217.06
234.881	214.06
235.115	196.06
235.349	200.06
235.583	205.06
235.817	200.06
236.051	180.06
236.285	197.06
236.519	220.06
236.753	222.06
236.987	230.06
237.221	217.06
237.455	244.06
237.689	231.06
237.922	212.06
238.156	217.06
238.39	210.06
238.624	226.06
238.858	251.06
239.091	262.06
239.325	263.06
239.559	309.06
239.793	286.06
240.027	314.06
240.26	291.06
240.494	239.06
240.728	230.06
240.961	256.06
241.195	247.06
241.429	276.06
241.662	250.06
241.896	240.06
242.13	256.06
242.363	271.06
242.597	299.06
242.83	290.06
243.064	276.06
243.298	286.06
243.531	286.06
243.765	278.06
243.998	286.06
244.232	268.06
244.465	262.06
244.699	260.06
244.932	281.06
245.166	279.06
245.399	292.06
245.633	295.06
245.866	279.06
246.099	291.06
246.333	281.06
246.566	300.06
246.8	313.06
247.033	337.06
247.266	329.06
247.5	323.06
247.733	331.06
247.966	336.06
248.2	358.06
248.433	352.06
248.666	371.06
248.899	396.06
249.133	427.06
249.366	456.06
249.599	393.06
249.832	362.06
250.066	382.06
250.299	378.06
250.532	374.06
250.765	330.06
250.998	326.06
251.231	355.06
251.465	349.06
251.698	356.06
251.931	347.06
252.164	363.06
252.397	369.06
252.63	352.06
252.863	336.06
253.096	336.06
253.329	334.06
253.562	346.06
253.795	365.06
254.028	360.06
254.261	339.06
254.494	343.06
254.727	331.06
254.96	358.06
255.193	385.06
255.426	414.06
255.659	486.06
255.892	461.06
256.124	378.06
256.357	402.06
256.59	425.06
256.823	396.06
257.056	444.06
257.289	499.06
257.521	504.06
257.754	487.06
257.987	450.06
258.22	479.06
258.452	470.06
258.685	389.06
258.918	401.06
259.151	393.06
259.383	393.06
259.616	343.06
259.849	363.06
260.081	407.06
260.314	443.06
260.547	478.06
260.779	465.06
261.012	463.06
261.244	415.06
261.477	402.06
261.71	401.06
261.942	406.06
262.175	395.06
262.407	418.06
262.64	390.06
262.872	374.06
263.105	352.06
263.337	376.06
263.57	392.06
263.802	377.06
264.035	364.06
264.267	357.06
264.499	338.06
264.732	359.06
264.964	372.06
265.197	410.06
265.429	432.06
265.661	465.06
265.894	499.06
266.126	498.06
266.358	485.06
266.591	471.06
266.823	515.06
267.055	474.06
267.287	454.06
267.52	455.06
267.752	433.06
267.984	479.06
268.216	475.06
268.448	479.06
268.681	453.06
268.913	430.06
269.145	404.06
269.377	422.06
269.609	464.06
269.841	535.06
270.073	585.06
270.306	635.06
270.538	648.06
270.77	548.06
271.002	472.06
271.234	467.06
271.466	471.06
271.698	547.06
271.93	621.06
272.162	612.06
272.394	563.06
272.626	511.06
272.858	447.06
273.09	424.06
273.322	421.06
273.553	407.06
273.785	415.06
274.017	430.06
274.249	435.06
274.481	452.06
274.713	415.06
274.945	419.06
275.176	419.06
275.408	423.06
275.64	397.06
275.872	418.06
276.104	459.06
276.335	483.06
276.567	542.06
276.799	534.06
277.031	480.06
277.262	495.06
277.494	506.06
277.726	532.06
277.957	511.06
278.189	474.06
278.421	456.06
278.652	430.06
278.884	438.06
279.115	433.06
279.347	434.06
279.579	455.06
279.81	450.06
280.042	495.06
280.273	514.06
280.505	518.06
280.736	525.06
280.968	494.06
281.199	439.06
281.431	397.06
281.662	419.06
281.894	436.06
282.125	435.06
282.356	458.06
282.588	465.06
282.819	477.06
283.051	479.06
283.282	517.06
283.513	503.06
283.745	440.06
283.976	446.06
284.207	438.06
284.439	439.06
284.67	433.06
284.901	435.06
285.132	472.06
285.364	458.06
285.595	464.06
285.826	462.06
286.057	460.06
286.288	461.06
286.52	471.06
286.751	494.06
286.982	490.06
287.213	471.06
287.444	424.06
287.675	445.06
287.906	469.06
288.138	474.06
288.369	489.06
288.6	458.06
288.831	458.06
289.062	446.06
289.293	450.06
289.524	456.06
289.755	467.06
289.986	473.06
290.217	471.06
290.448	459.06
290.679	468.06
290.91	476.06
291.141	458.06
291.371	481.06
291.602	489.06
291.833	496.06
292.064	506.06
292.295	501.06
292.526	511.06
292.757	521.06
292.987	496.06
293.218	490.06
293.449	547.06
293.68	571.06
293.91	591.06
294.141	543.06
294.372	531.06
294.603	578.06
294.833	577.06
295.064	556.06
295.295	495.06
295.525	493.06
295.756	439.06
295.987	452.06
296.217	463.06
296.448	476.06
296.679	464.06
296.909	470.06
297.14	468.06
297.37	492.06
297.601	533.06
297.831	538.06
298.062	515.06
298.292	488.06
298.523	479.06
298.753	489.06
298.984	456.06
299.214	486.06
299.445	498.06
299.675	491.06
299.905	506.06
300.136	468.06
300.366	496.06
300.597	457.06
300.827	452.06
301.057	500.06
301.288	491.06
301.518	506.06
301.748	521.06
301.979	560.06
302.209	554.06
302.439	595.06
302.669	611.06
302.9	555.06
303.13	502.06
303.36	503.06
303.59	520.06
303.82	529.06
304.051	533.06
304.281	528.06
304.511	554.06
304.741	578.06
304.971	604.06
305.201	623.06
305.431	580.06
305.661	494.06
305.891	463.06
306.121	454.06
306.352	476.06
306.582	498.06
306.812	554.06
307.042	590.06
307.272	592.06
307.502	610.06
307.731	658.06
307.961	634.06
308.191	580.06
308.421	518.06
308.651	504.06
308.881	497.06
309.111	505.06
309.341	481.06
309.571	496.06
309.8	506.06
310.03	498.06
310.26	496.06
310.49	494.06
310.72	506.06
310.949	533.06
311.179	526.06
311.409	498.06
311.639	523.06
311.868	524.06
312.098	507.06
312.328	517.06
312.557	513.06
312.787	494.06
313.017	522.06
313.246	503.06
313.476	521.06
313.706	558.06
313.935	533.06
314.165	542.06
314.394	587.06
314.624	602.06
314.853	615.06
315.083	639.06
315.312	612.06
315.542	597.06
315.771	553.06
316.001	539.06
316.23	573.06
316.46	572.06
316.689	578.06
316.919	516.06
317.148	534.06
317.377	546.06
317.607	613.06
317.836	644.06
318.065	654.06
318.295	635.06
318.524	594.06
318.753	561.06
318.983	562.06
319.212	582.06
319.441	584.06
319.67	564.06
319.9	570.06
320.129	617.06
320.358	649.06
320.587	655.06
320.816	648.06
321.046	603.06
321.275	599.06
321.504	587.06
321.733	600.06
321.962	595.06
322.191	568.06
322.42	563.06
322.649	538.06
322.878	539.06
323.108	579.06
323.337	610.06
323.566	598.06
323.795	583.06
324.024	599.06
324.253	576.06
324.482	579.06
324.71	553.06
324.939	532.06
325.168	548.06
325.397	576.06
325.626	595.06
325.855	592.06
326.084	558.06
326.313	583.06
326.542	581.06
326.77	577.06
326.999	582.06
327.228	575.06
327.457	536.06
327.686	524.06
327.914	547.06
328.143	602.06
328.372	572.06
328.6	571.06
328.829	558.06
329.058	538.06
329.287	551.06
329.515	583.06
329.744	599.06
329.972	614.06
330.201	632.06
330.43	606.06
330.658	586.06
330.887	601.06
331.115	612.06
331.344	596.06
331.572	587.06
331.801	602.06
332.03	578.06
332.258	596.06
332.486	623.06
332.715	598.06
332.943	597.06
333.172	593.06
333.4	626.06
333.629	625.06
333.857	679.06
334.085	724.06
334.314	832.06
334.542	850.06
334.771	768.06
334.999	703.06
335.227	646.06
335.455	624.06
335.684	642.06
335.912	640.06
336.14	656.06
336.369	631.06
336.597	587.06
336.825	610.06
337.053	632.06
337.281	674.06
337.51	690.06
337.738	708.06
337.966	633.06
338.194	627.06
338.422	588.06
338.65	593.06
338.878	582.06
339.106	570.06
339.334	559.06
339.562	587.06
339.79	607.06
340.018	645.06
340.246	634.06
340.474	620.06
340.702	618.06
340.93	604.06
341.158	625.06
341.386	609.06
341.614	623.06
341.842	613.06
342.07	612.06
342.298	613.06
342.526	591.06
342.754	588.06
342.981	585.06
343.209	605.06
343.437	574.06
343.665	608.06
343.893	618.06
344.12	674.06
344.348	635.06
344.576	583.06
344.804	606.06
345.031	600.06
345.259	603.06
345.487	603.06
345.714	544.06
345.942	571.06
346.17	562.06
346.397	560.06
346.625	551.06
346.853	532.06
347.08	518.06
347.308	554.06
347.535	572.06
347.763	577.06
347.99	560.06
348.218	546.06
348.445	557.06
348.673	565.06
348.9	601.06
349.128	632.06
349.355	634.06
349.583	607.06
349.81	569.06
350.037	539.06
350.265	523.06
350.492	562.06
350.72	560.06
350.947	578.06
351.174	584.06
351.402	543.06
351.629	535.06
351.856	516.06
352.083	546.06
352.311	546.06
352.538	565.06
352.765	588.06
352.992	603.06
353.22	543.06
353.447	536.06
353.674	562.06
353.901	583.06
354.128	564.06
354.355	543.06
354.583	609.06
354.81	597.06
355.037	569.06
355.264	573.06
355.491	583.06
355.718	575.06
355.945	567.06
356.172	547.06
356.399	541.06
356.626	558.06
356.853	598.06
357.08	638.06
357.307	694.06
357.534	650.06
357.761	587.06
357.988	535.06
358.215	549.06
358.441	563.06
358.668	563.06
358.895	566.06
359.122	609.06
359.349	640.06
359.576	606.06
359.802	576.06
360.029	566.06
360.256	539.06
360.483	569.06
360.709	598.06
360.936	594.06
361.163	618.06
361.39	699.06
361.616	740.06
361.843	714.06
362.07	617.06
362.296	594.06
362.523	582.06
362.749	585.06
362.976	586.06
363.203	605.06
363.429	585.06
363.656	583.06
363.882	624.06
364.109	649.06
364.335	687.06
364.562	610.06
364.788	596.06
365.015	596.06
365.241	554.06
365.468	588.06
365.694	594.06
365.92	629.06
366.147	602.06
366.373	562.06
366.599	581.06
366.826	565.06
367.052	579.06
367.278	587.06
367.505	588.06
367.731	605.06
367.957	603.06
368.184	626.06
368.41	681.06
368.636	660.06
368.862	670.06
369.089	664.06
369.315	635.06
369.541	626.06
369.767	596.06
369.993	593.06
370.219	616.06
370.445	633.06
370.672	669.06
370.898	667.06
371.124	652.06
371.35	642.06
371.576	671.06
371.802	656.06
372.028	649.06
372.254	633.06
372.48	601.06
372.706	582.06
372.932	594.06
373.158	613.06
373.384	636.06
373.61	655.06
373.835	650.06
374.061	640.06
374.287	663.06
374.513	632.06
374.739	620.06
374.965	658.06
375.191	638.06
375.416	657.06
375.642	688.06
375.868	723.06
376.094	748.06
376.319	683.06
376.545	648.06
376.771	666.06
376.997	706.06
377.222	677.06
377.448	699.06
377.674	678.06
377.899	696.06
378.125	717.06
378.35	690.06
378.576	653.06
378.802	609.06
379.027	618.06
379.253	641.06
379.478	652.06
379.704	658.06
379.929	652.06
380.155	656.06
380.38	661.06
380.606	662.06
380.831	674.06
381.057	699.06
381.282	712.06
381.507	697.06
381.733	731.06
381.958	719.06
382.184	691.06
382.409	665.06
382.634	698.06
382.86	678.06
383.085	689.06
383.31	718.06
383.535	780.06
383.761	827.06
383.986	790.06
384.211	758.06
384.436	744.06
384.662	791.06
384.887	789.06
385.112	719.06
385.337	732.06
385.562	734.06
385.787	753.06
386.013	786.06
386.238	771.06
386.463	765.06
386.688	856.06
386.913	847.06
387.138	823.06
387.363	773.06
387.588	791.06
387.813	777.06
388.038	800.06
388.263	794.06
388.488	812.06
388.713	731.06
388.938	726.06
389.163	728.06
389.387	755.06
389.612	770.06
389.837	782.06
390.062	743.06
390.287	792.06
390.512	768.06
390.736	724.06
390.961	768.06
391.186	743.06
391.411	764.06
391.636	772.06
391.86	751.06
392.085	765.06
392.31	755.06
392.534	757.06
392.759	798.06
392.984	808.06
393.208	798.06
393.433	792.06
393.658	822.06
393.882	798.06
394.107	793.06
394.331	779.06
394.556	782.06
394.78	811.06
395.005	803.06
395.229	855.06
395.454	883.06
395.678	860.06
395.903	855.06
396.127	816.06
396.352	839.06
396.576	830.06
396.801	850.06
397.025	853.06
397.249	858.06
397.474	834.06
397.698	826.06
397.922	870.06
398.147	896.06
398.371	921.06
398.595	939.06
398.82	867.06
399.044	891.06
399.268	900.06
399.492	985.06
399.717	978.06
399.941	1010.06
400.165	974.06
400.389	974.06
400.613	1001.06
400.837	1112.06
401.062	1198.06
401.286	1027.06
401.51	979.06
401.734	1009.06
401.958	961.06
402.182	926.06
402.406	881.06
402.63	886.06
402.854	888.06
403.078	904.06
403.302	933.06
403.526	943.06
403.75	908.06
403.974	944.06
404.198	962.06
404.422	1010.06
404.645	1057.06
404.869	979.06
405.093	908.06
405.317	890.06
405.541	952.06
405.765	953.06
405.988	977.06
406.212	971.06
406.436	992.06
406.66	1002.06
406.883	1028.06
407.107	1126.06
407.331	1240.06
407.555	1283.06
407.778	1119.06
408.002	991.06
408.226	990.06
408.449	976.06
408.673	930.06
408.896	970.06
409.12	982.06
409.344	971.06
409.567	928.06
409.791	976.06
410.014	974.06
410.238	1040.06
410.461	1088.06
410.685	995.06
410.908	968.06
411.132	983.06
411.355	933.06
411.578	934.06
411.802	949.06
412.025	946.06
412.249	925.06
412.472	909.06
412.695	950.06
412.919	919.06
413.142	945.06
413.365	939.06
413.589	969.06
413.812	1042.06
414.035	1007.06
414.258	964.06
414.482	926.06
414.705	957.06
414.928	910.06
415.151	904.06
415.374	928.06
415.597	966.06
415.821	958.06
416.044	951.06
416.267	949.06
416.49	917.06
416.713	934.06
416.936	945.06
417.159	1008.06
417.382	973.06
417.605	971.06
417.828	972.06
418.051	962.06
418.274	953.06
418.497	928.06
418.72	960.06
418.943	934.06
419.166	978.06
419.389	992.06
419.611	948.06
419.834	958.06
420.057	969.06
420.28	977.06
420.503	945.06
420.726	978.06
420.948	946.06
421.171	935.06
421.394	963.06
421.617	978.06
421.839	1001.06
422.062	983.06
422.285	955.06
422.507	950.06
422.73	906.06
422.953	913.06
423.175	914.06
423.398	931.06
423.621	907.06
423.843	954.06
424.066	1026.06
424.288	1064.06
424.511	1091.06
424.733	1026.06
424.956	960.06
425.178	968.06
425.401	943.06
425.623	993.06
425.846	942.06
426.068	983.06
426.291	988.06
426.513	990.06
426.735	986.06
426.958	1088.06
427.18	1074.06
427.402	1014.06
427.625	1005.06
427.847	1026.06
428.069	958.06
428.292	937.06
428.514	914.06
428.736	906.06
428.958	930.06
429.181	951.06
429.403	1109.06
429.625	1233.06
429.847	1055.06
430.069	956.06
430.292	1056.06
430.514	1043.06
430.736	977.06
430.958	1001.06
431.18	936.06
431.402	920.06
431.624	846.06
431.846	796.06
432.068	737.06
432.29	733.06
432.512	816.06
432.734	890.06
432.956	950.06
433.178	984.06
433.4	966.06
433.622	970.06
433.844	940.06
434.066	856.06
434.287	817.06
434.509	787.06
434.731	857.06
434.953	933.06
435.175	958.06
435.397	919.06
435.618	907.06
435.84	859.06
436.062	848.06
436.284	902.06
436.505	937.06
436.727	974.06
436.949	922.06
437.17	913.06
437.392	905.06
437.614	879.06
437.835	816.06
438.057	815.06
438.278	873.06
438.5	860.06
438.721	927.06
438.943	918.06
439.165	930.06
439.386	948.06
439.608	952.06
439.829	944.06
440.05	964.06
440.272	972.06
440.493	946.06
440.715	991.06
440.936	1013.06
441.158	1051.06
441.379	1076.06
441.6	1053.06
441.822	1013.06
442.043	1031.06
442.264	995.06
442.486	994.06
442.707	961.06
442.928	968.06
443.149	981.06
443.371	1032.06
443.592	1037.06
443.813	1030.06
444.034	1023.06
444.255	1022.06
444.476	1020.06
444.698	1024.06
444.919	1045.06
445.14	1148.06
445.361	1108.06
445.582	1090.06
445.803	1079.06
446.024	1048.06
446.245	1105.06
446.466	1058.06
446.687	1052.06
446.908	1064.06
447.129	1055.06
447.35	1042.06
447.571	1013.06
447.792	972.06
448.013	950.06
448.234	956.06
448.455	981.06
448.675	1003.06
448.896	948.06
449.117	922.06
449.338	942.06
449.559	943.06
449.779	981.06
450	1034.06
450.221	1055.06
450.442	1020.06
450.662	960.06
450.883	910.06
451.104	874.06
451.324	892.06
451.545	896.06
451.766	866.06
451.986	834.06
452.207	821.06
452.428	811.06
452.648	798.06
452.869	795.06
453.089	810.06
453.31	791.06
453.53	788.06
453.751	762.06
453.971	725.06
454.192	752.06
454.412	794.06
454.633	803.06
454.853	787.06
455.073	781.06
455.294	758.06
455.514	791.06
455.734	771.06
455.955	749.06
456.175	763.06
456.395	738.06
456.616	760.06
456.836	752.06
457.056	750.06
457.276	740.06
457.497	719.06
457.717	705.06
457.937	718.06
458.157	723.06
458.377	712.06
458.598	669.06
458.818	678.06
459.038	703.06
459.258	744.06
459.478	702.06
459.698	708.06
459.918	747.06
460.138	821.06
460.358	843.06
460.578	860.06
460.798	862.06
461.018	921.06
461.238	871.06
461.458	866.06
461.678	854.06
461.898	831.06
462.118	818.06
462.338	864.06
462.558	857.06
462.777	838.06
462.997	882.06
463.217	894.06
463.437	927.06
463.657	872.06
463.876	831.06
464.096	843.06
464.316	827.06
464.536	864.06
464.755	911.06
464.975	882.06
465.195	879.06
465.414	892.06
465.634	904.06
465.854	933.06
466.073	979.06
466.293	946.06
466.512	885.06
466.732	886.06
466.951	920.06
467.171	887.06
467.391	891.06
467.61	895.06
467.829	908.06
468.049	1020.06
468.268	1083.06
468.488	977.06
468.707	924.06
468.927	929.06
469.146	891.06
469.365	956.06
469.585	944.06
469.804	942.06
470.023	926.06
470.243	963.06
470.462	975.06
470.681	929.06
470.901	947.06
471.12	952.06
471.339	942.06
471.558	915.06
471.777	906.06
471.997	914.06
472.216	847.06
472.435	811.06
472.654	784.06
472.873	792.06
473.092	859.06
473.311	881.06
473.53	840.06
473.749	836.06
473.968	864.06
474.187	876.06
474.406	866.06
474.625	874.06
474.844	888.06
475.063	884.06
475.282	897.06
475.501	843.06
475.72	826.06
475.939	913.06
476.158	894.06
476.377	898.06
476.596	847.06
476.814	857.06
477.033	841.06
477.252	852.06
477.471	924.06
477.69	902.06
477.908	935.06
478.127	999.06
478.346	1020.06
478.564	1032.06
478.783	1007.06
479.002	1037.06
479.22	1045.06
479.439	1015.06
479.658	1068.06
479.876	988.06
480.095	915.06
480.313	898.06
480.532	928.06
480.751	894.06
480.969	861.06
481.188	805.06
481.406	779.06
481.624	793.06
481.843	798.06
482.061	814.06
482.28	875.06
482.498	885.06
482.717	848.06
482.935	910.06
483.153	998.06
483.372	1014.06
483.59	1050.06
483.808	980.06
484.027	965.06
484.245	1034.06
484.463	1231.06
484.681	1312.06
484.9	1060.06
485.118	1020.06
485.336	966.06
485.554	891.06
485.772	894.06
485.99	890.06
486.209	914.06
486.427	930.06
486.645	958.06
486.863	1048.06
487.081	1067.06
487.299	1014.06
487.517	1066.06
487.735	1146.06
487.953	1240.06
488.171	1188.06
488.389	1162.06
488.607	1096.06
488.825	1152.06
489.043	1067.06
489.261	1012.06
489.479	1049.06
489.696	1070.06
489.914	1074.06
490.132	1075.06
490.35	1110.06
490.568	1187.06
490.786	1225.06
491.003	1198.06
491.221	1289.06
491.439	1318.06
491.657	1313.06
491.874	1374.06
492.092	1466.06
492.31	1518.06
492.527	1494.06
492.745	1380.06
492.963	1326.06
493.18	1355.06
493.398	1391.06
493.615	1350.06
493.833	1298.06
494.05	1283.06
494.268	1234.06
494.485	1240.06
494.703	1266.06
494.92	1249.06
495.138	1268.06
495.355	1279.06
495.573	1281.06
495.79	1339.06
496.008	1310.06
496.225	1234.06
496.442	1255.06
496.66	1256.06
496.877	1244.06
497.094	1250.06
497.312	1227.06
497.529	1243.06
497.746	1209.06
497.963	1281.06
498.181	1328.06
498.398	1284.06
498.615	1224.06
498.832	1181.06
499.049	1182.06
499.267	1190.06
499.484	1259.06
499.701	1362.06
499.918	1399.06
500.135	1501.06
