Data from WStandard_LampEnergy5.5LIBS07252019.E.O._I.C._HRD10591_16-09-14-920.txt Node
Date: Thu Jul 25 16:09:14 EDT 2019
User: cochatt
Spectrometer: HR+D1059
Trigger mode: 1
Integration Time (sec): 1.000000E-1
Scans to average: 1
Electric dark correction enabled: true
Nonlinearity correction enabled: false
Boxcar width: 0
XAxis mode: Wavelengths
Number of Pixels in Spectrum: 2048
>>>>>Begin Spectral Data<<<<<
223.165	-23.5
223.4	-23.5
223.635	-23.5
223.869	-13.5
224.104	-13.5
224.338	-12.5
224.573	-16.5
224.808	-18.5
225.042	-16.5
225.277	-3.5
225.511	-11.5
225.746	11.5
225.98	4.5
226.215	6.5
226.449	26.5
226.683	11.5
226.918	34.5
227.152	34.5
227.387	25.5
227.621	48.5
227.856	49.5
228.09	58.5
228.324	58.5
228.559	53.5
228.793	149.5
229.027	362.5
229.262	374.5
229.496	393.5
229.73	376.5
229.964	412.5
230.199	439.5
230.433	450.5
230.667	464.5
230.901	530.5
231.136	461.5
231.37	461.5
231.604	450.5
231.838	446.5
232.072	437.5
232.306	422.5
232.541	475.5
232.775	560.5
233.009	587.5
233.243	563.5
233.477	508.5
233.711	508.5
233.945	563.5
234.179	526.5
234.413	542.5
234.647	626.5
234.881	577.5
235.115	542.5
235.349	546.5
235.583	539.5
235.817	540.5
236.051	518.5
236.285	539.5
236.519	559.5
236.753	626.5
236.987	628.5
237.221	635.5
237.455	697.5
237.689	681.5
237.922	624.5
238.156	648.5
238.39	632.5
238.624	664.5
238.858	721.5
239.091	749.5
239.325	769.5
239.559	900.5
239.793	918.5
240.027	1020.5
240.26	1023.5
240.494	744.5
240.728	681.5
240.961	700.5
241.195	679.5
241.429	774.5
241.662	789.5
241.896	705.5
242.13	730.5
242.363	814.5
242.597	871.5
242.83	836.5
243.064	855.5
243.298	894.5
243.531	876.5
243.765	916.5
243.998	886.5
244.232	787.5
244.465	748.5
244.699	794.5
244.932	864.5
245.166	1021.5
245.399	932.5
245.633	889.5
245.866	863.5
246.099	892.5
246.333	914.5
246.566	930.5
246.8	988.5
247.033	1120.5
247.266	1038.5
247.5	1016.5
247.733	1005.5
247.966	1072.5
248.2	1164.5
248.433	1134.5
248.666	1176.5
248.899	1290.5
249.133	1443.5
249.366	1660.5
249.599	1345.5
249.832	1195.5
250.066	1210.5
250.299	1217.5
250.532	1141.5
250.765	1024.5
250.998	1127.5
251.231	1144.5
251.465	1191.5
251.698	1139.5
251.931	1138.5
252.164	1148.5
252.397	1221.5
252.63	1185.5
252.863	1058.5
253.096	1051.5
253.329	1091.5
253.562	1122.5
253.795	1221.5
254.028	1202.5
254.261	1124.5
254.494	1104.5
254.727	1052.5
254.96	1094.5
255.193	1207.5
255.426	1356.5
255.659	1554.5
255.892	1606.5
256.124	1299.5
256.357	1217.5
256.59	1355.5
256.823	1355.5
257.056	1367.5
257.289	1613.5
257.521	1810.5
257.754	1607.5
257.987	1481.5
258.22	1693.5
258.452	1650.5
258.685	1332.5
258.918	1325.5
259.151	1323.5
259.383	1271.5
259.616	1113.5
259.849	1185.5
260.081	1326.5
260.314	1509.5
260.547	1608.5
260.779	1666.5
261.012	1541.5
261.244	1343.5
261.477	1278.5
261.71	1358.5
261.942	1335.5
262.175	1290.5
262.407	1385.5
262.64	1284.5
262.872	1236.5
263.105	1208.5
263.337	1215.5
263.57	1248.5
263.802	1225.5
264.035	1178.5
264.267	1084.5
264.499	1088.5
264.732	1149.5
264.964	1291.5
265.197	1275.5
265.429	1316.5
265.661	1472.5
265.894	1692.5
266.126	1687.5
266.358	1505.5
266.591	1572.5
266.823	1723.5
267.055	1558.5
267.287	1536.5
267.52	1480.5
267.752	1515.5
267.984	1479.5
268.216	1520.5
268.448	1566.5
268.681	1562.5
268.913	1426.5
269.145	1341.5
269.377	1333.5
269.609	1429.5
269.841	1691.5
270.073	1889.5
270.306	2173.5
270.538	2297.5
270.77	1960.5
271.002	1652.5
271.234	1545.5
271.466	1563.5
271.698	1740.5
271.93	2101.5
272.162	2129.5
272.394	1874.5
272.626	1844.5
272.858	1611.5
273.09	1396.5
273.322	1403.5
273.553	1342.5
273.785	1321.5
274.017	1378.5
274.249	1491.5
274.481	1523.5
274.713	1368.5
274.945	1328.5
275.176	1344.5
275.408	1364.5
275.64	1322.5
275.872	1303.5
276.104	1394.5
276.335	1581.5
276.567	1820.5
276.799	1797.5
277.031	1642.5
277.262	1532.5
277.494	1589.5
277.726	1761.5
277.957	1793.5
278.189	1580.5
278.421	1479.5
278.652	1436.5
278.884	1393.5
279.115	1420.5
279.347	1469.5
279.579	1380.5
279.81	1365.5
280.042	1562.5
280.273	1700.5
280.505	1704.5
280.736	1746.5
280.968	1674.5
281.199	1451.5
281.431	1370.5
281.662	1372.5
281.894	1408.5
282.125	1448.5
282.356	1477.5
282.588	1485.5
282.819	1452.5
283.051	1564.5
283.282	1696.5
283.513	1667.5
283.745	1430.5
283.976	1371.5
284.207	1359.5
284.439	1414.5
284.67	1437.5
284.901	1455.5
285.132	1461.5
285.364	1447.5
285.595	1492.5
285.826	1432.5
286.057	1421.5
286.288	1421.5
286.52	1470.5
286.751	1626.5
286.982	1674.5
287.213	1525.5
287.444	1390.5
287.675	1400.5
287.906	1464.5
288.138	1597.5
288.369	1556.5
288.6	1473.5
288.831	1423.5
289.062	1408.5
289.293	1458.5
289.524	1441.5
289.755	1518.5
289.986	1498.5
290.217	1383.5
290.448	1414.5
290.679	1474.5
290.91	1450.5
291.141	1503.5
291.371	1602.5
291.602	1526.5
291.833	1545.5
292.064	1566.5
292.295	1570.5
292.526	1570.5
292.757	1659.5
292.987	1576.5
293.218	1512.5
293.449	1586.5
293.68	1808.5
293.91	1944.5
294.141	1794.5
294.372	1698.5
294.603	1772.5
294.833	1850.5
295.064	1754.5
295.295	1574.5
295.525	1546.5
295.756	1473.5
295.987	1375.5
296.217	1404.5
296.448	1415.5
296.679	1429.5
296.909	1451.5
297.14	1432.5
297.37	1466.5
297.601	1529.5
297.831	1660.5
298.062	1674.5
298.292	1512.5
298.523	1472.5
298.753	1441.5
298.984	1507.5
299.214	1488.5
299.445	1542.5
299.675	1561.5
299.905	1539.5
300.136	1517.5
300.366	1469.5
300.597	1438.5
300.827	1450.5
301.057	1453.5
301.288	1558.5
301.518	1581.5
301.748	1581.5
301.979	1662.5
302.209	1696.5
302.439	1777.5
302.669	1897.5
302.9	1763.5
303.13	1597.5
303.36	1564.5
303.59	1642.5
303.82	1589.5
304.051	1600.5
304.281	1613.5
304.511	1573.5
304.741	1649.5
304.971	1858.5
305.201	1989.5
305.431	1888.5
305.661	1502.5
305.891	1408.5
306.121	1386.5
306.352	1452.5
306.582	1526.5
306.812	1621.5
307.042	1709.5
307.272	1771.5
307.502	1769.5
307.731	1904.5
307.961	2038.5
308.191	1920.5
308.421	1649.5
308.651	1571.5
308.881	1490.5
309.111	1534.5
309.341	1494.5
309.571	1534.5
309.8	1487.5
310.03	1494.5
310.26	1516.5
310.49	1480.5
310.72	1524.5
310.949	1604.5
311.179	1631.5
311.409	1597.5
311.639	1570.5
311.868	1518.5
312.098	1545.5
312.328	1578.5
312.557	1537.5
312.787	1539.5
313.017	1607.5
313.246	1629.5
313.476	1600.5
313.706	1618.5
313.935	1615.5
314.165	1613.5
314.394	1633.5
314.624	1748.5
314.853	1840.5
315.083	1930.5
315.312	1995.5
315.542	1837.5
315.771	1660.5
316.001	1609.5
316.23	1747.5
316.46	1722.5
316.689	1708.5
316.919	1628.5
317.148	1559.5
317.377	1561.5
317.607	1644.5
317.836	1885.5
318.065	1920.5
318.295	1910.5
318.524	1763.5
318.753	1730.5
318.983	1747.5
319.212	1668.5
319.441	1632.5
319.67	1600.5
319.9	1673.5
320.129	1756.5
320.358	1831.5
320.587	1858.5
320.816	1857.5
321.046	1836.5
321.275	1692.5
321.504	1696.5
321.733	1859.5
321.962	1845.5
322.191	1663.5
322.42	1667.5
322.649	1671.5
322.878	1638.5
323.108	1643.5
323.337	1726.5
323.566	1727.5
323.795	1702.5
324.024	1711.5
324.253	1635.5
324.482	1705.5
324.71	1666.5
324.939	1580.5
325.168	1581.5
325.397	1656.5
325.626	1728.5
325.855	1706.5
326.084	1671.5
326.313	1661.5
326.542	1703.5
326.77	1732.5
326.999	1751.5
327.228	1688.5
327.457	1601.5
327.686	1576.5
327.914	1610.5
328.143	1698.5
328.372	1675.5
328.6	1662.5
328.829	1634.5
329.058	1620.5
329.287	1654.5
329.515	1687.5
329.744	1681.5
329.972	1773.5
330.201	1883.5
330.43	1802.5
330.658	1733.5
330.887	1781.5
331.115	1752.5
331.344	1754.5
331.572	1749.5
331.801	1741.5
332.03	1756.5
332.258	1732.5
332.486	1794.5
332.715	1800.5
332.943	1818.5
333.172	1731.5
333.4	1828.5
333.629	1803.5
333.857	1910.5
334.085	2092.5
334.314	2336.5
334.542	2606.5
334.771	2413.5
334.999	2118.5
335.227	2049.5
335.455	1889.5
335.684	1885.5
335.912	1886.5
336.14	2014.5
336.369	1932.5
336.597	1804.5
336.825	1776.5
337.053	1781.5
337.281	1888.5
337.51	2008.5
337.738	2105.5
337.966	2012.5
338.194	1856.5
338.422	1785.5
338.65	1750.5
338.878	1737.5
339.106	1730.5
339.334	1685.5
339.562	1650.5
339.79	1700.5
340.018	1771.5
340.246	1857.5
340.474	1906.5
340.702	1801.5
340.93	1815.5
341.158	1802.5
341.386	1732.5
341.614	1781.5
341.842	1722.5
342.07	1708.5
342.298	1748.5
342.526	1764.5
342.754	1729.5
342.981	1701.5
343.209	1724.5
343.437	1739.5
343.665	1757.5
343.893	1782.5
344.12	1890.5
344.348	1892.5
344.576	1809.5
344.804	1718.5
345.031	1778.5
345.259	1737.5
345.487	1712.5
345.714	1628.5
345.942	1616.5
346.17	1625.5
346.397	1615.5
346.625	1641.5
346.853	1598.5
347.08	1590.5
347.308	1558.5
347.535	1646.5
347.763	1665.5
347.99	1621.5
348.218	1574.5
348.445	1599.5
348.673	1624.5
348.9	1666.5
349.128	1703.5
349.355	1796.5
349.583	1724.5
349.81	1656.5
350.037	1502.5
350.265	1514.5
350.492	1558.5
350.72	1558.5
350.947	1655.5
351.174	1649.5
351.402	1591.5
351.629	1517.5
351.856	1530.5
352.083	1480.5
352.311	1534.5
352.538	1555.5
352.765	1661.5
352.992	1672.5
353.22	1586.5
353.447	1565.5
353.674	1579.5
353.901	1602.5
354.128	1557.5
354.355	1493.5
354.583	1596.5
354.81	1664.5
355.037	1661.5
355.264	1676.5
355.491	1619.5
355.718	1618.5
355.945	1618.5
356.172	1576.5
356.399	1558.5
356.626	1552.5
356.853	1562.5
357.08	1700.5
357.307	1900.5
357.534	1920.5
357.761	1699.5
357.988	1575.5
358.215	1490.5
358.441	1533.5
358.668	1556.5
358.895	1544.5
359.122	1618.5
359.349	1790.5
359.576	1758.5
359.802	1598.5
360.029	1516.5
360.256	1533.5
360.483	1549.5
360.709	1598.5
360.936	1637.5
361.163	1711.5
361.39	1846.5
361.616	1964.5
361.843	1948.5
362.07	1857.5
362.296	1635.5
362.523	1597.5
362.749	1548.5
362.976	1601.5
363.203	1632.5
363.429	1589.5
363.656	1546.5
363.882	1572.5
364.109	1754.5
364.335	1904.5
364.562	1816.5
364.788	1684.5
365.015	1617.5
365.241	1560.5
365.468	1574.5
365.694	1679.5
365.92	1747.5
366.147	1678.5
366.373	1527.5
366.599	1514.5
366.826	1557.5
367.052	1576.5
367.278	1559.5
367.505	1581.5
367.731	1637.5
367.957	1608.5
368.184	1659.5
368.41	1744.5
368.636	1770.5
368.862	1751.5
369.089	1757.5
369.315	1709.5
369.541	1658.5
369.767	1653.5
369.993	1574.5
370.219	1567.5
370.445	1581.5
370.672	1738.5
370.898	1796.5
371.124	1756.5
371.35	1665.5
371.576	1706.5
371.802	1779.5
372.028	1679.5
372.254	1665.5
372.48	1637.5
372.706	1607.5
372.932	1604.5
373.158	1586.5
373.384	1645.5
373.61	1686.5
373.835	1773.5
374.061	1720.5
374.287	1660.5
374.513	1648.5
374.739	1729.5
374.965	1696.5
375.191	1721.5
375.416	1695.5
375.642	1753.5
375.868	1821.5
376.094	1871.5
376.319	1811.5
376.545	1693.5
376.771	1687.5
376.997	1777.5
377.222	1777.5
377.448	1732.5
377.674	1774.5
377.899	1774.5
378.125	1836.5
378.35	1817.5
378.576	1698.5
378.802	1650.5
379.027	1634.5
379.253	1664.5
379.478	1703.5
379.704	1626.5
379.929	1618.5
380.155	1669.5
380.38	1678.5
380.606	1718.5
380.831	1674.5
381.057	1784.5
381.282	1794.5
381.507	1716.5
381.733	1808.5
381.958	1906.5
382.184	1805.5
382.409	1746.5
382.634	1738.5
382.86	1762.5
383.085	1763.5
383.31	1787.5
383.535	1930.5
383.761	2051.5
383.986	1968.5
384.211	1838.5
384.436	1858.5
384.662	1939.5
384.887	2018.5
385.112	1974.5
385.337	1930.5
385.562	1886.5
385.787	1932.5
386.013	1954.5
386.238	1958.5
386.463	1984.5
386.688	2087.5
386.913	2152.5
387.138	2116.5
387.363	1971.5
387.588	1938.5
387.813	1941.5
388.038	1982.5
388.263	2045.5
388.488	1993.5
388.713	1852.5
388.938	1802.5
389.163	1848.5
389.387	1887.5
389.612	1900.5
389.837	1935.5
390.062	1936.5
390.287	1943.5
390.512	1899.5
390.736	1851.5
390.961	1867.5
391.186	1860.5
391.411	1856.5
391.636	1886.5
391.86	1920.5
392.085	1901.5
392.31	1888.5
392.534	1928.5
392.759	1940.5
392.984	1921.5
393.208	1920.5
393.433	1985.5
393.658	2013.5
393.882	2054.5
394.107	1951.5
394.331	1890.5
394.556	1920.5
394.78	1920.5
395.005	1971.5
395.229	2049.5
395.454	2172.5
395.678	2221.5
395.903	2148.5
396.127	2037.5
396.352	2068.5
396.576	2088.5
396.801	2106.5
397.025	2027.5
397.249	2114.5
397.474	2051.5
397.698	2030.5
397.922	2154.5
398.147	2181.5
398.371	2268.5
398.595	2257.5
398.82	2210.5
399.044	2203.5
399.268	2320.5
399.492	2472.5
399.717	2563.5
399.941	2569.5
400.165	2476.5
400.389	2481.5
400.613	2429.5
400.837	2652.5
401.062	3056.5
401.286	2634.5
401.51	2371.5
401.734	2515.5
401.958	2450.5
402.182	2254.5
402.406	2190.5
402.63	2197.5
402.854	2167.5
403.078	2193.5
403.302	2231.5
403.526	2280.5
403.75	2261.5
403.974	2316.5
404.198	2267.5
404.422	2326.5
404.645	2481.5
404.869	2451.5
405.093	2239.5
405.317	2208.5
405.541	2328.5
405.765	2328.5
405.988	2264.5
406.212	2271.5
406.436	2386.5
406.66	2450.5
406.883	2427.5
407.107	2685.5
407.331	2924.5
407.555	3170.5
407.778	2972.5
408.002	2507.5
408.226	2423.5
408.449	2397.5
408.673	2326.5
408.896	2336.5
409.12	2430.5
409.344	2328.5
409.567	2263.5
409.791	2332.5
410.014	2323.5
410.238	2394.5
410.461	2549.5
410.685	2329.5
410.908	2246.5
411.132	2308.5
411.355	2246.5
411.578	2170.5
411.802	2230.5
412.025	2280.5
412.249	2214.5
412.472	2176.5
412.695	2122.5
412.919	2165.5
413.142	2137.5
413.365	2178.5
413.589	2262.5
413.812	2326.5
414.035	2384.5
414.258	2220.5
414.482	2206.5
414.705	2194.5
414.928	2152.5
415.151	2163.5
415.374	2218.5
415.597	2218.5
415.821	2212.5
416.044	2311.5
416.267	2311.5
416.49	2150.5
416.713	2061.5
416.936	2177.5
417.159	2272.5
417.382	2239.5
417.605	2112.5
417.828	2169.5
418.051	2228.5
418.274	2147.5
418.497	2124.5
418.72	2115.5
418.943	2112.5
419.166	2282.5
419.389	2347.5
419.611	2184.5
419.834	2138.5
420.057	2165.5
420.28	2093.5
420.503	2100.5
420.726	2147.5
420.948	2144.5
421.171	2050.5
421.394	2127.5
421.617	2176.5
421.839	2130.5
422.062	2072.5
422.285	2053.5
422.507	2100.5
422.73	2015.5
422.953	1992.5
423.175	2086.5
423.398	2094.5
423.621	2105.5
423.843	2082.5
424.066	2122.5
424.288	2212.5
424.511	2248.5
424.733	2207.5
424.956	2032.5
425.178	1960.5
425.401	2025.5
425.623	2021.5
425.846	1980.5
426.068	2086.5
426.291	2157.5
426.513	2123.5
426.735	2108.5
426.958	2244.5
427.18	2427.5
427.402	2204.5
427.625	2267.5
427.847	2243.5
428.069	2124.5
428.292	2076.5
428.514	2010.5
428.736	1976.5
428.958	2049.5
429.181	2031.5
429.403	2259.5
429.625	2819.5
429.847	2485.5
430.069	2092.5
430.292	2285.5
430.514	2359.5
430.736	2179.5
430.958	2298.5
431.18	2203.5
431.402	2046.5
431.624	2033.5
431.846	2007.5
432.068	1974.5
432.29	2032.5
432.512	2021.5
432.734	2015.5
432.956	2106.5
433.178	2251.5
433.4	2221.5
433.622	2178.5
433.844	2084.5
434.066	1984.5
434.287	2016.5
434.509	2072.5
434.731	2212.5
434.953	2272.5
435.175	2251.5
435.397	2162.5
435.618	2129.5
435.84	2165.5
436.062	2145.5
436.284	2120.5
436.505	2165.5
436.727	2152.5
436.949	2086.5
437.17	2049.5
437.392	2031.5
437.614	2071.5
437.835	2041.5
438.057	2141.5
438.278	2217.5
438.5	2092.5
438.721	2005.5
438.943	2058.5
439.165	2035.5
439.386	1994.5
439.608	2003.5
439.829	2005.5
440.05	2014.5
440.272	1998.5
440.493	1951.5
440.715	2040.5
440.936	2137.5
441.158	2392.5
441.379	2313.5
441.6	2246.5
441.822	2171.5
442.043	2154.5
442.264	2118.5
442.486	2050.5
442.707	2022.5
442.928	2003.5
443.149	2074.5
443.371	2168.5
443.592	2259.5
443.813	2190.5
444.034	2184.5
444.255	2229.5
444.476	2325.5
444.698	2311.5
444.919	2263.5
445.14	2325.5
445.361	2359.5
445.582	2448.5
445.803	2342.5
446.024	2256.5
446.245	2341.5
446.466	2209.5
446.687	2131.5
446.908	2132.5
447.129	2012.5
447.35	2109.5
447.571	2101.5
447.792	1969.5
448.013	1965.5
448.234	1960.5
448.455	2050.5
448.675	2060.5
448.896	1969.5
449.117	1921.5
449.338	1982.5
449.559	2017.5
449.779	2207.5
450	2361.5
450.221	2511.5
450.442	2480.5
450.662	2252.5
450.883	1917.5
451.104	1897.5
451.324	1942.5
451.545	2016.5
451.766	1975.5
451.986	1883.5
452.207	1885.5
452.428	1794.5
452.648	1792.5
452.869	1866.5
453.089	1956.5
453.31	1964.5
453.53	2026.5
453.751	1980.5
453.971	1839.5
454.192	1905.5
454.412	2003.5
454.633	1935.5
454.853	1864.5
455.073	1810.5
455.294	1757.5
455.514	1786.5
455.734	1806.5
455.955	1832.5
456.175	1805.5
456.395	1827.5
456.616	1882.5
456.836	1934.5
457.056	1842.5
457.276	1857.5
457.497	1798.5
457.717	1763.5
457.937	1778.5
458.157	1826.5
458.377	1844.5
458.598	1818.5
458.818	1827.5
459.038	1924.5
459.258	2063.5
459.478	2079.5
459.698	2005.5
459.918	2033.5
460.138	2127.5
460.358	2164.5
460.578	2116.5
460.798	2236.5
461.018	2401.5
461.238	2234.5
461.458	2178.5
461.678	2222.5
461.898	2150.5
462.118	2058.5
462.338	2234.5
462.558	2196.5
462.777	2131.5
462.997	2292.5
463.217	2398.5
463.437	2370.5
463.657	2220.5
463.876	2186.5
464.096	2133.5
464.316	2168.5
464.536	2259.5
464.755	2236.5
464.975	2300.5
465.195	2238.5
465.414	2280.5
465.634	2303.5
465.854	2161.5
466.073	2280.5
466.293	2235.5
466.512	2038.5
466.732	1955.5
466.951	2066.5
467.171	2071.5
467.391	2025.5
467.61	1948.5
467.829	1962.5
468.049	2068.5
468.268	2348.5
468.488	2201.5
468.707	2083.5
468.927	2030.5
469.146	1976.5
469.365	1966.5
469.585	1983.5
469.804	1972.5
470.023	2016.5
470.243	2000.5
470.462	1985.5
470.681	1925.5
470.901	1992.5
471.12	1973.5
471.339	1964.5
471.558	1916.5
471.777	1885.5
471.997	1928.5
472.216	1906.5
472.435	1832.5
472.654	1900.5
472.873	2016.5
473.092	2059.5
473.311	2040.5
473.53	1882.5
473.749	1872.5
473.968	1960.5
474.187	2056.5
474.406	2165.5
474.625	1996.5
474.844	2006.5
475.063	1989.5
475.282	2029.5
475.501	2022.5
475.72	2004.5
475.939	2114.5
476.158	2036.5
476.377	1974.5
476.596	2018.5
476.814	2078.5
477.033	2079.5
477.252	2194.5
477.471	2200.5
477.69	2110.5
477.908	2086.5
478.127	2207.5
478.346	2372.5
478.564	2357.5
478.783	2360.5
479.002	2382.5
479.22	2385.5
479.439	2467.5
479.658	2793.5
479.876	2754.5
480.095	2423.5
480.313	2304.5
480.532	2216.5
480.751	2268.5
480.969	2337.5
481.188	2263.5
481.406	2228.5
481.624	2163.5
481.843	2129.5
482.061	2251.5
482.28	2302.5
482.498	2394.5
482.717	2325.5
482.935	2180.5
483.153	2211.5
483.372	2223.5
483.59	2173.5
483.808	2215.5
484.027	2271.5
484.245	2385.5
484.463	2722.5
484.681	3163.5
484.9	2418.5
485.118	2280.5
485.336	2250.5
485.554	2321.5
485.772	2445.5
485.99	2413.5
486.209	2428.5
486.427	2384.5
486.645	2411.5
486.863	2313.5
487.081	2375.5
487.299	2458.5
487.517	2427.5
487.735	2372.5
487.953	2313.5
488.171	2246.5
488.389	2308.5
488.607	2323.5
488.825	2481.5
489.043	2564.5
489.261	2272.5
489.479	2428.5
489.696	2498.5
489.914	2440.5
490.132	2424.5
490.35	2316.5
490.568	2426.5
490.786	2332.5
491.003	2210.5
491.221	2345.5
491.439	2389.5
491.657	2376.5
491.874	2354.5
492.092	2494.5
492.31	2366.5
492.527	2354.5
492.745	2374.5
492.963	2350.5
493.18	2426.5
493.398	2634.5
493.615	2672.5
493.833	2450.5
494.05	2385.5
494.268	2428.5
494.485	2488.5
494.703	2391.5
494.92	2375.5
495.138	2401.5
495.355	2430.5
495.573	2489.5
495.79	2639.5
496.008	2664.5
496.225	2475.5
496.442	2534.5
496.66	2601.5
496.877	2539.5
497.094	2646.5
497.312	2633.5
497.529	2585.5
497.746	2697.5
497.963	3135.5
498.181	3455.5
498.398	3287.5
498.615	3148.5
498.832	3088.5
499.049	3085.5
499.267	3058.5
499.484	3278.5
499.701	3538.5
499.918	3602.5
500.135	3834.5
500.352	4128.5
500.569	4079.5
500.786	4307.5
501.003	4018.5
501.22	3710.5
501.437	3550.5
501.654	3528.5
501.871	3454.5
502.088	3041.5
502.305	3052.5
502.522	2972.5
502.739	2761.5
502.956	2681.5
503.172	2694.5
503.389	2636.5
