Data from WStandard_LampEnergy8_LIBS07252019.E.O._I.C._HRD10591_16-00-37-929.txt Node
Date: Thu Jul 25 16:00:37 EDT 2019
User: cochatt
Spectrometer: HR+D1059
Trigger mode: 1
Integration Time (sec): 1.000000E-1
Scans to average: 1
Electric dark correction enabled: true
Nonlinearity correction enabled: false
Boxcar width: 0
XAxis mode: Wavelengths
Number of Pixels in Spectrum: 2048
>>>>>Begin Spectral Data<<<<<
223.165	-15.75
223.4	-15.75
223.635	-15.75
223.869	-31.75
224.104	-16.75
224.338	-13.75
224.573	-8.75
224.808	-7.75
225.042	7.25
225.277	-6.75
225.511	-13.75
225.746	19.25
225.98	8.25
226.215	1.25
226.449	2.25
226.683	37.25
226.918	16.25
227.152	23.25
227.387	37.25
227.621	43.25
227.856	45.25
228.09	45.25
228.324	54.25
228.559	59.25
228.793	99.25
229.027	184.25
229.262	210.25
229.496	215.25
229.73	228.25
229.964	258.25
230.199	263.25
230.433	268.25
230.667	270.25
230.901	271.25
231.136	242.25
231.37	248.25
231.604	264.25
231.838	263.25
232.072	260.25
232.306	272.25
232.541	280.25
232.775	303.25
233.009	310.25
233.243	272.25
233.477	272.25
233.711	287.25
233.945	307.25
234.179	296.25
234.413	298.25
234.647	342.25
234.881	317.25
235.115	290.25
235.349	299.25
235.583	286.25
235.817	299.25
236.051	286.25
236.285	311.25
236.519	327.25
236.753	330.25
236.987	324.25
237.221	345.25
237.455	388.25
237.689	381.25
237.922	337.25
238.156	344.25
238.39	344.25
238.624	359.25
238.858	379.25
239.091	380.25
239.325	415.25
239.559	460.25
239.793	452.25
240.027	517.25
240.26	481.25
240.494	392.25
240.728	373.25
240.961	363.25
241.195	362.25
241.429	401.25
241.662	398.25
241.896	402.25
242.13	372.25
242.363	428.25
242.597	440.25
242.83	438.25
243.064	439.25
243.298	475.25
243.531	439.25
243.765	441.25
243.998	454.25
244.232	396.25
244.465	389.25
244.699	407.25
244.932	453.25
245.166	486.25
245.399	461.25
245.633	440.25
245.866	470.25
246.099	453.25
246.333	484.25
246.566	479.25
246.8	520.25
247.033	562.25
247.266	524.25
247.5	523.25
247.733	508.25
247.966	569.25
248.2	577.25
248.433	580.25
248.666	625.25
248.899	655.25
249.133	726.25
249.366	762.25
249.599	652.25
249.832	589.25
250.066	617.25
250.299	618.25
250.532	568.25
250.765	513.25
250.998	560.25
251.231	575.25
251.465	581.25
251.698	558.25
251.931	580.25
252.164	566.25
252.397	608.25
252.63	596.25
252.863	537.25
253.096	527.25
253.329	540.25
253.562	562.25
253.795	605.25
254.028	572.25
254.261	556.25
254.494	552.25
254.727	519.25
254.96	549.25
255.193	618.25
255.426	668.25
255.659	752.25
255.892	764.25
256.124	675.25
256.357	643.25
256.59	679.25
256.823	684.25
257.056	702.25
257.289	801.25
257.521	884.25
257.754	782.25
257.987	755.25
258.22	800.25
258.452	782.25
258.685	661.25
258.918	633.25
259.151	672.25
259.383	636.25
259.616	566.25
259.849	624.25
260.081	676.25
260.314	745.25
260.547	789.25
260.779	798.25
261.012	758.25
261.244	662.25
261.477	643.25
261.71	682.25
261.942	683.25
262.175	675.25
262.407	681.25
262.64	654.25
262.872	599.25
263.105	597.25
263.337	633.25
263.57	642.25
263.802	634.25
264.035	580.25
264.267	569.25
264.499	573.25
264.732	598.25
264.964	618.25
265.197	634.25
265.429	690.25
265.661	778.25
265.894	826.25
266.126	848.25
266.358	758.25
266.591	765.25
266.823	809.25
267.055	756.25
267.287	740.25
267.52	737.25
267.752	749.25
267.984	737.25
268.216	776.25
268.448	786.25
268.681	752.25
268.913	720.25
269.145	669.25
269.377	678.25
269.609	742.25
269.841	850.25
270.073	980.25
270.306	1013.25
270.538	1075.25
270.77	909.25
271.002	805.25
271.234	787.25
271.466	813.25
271.698	901.25
271.93	1047.25
272.162	1029.25
272.394	922.25
272.626	882.25
272.858	777.25
273.09	704.25
273.322	686.25
273.553	669.25
273.785	668.25
274.017	692.25
274.249	755.25
274.481	708.25
274.713	664.25
274.945	699.25
275.176	698.25
275.408	644.25
275.64	667.25
275.872	696.25
276.104	763.25
276.335	832.25
276.567	916.25
276.799	896.25
277.031	811.25
277.262	796.25
277.494	823.25
277.726	858.25
277.957	859.25
278.189	785.25
278.421	714.25
278.652	731.25
278.884	748.25
279.115	744.25
279.347	733.25
279.579	710.25
279.81	728.25
280.042	818.25
280.273	848.25
280.505	846.25
280.736	852.25
280.968	800.25
281.199	732.25
281.431	669.25
281.662	692.25
281.894	702.25
282.125	742.25
282.356	737.25
282.588	782.25
282.819	797.25
283.051	826.25
283.282	857.25
283.513	840.25
283.745	726.25
283.976	701.25
284.207	722.25
284.439	728.25
284.67	731.25
284.901	746.25
285.132	774.25
285.364	743.25
285.595	731.25
285.826	739.25
286.057	750.25
286.288	763.25
286.52	776.25
286.751	825.25
286.982	821.25
287.213	769.25
287.444	724.25
287.675	743.25
287.906	774.25
288.138	810.25
288.369	792.25
288.6	757.25
288.831	720.25
289.062	708.25
289.293	745.25
289.524	764.25
289.755	784.25
289.986	744.25
290.217	718.25
290.448	731.25
290.679	753.25
290.91	754.25
291.141	800.25
291.371	804.25
291.602	798.25
291.833	785.25
292.064	818.25
292.295	801.25
292.526	825.25
292.757	849.25
292.987	806.25
293.218	789.25
293.449	883.25
293.68	930.25
293.91	1002.25
294.141	936.25
294.372	899.25
294.603	910.25
294.833	951.25
295.064	888.25
295.295	807.25
295.525	790.25
295.756	729.25
295.987	707.25
296.217	736.25
296.448	721.25
296.679	776.25
296.909	752.25
297.14	733.25
297.37	750.25
297.601	840.25
297.831	850.25
298.062	861.25
298.292	779.25
298.523	787.25
298.753	786.25
298.984	765.25
299.214	805.25
299.445	786.25
299.675	782.25
299.905	850.25
300.136	810.25
300.366	798.25
300.597	752.25
300.827	760.25
301.057	794.25
301.288	829.25
301.518	808.25
301.748	827.25
301.979	906.25
302.209	924.25
302.439	979.25
302.669	961.25
302.9	909.25
303.13	830.25
303.36	847.25
303.59	856.25
303.82	857.25
304.051	846.25
304.281	884.25
304.511	848.25
304.741	899.25
304.971	1024.25
305.201	1077.25
305.431	955.25
305.661	813.25
305.891	732.25
306.121	747.25
306.352	789.25
306.582	851.25
306.812	896.25
307.042	931.25
307.272	926.25
307.502	981.25
307.731	1016.25
307.961	1072.25
308.191	973.25
308.421	891.25
308.651	828.25
308.881	800.25
309.111	800.25
309.341	795.25
309.571	802.25
309.8	807.25
310.03	804.25
310.26	830.25
310.49	802.25
310.72	832.25
310.949	857.25
311.179	872.25
311.409	836.25
311.639	814.25
311.868	822.25
312.098	830.25
312.328	838.25
312.557	848.25
312.787	826.25
313.017	849.25
313.246	871.25
313.476	846.25
313.706	860.25
313.935	836.25
314.165	874.25
314.394	920.25
314.624	966.25
314.853	1009.25
315.083	1055.25
315.312	1056.25
315.542	955.25
315.771	877.25
316.001	889.25
316.23	946.25
316.46	923.25
316.689	920.25
316.919	887.25
317.148	850.25
317.377	889.25
317.607	956.25
317.836	1033.25
318.065	1043.25
318.295	1030.25
318.524	955.25
318.753	929.25
318.983	940.25
319.212	915.25
319.441	889.25
319.67	882.25
319.9	924.25
320.129	960.25
320.358	1003.25
320.587	997.25
320.816	1016.25
321.046	970.25
321.275	952.25
321.504	948.25
321.733	1034.25
321.962	998.25
322.191	896.25
322.42	916.25
322.649	889.25
322.878	885.25
323.108	928.25
323.337	957.25
323.566	944.25
323.795	930.25
324.024	938.25
324.253	949.25
324.482	914.25
324.71	877.25
324.939	869.25
325.168	900.25
325.397	911.25
325.626	940.25
325.855	946.25
326.084	922.25
326.313	927.25
326.542	929.25
326.77	951.25
326.999	963.25
327.228	925.25
327.457	864.25
327.686	861.25
327.914	889.25
328.143	918.25
328.372	901.25
328.6	916.25
328.829	918.25
329.058	908.25
329.287	905.25
329.515	928.25
329.744	908.25
329.972	994.25
330.201	1026.25
330.43	973.25
330.658	945.25
330.887	964.25
331.115	962.25
331.344	973.25
331.572	958.25
331.801	962.25
332.03	950.25
332.258	962.25
332.486	997.25
332.715	994.25
332.943	1005.25
333.172	981.25
333.4	980.25
333.629	1037.25
333.857	1070.25
334.085	1206.25
334.314	1360.25
334.542	1393.25
334.771	1268.25
334.999	1149.25
335.227	1084.25
335.455	1049.25
335.684	1033.25
335.912	1082.25
336.14	1089.25
336.369	1037.25
336.597	981.25
336.825	987.25
337.053	1019.25
337.281	1099.25
337.51	1121.25
337.738	1132.25
337.966	1074.25
338.194	995.25
338.422	973.25
338.65	971.25
338.878	956.25
339.106	972.25
339.334	922.25
339.562	914.25
339.79	946.25
340.018	1016.25
340.246	1035.25
340.474	1017.25
340.702	986.25
340.93	1001.25
341.158	978.25
341.386	980.25
341.614	974.25
341.842	992.25
342.07	976.25
342.298	979.25
342.526	951.25
342.754	965.25
342.981	949.25
343.209	944.25
343.437	949.25
343.665	982.25
343.893	1031.25
344.12	1020.25
344.348	1045.25
344.576	983.25
344.804	958.25
345.031	973.25
345.259	964.25
345.487	923.25
345.714	871.25
345.942	881.25
346.17	928.25
346.397	932.25
346.625	933.25
346.853	876.25
347.08	896.25
347.308	876.25
347.535	905.25
347.763	923.25
347.99	923.25
348.218	901.25
348.445	913.25
348.673	899.25
348.9	936.25
349.128	968.25
349.355	1011.25
349.583	944.25
349.81	922.25
350.037	864.25
350.265	875.25
350.492	874.25
350.72	892.25
350.947	945.25
351.174	964.25
351.402	898.25
351.629	856.25
351.856	846.25
352.083	843.25
352.311	861.25
352.538	903.25
352.765	932.25
352.992	940.25
353.22	883.25
353.447	898.25
353.674	913.25
353.901	890.25
354.128	905.25
354.355	886.25
354.583	917.25
354.81	945.25
355.037	946.25
355.264	934.25
355.491	906.25
355.718	920.25
355.945	918.25
356.172	902.25
356.399	864.25
356.626	910.25
356.853	916.25
357.08	1022.25
357.307	1090.25
357.534	1055.25
357.761	948.25
357.988	877.25
358.215	865.25
358.441	875.25
358.668	861.25
358.895	870.25
359.122	961.25
359.349	1003.25
359.576	969.25
359.802	906.25
360.029	867.25
360.256	908.25
360.483	892.25
360.709	950.25
360.936	972.25
361.163	1010.25
361.39	1081.25
361.616	1136.25
361.843	1130.25
362.07	1008.25
362.296	928.25
362.523	924.25
362.749	906.25
362.976	901.25
363.203	928.25
363.429	900.25
363.656	875.25
363.882	946.25
364.109	1064.25
364.335	1090.25
364.562	999.25
364.788	978.25
365.015	917.25
365.241	910.25
365.468	941.25
365.694	975.25
365.92	965.25
366.147	932.25
366.373	884.25
366.599	868.25
366.826	901.25
367.052	908.25
367.278	926.25
367.505	973.25
367.731	953.25
367.957	932.25
368.184	953.25
368.41	1014.25
368.636	1008.25
368.862	1034.25
369.089	1036.25
369.315	1002.25
369.541	945.25
369.767	926.25
369.993	907.25
370.219	892.25
370.445	942.25
370.672	1032.25
370.898	1046.25
371.124	1028.25
371.35	989.25
371.576	997.25
371.802	1023.25
372.028	979.25
372.254	939.25
372.48	953.25
372.706	916.25
372.932	926.25
373.158	939.25
373.384	972.25
373.61	997.25
373.835	1017.25
374.061	982.25
374.287	964.25
374.513	965.25
374.739	993.25
374.965	960.25
375.191	986.25
375.416	1001.25
375.642	1025.25
375.868	1060.25
376.094	1120.25
376.319	1022.25
376.545	982.25
376.771	1028.25
376.997	1057.25
377.222	1052.25
377.448	1029.25
377.674	1042.25
377.899	1028.25
378.125	1064.25
378.35	1081.25
378.576	965.25
378.802	946.25
379.027	950.25
379.253	982.25
379.478	995.25
379.704	938.25
379.929	941.25
380.155	972.25
380.38	983.25
380.606	988.25
380.831	992.25
381.057	1063.25
381.282	1055.25
381.507	1056.25
381.733	1093.25
381.958	1128.25
382.184	1045.25
382.409	1038.25
382.634	1042.25
382.86	991.25
383.085	1036.25
383.31	1048.25
383.535	1180.25
383.761	1214.25
383.986	1132.25
384.211	1112.25
384.436	1124.25
384.662	1157.25
384.887	1208.25
385.112	1109.25
385.337	1148.25
385.562	1120.25
385.787	1120.25
386.013	1123.25
386.238	1132.25
386.463	1154.25
386.688	1212.25
386.913	1269.25
387.138	1245.25
387.363	1143.25
387.588	1134.25
387.813	1142.25
388.038	1172.25
388.263	1189.25
388.488	1134.25
388.713	1085.25
388.938	1079.25
389.163	1135.25
389.387	1113.25
389.612	1084.25
389.837	1130.25
390.062	1145.25
390.287	1113.25
390.512	1119.25
390.736	1093.25
390.961	1097.25
391.186	1066.25
391.411	1084.25
391.636	1085.25
391.86	1124.25
392.085	1107.25
392.31	1124.25
392.534	1129.25
392.759	1116.25
392.984	1108.25
393.208	1150.25
393.433	1177.25
393.658	1221.25
393.882	1216.25
394.107	1162.25
394.331	1122.25
394.556	1122.25
394.78	1153.25
395.005	1163.25
395.229	1186.25
395.454	1298.25
395.678	1284.25
395.903	1227.25
396.127	1194.25
396.352	1218.25
396.576	1230.25
396.801	1249.25
397.025	1242.25
397.249	1209.25
397.474	1202.25
397.698	1224.25
397.922	1252.25
398.147	1305.25
398.371	1349.25
398.595	1330.25
398.82	1265.25
399.044	1302.25
399.268	1371.25
399.492	1429.25
399.717	1473.25
399.941	1480.25
400.165	1441.25
400.389	1431.25
400.613	1442.25
400.837	1652.25
401.062	1788.25
401.286	1496.25
401.51	1400.25
401.734	1428.25
401.958	1378.25
402.182	1322.25
402.406	1253.25
402.63	1259.25
402.854	1277.25
403.078	1268.25
403.302	1310.25
403.526	1356.25
403.75	1298.25
403.974	1344.25
404.198	1328.25
404.422	1386.25
404.645	1446.25
404.869	1412.25
405.093	1279.25
405.317	1288.25
405.541	1307.25
405.765	1303.25
405.988	1330.25
406.212	1379.25
406.436	1414.25
406.66	1421.25
406.883	1483.25
407.107	1682.25
407.331	1760.25
407.555	1872.25
407.778	1652.25
408.002	1436.25
408.226	1385.25
408.449	1391.25
408.673	1363.25
408.896	1347.25
409.12	1403.25
409.344	1324.25
409.567	1306.25
409.791	1350.25
410.014	1388.25
410.238	1456.25
410.461	1542.25
410.685	1358.25
410.908	1312.25
411.132	1326.25
411.355	1317.25
411.578	1318.25
411.802	1324.25
412.025	1366.25
412.249	1341.25
412.472	1302.25
412.695	1311.25
412.919	1300.25
413.142	1251.25
413.365	1278.25
413.589	1340.25
413.812	1376.25
414.035	1410.25
414.258	1332.25
414.482	1264.25
414.705	1285.25
414.928	1261.25
415.151	1292.25
415.374	1300.25
415.597	1308.25
415.821	1322.25
416.044	1306.25
416.267	1316.25
416.49	1248.25
416.713	1276.25
416.936	1300.25
417.159	1348.25
417.382	1362.25
417.605	1273.25
417.828	1304.25
418.051	1306.25
418.274	1295.25
418.497	1259.25
418.72	1284.25
418.943	1283.25
419.166	1324.25
419.389	1334.25
419.611	1313.25
419.834	1269.25
420.057	1282.25
420.28	1249.25
420.503	1261.25
420.726	1276.25
420.948	1296.25
421.171	1243.25
421.394	1284.25
421.617	1332.25
421.839	1295.25
422.062	1316.25
422.285	1268.25
422.507	1246.25
422.73	1218.25
422.953	1190.25
423.175	1200.25
423.398	1258.25
423.621	1236.25
423.843	1278.25
424.066	1308.25
424.288	1349.25
424.511	1364.25
424.733	1359.25
424.956	1209.25
425.178	1236.25
425.401	1254.25
425.623	1256.25
425.846	1260.25
426.068	1312.25
426.291	1328.25
426.513	1309.25
426.735	1285.25
426.958	1426.25
427.18	1452.25
427.402	1356.25
427.625	1399.25
427.847	1353.25
428.069	1241.25
428.292	1228.25
428.514	1211.25
428.736	1196.25
428.958	1228.25
429.181	1253.25
429.403	1465.25
429.625	1734.25
429.847	1454.25
430.069	1297.25
430.292	1444.25
430.514	1446.25
430.736	1344.25
430.958	1347.25
431.18	1297.25
431.402	1202.25
431.624	1191.25
431.846	1180.25
432.068	1113.25
432.29	1132.25
432.512	1158.25
432.734	1228.25
432.956	1234.25
433.178	1322.25
433.4	1282.25
433.622	1277.25
433.844	1248.25
434.066	1195.25
434.287	1177.25
434.509	1156.25
434.731	1273.25
434.953	1343.25
435.175	1294.25
435.397	1274.25
435.618	1226.25
435.84	1200.25
436.062	1207.25
436.284	1267.25
436.505	1296.25
436.727	1309.25
436.949	1256.25
437.17	1209.25
437.392	1209.25
437.614	1214.25
437.835	1155.25
438.057	1204.25
438.278	1202.25
438.5	1218.25
438.721	1200.25
438.943	1200.25
439.165	1200.25
439.386	1194.25
439.608	1222.25
439.829	1236.25
440.05	1256.25
440.272	1218.25
440.493	1226.25
440.715	1239.25
440.936	1321.25
441.158	1371.25
441.379	1395.25
441.6	1320.25
441.822	1354.25
442.043	1306.25
442.264	1308.25
442.486	1245.25
442.707	1258.25
442.928	1251.25
443.149	1272.25
443.371	1312.25
443.592	1364.25
443.813	1338.25
444.034	1323.25
444.255	1334.25
444.476	1341.25
444.698	1390.25
444.919	1378.25
445.14	1452.25
445.361	1411.25
445.582	1422.25
445.803	1366.25
446.024	1376.25
446.245	1365.25
446.466	1331.25
446.687	1303.25
446.908	1291.25
447.129	1299.25
447.35	1308.25
447.571	1290.25
447.792	1260.25
448.013	1221.25
448.234	1256.25
448.455	1293.25
448.675	1283.25
448.896	1193.25
449.117	1205.25
449.338	1214.25
449.559	1269.25
449.779	1303.25
450	1362.25
450.221	1456.25
450.442	1380.25
450.662	1284.25
450.883	1131.25
451.104	1156.25
451.324	1156.25
451.545	1200.25
451.766	1178.25
451.986	1139.25
452.207	1125.25
452.428	1100.25
452.648	1108.25
452.869	1094.25
453.089	1117.25
453.31	1126.25
453.53	1148.25
453.751	1101.25
453.971	1028.25
454.192	1062.25
454.412	1133.25
454.633	1120.25
454.853	1096.25
455.073	1057.25
455.294	1044.25
455.514	1083.25
455.734	1088.25
455.955	1058.25
456.175	1012.25
456.395	1062.25
456.616	1073.25
456.836	1074.25
457.056	1043.25
457.276	1049.25
457.497	1025.25
457.717	980.25
457.937	1018.25
458.157	1041.25
458.377	1010.25
458.598	1000.25
458.818	1021.25
459.038	1097.25
459.258	1144.25
459.478	1132.25
459.698	1079.25
459.918	1139.25
460.138	1207.25
460.358	1220.25
460.578	1195.25
460.798	1269.25
461.018	1330.25
461.238	1293.25
461.458	1254.25
461.678	1236.25
461.898	1224.25
462.118	1195.25
462.338	1253.25
462.558	1235.25
462.777	1251.25
462.997	1307.25
463.217	1329.25
463.437	1327.25
463.657	1268.25
463.876	1233.25
464.096	1230.25
464.316	1260.25
464.536	1284.25
464.755	1280.25
464.975	1279.25
465.195	1242.25
465.414	1306.25
465.634	1308.25
465.854	1278.25
466.073	1396.25
466.293	1315.25
466.512	1177.25
466.732	1178.25
466.951	1242.25
467.171	1188.25
467.391	1170.25
467.61	1151.25
467.829	1228.25
468.049	1319.25
468.268	1437.25
468.488	1289.25
468.707	1228.25
468.927	1224.25
469.146	1203.25
469.365	1180.25
469.585	1217.25
469.804	1205.25
470.023	1226.25
470.243	1260.25
470.462	1206.25
470.681	1214.25
470.901	1224.25
471.12	1200.25
471.339	1222.25
471.558	1214.25
471.777	1196.25
471.997	1214.25
472.216	1174.25
472.435	1089.25
472.654	1114.25
472.873	1124.25
473.092	1161.25
473.311	1149.25
473.53	1126.25
473.749	1121.25
473.968	1142.25
474.187	1206.25
474.406	1238.25
474.625	1196.25
474.844	1201.25
475.063	1206.25
475.282	1189.25
475.501	1144.25
475.72	1204.25
475.939	1272.25
476.158	1233.25
476.377	1185.25
476.596	1208.25
476.814	1194.25
477.033	1167.25
477.252	1261.25
477.471	1278.25
477.69	1257.25
477.908	1261.25
478.127	1328.25
478.346	1381.25
478.564	1400.25
478.783	1378.25
479.002	1436.25
479.22	1357.25
479.439	1434.25
479.658	1572.25
479.876	1464.25
480.095	1369.25
480.313	1312.25
480.532	1287.25
480.751	1295.25
480.969	1320.25
481.188	1245.25
481.406	1241.25
481.624	1202.25
481.843	1245.25
482.061	1257.25
482.28	1288.25
482.498	1321.25
482.717	1284.25
482.935	1254.25
483.153	1312.25
483.372	1346.25
483.59	1362.25
483.808	1334.25
484.027	1361.25
484.245	1412.25
484.463	1712.25
484.681	1814.25
484.9	1496.25
485.118	1395.25
485.336	1321.25
485.554	1354.25
485.772	1371.25
485.99	1353.25
486.209	1348.25
486.427	1331.25
486.645	1395.25
486.863	1359.25
487.081	1451.25
487.299	1423.25
487.517	1432.25
487.735	1402.25
487.953	1476.25
488.171	1462.25
488.389	1407.25
488.607	1430.25
488.825	1560.25
489.043	1487.25
489.261	1376.25
489.479	1474.25
489.696	1425.25
489.914	1467.25
490.132	1421.25
490.35	1450.25
490.568	1510.25
490.786	1469.25
491.003	1457.25
491.221	1506.25
491.439	1564.25
491.657	1550.25
491.874	1626.25
492.092	1660.25
492.31	1656.25
492.527	1621.25
492.745	1582.25
492.963	1565.25
493.18	1549.25
493.398	1649.25
493.615	1672.25
493.833	1596.25
494.05	1486.25
