Data from WStandard_LampEnergy10_LIBS07252019.E.O._I.C._HRD10591_15-53-07-927.txt Node
Date: Thu Jul 25 15:53:07 EDT 2019
User: cochatt
Spectrometer: HR+D1059
Trigger mode: 1
Integration Time (sec): 1.000000E-1
Scans to average: 1
Electric dark correction enabled: true
Nonlinearity correction enabled: false
Boxcar width: 0
XAxis mode: Wavelengths
Number of Pixels in Spectrum: 2048
>>>>>Begin Spectral Data<<<<<
223.165	-27.81
223.4	-27.81
223.635	-27.81
223.869	-6.81
224.104	-15.81
224.338	-14.81
224.573	-17.81
224.808	-7.81
225.042	-4.81
225.277	-3.81
225.511	-8.81
225.746	9.19
225.98	1.19
226.215	2.19
226.449	15.19
226.683	28.19
226.918	25.19
227.152	27.19
227.387	18.19
227.621	33.19
227.856	32.19
228.09	33.19
228.324	40.19
228.559	55.19
228.793	62.19
229.027	118.19
229.262	137.19
229.496	153.19
229.73	150.19
229.964	149.19
230.199	161.19
230.433	169.19
230.667	191.19
230.901	197.19
231.136	187.19
231.37	180.19
231.604	164.19
231.838	161.19
232.072	177.19
232.306	181.19
232.541	162.19
232.775	202.19
233.009	214.19
233.243	199.19
233.477	204.19
233.711	200.19
233.945	188.19
234.179	186.19
234.413	210.19
234.647	218.19
234.881	210.19
235.115	209.19
235.349	186.19
235.583	186.19
235.817	207.19
236.051	187.19
236.285	203.19
236.519	219.19
236.753	222.19
236.987	222.19
237.221	230.19
237.455	229.19
237.689	226.19
237.922	226.19
238.156	212.19
238.39	230.19
238.624	234.19
238.858	244.19
239.091	234.19
239.325	257.19
239.559	297.19
239.793	296.19
240.027	307.19
240.26	293.19
240.494	232.19
240.728	254.19
240.961	253.19
241.195	235.19
241.429	258.19
241.662	254.19
241.896	237.19
242.13	270.19
242.363	271.19
242.597	267.19
242.83	281.19
243.064	294.19
243.298	297.19
243.531	286.19
243.765	293.19
243.998	278.19
244.232	260.19
244.465	241.19
244.699	265.19
244.932	288.19
245.166	331.19
245.399	316.19
245.633	271.19
245.866	285.19
246.099	272.19
246.333	303.19
246.566	305.19
246.8	339.19
247.033	354.19
247.266	337.19
247.5	317.19
247.733	320.19
247.966	344.19
248.2	353.19
248.433	362.19
248.666	358.19
248.899	381.19
249.133	447.19
249.366	461.19
249.599	399.19
249.832	360.19
250.066	371.19
250.299	375.19
250.532	358.19
250.765	327.19
250.998	332.19
251.231	336.19
251.465	359.19
251.698	344.19
251.931	342.19
252.164	368.19
252.397	361.19
252.63	348.19
252.863	350.19
253.096	327.19
253.329	355.19
253.562	357.19
253.795	388.19
254.028	372.19
254.261	356.19
254.494	351.19
254.727	324.19
254.96	346.19
255.193	392.19
255.426	423.19
255.659	449.19
255.892	439.19
256.124	385.19
256.357	386.19
256.59	433.19
256.823	408.19
257.056	435.19
257.289	501.19
257.521	509.19
257.754	470.19
257.987	471.19
258.22	484.19
258.452	449.19
258.685	412.19
258.918	382.19
259.151	395.19
259.383	383.19
259.616	365.19
259.849	381.19
260.081	422.19
260.314	458.19
260.547	456.19
260.779	457.19
261.012	437.19
261.244	401.19
261.477	405.19
261.71	401.19
261.942	408.19
262.175	406.19
262.407	405.19
262.64	417.19
262.872	378.19
263.105	366.19
263.337	384.19
263.57	386.19
263.802	372.19
264.035	365.19
264.267	351.19
264.499	340.19
264.732	370.19
264.964	390.19
265.197	419.19
265.429	429.19
265.661	462.19
265.894	487.19
266.126	468.19
266.358	466.19
266.591	480.19
266.823	522.19
267.055	447.19
267.287	463.19
267.52	448.19
267.752	449.19
267.984	465.19
268.216	453.19
268.448	467.19
268.681	471.19
268.913	431.19
269.145	417.19
269.377	425.19
269.609	460.19
269.841	536.19
270.073	600.19
270.306	631.19
270.538	624.19
270.77	536.19
271.002	489.19
271.234	497.19
271.466	488.19
271.698	549.19
271.93	612.19
272.162	621.19
272.394	571.19
272.626	530.19
272.858	471.19
273.09	416.19
273.322	415.19
273.553	401.19
273.785	425.19
274.017	448.19
274.249	482.19
274.481	456.19
274.713	413.19
274.945	403.19
275.176	410.19
275.408	413.19
275.64	411.19
275.872	420.19
276.104	436.19
276.335	510.19
276.567	560.19
276.799	563.19
277.031	509.19
277.262	485.19
277.494	486.19
277.726	536.19
277.957	523.19
278.189	465.19
278.421	458.19
278.652	427.19
278.884	434.19
279.115	448.19
279.347	450.19
279.579	446.19
279.81	463.19
280.042	478.19
280.273	518.19
280.505	533.19
280.736	528.19
280.968	470.19
281.199	434.19
281.431	424.19
281.662	437.19
281.894	411.19
282.125	444.19
282.356	454.19
282.588	455.19
282.819	464.19
283.051	497.19
283.282	519.19
283.513	480.19
283.745	438.19
283.976	416.19
284.207	441.19
284.439	467.19
284.67	464.19
284.901	451.19
285.132	457.19
285.364	472.19
285.595	467.19
285.826	457.19
286.057	450.19
286.288	481.19
286.52	484.19
286.751	497.19
286.982	483.19
287.213	473.19
287.444	449.19
287.675	433.19
287.906	460.19
288.138	476.19
288.369	464.19
288.6	446.19
288.831	424.19
289.062	440.19
289.293	458.19
289.524	455.19
289.755	482.19
289.986	477.19
290.217	448.19
290.448	456.19
290.679	481.19
290.91	479.19
291.141	475.19
291.371	502.19
291.602	484.19
291.833	490.19
292.064	495.19
292.295	492.19
292.526	511.19
292.757	519.19
292.987	488.19
293.218	486.19
293.449	534.19
293.68	579.19
293.91	589.19
294.141	573.19
294.372	554.19
294.603	566.19
294.833	582.19
295.064	541.19
295.295	499.19
295.525	459.19
295.756	446.19
295.987	433.19
296.217	457.19
296.448	459.19
296.679	473.19
296.909	460.19
297.14	457.19
297.37	489.19
297.601	520.19
297.831	538.19
298.062	517.19
298.292	499.19
298.523	483.19
298.753	478.19
298.984	475.19
299.214	495.19
299.445	472.19
299.675	521.19
299.905	494.19
300.136	486.19
300.366	478.19
300.597	447.19
300.827	476.19
301.057	506.19
301.288	531.19
301.518	519.19
301.748	534.19
301.979	565.19
302.209	575.19
302.439	589.19
302.669	590.19
302.9	576.19
303.13	538.19
303.36	521.19
303.59	532.19
303.82	538.19
304.051	522.19
304.281	521.19
304.511	532.19
304.741	564.19
304.971	602.19
305.201	635.19
305.431	583.19
305.661	472.19
305.891	463.19
306.121	471.19
306.352	484.19
306.582	509.19
306.812	542.19
307.042	569.19
307.272	584.19
307.502	600.19
307.731	667.19
307.961	639.19
308.191	581.19
308.421	546.19
308.651	518.19
308.881	507.19
309.111	505.19
309.341	495.19
309.571	501.19
309.8	491.19
310.03	490.19
310.26	490.19
310.49	496.19
310.72	517.19
310.949	552.19
311.179	541.19
311.409	520.19
311.639	530.19
311.868	516.19
312.098	498.19
312.328	501.19
312.557	518.19
312.787	509.19
313.017	531.19
313.246	554.19
313.476	554.19
313.706	556.19
313.935	535.19
314.165	553.19
314.394	559.19
314.624	620.19
314.853	616.19
315.083	649.19
315.312	647.19
315.542	602.19
315.771	553.19
316.001	571.19
316.23	578.19
316.46	565.19
316.689	553.19
316.919	541.19
317.148	542.19
317.377	559.19
317.607	605.19
317.836	634.19
318.065	645.19
318.295	611.19
318.524	600.19
318.753	589.19
318.983	587.19
319.212	565.19
319.441	565.19
319.67	576.19
319.9	585.19
320.129	618.19
320.358	622.19
320.587	622.19
320.816	622.19
321.046	603.19
321.275	598.19
321.504	631.19
321.733	649.19
321.962	593.19
322.191	559.19
322.42	554.19
322.649	568.19
322.878	560.19
323.108	584.19
323.337	584.19
323.566	565.19
323.795	577.19
324.024	576.19
324.253	587.19
324.482	569.19
324.71	564.19
324.939	558.19
325.168	557.19
325.397	585.19
325.626	592.19
325.855	569.19
326.084	563.19
326.313	574.19
326.542	581.19
326.77	609.19
326.999	570.19
327.228	541.19
327.457	557.19
327.686	531.19
327.914	542.19
328.143	578.19
328.372	571.19
328.6	563.19
328.829	575.19
329.058	573.19
329.287	547.19
329.515	567.19
329.744	598.19
329.972	618.19
330.201	635.19
330.43	623.19
330.658	604.19
330.887	585.19
331.115	608.19
331.344	618.19
331.572	611.19
331.801	602.19
332.03	593.19
332.258	591.19
332.486	602.19
332.715	633.19
332.943	610.19
333.172	593.19
333.4	599.19
333.629	625.19
333.857	681.19
334.085	747.19
334.314	848.19
334.542	847.19
334.771	795.19
334.999	711.19
335.227	669.19
335.455	654.19
335.684	655.19
335.912	672.19
336.14	673.19
336.369	629.19
336.597	621.19
336.825	624.19
337.053	637.19
337.281	680.19
337.51	712.19
337.738	704.19
337.966	662.19
338.194	631.19
338.422	593.19
338.65	597.19
338.878	609.19
339.106	585.19
339.334	568.19
339.562	584.19
339.79	592.19
340.018	645.19
340.246	657.19
340.474	657.19
340.702	633.19
340.93	650.19
341.158	610.19
341.386	586.19
341.614	595.19
341.842	625.19
342.07	613.19
342.298	622.19
342.526	597.19
342.754	555.19
342.981	598.19
343.209	617.19
343.437	601.19
343.665	603.19
343.893	640.19
344.12	665.19
344.348	634.19
344.576	625.19
344.804	592.19
345.031	614.19
345.259	608.19
345.487	572.19
345.714	555.19
345.942	553.19
346.17	555.19
346.397	558.19
346.625	599.19
346.853	550.19
347.08	579.19
347.308	551.19
347.535	568.19
347.763	565.19
347.99	560.19
348.218	571.19
348.445	586.19
348.673	572.19
348.9	591.19
349.128	614.19
349.355	626.19
349.583	607.19
349.81	562.19
350.037	531.19
350.265	525.19
350.492	555.19
350.72	569.19
350.947	607.19
351.174	585.19
351.402	545.19
351.629	525.19
351.856	533.19
352.083	542.19
352.311	529.19
352.538	576.19
352.765	574.19
352.992	590.19
353.22	567.19
353.447	558.19
353.674	580.19
353.901	558.19
354.128	577.19
354.355	579.19
354.583	583.19
354.81	605.19
355.037	604.19
355.264	566.19
355.491	578.19
355.718	595.19
355.945	565.19
356.172	540.19
356.399	553.19
356.626	566.19
356.853	622.19
357.08	667.19
357.307	691.19
357.534	680.19
357.761	579.19
357.988	548.19
358.215	553.19
358.441	555.19
358.668	553.19
358.895	571.19
359.122	607.19
359.349	666.19
359.576	614.19
359.802	593.19
360.029	559.19
360.256	559.19
360.483	567.19
360.709	590.19
360.936	615.19
361.163	656.19
361.39	704.19
361.616	742.19
361.843	691.19
362.07	632.19
362.296	588.19
362.523	584.19
362.749	589.19
362.976	569.19
363.203	597.19
363.429	562.19
363.656	577.19
363.882	603.19
364.109	654.19
364.335	717.19
364.562	638.19
364.788	589.19
365.015	592.19
365.241	565.19
365.468	575.19
365.694	626.19
365.92	623.19
366.147	586.19
366.373	565.19
366.599	567.19
366.826	551.19
367.052	571.19
367.278	585.19
367.505	580.19
367.731	611.19
367.957	616.19
368.184	657.19
368.41	666.19
368.636	680.19
368.862	681.19
369.089	700.19
369.315	639.19
369.541	604.19
369.767	625.19
369.993	593.19
370.219	600.19
370.445	617.19
370.672	690.19
370.898	689.19
371.124	650.19
371.35	648.19
371.576	670.19
371.802	680.19
372.028	640.19
372.254	641.19
372.48	603.19
372.706	616.19
372.932	613.19
373.158	631.19
373.384	634.19
373.61	667.19
373.835	672.19
374.061	641.19
374.287	637.19
374.513	634.19
374.739	653.19
374.965	644.19
375.191	623.19
375.416	652.19
375.642	665.19
375.868	701.19
376.094	714.19
376.319	673.19
376.545	638.19
376.771	669.19
376.997	699.19
377.222	679.19
377.448	702.19
377.674	693.19
377.899	696.19
378.125	729.19
378.35	720.19
378.576	661.19
378.802	641.19
379.027	632.19
379.253	645.19
379.478	618.19
379.704	630.19
379.929	637.19
380.155	645.19
380.38	653.19
380.606	659.19
380.831	694.19
381.057	706.19
381.282	698.19
381.507	690.19
381.733	756.19
381.958	753.19
382.184	709.19
382.409	688.19
382.634	685.19
382.86	708.19
383.085	703.19
383.31	739.19
383.535	754.19
383.761	809.19
383.986	776.19
384.211	759.19
384.436	737.19
384.662	793.19
384.887	793.19
385.112	750.19
385.337	763.19
385.562	751.19
385.787	752.19
386.013	750.19
386.238	773.19
386.463	812.19
386.688	846.19
386.913	873.19
387.138	827.19
387.363	780.19
387.588	803.19
387.813	775.19
388.038	796.19
388.263	809.19
388.488	765.19
388.713	713.19
388.938	723.19
389.163	718.19
389.387	722.19
389.612	757.19
389.837	787.19
390.062	736.19
390.287	759.19
390.512	747.19
390.736	761.19
390.961	750.19
391.186	722.19
391.411	752.19
391.636	755.19
391.86	776.19
392.085	773.19
392.31	762.19
392.534	767.19
392.759	765.19
392.984	780.19
393.208	793.19
393.433	796.19
393.658	822.19
393.882	826.19
394.107	803.19
394.331	768.19
394.556	750.19
394.78	796.19
395.005	805.19
395.229	834.19
395.454	900.19
395.678	909.19
395.903	838.19
396.127	811.19
396.352	850.19
396.576	846.19
396.801	867.19
397.025	828.19
397.249	846.19
397.474	835.19
397.698	837.19
397.922	893.19
398.147	890.19
398.371	927.19
398.595	917.19
398.82	879.19
399.044	904.19
399.268	918.19
399.492	952.19
399.717	994.19
399.941	1008.19
400.165	1001.19
400.389	964.19
400.613	997.19
400.837	1137.19
401.062	1190.19
401.286	1037.19
401.51	1018.19
401.734	988.19
401.958	962.19
402.182	898.19
402.406	895.19
402.63	918.19
402.854	888.19
403.078	888.19
403.302	897.19
403.526	939.19
403.75	919.19
403.974	956.19
404.198	971.19
404.422	992.19
404.645	1046.19
404.869	983.19
405.093	926.19
405.317	902.19
405.541	916.19
405.765	944.19
405.988	955.19
406.212	987.19
406.436	989.19
406.66	992.19
406.883	1035.19
407.107	1143.19
407.331	1256.19
407.555	1286.19
407.778	1135.19
408.002	998.19
408.226	967.19
408.449	980.19
408.673	951.19
408.896	945.19
409.12	965.19
409.344	951.19
409.567	912.19
409.791	979.19
410.014	994.19
410.238	1052.19
410.461	1065.19
410.685	967.19
410.908	941.19
411.132	983.19
411.355	932.19
411.578	926.19
411.802	971.19
412.025	984.19
412.249	957.19
412.472	936.19
412.695	916.19
412.919	898.19
413.142	928.19
413.365	953.19
413.589	961.19
413.812	1017.19
414.035	1021.19
414.258	954.19
414.482	962.19
414.705	932.19
414.928	911.19
415.151	906.19
415.374	928.19
415.597	952.19
415.821	968.19
416.044	948.19
416.267	980.19
416.49	898.19
416.713	913.19
416.936	975.19
417.159	1000.19
417.382	993.19
417.605	971.19
417.828	944.19
418.051	953.19
418.274	955.19
418.497	927.19
418.72	946.19
418.943	933.19
419.166	979.19
419.389	1000.19
419.611	948.19
419.834	959.19
420.057	989.19
420.28	949.19
420.503	947.19
420.726	981.19
420.948	953.19
421.171	923.19
421.394	961.19
421.617	1005.19
421.839	1019.19
422.062	966.19
422.285	921.19
422.507	943.19
422.73	923.19
422.953	886.19
423.175	911.19
423.398	953.19
423.621	925.19
423.843	934.19
424.066	984.19
424.288	1036.19
424.511	1048.19
424.733	1017.19
424.956	952.19
425.178	969.19
425.401	945.19
425.623	974.19
425.846	963.19
426.068	994.19
426.291	994.19
426.513	987.19
426.735	984.19
426.958	1063.19
427.18	1093.19
427.402	1043.19
427.625	1048.19
427.847	978.19
428.069	933.19
428.292	947.19
428.514	888.19
428.736	919.19
428.958	933.19
429.181	963.19
429.403	1071.19
429.625	1257.19
429.847	1081.19
430.069	955.19
430.292	1057.19
430.514	1037.19
430.736	982.19
430.958	998.19
431.18	963.19
431.402	898.19
431.624	877.19
431.846	795.19
432.068	734.19
432.29	769.19
432.512	786.19
432.734	886.19
432.956	957.19
433.178	983.19
433.4	984.19
433.622	959.19
433.844	933.19
434.066	866.19
434.287	813.19
434.509	793.19
434.731	846.19
434.953	925.19
435.175	967.19
435.397	937.19
435.618	874.19
435.84	849.19
436.062	841.19
436.284	890.19
436.505	936.19
436.727	983.19
436.949	967.19
437.17	915.19
437.392	910.19
437.614	864.19
437.835	820.19
438.057	838.19
438.278	852.19
438.5	874.19
438.721	939.19
438.943	929.19
439.165	959.19
439.386	945.19
439.608	954.19
439.829	981.19
440.05	973.19
440.272	961.19
440.493	970.19
440.715	984.19
440.936	1031.19
441.158	1103.19
441.379	1061.19
441.6	1083.19
441.822	1055.19
442.043	1021.19
442.264	1017.19
442.486	987.19
442.707	991.19
442.928	952.19
443.149	1006.19
443.371	998.19
443.592	1047.19
443.813	1052.19
444.034	1024.19
444.255	1036.19
444.476	1029.19
444.698	1048.19
444.919	1032.19
445.14	1119.19
445.361	1119.19
445.582	1077.19
445.803	1058.19
446.024	1060.19
446.245	1096.19
446.466	1077.19
446.687	1047.19
446.908	1077.19
447.129	1037.19
447.35	1025.19
447.571	1013.19
447.792	982.19
448.013	974.19
448.234	964.19
448.455	1023.19
448.675	1030.19
448.896	931.19
449.117	905.19
449.338	930.19
449.559	969.19
449.779	994.19
450	1047.19
450.221	1081.19
450.442	1055.19
450.662	948.19
450.883	867.19
451.104	896.19
451.324	879.19
451.545	903.19
451.766	884.19
451.986	855.19
452.207	851.19
452.428	802.19
452.648	809.19
452.869	835.19
453.089	799.19
453.31	793.19
453.53	784.19
453.751	750.19
453.971	708.19
454.192	751.19
454.412	798.19
454.633	804.19
454.853	806.19
455.073	797.19
455.294	806.19
455.514	777.19
455.734	783.19
455.955	778.19
456.175	754.19
456.395	741.19
456.616	765.19
456.836	745.19
457.056	737.19
457.276	761.19
457.497	696.19
457.717	719.19
457.937	726.19
458.157	724.19
458.377	717.19
458.598	685.19
458.818	697.19
459.038	687.19
459.258	721.19
459.478	734.19
459.698	697.19
459.918	719.19
460.138	803.19
460.358	828.19
460.578	829.19
460.798	866.19
461.018	891.19
461.238	891.19
461.458	866.19
461.678	863.19
461.898	849.19
462.118	811.19
462.338	862.19
462.558	846.19
462.777	845.19
462.997	874.19
463.217	890.19
463.437	903.19
463.657	871.19
463.876	837.19
464.096	819.19
464.316	839.19
464.536	874.19
464.755	885.19
464.975	891.19
465.195	895.19
465.414	886.19
465.634	883.19
465.854	880.19
466.073	973.19
466.293	966.19
466.512	887.19
466.732	895.19
466.951	929.19
467.171	926.19
467.391	875.19
467.61	893.19
467.829	927.19
468.049	981.19
468.268	1060.19
468.488	976.19
468.707	937.19
468.927	917.19
469.146	899.19
469.365	919.19
469.585	951.19
469.804	930.19
470.023	943.19
470.243	968.19
470.462	941.19
470.681	936.19
470.901	925.19
471.12	950.19
471.339	973.19
471.558	929.19
471.777	908.19
471.997	922.19
472.216	891.19
472.435	793.19
472.654	758.19
472.873	815.19
473.092	862.19
473.311	873.19
473.53	825.19
473.749	849.19
473.968	859.19
474.187	888.19
474.406	864.19
474.625	857.19
474.844	905.19
475.063	889.19
475.282	885.19
475.501	854.19
475.72	868.19
475.939	904.19
476.158	905.19
476.377	902.19
476.596	855.19
476.814	834.19
477.033	811.19
477.252	894.19
477.471	929.19
477.69	951.19
477.908	951.19
478.127	963.19
478.346	1011.19
478.564	1023.19
478.783	993.19
479.002	1067.19
479.22	1014.19
479.439	1043.19
479.658	1077.19
479.876	986.19
480.095	931.19
480.313	897.19
480.532	882.19
480.751	854.19
480.969	849.19
481.188	808.19
481.406	815.19
481.624	798.19
481.843	833.19
482.061	832.19
482.28	891.19
482.498	895.19
482.717	855.19
482.935	923.19
483.153	993.19
483.372	1027.19
483.59	1018.19
483.808	974.19
484.027	938.19
484.245	1017.19
484.463	1247.19
484.681	1309.19
484.9	1048.19
485.118	957.19
485.336	935.19
485.554	929.19
485.772	910.19
485.99	891.19
486.209	926.19
486.427	918.19
486.645	941.19
486.863	1010.19
487.081	1081.19
487.299	1032.19
487.517	1011.19
487.735	1127.19
487.953	1192.19
488.171	1197.19
488.389	1146.19
488.607	1119.19
488.825	1175.19
489.043	1053.19
489.261	1013.19
489.479	1049.19
489.696	1083.19
489.914	1062.19
490.132	1048.19
490.35	1121.19
490.568	1201.19
490.786	1197.19
491.003	1219.19
491.221	1288.19
491.439	1341.19
491.657	1329.19
491.874	1382.19
492.092	1473.19
492.31	1564.19
492.527	1451.19
492.745	1385.19
492.963	1317.19
493.18	1335.19
493.398	1374.19
493.615	1337.19
493.833	1291.19
494.05	1234.19
494.268	1225.19
494.485	1293.19
494.703	1257.19
494.92	1253.19
495.138	1216.19
495.355	1214.19
495.573	1306.19
495.79	1301.19
496.008	1291.19
496.225	1244.19
496.442	1285.19
496.66	1241.19
496.877	1224.19
497.094	1270.19
497.312	1263.19
497.529	1233.19
497.746	1206.19
497.963	1282.19
498.181	1347.19
498.398	1266.19
498.615	1206.19
498.832	1176.19
499.049	1178.19
499.267	1162.19
499.484	1266.19
499.701	1385.19
499.918	1391.19
500.135	1493.19
