Data from WStandard_LampEnergy10_LIBS07252019.E.O._I.C._HRD10591_15-55-42-928.txt Node
Date: Thu Jul 25 15:55:42 EDT 2019
User: cochatt
Spectrometer: HR+D1059
Trigger mode: 1
Integration Time (sec): 1.000000E-1
Scans to average: 1
Electric dark correction enabled: true
Nonlinearity correction enabled: false
Boxcar width: 0
XAxis mode: Wavelengths
Number of Pixels in Spectrum: 2048
>>>>>Begin Spectral Data<<<<<
223.165	-24.94
223.4	-24.94
223.635	-24.94
223.869	-12.94
224.104	-5.94
224.338	-20.94
224.573	-14.94
224.808	-1.94
225.042	3.06
225.277	-1.94
225.511	-8.94
225.746	2.06
225.98	6.06
226.215	16.06
226.449	6.06
226.683	6.06
226.918	19.06
227.152	34.06
227.387	34.06
227.621	35.06
227.856	32.06
228.09	45.06
228.324	52.06
228.559	56.06
228.793	83.06
229.027	108.06
229.262	138.06
229.496	131.06
229.73	159.06
229.964	155.06
230.199	166.06
230.433	174.06
230.667	152.06
230.901	178.06
231.136	166.06
231.37	166.06
231.604	174.06
231.838	175.06
232.072	190.06
232.306	192.06
232.541	192.06
232.775	198.06
233.009	194.06
233.243	219.06
233.477	198.06
233.711	189.06
233.945	213.06
234.179	195.06
234.413	201.06
234.647	204.06
234.881	215.06
235.115	199.06
235.349	202.06
235.583	195.06
235.817	180.06
236.051	194.06
236.285	193.06
236.519	197.06
236.753	228.06
236.987	222.06
237.221	220.06
237.455	239.06
237.689	231.06
237.922	206.06
238.156	231.06
238.39	216.06
238.624	222.06
238.858	248.06
239.091	254.06
239.325	250.06
239.559	302.06
239.793	277.06
240.027	299.06
240.26	280.06
240.494	239.06
240.728	244.06
240.961	249.06
241.195	242.06
241.429	245.06
241.662	260.06
241.896	224.06
242.13	243.06
242.363	264.06
242.597	276.06
242.83	268.06
243.064	263.06
243.298	294.06
243.531	290.06
243.765	279.06
243.998	272.06
244.232	258.06
244.465	240.06
244.699	253.06
244.932	284.06
245.166	311.06
245.399	289.06
245.633	294.06
245.866	291.06
246.099	301.06
246.333	308.06
246.566	304.06
246.8	311.06
247.033	331.06
247.266	300.06
247.5	321.06
247.733	306.06
247.966	333.06
248.2	370.06
248.433	361.06
248.666	361.06
248.899	403.06
249.133	441.06
249.366	458.06
249.599	389.06
249.832	346.06
250.066	380.06
250.299	351.06
250.532	346.06
250.765	320.06
250.998	345.06
251.231	353.06
251.465	342.06
251.698	349.06
251.931	342.06
252.164	343.06
252.397	369.06
252.63	362.06
252.863	327.06
253.096	324.06
253.329	319.06
253.562	329.06
253.795	342.06
254.028	327.06
254.261	340.06
254.494	320.06
254.727	324.06
254.96	328.06
255.193	362.06
255.426	394.06
255.659	448.06
255.892	452.06
256.124	382.06
256.357	373.06
256.59	420.06
256.823	421.06
257.056	432.06
257.289	469.06
257.521	497.06
257.754	458.06
257.987	455.06
258.22	480.06
258.452	470.06
258.685	382.06
258.918	385.06
259.151	396.06
259.383	372.06
259.616	325.06
259.849	363.06
260.081	388.06
260.314	438.06
260.547	457.06
260.779	454.06
261.012	432.06
261.244	391.06
261.477	385.06
261.71	389.06
261.942	396.06
262.175	382.06
262.407	400.06
262.64	382.06
262.872	368.06
263.105	361.06
263.337	364.06
263.57	356.06
263.802	367.06
264.035	335.06
264.267	349.06
264.499	346.06
264.732	380.06
264.964	373.06
265.197	409.06
265.429	415.06
265.661	467.06
265.894	491.06
266.126	491.06
266.358	459.06
266.591	467.06
266.823	478.06
267.055	434.06
267.287	432.06
267.52	421.06
267.752	427.06
267.984	446.06
268.216	478.06
268.448	469.06
268.681	445.06
268.913	414.06
269.145	395.06
269.377	400.06
269.609	463.06
269.841	510.06
270.073	563.06
270.306	635.06
270.538	612.06
270.77	528.06
271.002	477.06
271.234	490.06
271.466	472.06
271.698	523.06
271.93	590.06
272.162	589.06
272.394	543.06
272.626	509.06
272.858	481.06
273.09	398.06
273.322	406.06
273.553	377.06
273.785	382.06
274.017	408.06
274.249	434.06
274.481	446.06
274.713	408.06
274.945	413.06
275.176	410.06
275.408	410.06
275.64	415.06
275.872	401.06
276.104	450.06
276.335	487.06
276.567	520.06
276.799	513.06
277.031	480.06
277.262	476.06
277.494	499.06
277.726	502.06
277.957	499.06
278.189	457.06
278.421	427.06
278.652	413.06
278.884	398.06
279.115	436.06
279.347	443.06
279.579	446.06
279.81	449.06
280.042	457.06
280.273	506.06
280.505	514.06
280.736	532.06
280.968	476.06
281.199	434.06
281.431	400.06
281.662	410.06
281.894	419.06
282.125	423.06
282.356	452.06
282.588	448.06
282.819	452.06
283.051	503.06
283.282	521.06
283.513	484.06
283.745	436.06
283.976	426.06
284.207	422.06
284.439	419.06
284.67	429.06
284.901	459.06
285.132	453.06
285.364	452.06
285.595	459.06
285.826	442.06
286.057	470.06
286.288	428.06
286.52	468.06
286.751	472.06
286.982	507.06
287.213	479.06
287.444	434.06
287.675	435.06
287.906	455.06
288.138	487.06
288.369	464.06
288.6	424.06
288.831	436.06
289.062	447.06
289.293	455.06
289.524	436.06
289.755	463.06
289.986	464.06
290.217	432.06
290.448	427.06
290.679	456.06
290.91	461.06
291.141	458.06
291.371	486.06
291.602	489.06
291.833	489.06
292.064	479.06
292.295	488.06
292.526	507.06
292.757	511.06
292.987	467.06
293.218	495.06
293.449	526.06
293.68	558.06
293.91	585.06
294.141	549.06
294.372	528.06
294.603	556.06
294.833	583.06
295.064	561.06
295.295	472.06
295.525	483.06
295.756	455.06
295.987	436.06
296.217	446.06
296.448	461.06
296.679	450.06
296.909	440.06
297.14	444.06
297.37	455.06
297.601	507.06
297.831	528.06
298.062	552.06
298.292	464.06
298.523	450.06
298.753	463.06
298.984	464.06
299.214	474.06
299.445	494.06
299.675	456.06
299.905	478.06
300.136	451.06
300.366	456.06
300.597	453.06
300.827	485.06
301.057	493.06
301.288	522.06
301.518	471.06
301.748	510.06
301.979	552.06
302.209	572.06
302.439	588.06
302.669	575.06
302.9	548.06
303.13	510.06
303.36	498.06
303.59	523.06
303.82	518.06
304.051	518.06
304.281	540.06
304.511	532.06
304.741	576.06
304.971	642.06
305.201	629.06
305.431	548.06
305.661	484.06
305.891	452.06
306.121	488.06
306.352	490.06
306.582	503.06
306.812	538.06
307.042	551.06
307.272	565.06
307.502	583.06
307.731	607.06
307.961	635.06
308.191	584.06
308.421	488.06
308.651	492.06
308.881	498.06
309.111	512.06
309.341	484.06
309.571	486.06
309.8	482.06
310.03	490.06
310.26	489.06
310.49	482.06
310.72	509.06
310.949	520.06
311.179	517.06
311.409	505.06
311.639	522.06
311.868	523.06
312.098	515.06
312.328	491.06
312.557	520.06
312.787	509.06
313.017	529.06
313.246	513.06
313.476	521.06
313.706	534.06
313.935	538.06
314.165	532.06
314.394	557.06
314.624	565.06
314.853	581.06
315.083	624.06
315.312	631.06
315.542	570.06
315.771	540.06
316.001	544.06
316.23	585.06
316.46	566.06
316.689	549.06
316.919	494.06
317.148	501.06
317.377	534.06
317.607	574.06
317.836	623.06
318.065	621.06
318.295	626.06
318.524	585.06
318.753	568.06
318.983	564.06
319.212	571.06
319.441	559.06
319.67	550.06
319.9	551.06
320.129	607.06
320.358	600.06
320.587	626.06
320.816	642.06
321.046	598.06
321.275	582.06
321.504	593.06
321.733	626.06
321.962	577.06
322.191	568.06
322.42	524.06
322.649	563.06
322.878	550.06
323.108	558.06
323.337	585.06
323.566	566.06
323.795	560.06
324.024	571.06
324.253	551.06
324.482	575.06
324.71	544.06
324.939	541.06
325.168	548.06
325.397	572.06
325.626	578.06
325.855	565.06
326.084	554.06
326.313	575.06
326.542	580.06
326.77	593.06
326.999	562.06
327.228	559.06
327.457	512.06
327.686	549.06
327.914	538.06
328.143	575.06
328.372	553.06
328.6	561.06
328.829	553.06
329.058	553.06
329.287	555.06
329.515	557.06
329.744	581.06
329.972	608.06
330.201	628.06
330.43	620.06
330.658	593.06
330.887	591.06
331.115	594.06
331.344	606.06
331.572	568.06
331.801	598.06
332.03	588.06
332.258	588.06
332.486	598.06
332.715	610.06
332.943	582.06
333.172	612.06
333.4	598.06
333.629	610.06
333.857	666.06
334.085	750.06
334.314	794.06
334.542	834.06
334.771	770.06
334.999	682.06
335.227	652.06
335.455	636.06
335.684	643.06
335.912	674.06
336.14	660.06
336.369	628.06
336.597	606.06
336.825	604.06
337.053	647.06
337.281	660.06
337.51	706.06
337.738	679.06
337.966	654.06
338.194	617.06
338.422	604.06
338.65	600.06
338.878	581.06
339.106	553.06
339.334	588.06
339.562	568.06
339.79	582.06
340.018	628.06
340.246	645.06
340.474	636.06
340.702	602.06
340.93	609.06
341.158	580.06
341.386	578.06
341.614	575.06
341.842	590.06
342.07	576.06
342.298	620.06
342.526	585.06
342.754	602.06
342.981	590.06
343.209	601.06
343.437	588.06
343.665	577.06
343.893	617.06
344.12	614.06
344.348	605.06
344.576	626.06
344.804	586.06
345.031	587.06
345.259	588.06
345.487	563.06
345.714	559.06
345.942	536.06
346.17	553.06
346.397	573.06
346.625	554.06
346.853	529.06
347.08	541.06
347.308	557.06
347.535	602.06
347.763	590.06
347.99	558.06
348.218	552.06
348.445	547.06
348.673	562.06
348.9	584.06
349.128	596.06
349.355	626.06
349.583	601.06
349.81	565.06
350.037	574.06
350.265	534.06
350.492	536.06
350.72	562.06
350.947	575.06
351.174	603.06
351.402	553.06
351.629	534.06
351.856	518.06
352.083	539.06
352.311	555.06
352.538	551.06
352.765	567.06
352.992	575.06
353.22	539.06
353.447	550.06
353.674	559.06
353.901	540.06
354.128	548.06
354.355	570.06
354.583	583.06
354.81	602.06
355.037	580.06
355.264	576.06
355.491	577.06
355.718	551.06
355.945	574.06
356.172	547.06
356.399	543.06
356.626	565.06
356.853	581.06
357.08	627.06
357.307	687.06
357.534	650.06
357.761	584.06
357.988	553.06
358.215	533.06
358.441	540.06
358.668	524.06
358.895	552.06
359.122	615.06
359.349	626.06
359.576	604.06
359.802	561.06
360.029	564.06
360.256	558.06
360.483	550.06
360.709	595.06
360.936	592.06
361.163	619.06
361.39	697.06
361.616	715.06
361.843	699.06
362.07	642.06
362.296	584.06
362.523	552.06
362.749	567.06
362.976	565.06
363.203	579.06
363.429	578.06
363.656	565.06
363.882	595.06
364.109	675.06
364.335	660.06
364.562	632.06
364.788	563.06
365.015	584.06
365.241	569.06
365.468	570.06
365.694	619.06
365.92	627.06
366.147	560.06
366.373	540.06
366.599	580.06
366.826	556.06
367.052	564.06
367.278	578.06
367.505	591.06
367.731	602.06
367.957	604.06
368.184	645.06
368.41	686.06
368.636	636.06
368.862	678.06
369.089	644.06
369.315	629.06
369.541	604.06
369.767	602.06
369.993	589.06
370.219	609.06
370.445	604.06
370.672	647.06
370.898	692.06
371.124	666.06
371.35	632.06
371.576	654.06
371.802	647.06
372.028	636.06
372.254	617.06
372.48	586.06
372.706	605.06
372.932	614.06
373.158	618.06
373.384	635.06
373.61	652.06
373.835	667.06
374.061	631.06
374.287	631.06
374.513	647.06
374.739	632.06
374.965	642.06
375.191	660.06
375.416	639.06
375.642	667.06
375.868	711.06
376.094	695.06
376.319	680.06
376.545	624.06
376.771	652.06
376.997	696.06
377.222	691.06
377.448	662.06
377.674	670.06
377.899	695.06
378.125	705.06
378.35	695.06
378.576	630.06
378.802	607.06
379.027	638.06
379.253	634.06
379.478	639.06
379.704	627.06
379.929	646.06
380.155	660.06
380.38	668.06
380.606	684.06
380.831	663.06
381.057	704.06
381.282	696.06
381.507	695.06
381.733	734.06
381.958	749.06
382.184	695.06
382.409	709.06
382.634	674.06
382.86	678.06
383.085	656.06
383.31	720.06
383.535	792.06
383.761	783.06
383.986	727.06
384.211	729.06
384.436	739.06
384.662	774.06
384.887	773.06
385.112	738.06
385.337	733.06
385.562	739.06
385.787	725.06
386.013	770.06
386.238	746.06
386.463	754.06
386.688	849.06
386.913	884.06
387.138	818.06
387.363	778.06
387.588	749.06
387.813	737.06
388.038	806.06
388.263	826.06
388.488	768.06
388.713	727.06
388.938	714.06
389.163	730.06
389.387	748.06
389.612	757.06
389.837	751.06
390.062	744.06
390.287	733.06
390.512	748.06
390.736	720.06
390.961	719.06
391.186	718.06
391.411	729.06
391.636	716.06
391.86	726.06
392.085	771.06
392.31	741.06
392.534	738.06
392.759	762.06
392.984	759.06
393.208	758.06
393.433	806.06
393.658	837.06
393.882	823.06
394.107	795.06
394.331	796.06
394.556	773.06
394.78	772.06
395.005	838.06
395.229	821.06
395.454	858.06
395.678	862.06
395.903	843.06
396.127	802.06
396.352	806.06
396.576	829.06
396.801	836.06
397.025	827.06
397.249	839.06
397.474	812.06
397.698	820.06
397.922	857.06
398.147	878.06
398.371	902.06
398.595	886.06
398.82	886.06
399.044	871.06
399.268	921.06
399.492	940.06
399.717	969.06
399.941	980.06
400.165	976.06
400.389	948.06
400.613	986.06
400.837	1129.06
401.062	1172.06
401.286	988.06
401.51	949.06
401.734	964.06
401.958	926.06
402.182	926.06
402.406	864.06
402.63	867.06
402.854	884.06
403.078	870.06
403.302	910.06
403.526	898.06
403.75	926.06
403.974	939.06
404.198	902.06
404.422	978.06
404.645	953.06
404.869	975.06
405.093	910.06
405.317	907.06
405.541	903.06
405.765	902.06
405.988	917.06
406.212	911.06
406.436	962.06
406.66	982.06
406.883	1015.06
407.107	1140.06
407.331	1215.06
407.555	1262.06
407.778	1125.06
408.002	989.06
408.226	962.06
408.449	965.06
408.673	919.06
408.896	958.06
409.12	960.06
409.344	955.06
409.567	924.06
409.791	913.06
410.014	956.06
410.238	1026.06
410.461	1044.06
410.685	964.06
410.908	947.06
411.132	924.06
411.355	902.06
411.578	902.06
411.802	958.06
412.025	953.06
412.249	931.06
412.472	915.06
412.695	935.06
412.919	909.06
413.142	886.06
413.365	917.06
413.589	951.06
413.812	970.06
414.035	977.06
414.258	916.06
414.482	906.06
414.705	951.06
414.928	900.06
415.151	924.06
415.374	932.06
415.597	935.06
415.821	944.06
416.044	948.06
416.267	956.06
416.49	894.06
416.713	912.06
416.936	955.06
417.159	966.06
417.382	968.06
417.605	923.06
417.828	937.06
418.051	943.06
418.274	942.06
418.497	938.06
418.72	909.06
418.943	892.06
419.166	960.06
419.389	979.06
419.611	955.06
419.834	924.06
420.057	939.06
420.28	928.06
420.503	936.06
420.726	971.06
420.948	949.06
421.171	909.06
421.394	934.06
421.617	966.06
421.839	994.06
422.062	969.06
422.285	949.06
422.507	955.06
422.73	889.06
422.953	876.06
423.175	847.06
423.398	885.06
423.621	898.06
423.843	937.06
424.066	987.06
424.288	1037.06
424.511	1036.06
424.733	1002.06
424.956	914.06
425.178	902.06
425.401	924.06
425.623	927.06
425.846	934.06
426.068	966.06
426.291	962.06
426.513	936.06
426.735	942.06
426.958	1029.06
427.18	1076.06
427.402	987.06
427.625	1027.06
427.847	1014.06
428.069	895.06
428.292	938.06
428.514	884.06
428.736	885.06
428.958	928.06
429.181	936.06
429.403	1063.06
429.625	1229.06
429.847	1050.06
430.069	935.06
430.292	1037.06
430.514	1013.06
430.736	941.06
430.958	967.06
431.18	951.06
431.402	874.06
431.624	860.06
431.846	805.06
432.068	747.06
432.29	747.06
432.512	782.06
432.734	888.06
432.956	952.06
433.178	968.06
433.4	963.06
433.622	953.06
433.844	908.06
434.066	856.06
434.287	817.06
434.509	804.06
434.731	818.06
434.953	889.06
435.175	932.06
435.397	897.06
435.618	887.06
435.84	829.06
436.062	832.06
436.284	902.06
436.505	928.06
436.727	950.06
436.949	938.06
437.17	877.06
437.392	862.06
437.614	840.06
437.835	811.06
438.057	847.06
438.278	840.06
438.5	869.06
438.721	875.06
438.943	926.06
439.165	918.06
439.386	932.06
439.608	962.06
439.829	948.06
440.05	940.06
440.272	932.06
440.493	942.06
440.715	938.06
440.936	1059.06
441.158	1038.06
441.379	1052.06
441.6	1033.06
441.822	1003.06
442.043	1016.06
442.264	974.06
442.486	958.06
442.707	932.06
442.928	952.06
443.149	963.06
443.371	1028.06
443.592	1007.06
443.813	1013.06
444.034	1028.06
444.255	1001.06
444.476	1015.06
444.698	1029.06
444.919	1056.06
445.14	1111.06
445.361	1101.06
445.582	1063.06
445.803	1055.06
446.024	1033.06
446.245	1050.06
446.466	1048.06
446.687	1021.06
446.908	1021.06
447.129	1047.06
447.35	1031.06
447.571	979.06
447.792	936.06
448.013	956.06
448.234	967.06
448.455	976.06
448.675	975.06
448.896	936.06
449.117	917.06
449.338	910.06
449.559	955.06
449.779	978.06
450	1040.06
450.221	1028.06
450.442	996.06
450.662	944.06
450.883	878.06
451.104	891.06
451.324	871.06
451.545	870.06
451.766	845.06
451.986	839.06
452.207	812.06
452.428	784.06
452.648	764.06
452.869	779.06
453.089	795.06
453.31	776.06
453.53	774.06
453.751	720.06
453.971	709.06
454.192	709.06
454.412	785.06
454.633	802.06
454.853	761.06
455.073	756.06
455.294	779.06
455.514	782.06
455.734	770.06
455.955	781.06
456.175	756.06
456.395	710.06
456.616	745.06
456.836	709.06
457.056	733.06
457.276	724.06
457.497	708.06
457.717	669.06
457.937	710.06
458.157	699.06
458.377	674.06
458.598	681.06
458.818	668.06
459.038	723.06
459.258	738.06
459.478	701.06
459.698	697.06
459.918	751.06
460.138	816.06
460.358	833.06
460.578	838.06
460.798	863.06
461.018	882.06
461.238	870.06
461.458	875.06
461.678	840.06
461.898	805.06
462.118	835.06
462.338	849.06
462.558	837.06
462.777	842.06
462.997	854.06
463.217	866.06
463.437	864.06
463.657	839.06
463.876	822.06
464.096	845.06
464.316	832.06
464.536	869.06
464.755	875.06
464.975	847.06
465.195	810.06
465.414	866.06
465.634	864.06
465.854	889.06
466.073	979.06
466.293	956.06
466.512	840.06
466.732	866.06
466.951	891.06
467.171	896.06
467.391	884.06
467.61	860.06
467.829	893.06
468.049	948.06
468.268	1043.06
468.488	963.06
468.707	919.06
468.927	913.06
469.146	875.06
469.365	897.06
469.585	938.06
469.804	918.06
470.023	931.06
470.243	942.06
470.462	915.06
470.681	920.06
470.901	917.06
471.12	936.06
471.339	936.06
471.558	923.06
471.777	876.06
471.997	888.06
472.216	861.06
472.435	782.06
472.654	760.06
472.873	768.06
473.092	821.06
473.311	824.06
473.53	822.06
473.749	836.06
473.968	854.06
474.187	854.06
474.406	831.06
474.625	845.06
474.844	877.06
475.063	874.06
475.282	857.06
475.501	836.06
475.72	843.06
475.939	896.06
476.158	909.06
476.377	866.06
476.596	838.06
476.814	811.06
477.033	782.06
477.252	839.06
477.471	896.06
477.69	914.06
477.908	932.06
478.127	973.06
478.346	1016.06
478.564	976.06
478.783	997.06
479.002	1018.06
479.22	992.06
479.439	1010.06
479.658	1057.06
479.876	988.06
480.095	861.06
480.313	900.06
480.532	856.06
480.751	862.06
480.969	844.06
481.188	777.06
481.406	790.06
481.624	777.06
481.843	805.06
482.061	831.06
482.28	856.06
482.498	871.06
482.717	843.06
482.935	901.06
483.153	991.06
483.372	983.06
483.59	1004.06
483.808	962.06
484.027	959.06
484.245	988.06
484.463	1212.06
484.681	1282.06
484.9	1010.06
485.118	979.06
485.336	931.06
485.554	922.06
485.772	891.06
485.99	887.06
486.209	911.06
486.427	892.06
486.645	932.06
486.863	1018.06
487.081	1047.06
487.299	1016.06
487.517	1026.06
487.735	1098.06
487.953	1161.06
488.171	1168.06
488.389	1127.06
488.607	1125.06
488.825	1120.06
489.043	1052.06
489.261	995.06
489.479	1055.06
489.696	1043.06
489.914	1046.06
490.132	1053.06
490.35	1074.06
490.568	1124.06
490.786	1183.06
491.003	1188.06
491.221	1213.06
491.439	1239.06
491.657	1302.06
491.874	1359.06
492.092	1436.06
492.31	1500.06
492.527	1453.06
492.745	1344.06
492.963	1299.06
493.18	1312.06
493.398	1337.06
493.615	1354.06
493.833	1238.06
494.05	1226.06
494.268	1202.06
494.485	1232.06
494.703	1246.06
494.92	1208.06
495.138	1224.06
495.355	1232.06
495.573	1267.06
495.79	1274.06
496.008	1285.06
496.225	1218.06
496.442	1194.06
496.66	1243.06
496.877	1202.06
497.094	1242.06
497.312	1186.06
497.529	1161.06
497.746	1203.06
497.963	1284.06
498.181	1304.06
498.398	1265.06
498.615	1198.06
498.832	1164.06
499.049	1134.06
499.267	1160.06
499.484	1241.06
499.701	1332.06
499.918	1367.06
500.135	1447.06
500.352	1562.06
500.569	1602.06
