Data from WStandard_LampEnergy10_LIBS07252019.E.O._I.C._HRD10591_15-53-25-928.txt Node
Date: Thu Jul 25 15:53:25 EDT 2019
User: cochatt
Spectrometer: HR+D1059
Trigger mode: 1
Integration Time (sec): 1.000000E-1
Scans to average: 1
Electric dark correction enabled: true
Nonlinearity correction enabled: false
Boxcar width: 0
XAxis mode: Wavelengths
Number of Pixels in Spectrum: 2048
>>>>>Begin Spectral Data<<<<<
223.165	-22.69
223.4	-22.69
223.635	-22.69
223.869	-22.69
224.104	-8.69
224.338	4.31
224.573	-10.69
224.808	-25.69
225.042	-14.69
225.277	7.31
225.511	-14.69
225.746	11.31
225.98	3.31
226.215	7.31
226.449	3.31
226.683	24.31
226.918	32.31
227.152	26.31
227.387	34.31
227.621	30.31
227.856	54.31
228.09	41.31
228.324	40.31
228.559	61.31
228.793	81.31
229.027	122.31
229.262	132.31
229.496	145.31
229.73	146.31
229.964	164.31
230.199	168.31
230.433	154.31
230.667	178.31
230.901	186.31
231.136	179.31
231.37	168.31
231.604	177.31
231.838	173.31
232.072	162.31
232.306	168.31
232.541	189.31
232.775	211.31
233.009	208.31
233.243	195.31
233.477	179.31
233.711	195.31
233.945	194.31
234.179	206.31
234.413	216.31
234.647	215.31
234.881	220.31
235.115	204.31
235.349	191.31
235.583	193.31
235.817	201.31
236.051	192.31
236.285	182.31
236.519	201.31
236.753	251.31
236.987	235.31
237.221	225.31
237.455	232.31
237.689	217.31
237.922	227.31
238.156	233.31
238.39	203.31
238.624	223.31
238.858	246.31
239.091	251.31
239.325	256.31
239.559	296.31
239.793	267.31
240.027	326.31
240.26	279.31
240.494	229.31
240.728	237.31
240.961	241.31
241.195	230.31
241.429	257.31
241.662	247.31
241.896	239.31
242.13	239.31
242.363	263.31
242.597	265.31
242.83	270.31
243.064	282.31
243.298	292.31
243.531	277.31
243.765	281.31
243.998	274.31
244.232	266.31
244.465	239.31
244.699	247.31
244.932	278.31
245.166	304.31
245.399	294.31
245.633	281.31
245.866	283.31
246.099	275.31
246.333	293.31
246.566	313.31
246.8	320.31
247.033	337.31
247.266	342.31
247.5	332.31
247.733	338.31
247.966	344.31
248.2	345.31
248.433	362.31
248.666	366.31
248.899	385.31
249.133	441.31
249.366	460.31
249.599	400.31
249.832	349.31
250.066	367.31
250.299	356.31
250.532	340.31
250.765	335.31
250.998	326.31
251.231	353.31
251.465	356.31
251.698	339.31
251.931	348.31
252.164	363.31
252.397	350.31
252.63	355.31
252.863	319.31
253.096	325.31
253.329	327.31
253.562	349.31
253.795	354.31
254.028	359.31
254.261	350.31
254.494	339.31
254.727	320.31
254.96	345.31
255.193	391.31
255.426	418.31
255.659	439.31
255.892	465.31
256.124	387.31
256.357	394.31
256.59	412.31
256.823	393.31
257.056	410.31
257.289	474.31
257.521	505.31
257.754	455.31
257.987	436.31
258.22	471.31
258.452	450.31
258.685	400.31
258.918	373.31
259.151	385.31
259.383	367.31
259.616	356.31
259.849	383.31
260.081	397.31
260.314	453.31
260.547	453.31
260.779	475.31
261.012	422.31
261.244	393.31
261.477	395.31
261.71	391.31
261.942	411.31
262.175	386.31
262.407	431.31
262.64	395.31
262.872	389.31
263.105	361.31
263.337	377.31
263.57	369.31
263.802	369.31
264.035	355.31
264.267	349.31
264.499	341.31
264.732	373.31
264.964	373.31
265.197	404.31
265.429	403.31
265.661	448.31
265.894	493.31
266.126	498.31
266.358	461.31
266.591	482.31
266.823	498.31
267.055	477.31
267.287	441.31
267.52	436.31
267.752	415.31
267.984	448.31
268.216	461.31
268.448	449.31
268.681	439.31
268.913	415.31
269.145	411.31
269.377	395.31
269.609	445.31
269.841	487.31
270.073	600.31
270.306	632.31
270.538	624.31
270.77	528.31
271.002	454.31
271.234	465.31
271.466	490.31
271.698	517.31
271.93	569.31
272.162	585.31
272.394	551.31
272.626	498.31
272.858	447.31
273.09	395.31
273.322	402.31
273.553	394.31
273.785	396.31
274.017	433.31
274.249	445.31
274.481	450.31
274.713	408.31
274.945	414.31
275.176	419.31
275.408	429.31
275.64	397.31
275.872	423.31
276.104	441.31
276.335	489.31
276.567	513.31
276.799	541.31
277.031	459.31
277.262	477.31
277.494	491.31
277.726	508.31
277.957	509.31
278.189	454.31
278.421	433.31
278.652	430.31
278.884	433.31
279.115	440.31
279.347	430.31
279.579	434.31
279.81	450.31
280.042	471.31
280.273	500.31
280.505	503.31
280.736	502.31
280.968	459.31
281.199	411.31
281.431	425.31
281.662	422.31
281.894	421.31
282.125	448.31
282.356	448.31
282.588	448.31
282.819	459.31
283.051	496.31
283.282	511.31
283.513	491.31
283.745	455.31
283.976	427.31
284.207	413.31
284.439	414.31
284.67	431.31
284.901	466.31
285.132	466.31
285.364	438.31
285.595	460.31
285.826	449.31
286.057	422.31
286.288	458.31
286.52	478.31
286.751	500.31
286.982	523.31
287.213	471.31
287.444	420.31
287.675	440.31
287.906	482.31
288.138	488.31
288.369	465.31
288.6	414.31
288.831	442.31
289.062	442.31
289.293	474.31
289.524	463.31
289.755	461.31
289.986	472.31
290.217	432.31
290.448	438.31
290.679	460.31
290.91	455.31
291.141	480.31
291.371	489.31
291.602	461.31
291.833	486.31
292.064	474.31
292.295	486.31
292.526	482.31
292.757	510.31
292.987	495.31
293.218	483.31
293.449	527.31
293.68	553.31
293.91	589.31
294.141	550.31
294.372	543.31
294.603	554.31
294.833	579.31
295.064	534.31
295.295	480.31
295.525	479.31
295.756	447.31
295.987	424.31
296.217	439.31
296.448	445.31
296.679	442.31
296.909	486.31
297.14	467.31
297.37	458.31
297.601	501.31
297.831	517.31
298.062	498.31
298.292	493.31
298.523	468.31
298.753	457.31
298.984	477.31
299.214	501.31
299.445	490.31
299.675	498.31
299.905	474.31
300.136	463.31
300.366	473.31
300.597	461.31
300.827	462.31
301.057	499.31
301.288	507.31
301.518	511.31
301.748	495.31
301.979	551.31
302.209	557.31
302.439	608.31
302.669	581.31
302.9	557.31
303.13	526.31
303.36	499.31
303.59	503.31
303.82	498.31
304.051	486.31
304.281	495.31
304.511	534.31
304.741	570.31
304.971	610.31
305.201	612.31
305.431	570.31
305.661	491.31
305.891	456.31
306.121	469.31
306.352	473.31
306.582	523.31
306.812	555.31
307.042	578.31
307.272	565.31
307.502	607.31
307.731	621.31
307.961	636.31
308.191	576.31
308.421	544.31
308.651	511.31
308.881	492.31
309.111	496.31
309.341	496.31
309.571	479.31
309.8	507.31
310.03	489.31
310.26	497.31
310.49	503.31
310.72	507.31
310.949	536.31
311.179	538.31
311.409	495.31
311.639	501.31
311.868	509.31
312.098	529.31
312.328	493.31
312.557	499.31
312.787	505.31
313.017	511.31
313.246	511.31
313.476	503.31
313.706	512.31
313.935	522.31
314.165	546.31
314.394	562.31
314.624	629.31
314.853	616.31
315.083	633.31
315.312	607.31
315.542	565.31
315.771	551.31
316.001	567.31
316.23	564.31
316.46	576.31
316.689	545.31
316.919	520.31
317.148	506.31
317.377	539.31
317.607	575.31
317.836	607.31
318.065	641.31
318.295	611.31
318.524	580.31
318.753	550.31
318.983	555.31
319.212	551.31
319.441	542.31
319.67	537.31
319.9	574.31
320.129	585.31
320.358	631.31
320.587	637.31
320.816	611.31
321.046	609.31
321.275	598.31
321.504	599.31
321.733	608.31
321.962	609.31
322.191	557.31
322.42	541.31
322.649	551.31
322.878	553.31
323.108	572.31
323.337	588.31
323.566	566.31
323.795	566.31
324.024	575.31
324.253	565.31
324.482	569.31
324.71	540.31
324.939	535.31
325.168	531.31
325.397	557.31
325.626	565.31
325.855	594.31
326.084	552.31
326.313	569.31
326.542	567.31
326.77	583.31
326.999	583.31
327.228	534.31
327.457	520.31
327.686	547.31
327.914	555.31
328.143	569.31
328.372	560.31
328.6	577.31
328.829	554.31
329.058	565.31
329.287	555.31
329.515	582.31
329.744	577.31
329.972	597.31
330.201	621.31
330.43	623.31
330.658	569.31
330.887	572.31
331.115	577.31
331.344	600.31
331.572	605.31
331.801	577.31
332.03	583.31
332.258	595.31
332.486	597.31
332.715	592.31
332.943	606.31
333.172	606.31
333.4	593.31
333.629	633.31
333.857	685.31
334.085	731.31
334.314	814.31
334.542	821.31
334.771	745.31
334.999	696.31
335.227	633.31
335.455	613.31
335.684	637.31
335.912	629.31
336.14	665.31
336.369	642.31
336.597	573.31
336.825	614.31
337.053	617.31
337.281	667.31
337.51	680.31
337.738	697.31
337.966	651.31
338.194	621.31
338.422	574.31
338.65	569.31
338.878	588.31
339.106	554.31
339.334	576.31
339.562	545.31
339.79	591.31
340.018	613.31
340.246	650.31
340.474	600.31
340.702	614.31
340.93	617.31
341.158	592.31
341.386	609.31
341.614	613.31
341.842	588.31
342.07	617.31
342.298	632.31
342.526	611.31
342.754	578.31
342.981	590.31
343.209	593.31
343.437	594.31
343.665	609.31
343.893	643.31
344.12	628.31
344.348	627.31
344.576	595.31
344.804	583.31
345.031	598.31
345.259	600.31
345.487	564.31
345.714	562.31
345.942	557.31
346.17	575.31
346.397	575.31
346.625	574.31
346.853	545.31
347.08	540.31
347.308	558.31
347.535	578.31
347.763	555.31
347.99	561.31
348.218	547.31
348.445	570.31
348.673	559.31
348.9	590.31
349.128	600.31
349.355	590.31
349.583	594.31
349.81	570.31
350.037	554.31
350.265	535.31
350.492	566.31
350.72	567.31
350.947	560.31
351.174	579.31
351.402	544.31
351.629	545.31
351.856	518.31
352.083	536.31
352.311	531.31
352.538	559.31
352.765	575.31
352.992	571.31
353.22	534.31
353.447	543.31
353.674	562.31
353.901	539.31
354.128	552.31
354.355	577.31
354.583	597.31
354.81	603.31
355.037	602.31
355.264	554.31
355.491	553.31
355.718	576.31
355.945	574.31
356.172	549.31
356.399	542.31
356.626	543.31
356.853	589.31
357.08	659.31
357.307	689.31
357.534	651.31
357.761	582.31
357.988	545.31
358.215	533.31
358.441	559.31
358.668	549.31
358.895	544.31
359.122	605.31
359.349	627.31
359.576	629.31
359.802	582.31
360.029	565.31
360.256	569.31
360.483	579.31
360.709	573.31
360.936	615.31
361.163	603.31
361.39	687.31
361.616	719.31
361.843	693.31
362.07	661.31
362.296	584.31
362.523	563.31
362.749	560.31
362.976	598.31
363.203	580.31
363.429	575.31
363.656	563.31
363.882	587.31
364.109	639.31
364.335	678.31
364.562	666.31
364.788	598.31
365.015	570.31
365.241	578.31
365.468	574.31
365.694	590.31
365.92	594.31
366.147	568.31
366.373	559.31
366.599	574.31
366.826	585.31
367.052	587.31
367.278	562.31
367.505	576.31
367.731	598.31
367.957	611.31
368.184	635.31
368.41	665.31
368.636	661.31
368.862	668.31
369.089	655.31
369.315	640.31
369.541	615.31
369.767	618.31
369.993	598.31
370.219	578.31
370.445	600.31
370.672	668.31
370.898	695.31
371.124	667.31
371.35	663.31
371.576	656.31
371.802	655.31
372.028	642.31
372.254	623.31
372.48	585.31
372.706	605.31
372.932	598.31
373.158	623.31
373.384	634.31
373.61	642.31
373.835	649.31
374.061	635.31
374.287	610.31
374.513	616.31
374.739	621.31
374.965	637.31
375.191	647.31
375.416	648.31
375.642	655.31
375.868	713.31
376.094	702.31
376.319	694.31
376.545	638.31
376.771	677.31
376.997	704.31
377.222	676.31
377.448	653.31
377.674	665.31
377.899	690.31
378.125	722.31
378.35	690.31
378.576	605.31
378.802	625.31
379.027	622.31
379.253	664.31
379.478	654.31
379.704	643.31
379.929	665.31
380.155	637.31
380.38	664.31
380.606	662.31
380.831	672.31
381.057	705.31
381.282	690.31
381.507	672.31
381.733	737.31
381.958	736.31
382.184	704.31
382.409	679.31
382.634	692.31
382.86	697.31
383.085	679.31
383.31	711.31
383.535	764.31
383.761	829.31
383.986	737.31
384.211	724.31
384.436	746.31
384.662	759.31
384.887	767.31
385.112	738.31
385.337	758.31
385.562	738.31
385.787	742.31
386.013	773.31
386.238	777.31
386.463	802.31
386.688	829.31
386.913	856.31
387.138	792.31
387.363	795.31
387.588	776.31
387.813	759.31
388.038	775.31
388.263	810.31
388.488	744.31
388.713	745.31
388.938	705.31
389.163	731.31
389.387	736.31
389.612	750.31
389.837	769.31
390.062	777.31
390.287	765.31
390.512	754.31
390.736	741.31
390.961	716.31
391.186	729.31
391.411	735.31
391.636	753.31
391.86	773.31
392.085	770.31
392.31	739.31
392.534	731.31
392.759	756.31
392.984	731.31
393.208	778.31
393.433	787.31
393.658	835.31
393.882	829.31
394.107	799.31
394.331	766.31
394.556	778.31
394.78	786.31
395.005	799.31
395.229	831.31
395.454	886.31
395.678	879.31
395.903	810.31
396.127	813.31
396.352	866.31
396.576	834.31
396.801	850.31
397.025	866.31
397.249	850.31
397.474	809.31
397.698	799.31
397.922	845.31
398.147	892.31
398.371	935.31
398.595	888.31
398.82	881.31
399.044	889.31
399.268	938.31
399.492	985.31
399.717	993.31
399.941	998.31
400.165	967.31
400.389	990.31
400.613	981.31
400.837	1134.31
401.062	1213.31
401.286	1035.31
401.51	978.31
401.734	978.31
401.958	974.31
402.182	885.31
402.406	876.31
402.63	877.31
402.854	880.31
403.078	870.31
403.302	902.31
403.526	922.31
403.75	937.31
403.974	926.31
404.198	928.31
404.422	970.31
404.645	1011.31
404.869	937.31
405.093	894.31
405.317	881.31
405.541	911.31
405.765	948.31
405.988	926.31
406.212	950.31
406.436	961.31
406.66	987.31
406.883	1002.31
407.107	1107.31
407.331	1230.31
407.555	1309.31
407.778	1147.31
408.002	1012.31
408.226	978.31
408.449	968.31
408.673	933.31
408.896	935.31
409.12	980.31
409.344	945.31
409.567	908.31
409.791	947.31
410.014	961.31
410.238	1033.31
410.461	1065.31
410.685	967.31
410.908	927.31
411.132	965.31
411.355	947.31
411.578	922.31
411.802	938.31
412.025	939.31
412.249	927.31
412.472	916.31
412.695	918.31
412.919	922.31
413.142	936.31
413.365	947.31
413.589	939.31
413.812	992.31
414.035	1009.31
414.258	954.31
414.482	918.31
414.705	938.31
414.928	926.31
415.151	929.31
415.374	944.31
415.597	941.31
415.821	941.31
416.044	961.31
416.267	953.31
416.49	891.31
416.713	936.31
416.936	980.31
417.159	983.31
417.382	966.31
417.605	919.31
417.828	961.31
418.051	965.31
418.274	953.31
418.497	938.31
418.72	889.31
418.943	927.31
419.166	955.31
419.389	983.31
419.611	935.31
419.834	921.31
420.057	951.31
420.28	935.31
420.503	959.31
420.726	945.31
420.948	942.31
421.171	906.31
421.394	960.31
421.617	981.31
421.839	973.31
422.062	967.31
422.285	947.31
422.507	924.31
422.73	907.31
422.953	884.31
423.175	884.31
423.398	915.31
423.621	930.31
423.843	936.31
424.066	970.31
424.288	1010.31
424.511	1054.31
424.733	1011.31
424.956	951.31
425.178	918.31
425.401	939.31
425.623	918.31
425.846	943.31
426.068	978.31
426.291	991.31
426.513	971.31
426.735	997.31
426.958	1075.31
427.18	1090.31
427.402	1002.31
427.625	1028.31
427.847	966.31
428.069	945.31
428.292	914.31
428.514	905.31
428.736	921.31
428.958	917.31
429.181	949.31
429.403	1055.31
429.625	1205.31
429.847	1075.31
430.069	966.31
430.292	1058.31
430.514	1049.31
430.736	966.31
430.958	983.31
431.18	910.31
431.402	872.31
431.624	861.31
431.846	806.31
432.068	707.31
432.29	759.31
432.512	779.31
432.734	884.31
432.956	939.31
433.178	994.31
433.4	963.31
433.622	933.31
433.844	910.31
434.066	862.31
434.287	807.31
434.509	790.31
434.731	841.31
434.953	908.31
435.175	930.31
435.397	899.31
435.618	881.31
435.84	835.31
436.062	836.31
436.284	914.31
436.505	936.31
436.727	963.31
436.949	943.31
437.17	889.31
437.392	912.31
437.614	892.31
437.835	811.31
438.057	818.31
438.278	872.31
438.5	848.31
438.721	906.31
438.943	919.31
439.165	946.31
439.386	946.31
439.608	960.31
439.829	965.31
440.05	972.31
440.272	953.31
440.493	936.31
440.715	970.31
440.936	998.31
441.158	1108.31
441.379	1062.31
441.6	1064.31
441.822	1036.31
442.043	994.31
442.264	1001.31
442.486	971.31
442.707	962.31
442.928	992.31
443.149	1021.31
443.371	1030.31
443.592	1015.31
443.813	1041.31
444.034	1010.31
444.255	1033.31
444.476	1063.31
444.698	1017.31
444.919	1055.31
445.14	1138.31
445.361	1074.31
445.582	1079.31
445.803	1061.31
446.024	1060.31
446.245	1078.31
446.466	1049.31
446.687	1056.31
446.908	1041.31
447.129	1011.31
447.35	1026.31
447.571	988.31
447.792	962.31
448.013	960.31
448.234	954.31
448.455	1019.31
448.675	1035.31
448.896	931.31
449.117	920.31
449.338	942.31
449.559	970.31
449.779	975.31
450	1008.31
450.221	1043.31
450.442	993.31
450.662	961.31
450.883	871.31
451.104	884.31
451.324	885.31
451.545	882.31
451.766	877.31
451.986	841.31
452.207	831.31
452.428	798.31
452.648	794.31
452.869	776.31
453.089	808.31
453.31	770.31
453.53	741.31
453.751	743.31
453.971	713.31
454.192	753.31
454.412	797.31
454.633	784.31
454.853	781.31
455.073	778.31
455.294	799.31
455.514	786.31
455.734	777.31
455.955	778.31
456.175	778.31
456.395	744.31
456.616	718.31
456.836	754.31
457.056	736.31
457.276	728.31
457.497	719.31
457.717	666.31
457.937	704.31
458.157	727.31
458.377	674.31
458.598	693.31
458.818	659.31
459.038	707.31
459.258	710.31
459.478	729.31
459.698	708.31
459.918	753.31
460.138	781.31
460.358	831.31
460.578	851.31
460.798	875.31
461.018	890.31
461.238	883.31
461.458	846.31
461.678	831.31
461.898	816.31
462.118	831.31
462.338	850.31
462.558	848.31
462.777	828.31
462.997	881.31
463.217	907.31
463.437	886.31
463.657	868.31
463.876	845.31
464.096	813.31
464.316	822.31
464.536	853.31
464.755	858.31
464.975	887.31
465.195	873.31
465.414	879.31
465.634	897.31
465.854	884.31
466.073	969.31
466.293	937.31
466.512	848.31
466.732	891.31
466.951	923.31
467.171	908.31
467.391	897.31
467.61	893.31
467.829	878.31
468.049	978.31
468.268	1077.31
468.488	956.31
468.707	947.31
468.927	904.31
469.146	893.31
469.365	951.31
469.585	919.31
469.804	928.31
470.023	939.31
470.243	945.31
470.462	941.31
470.681	907.31
470.901	924.31
471.12	956.31
471.339	952.31
471.558	907.31
471.777	933.31
471.997	912.31
472.216	849.31
472.435	814.31
472.654	804.31
472.873	792.31
473.092	852.31
473.311	836.31
473.53	838.31
473.749	832.31
473.968	859.31
474.187	841.31
474.406	853.31
474.625	849.31
474.844	910.31
475.063	869.31
475.282	866.31
475.501	850.31
475.72	791.31
475.939	914.31
476.158	900.31
476.377	899.31
476.596	850.31
476.814	856.31
477.033	806.31
477.252	853.31
477.471	923.31
477.69	914.31
477.908	938.31
478.127	966.31
478.346	1039.31
478.564	1011.31
478.783	1012.31
479.002	1041.31
479.22	1030.31
479.439	1017.31
479.658	1045.31
479.876	1000.31
480.095	918.31
480.313	901.31
480.532	896.31
480.751	880.31
480.969	859.31
481.188	789.31
481.406	773.31
481.624	792.31
481.843	788.31
482.061	857.31
482.28	869.31
482.498	879.31
482.717	855.31
482.935	902.31
483.153	962.31
483.372	1026.31
483.59	990.31
483.808	1000.31
484.027	977.31
484.245	1014.31
484.463	1215.31
484.681	1311.31
484.9	1030.31
485.118	964.31
485.336	931.31
485.554	917.31
485.772	916.31
485.99	865.31
486.209	891.31
486.427	943.31
486.645	971.31
486.863	1023.31
487.081	1044.31
487.299	1013.31
487.517	1054.31
487.735	1127.31
487.953	1179.31
488.171	1199.31
488.389	1159.31
488.607	1109.31
488.825	1160.31
489.043	1062.31
489.261	980.31
489.479	1045.31
489.696	1065.31
489.914	1073.31
490.132	1059.31
490.35	1086.31
490.568	1184.31
490.786	1175.31
491.003	1221.31
491.221	1237.31
491.439	1313.31
491.657	1319.31
491.874	1375.31
492.092	1473.31
492.31	1543.31
492.527	1489.31
492.745	1395.31
492.963	1319.31
493.18	1322.31
493.398	1363.31
493.615	1320.31
493.833	1273.31
494.05	1247.31
494.268	1224.31
494.485	1257.31
494.703	1246.31
494.92	1256.31
495.138	1246.31
495.355	1261.31
495.573	1287.31
495.79	1298.31
496.008	1270.31
496.225	1233.31
496.442	1253.31
496.66	1255.31
496.877	1265.31
497.094	1214.31
497.312	1228.31
497.529	1199.31
497.746	1190.31
497.963	1281.31
498.181	1307.31
498.398	1251.31
498.615	1221.31
498.832	1156.31
499.049	1168.31
499.267	1176.31
499.484	1271.31
499.701	1392.31
499.918	1364.31
500.135	1482.31
500.352	1553.31
