Data from WStandard_LampEnergy8_LIBS07252019.E.O._I.C._HRD10591_15-59-05-930.txt Node
Date: Thu Jul 25 15:59:05 EDT 2019
User: cochatt
Spectrometer: HR+D1059
Trigger mode: 1
Integration Time (sec): 1.000000E-1
Scans to average: 1
Electric dark correction enabled: true
Nonlinearity correction enabled: false
Boxcar width: 0
XAxis mode: Wavelengths
Number of Pixels in Spectrum: 2048
>>>>>Begin Spectral Data<<<<<
223.165	-23.5
223.4	-23.5
223.635	-23.5
223.869	-13.5
224.104	-10.5
224.338	-7.5
224.573	-25.5
224.808	-8.5
225.042	-18.5
225.277	-13.5
225.511	0.5
225.746	-2.5
225.98	14.5
226.215	7.5
226.449	20.5
226.683	23.5
226.918	20.5
227.152	36.5
227.387	25.5
227.621	45.5
227.856	58.5
228.09	35.5
228.324	50.5
228.559	60.5
228.793	101.5
229.027	192.5
229.262	219.5
229.496	241.5
229.73	223.5
229.964	238.5
230.199	259.5
230.433	261.5
230.667	276.5
230.901	300.5
231.136	270.5
231.37	252.5
231.604	252.5
231.838	272.5
232.072	251.5
232.306	268.5
232.541	265.5
232.775	315.5
233.009	324.5
233.243	318.5
233.477	308.5
233.711	304.5
233.945	318.5
234.179	286.5
234.413	341.5
234.647	335.5
234.881	317.5
235.115	294.5
235.349	301.5
235.583	302.5
235.817	301.5
236.051	292.5
236.285	314.5
236.519	320.5
236.753	353.5
236.987	363.5
237.221	345.5
237.455	384.5
237.689	357.5
237.922	344.5
238.156	339.5
238.39	362.5
238.624	364.5
238.858	406.5
239.091	410.5
239.325	425.5
239.559	483.5
239.793	482.5
240.027	522.5
240.26	493.5
240.494	398.5
240.728	374.5
240.961	379.5
241.195	400.5
241.429	422.5
241.662	418.5
241.896	400.5
242.13	409.5
242.363	440.5
242.597	474.5
242.83	434.5
243.064	455.5
243.298	474.5
243.531	475.5
243.765	460.5
243.998	474.5
244.232	418.5
244.465	403.5
244.699	377.5
244.932	475.5
245.166	525.5
245.399	496.5
245.633	474.5
245.866	456.5
246.099	473.5
246.333	487.5
246.566	519.5
246.8	532.5
247.033	582.5
247.266	564.5
247.5	561.5
247.733	536.5
247.966	577.5
248.2	617.5
248.433	591.5
248.666	627.5
248.899	652.5
249.133	748.5
249.366	809.5
249.599	706.5
249.832	646.5
250.066	642.5
250.299	628.5
250.532	602.5
250.765	536.5
250.998	600.5
251.231	615.5
251.465	577.5
251.698	581.5
251.931	605.5
252.164	596.5
252.397	626.5
252.63	613.5
252.863	570.5
253.096	559.5
253.329	603.5
253.562	601.5
253.795	621.5
254.028	610.5
254.261	572.5
254.494	599.5
254.727	560.5
254.96	596.5
255.193	636.5
255.426	734.5
255.659	805.5
255.892	793.5
256.124	680.5
256.357	665.5
256.59	712.5
256.823	725.5
257.056	718.5
257.289	853.5
257.521	912.5
257.754	814.5
257.987	778.5
258.22	838.5
258.452	824.5
258.685	693.5
258.918	682.5
259.151	664.5
259.383	635.5
259.616	579.5
259.849	642.5
260.081	724.5
260.314	775.5
260.547	845.5
260.779	826.5
261.012	755.5
261.244	696.5
261.477	678.5
261.71	699.5
261.942	714.5
262.175	712.5
262.407	705.5
262.64	663.5
262.872	660.5
263.105	621.5
263.337	621.5
263.57	649.5
263.802	630.5
264.035	614.5
264.267	563.5
264.499	551.5
264.732	604.5
264.964	648.5
265.197	644.5
265.429	714.5
265.661	826.5
265.894	870.5
266.126	859.5
266.358	784.5
266.591	812.5
266.823	856.5
267.055	808.5
267.287	813.5
267.52	778.5
267.752	756.5
267.984	770.5
268.216	808.5
268.448	823.5
268.681	780.5
268.913	738.5
269.145	694.5
269.377	686.5
269.609	774.5
269.841	875.5
270.073	996.5
270.306	1109.5
270.538	1139.5
270.77	963.5
271.002	850.5
271.234	833.5
271.466	837.5
271.698	908.5
271.93	1069.5
272.162	1065.5
272.394	969.5
272.626	926.5
272.858	836.5
273.09	702.5
273.322	733.5
273.553	684.5
273.785	703.5
274.017	699.5
274.249	753.5
274.481	747.5
274.713	702.5
274.945	724.5
275.176	726.5
275.408	693.5
275.64	699.5
275.872	705.5
276.104	777.5
276.335	854.5
276.567	929.5
276.799	958.5
277.031	850.5
277.262	804.5
277.494	844.5
277.726	923.5
277.957	898.5
278.189	808.5
278.421	758.5
278.652	758.5
278.884	745.5
279.115	721.5
279.347	745.5
279.579	732.5
279.81	742.5
280.042	805.5
280.273	880.5
280.505	908.5
280.736	888.5
280.968	839.5
281.199	748.5
281.431	706.5
281.662	728.5
281.894	710.5
282.125	774.5
282.356	753.5
282.588	765.5
282.819	800.5
283.051	865.5
283.282	884.5
283.513	863.5
283.745	764.5
283.976	709.5
284.207	740.5
284.439	741.5
284.67	737.5
284.901	792.5
285.132	811.5
285.364	764.5
285.595	777.5
285.826	744.5
286.057	758.5
286.288	786.5
286.52	828.5
286.751	851.5
286.982	836.5
287.213	781.5
287.444	763.5
287.675	748.5
287.906	790.5
288.138	843.5
288.369	806.5
288.6	766.5
288.831	747.5
289.062	758.5
289.293	762.5
289.524	787.5
289.755	777.5
289.986	792.5
290.217	775.5
290.448	773.5
290.679	794.5
290.91	792.5
291.141	832.5
291.371	821.5
291.602	806.5
291.833	825.5
292.064	857.5
292.295	845.5
292.526	867.5
292.757	882.5
292.987	848.5
293.218	837.5
293.449	874.5
293.68	994.5
293.91	1004.5
294.141	957.5
294.372	918.5
294.603	979.5
294.833	987.5
295.064	947.5
295.295	847.5
295.525	826.5
295.756	754.5
295.987	740.5
296.217	744.5
296.448	791.5
296.679	800.5
296.909	781.5
297.14	765.5
297.37	786.5
297.601	835.5
297.831	877.5
298.062	866.5
298.292	818.5
298.523	808.5
298.753	802.5
298.984	808.5
299.214	823.5
299.445	849.5
299.675	860.5
299.905	844.5
300.136	811.5
300.366	823.5
300.597	777.5
300.827	775.5
301.057	825.5
301.288	862.5
301.518	841.5
301.748	873.5
301.979	924.5
302.209	926.5
302.439	1026.5
302.669	1036.5
302.9	903.5
303.13	870.5
303.36	849.5
303.59	852.5
303.82	866.5
304.051	866.5
304.281	877.5
304.511	882.5
304.741	958.5
304.971	1046.5
305.201	1076.5
305.431	946.5
305.661	836.5
305.891	785.5
306.121	786.5
306.352	812.5
306.582	859.5
306.812	916.5
307.042	940.5
307.272	977.5
307.502	1022.5
307.731	1074.5
307.961	1101.5
308.191	1006.5
308.421	880.5
308.651	848.5
308.881	827.5
309.111	829.5
309.341	822.5
309.571	825.5
309.8	845.5
310.03	831.5
310.26	823.5
310.49	808.5
310.72	852.5
310.949	895.5
311.179	890.5
311.409	880.5
311.639	824.5
311.868	845.5
312.098	864.5
312.328	857.5
312.557	839.5
312.787	884.5
313.017	876.5
313.246	897.5
313.476	857.5
313.706	890.5
313.935	896.5
314.165	901.5
314.394	941.5
314.624	1008.5
314.853	1024.5
315.083	1053.5
315.312	1067.5
315.542	994.5
315.771	917.5
316.001	892.5
316.23	969.5
316.46	945.5
316.689	945.5
316.919	900.5
317.148	866.5
317.377	902.5
317.607	949.5
317.836	1076.5
318.065	1091.5
318.295	1041.5
318.524	1003.5
318.753	953.5
318.983	928.5
319.212	938.5
319.441	936.5
319.67	922.5
319.9	969.5
320.129	997.5
320.358	1048.5
320.587	1047.5
320.816	1027.5
321.046	1011.5
321.275	935.5
321.504	1013.5
321.733	1038.5
321.962	1000.5
322.191	945.5
322.42	925.5
322.649	928.5
322.878	914.5
323.108	927.5
323.337	967.5
323.566	964.5
323.795	964.5
324.024	962.5
324.253	920.5
324.482	921.5
324.71	904.5
324.939	882.5
325.168	892.5
325.397	924.5
325.626	989.5
325.855	964.5
326.084	928.5
326.313	944.5
326.542	960.5
326.77	997.5
326.999	967.5
327.228	925.5
327.457	888.5
327.686	887.5
327.914	904.5
328.143	971.5
328.372	928.5
328.6	921.5
328.829	905.5
329.058	924.5
329.287	923.5
329.515	941.5
329.744	975.5
329.972	1016.5
330.201	1039.5
330.43	1001.5
330.658	996.5
330.887	984.5
331.115	1013.5
331.344	1022.5
331.572	965.5
331.801	989.5
332.03	950.5
332.258	1005.5
332.486	1017.5
332.715	1001.5
332.943	1038.5
333.172	1006.5
333.4	1050.5
333.629	1041.5
333.857	1114.5
334.085	1252.5
334.314	1364.5
334.542	1440.5
334.771	1314.5
334.999	1178.5
335.227	1085.5
335.455	1052.5
335.684	1061.5
335.912	1095.5
336.14	1097.5
336.369	1066.5
336.597	996.5
336.825	1011.5
337.053	1042.5
337.281	1124.5
337.51	1182.5
337.738	1172.5
337.966	1105.5
338.194	1044.5
338.422	985.5
338.65	1012.5
338.878	948.5
339.106	935.5
339.334	962.5
339.562	929.5
339.79	972.5
340.018	1016.5
340.246	1046.5
340.474	1048.5
340.702	1033.5
340.93	1084.5
341.158	984.5
341.386	984.5
341.614	999.5
341.842	981.5
342.07	973.5
342.298	1010.5
342.526	996.5
342.754	987.5
342.981	967.5
343.209	967.5
343.437	996.5
343.665	999.5
343.893	1028.5
344.12	1053.5
344.348	1070.5
344.576	1026.5
344.804	1013.5
345.031	986.5
345.259	989.5
345.487	957.5
345.714	920.5
345.942	914.5
346.17	921.5
346.397	941.5
346.625	934.5
346.853	891.5
347.08	893.5
347.308	888.5
347.535	946.5
347.763	962.5
347.99	946.5
348.218	885.5
348.445	889.5
348.673	958.5
348.9	958.5
349.128	974.5
349.355	1003.5
349.583	938.5
349.81	938.5
350.037	878.5
350.265	861.5
350.492	896.5
350.72	889.5
350.947	937.5
351.174	945.5
351.402	901.5
351.629	865.5
351.856	839.5
352.083	867.5
352.311	872.5
352.538	923.5
352.765	978.5
352.992	946.5
353.22	905.5
353.447	924.5
353.674	928.5
353.901	900.5
354.128	897.5
354.355	891.5
354.583	957.5
354.81	982.5
355.037	968.5
355.264	933.5
355.491	911.5
355.718	932.5
355.945	933.5
356.172	905.5
356.399	902.5
356.626	909.5
356.853	966.5
357.08	1023.5
357.307	1108.5
357.534	1074.5
357.761	972.5
357.988	882.5
358.215	873.5
358.441	892.5
358.668	876.5
358.895	899.5
359.122	984.5
359.349	1053.5
359.576	993.5
359.802	951.5
360.029	916.5
360.256	872.5
360.483	891.5
360.709	939.5
360.936	996.5
361.163	1030.5
361.39	1123.5
361.616	1179.5
361.843	1159.5
362.07	1073.5
362.296	930.5
362.523	928.5
362.749	918.5
362.976	970.5
363.203	946.5
363.429	911.5
363.656	909.5
363.882	959.5
364.109	1086.5
364.335	1108.5
364.562	1046.5
364.788	967.5
365.015	950.5
365.241	914.5
365.468	952.5
365.694	1000.5
365.92	1000.5
366.147	940.5
366.373	893.5
366.599	892.5
366.826	918.5
367.052	910.5
367.278	922.5
367.505	917.5
367.731	972.5
367.957	985.5
368.184	977.5
368.41	1042.5
368.636	1073.5
368.862	1052.5
369.089	1040.5
369.315	1036.5
369.541	990.5
369.767	946.5
369.993	980.5
370.219	928.5
370.445	934.5
370.672	1035.5
370.898	1092.5
371.124	1035.5
371.35	988.5
371.576	1020.5
371.802	1062.5
372.028	1024.5
372.254	963.5
372.48	958.5
372.706	951.5
372.932	958.5
373.158	964.5
373.384	986.5
373.61	997.5
373.835	1057.5
374.061	999.5
374.287	993.5
374.513	982.5
374.739	994.5
374.965	993.5
375.191	1016.5
375.416	1022.5
375.642	1009.5
375.868	1116.5
376.094	1103.5
376.319	1056.5
376.545	1014.5
376.771	1047.5
376.997	1064.5
377.222	1046.5
377.448	1064.5
377.674	1024.5
377.899	1052.5
378.125	1082.5
378.35	1089.5
378.576	994.5
378.802	980.5
379.027	977.5
379.253	987.5
379.478	982.5
379.704	992.5
379.929	977.5
380.155	966.5
380.38	998.5
380.606	1013.5
380.831	1023.5
381.057	1074.5
381.282	1060.5
381.507	1036.5
381.733	1129.5
381.958	1167.5
382.184	1073.5
382.409	1048.5
382.634	1044.5
382.86	1002.5
383.085	1062.5
383.31	1085.5
383.535	1185.5
383.761	1220.5
383.986	1170.5
384.211	1085.5
384.436	1133.5
384.662	1222.5
384.887	1176.5
385.112	1150.5
385.337	1156.5
385.562	1132.5
385.787	1131.5
386.013	1170.5
386.238	1189.5
386.463	1186.5
386.688	1272.5
386.913	1331.5
387.138	1276.5
387.363	1184.5
387.588	1173.5
387.813	1133.5
388.038	1195.5
388.263	1229.5
388.488	1167.5
388.713	1088.5
388.938	1106.5
389.163	1108.5
389.387	1113.5
389.612	1152.5
389.837	1164.5
390.062	1161.5
390.287	1152.5
390.512	1147.5
390.736	1117.5
390.961	1093.5
391.186	1089.5
391.411	1084.5
391.636	1128.5
391.86	1142.5
392.085	1124.5
392.31	1129.5
392.534	1140.5
392.759	1176.5
392.984	1131.5
393.208	1140.5
393.433	1171.5
393.658	1224.5
393.882	1212.5
394.107	1152.5
394.331	1166.5
394.556	1125.5
394.78	1134.5
395.005	1196.5
395.229	1247.5
395.454	1334.5
395.678	1290.5
395.903	1280.5
396.127	1229.5
396.352	1190.5
396.576	1251.5
396.801	1230.5
397.025	1247.5
397.249	1250.5
397.474	1225.5
397.698	1245.5
397.922	1251.5
398.147	1321.5
398.371	1378.5
398.595	1354.5
398.82	1322.5
399.044	1317.5
399.268	1365.5
399.492	1447.5
399.717	1501.5
399.941	1491.5
400.165	1488.5
400.389	1446.5
400.613	1466.5
400.837	1650.5
401.062	1806.5
401.286	1555.5
401.51	1451.5
401.734	1486.5
401.958	1413.5
402.182	1322.5
402.406	1287.5
402.63	1278.5
402.854	1274.5
403.078	1308.5
403.302	1355.5
403.526	1345.5
403.75	1362.5
403.974	1389.5
404.198	1377.5
404.422	1442.5
404.645	1493.5
404.869	1465.5
405.093	1355.5
405.317	1316.5
405.541	1368.5
405.765	1381.5
405.988	1349.5
406.212	1367.5
406.436	1404.5
406.66	1462.5
406.883	1520.5
407.107	1696.5
407.331	1844.5
407.555	1917.5
407.778	1700.5
408.002	1451.5
408.226	1431.5
408.449	1427.5
408.673	1391.5
408.896	1351.5
409.12	1428.5
409.344	1374.5
409.567	1349.5
409.791	1370.5
410.014	1397.5
410.238	1484.5
410.461	1540.5
410.685	1389.5
410.908	1326.5
411.132	1370.5
411.355	1378.5
411.578	1332.5
411.802	1372.5
412.025	1374.5
412.249	1369.5
412.472	1323.5
412.695	1319.5
412.919	1289.5
413.142	1265.5
413.365	1305.5
413.589	1373.5
413.812	1428.5
414.035	1444.5
414.258	1323.5
414.482	1306.5
414.705	1363.5
414.928	1315.5
415.151	1336.5
415.374	1315.5
415.597	1310.5
415.821	1335.5
416.044	1346.5
416.267	1366.5
416.49	1299.5
416.713	1282.5
416.936	1330.5
417.159	1393.5
417.382	1377.5
417.605	1275.5
417.828	1332.5
418.051	1331.5
418.274	1331.5
418.497	1314.5
418.72	1265.5
418.943	1285.5
419.166	1328.5
419.389	1362.5
419.611	1324.5
419.834	1292.5
420.057	1307.5
420.28	1290.5
420.503	1269.5
420.726	1316.5
420.948	1267.5
421.171	1255.5
421.394	1300.5
421.617	1373.5
421.839	1374.5
422.062	1331.5
422.285	1278.5
422.507	1281.5
422.73	1266.5
422.953	1227.5
423.175	1200.5
423.398	1283.5
423.621	1266.5
423.843	1296.5
424.066	1342.5
424.288	1394.5
424.511	1416.5
424.733	1393.5
424.956	1255.5
425.178	1218.5
425.401	1254.5
425.623	1285.5
425.846	1268.5
426.068	1369.5
426.291	1342.5
426.513	1345.5
426.735	1294.5
426.958	1483.5
427.18	1486.5
427.402	1406.5
427.625	1430.5
427.847	1386.5
428.069	1259.5
428.292	1271.5
428.514	1234.5
428.736	1229.5
428.958	1252.5
429.181	1288.5
429.403	1488.5
429.625	1784.5
429.847	1466.5
430.069	1316.5
430.292	1438.5
430.514	1445.5
430.736	1355.5
430.958	1383.5
431.18	1300.5
431.402	1227.5
431.624	1231.5
431.846	1164.5
432.068	1149.5
432.29	1186.5
432.512	1191.5
432.734	1259.5
432.956	1310.5
433.178	1331.5
433.4	1312.5
433.622	1300.5
433.844	1257.5
434.066	1196.5
434.287	1200.5
434.509	1241.5
434.731	1243.5
434.953	1339.5
435.175	1372.5
435.397	1320.5
435.618	1314.5
435.84	1267.5
436.062	1208.5
436.284	1287.5
436.505	1294.5
436.727	1320.5
436.949	1264.5
437.17	1247.5
437.392	1216.5
437.614	1208.5
437.835	1184.5
438.057	1228.5
438.278	1280.5
438.5	1210.5
438.721	1249.5
438.943	1243.5
439.165	1227.5
439.386	1219.5
439.608	1273.5
439.829	1258.5
440.05	1286.5
440.272	1259.5
440.493	1260.5
440.715	1277.5
440.936	1368.5
441.158	1460.5
441.379	1375.5
441.6	1395.5
441.822	1352.5
442.043	1354.5
442.264	1340.5
442.486	1270.5
442.707	1282.5
442.928	1253.5
443.149	1271.5
443.371	1354.5
443.592	1378.5
443.813	1403.5
444.034	1371.5
444.255	1354.5
444.476	1385.5
444.698	1424.5
444.919	1408.5
445.14	1503.5
445.361	1462.5
445.582	1454.5
445.803	1414.5
446.024	1436.5
446.245	1413.5
446.466	1373.5
446.687	1362.5
446.908	1350.5
447.129	1307.5
447.35	1315.5
447.571	1275.5
447.792	1225.5
448.013	1242.5
448.234	1289.5
448.455	1352.5
448.675	1342.5
448.896	1202.5
449.117	1206.5
449.338	1280.5
449.559	1292.5
449.779	1367.5
450	1413.5
450.221	1469.5
450.442	1466.5
450.662	1274.5
450.883	1190.5
451.104	1161.5
451.324	1202.5
451.545	1216.5
451.766	1184.5
451.986	1162.5
452.207	1152.5
452.428	1084.5
452.648	1081.5
452.869	1123.5
453.089	1143.5
453.31	1152.5
453.53	1200.5
453.751	1115.5
453.971	1089.5
454.192	1106.5
454.412	1170.5
454.633	1150.5
454.853	1119.5
455.073	1051.5
455.294	1060.5
455.514	1076.5
455.734	1070.5
455.955	1079.5
456.175	1070.5
456.395	1078.5
456.616	1110.5
456.836	1112.5
457.056	1048.5
457.276	1054.5
457.497	1076.5
457.717	1014.5
457.937	1047.5
458.157	1062.5
458.377	1040.5
458.598	1058.5
458.818	1035.5
459.038	1092.5
459.258	1171.5
459.478	1164.5
459.698	1114.5
459.918	1162.5
460.138	1240.5
460.358	1237.5
460.578	1238.5
460.798	1332.5
461.018	1342.5
461.238	1317.5
461.458	1264.5
461.678	1264.5
461.898	1216.5
462.118	1228.5
462.338	1245.5
462.558	1253.5
462.777	1313.5
462.997	1302.5
463.217	1406.5
463.437	1348.5
463.657	1289.5
463.876	1248.5
464.096	1309.5
464.316	1252.5
464.536	1292.5
464.755	1314.5
464.975	1293.5
465.195	1297.5
465.414	1324.5
465.634	1303.5
465.854	1302.5
466.073	1376.5
466.293	1365.5
466.512	1194.5
466.732	1212.5
466.951	1270.5
467.171	1223.5
467.391	1180.5
467.61	1182.5
467.829	1226.5
468.049	1334.5
468.268	1437.5
468.488	1349.5
468.707	1234.5
468.927	1249.5
469.146	1216.5
469.365	1238.5
469.585	1244.5
469.804	1211.5
470.023	1239.5
470.243	1295.5
470.462	1253.5
470.681	1212.5
470.901	1252.5
471.12	1231.5
471.339	1226.5
471.558	1218.5
471.777	1189.5
471.997	1197.5
472.216	1180.5
472.435	1126.5
472.654	1119.5
472.873	1190.5
473.092	1266.5
473.311	1235.5
473.53	1162.5
473.749	1182.5
473.968	1212.5
474.187	1220.5
474.406	1236.5
474.625	1210.5
474.844	1194.5
475.063	1261.5
475.282	1234.5
475.501	1178.5
475.72	1220.5
475.939	1257.5
476.158	1226.5
476.377	1240.5
476.596	1200.5
476.814	1226.5
477.033	1233.5
477.252	1273.5
477.471	1302.5
477.69	1295.5
477.908	1296.5
478.127	1367.5
478.346	1441.5
478.564	1421.5
478.783	1426.5
479.002	1470.5
479.22	1406.5
479.439	1445.5
479.658	1565.5
479.876	1516.5
480.095	1382.5
480.313	1350.5
480.532	1306.5
480.751	1325.5
480.969	1310.5
481.188	1267.5
481.406	1290.5
481.624	1205.5
481.843	1265.5
482.061	1309.5
482.28	1356.5
482.498	1362.5
482.717	1303.5
482.935	1309.5
483.153	1336.5
483.372	1357.5
483.59	1375.5
483.808	1346.5
484.027	1397.5
484.245	1452.5
484.463	1774.5
484.681	1928.5
484.9	1473.5
485.118	1401.5
485.336	1349.5
485.554	1373.5
485.772	1426.5
485.99	1357.5
486.209	1394.5
486.427	1386.5
486.645	1415.5
486.863	1443.5
487.081	1514.5
487.299	1449.5
487.517	1469.5
487.735	1464.5
487.953	1536.5
488.171	1445.5
488.389	1499.5
488.607	1465.5
488.825	1623.5
489.043	1588.5
489.261	1420.5
489.479	1488.5
489.696	1492.5
489.914	1464.5
490.132	1449.5
490.35	1448.5
490.568	1564.5
490.786	1536.5
491.003	1487.5
491.221	1538.5
491.439	1578.5
491.657	1590.5
491.874	1603.5
492.092	1648.5
492.31	1710.5
492.527	1652.5
492.745	1596.5
492.963	1599.5
493.18	1628.5
493.398	1693.5
493.615	1696.5
493.833	1606.5
494.05	1539.5
494.268	1563.5
494.485	1573.5
494.703	1510.5
494.92	1534.5
495.138	1546.5
495.355	1559.5
495.573	1605.5
495.79	1693.5
496.008	1696.5
496.225	1588.5
496.442	1609.5
496.66	1614.5
496.877	1579.5
497.094	1692.5
497.312	1639.5
497.529	1634.5
497.746	1661.5
497.963	1888.5
498.181	1984.5
498.398	1905.5
498.615	1878.5
498.832	1833.5
499.049	1768.5
499.267	1778.5
499.484	1954.5
499.701	2065.5
499.918	2055.5
500.135	2259.5
500.352	2391.5
500.569	2371.5
500.786	2469.5
501.003	2324.5
501.22	2148.5
501.437	2088.5
501.654	2071.5
501.871	1994.5
502.088	1764.5
502.305	1776.5
502.522	1698.5
502.739	1620.5
502.956	1556.5
503.172	1578.5
503.389	1501.5
503.606	1463.5
503.823	1540.5
504.04	1497.5
504.256	1489.5
504.473	1496.5
504.69	1510.5
504.907	1473.5
505.123	1460.5
505.34	1569.5
505.557	1980.5
505.773	1636.5
505.99	1388.5
506.207	1337.5
506.423	1328.5
506.64	1286.5
506.856	1355.5
507.073	1546.5
507.289	1614.5
507.506	1523.5
507.722	1316.5
507.939	1267.5
508.155	1269.5
508.372	1259.5
508.588	1209.5
508.805	1218.5
509.021	1139.5
509.238	1173.5
509.454	1164.5
509.67	1153.5
509.887	1130.5
