Data from WStandard_LampEnergy5.5LIBS07252019.E.O._I.C._HRD10591_16-09-13-921.txt Node
Date: Thu Jul 25 16:09:13 EDT 2019
User: cochatt
Spectrometer: HR+D1059
Trigger mode: 1
Integration Time (sec): 1.000000E-1
Scans to average: 1
Electric dark correction enabled: true
Nonlinearity correction enabled: false
Boxcar width: 0
XAxis mode: Wavelengths
Number of Pixels in Spectrum: 2048
>>>>>Begin Spectral Data<<<<<
223.165	-22.31
223.4	-22.31
223.635	-22.31
223.869	-7.31
224.104	-32.31
224.338	-24.31
224.573	-12.31
224.808	-14.31
225.042	-17.31
225.277	-4.31
225.511	-3.31
225.746	15.69
225.98	13.69
226.215	7.69
226.449	13.69
226.683	12.69
226.918	32.69
227.152	41.69
227.387	41.69
227.621	48.69
227.856	46.69
228.09	42.69
228.324	55.69
228.559	70.69
228.793	134.69
229.027	352.69
229.262	368.69
229.496	351.69
229.73	352.69
229.964	413.69
230.199	441.69
230.433	437.69
230.667	469.69
230.901	512.69
231.136	452.69
231.37	439.69
231.604	450.69
231.838	453.69
232.072	448.69
232.306	420.69
232.541	451.69
232.775	512.69
233.009	557.69
233.243	558.69
233.477	496.69
233.711	510.69
233.945	526.69
234.179	494.69
234.413	543.69
234.647	594.69
234.881	566.69
235.115	534.69
235.349	513.69
235.583	508.69
235.817	545.69
236.051	485.69
236.285	517.69
236.519	553.69
236.753	632.69
236.987	646.69
237.221	627.69
237.455	700.69
237.689	660.69
237.922	641.69
238.156	592.69
238.39	604.69
238.624	656.69
238.858	708.69
239.091	723.69
239.325	773.69
239.559	876.69
239.793	874.69
240.027	977.69
240.26	966.69
240.494	693.69
240.728	665.69
240.961	673.69
241.195	700.69
241.429	781.69
241.662	782.69
241.896	722.69
242.13	716.69
242.363	788.69
242.597	842.69
242.83	808.69
243.064	837.69
243.298	880.69
243.531	861.69
243.765	858.69
243.998	863.69
244.232	767.69
244.465	752.69
244.699	741.69
244.932	824.69
245.166	984.69
245.399	919.69
245.633	832.69
245.866	794.69
246.099	878.69
246.333	880.69
246.566	895.69
246.8	1026.69
247.033	1111.69
247.266	1030.69
247.5	994.69
247.733	978.69
247.966	1048.69
248.2	1162.69
248.433	1104.69
248.666	1146.69
248.899	1206.69
249.133	1414.69
249.366	1646.69
249.599	1342.69
249.832	1184.69
250.066	1167.69
250.299	1191.69
250.532	1111.69
250.765	1013.69
250.998	1087.69
251.231	1145.69
251.465	1139.69
251.698	1093.69
251.931	1112.69
252.164	1128.69
252.397	1180.69
252.63	1175.69
252.863	1040.69
253.096	1033.69
253.329	1063.69
253.562	1108.69
253.795	1171.69
254.028	1187.69
254.261	1110.69
254.494	1074.69
254.727	1017.69
254.96	1050.69
255.193	1161.69
255.426	1307.69
255.659	1498.69
255.892	1563.69
256.124	1289.69
256.357	1245.69
256.59	1341.69
256.823	1318.69
257.056	1300.69
257.289	1587.69
257.521	1784.69
257.754	1587.69
257.987	1500.69
258.22	1635.69
258.452	1623.69
258.685	1314.69
258.918	1256.69
259.151	1285.69
259.383	1209.69
259.616	1108.69
259.849	1172.69
260.081	1303.69
260.314	1444.69
260.547	1591.69
260.779	1618.69
261.012	1500.69
261.244	1379.69
261.477	1253.69
261.71	1340.69
261.942	1322.69
262.175	1290.69
262.407	1381.69
262.64	1302.69
262.872	1211.69
263.105	1176.69
263.337	1200.69
263.57	1199.69
263.802	1206.69
264.035	1150.69
264.267	1069.69
264.499	1059.69
264.732	1137.69
264.964	1222.69
265.197	1263.69
265.429	1320.69
265.661	1445.69
265.894	1632.69
266.126	1662.69
266.358	1488.69
266.591	1554.69
266.823	1656.69
267.055	1521.69
267.287	1452.69
267.52	1454.69
267.752	1447.69
267.984	1443.69
268.216	1491.69
268.448	1559.69
268.681	1499.69
268.913	1397.69
269.145	1344.69
269.377	1302.69
269.609	1368.69
269.841	1607.69
270.073	1872.69
270.306	2117.69
270.538	2232.69
270.77	1903.69
271.002	1635.69
271.234	1512.69
271.466	1501.69
271.698	1712.69
271.93	2041.69
272.162	2046.69
272.394	1858.69
272.626	1770.69
272.858	1566.69
273.09	1374.69
273.322	1369.69
273.553	1273.69
273.785	1309.69
274.017	1340.69
274.249	1447.69
274.481	1475.69
274.713	1370.69
274.945	1296.69
275.176	1325.69
275.408	1340.69
275.64	1318.69
275.872	1241.69
276.104	1340.69
276.335	1542.69
276.567	1716.69
276.799	1825.69
277.031	1600.69
277.262	1516.69
277.494	1586.69
277.726	1730.69
277.957	1749.69
278.189	1583.69
278.421	1435.69
278.652	1400.69
278.884	1374.69
279.115	1392.69
279.347	1396.69
279.579	1361.69
279.81	1353.69
280.042	1494.69
280.273	1674.69
280.505	1649.69
280.736	1710.69
280.968	1607.69
281.199	1414.69
281.431	1337.69
281.662	1354.69
281.894	1357.69
282.125	1393.69
282.356	1422.69
282.588	1454.69
282.819	1444.69
283.051	1550.69
283.282	1704.69
283.513	1649.69
283.745	1422.69
283.976	1357.69
284.207	1337.69
284.439	1368.69
284.67	1376.69
284.901	1396.69
285.132	1416.69
285.364	1438.69
285.595	1481.69
285.826	1472.69
286.057	1411.69
286.288	1393.69
286.52	1448.69
286.751	1581.69
286.982	1622.69
287.213	1480.69
287.444	1360.69
287.675	1351.69
287.906	1436.69
288.138	1532.69
288.369	1503.69
288.6	1429.69
288.831	1395.69
289.062	1417.69
289.293	1436.69
289.524	1404.69
289.755	1467.69
289.986	1507.69
290.217	1366.69
290.448	1427.69
290.679	1430.69
290.91	1467.69
291.141	1474.69
291.371	1534.69
291.602	1494.69
291.833	1454.69
292.064	1578.69
292.295	1504.69
292.526	1568.69
292.757	1652.69
292.987	1510.69
293.218	1454.69
293.449	1544.69
293.68	1732.69
293.91	1919.69
294.141	1774.69
294.372	1654.69
294.603	1694.69
294.833	1821.69
295.064	1733.69
295.295	1532.69
295.525	1499.69
295.756	1423.69
295.987	1356.69
296.217	1356.69
296.448	1383.69
296.679	1414.69
296.909	1383.69
297.14	1385.69
297.37	1406.69
297.601	1516.69
297.831	1598.69
298.062	1588.69
298.292	1492.69
298.523	1417.69
298.753	1441.69
298.984	1459.69
299.214	1446.69
299.445	1470.69
299.675	1539.69
299.905	1520.69
300.136	1473.69
300.366	1413.69
300.597	1374.69
300.827	1379.69
301.057	1441.69
301.288	1506.69
301.518	1525.69
301.748	1559.69
301.979	1630.69
302.209	1658.69
302.439	1742.69
302.669	1818.69
302.9	1701.69
303.13	1559.69
303.36	1536.69
303.59	1583.69
303.82	1548.69
304.051	1546.69
304.281	1553.69
304.511	1528.69
304.741	1622.69
304.971	1808.69
305.201	1936.69
305.431	1809.69
305.661	1508.69
305.891	1376.69
306.121	1344.69
306.352	1400.69
306.582	1476.69
306.812	1575.69
307.042	1710.69
307.272	1689.69
307.502	1737.69
307.731	1867.69
307.961	2055.69
308.191	1906.69
308.421	1625.69
308.651	1514.69
308.881	1510.69
309.111	1488.69
309.341	1417.69
309.571	1509.69
309.8	1456.69
310.03	1501.69
310.26	1473.69
310.49	1451.69
310.72	1518.69
310.949	1557.69
311.179	1600.69
311.409	1529.69
311.639	1530.69
311.868	1480.69
312.098	1492.69
312.328	1480.69
312.557	1512.69
312.787	1507.69
313.017	1551.69
313.246	1554.69
313.476	1516.69
313.706	1577.69
313.935	1574.69
314.165	1592.69
314.394	1629.69
314.624	1708.69
314.853	1778.69
315.083	1884.69
315.312	1906.69
315.542	1810.69
315.771	1627.69
316.001	1577.69
316.23	1710.69
316.46	1698.69
316.689	1688.69
316.919	1616.69
317.148	1526.69
317.377	1501.69
317.607	1666.69
317.836	1830.69
318.065	1905.69
318.295	1848.69
318.524	1760.69
318.753	1702.69
318.983	1699.69
319.212	1646.69
319.441	1600.69
319.67	1584.69
319.9	1603.69
320.129	1700.69
320.358	1756.69
320.587	1819.69
320.816	1777.69
321.046	1790.69
321.275	1652.69
321.504	1685.69
321.733	1863.69
321.962	1788.69
322.191	1646.69
322.42	1636.69
322.649	1606.69
322.878	1593.69
323.108	1634.69
323.337	1693.69
323.566	1700.69
323.795	1658.69
324.024	1675.69
324.253	1645.69
324.482	1653.69
324.71	1648.69
324.939	1543.69
325.168	1532.69
325.397	1592.69
325.626	1710.69
325.855	1716.69
326.084	1631.69
326.313	1608.69
326.542	1640.69
326.77	1715.69
326.999	1730.69
327.228	1666.69
327.457	1584.69
327.686	1535.69
327.914	1560.69
328.143	1653.69
328.372	1655.69
328.6	1620.69
328.829	1596.69
329.058	1553.69
329.287	1573.69
329.515	1630.69
329.744	1674.69
329.972	1704.69
330.201	1809.69
330.43	1747.69
330.658	1720.69
330.887	1745.69
331.115	1680.69
331.344	1769.69
331.572	1754.69
331.801	1712.69
332.03	1713.69
332.258	1695.69
332.486	1735.69
332.715	1749.69
332.943	1773.69
333.172	1729.69
333.4	1736.69
333.629	1789.69
333.857	1835.69
334.085	2024.69
334.314	2331.69
334.542	2529.69
334.771	2375.69
334.999	2079.69
335.227	1936.69
335.455	1871.69
335.684	1864.69
335.912	1892.69
336.14	1962.69
336.369	1896.69
336.597	1781.69
336.825	1756.69
337.053	1774.69
337.281	1896.69
337.51	1954.69
337.738	2031.69
337.966	1966.69
338.194	1797.69
338.422	1741.69
338.65	1696.69
338.878	1733.69
339.106	1653.69
339.334	1648.69
339.562	1632.69
339.79	1649.69
340.018	1754.69
340.246	1814.69
340.474	1816.69
340.702	1732.69
340.93	1784.69
341.158	1746.69
341.386	1712.69
341.614	1718.69
341.842	1699.69
342.07	1694.69
342.298	1759.69
342.526	1702.69
342.754	1682.69
342.981	1661.69
343.209	1714.69
343.437	1662.69
343.665	1676.69
343.893	1738.69
344.12	1818.69
344.348	1815.69
344.576	1791.69
344.804	1691.69
345.031	1686.69
345.259	1735.69
345.487	1653.69
345.714	1588.69
345.942	1544.69
346.17	1583.69
346.397	1594.69
346.625	1626.69
346.853	1555.69
347.08	1548.69
347.308	1536.69
347.535	1590.69
347.763	1672.69
347.99	1590.69
348.218	1538.69
348.445	1550.69
348.673	1574.69
348.9	1668.69
349.128	1623.69
349.355	1703.69
349.583	1680.69
349.81	1617.69
350.037	1512.69
350.265	1493.69
350.492	1481.69
350.72	1520.69
350.947	1594.69
351.174	1631.69
351.402	1534.69
351.629	1497.69
351.856	1432.69
352.083	1440.69
352.311	1444.69
352.538	1535.69
352.765	1591.69
352.992	1628.69
353.22	1548.69
353.447	1543.69
353.674	1556.69
353.901	1569.69
354.128	1562.69
354.355	1500.69
354.583	1577.69
354.81	1642.69
355.037	1588.69
355.264	1634.69
355.491	1553.69
355.718	1598.69
355.945	1586.69
356.172	1535.69
356.399	1535.69
356.626	1534.69
356.853	1575.69
357.08	1655.69
357.307	1833.69
357.534	1864.69
357.761	1652.69
357.988	1529.69
358.215	1476.69
358.441	1525.69
358.668	1502.69
358.895	1516.69
359.122	1622.69
359.349	1709.69
359.576	1744.69
359.802	1560.69
360.029	1507.69
360.256	1461.69
360.483	1550.69
360.709	1543.69
360.936	1603.69
361.163	1655.69
361.39	1802.69
361.616	1990.69
361.843	1957.69
362.07	1805.69
362.296	1569.69
362.523	1554.69
362.749	1512.69
362.976	1549.69
363.203	1624.69
363.429	1568.69
363.656	1480.69
363.882	1558.69
364.109	1710.69
364.335	1864.69
364.562	1716.69
364.788	1656.69
365.015	1595.69
365.241	1591.69
365.468	1548.69
365.694	1630.69
365.92	1664.69
366.147	1618.69
366.373	1536.69
366.599	1514.69
366.826	1494.69
367.052	1540.69
367.278	1572.69
367.505	1573.69
367.731	1608.69
367.957	1583.69
368.184	1614.69
368.41	1705.69
368.636	1721.69
368.862	1759.69
369.089	1721.69
369.315	1695.69
369.541	1656.69
369.767	1601.69
369.993	1525.69
370.219	1568.69
370.445	1601.69
370.672	1669.69
370.898	1754.69
371.124	1748.69
371.35	1655.69
371.576	1706.69
371.802	1745.69
372.028	1682.69
372.254	1633.69
372.48	1611.69
372.706	1555.69
372.932	1582.69
373.158	1576.69
373.384	1618.69
373.61	1656.69
373.835	1719.69
374.061	1671.69
374.287	1651.69
374.513	1632.69
374.739	1671.69
374.965	1710.69
375.191	1664.69
375.416	1666.69
375.642	1704.69
375.868	1802.69
376.094	1833.69
376.319	1758.69
376.545	1647.69
376.771	1705.69
376.997	1741.69
377.222	1770.69
377.448	1678.69
377.674	1690.69
377.899	1704.69
378.125	1799.69
378.35	1804.69
378.576	1629.69
378.802	1605.69
379.027	1625.69
379.253	1623.69
379.478	1639.69
379.704	1648.69
379.929	1624.69
380.155	1631.69
380.38	1657.69
380.606	1674.69
380.831	1665.69
381.057	1745.69
381.282	1769.69
381.507	1708.69
381.733	1793.69
381.958	1888.69
382.184	1716.69
382.409	1655.69
382.634	1741.69
382.86	1680.69
383.085	1699.69
383.31	1764.69
383.535	1884.69
383.761	2020.69
383.986	1906.69
384.211	1843.69
384.436	1836.69
384.662	1893.69
384.887	2006.69
385.112	1878.69
385.337	1900.69
385.562	1870.69
385.787	1870.69
386.013	1952.69
386.238	1898.69
386.463	1890.69
386.688	2005.69
386.913	2103.69
387.138	2104.69
387.363	1946.69
387.588	1948.69
387.813	1925.69
388.038	1920.69
388.263	2002.69
388.488	1943.69
388.713	1825.69
388.938	1811.69
389.163	1819.69
389.387	1814.69
389.612	1865.69
389.837	1884.69
390.062	1912.69
390.287	1885.69
390.512	1838.69
390.736	1861.69
390.961	1842.69
391.186	1758.69
391.411	1806.69
391.636	1824.69
391.86	1874.69
392.085	1866.69
392.31	1841.69
392.534	1865.69
392.759	1911.69
392.984	1898.69
393.208	1885.69
393.433	1919.69
393.658	1977.69
393.882	2028.69
394.107	1912.69
394.331	1870.69
394.556	1848.69
394.78	1862.69
395.005	1922.69
395.229	2004.69
395.454	2141.69
395.678	2154.69
395.903	2056.69
396.127	1956.69
396.352	1976.69
396.576	2033.69
396.801	2096.69
397.025	2028.69
397.249	2058.69
397.474	2025.69
397.698	2001.69
397.922	2068.69
398.147	2188.69
398.371	2209.69
398.595	2245.69
398.82	2148.69
399.044	2189.69
399.268	2288.69
399.492	2445.69
399.717	2525.69
399.941	2569.69
400.165	2495.69
400.389	2385.69
400.613	2326.69
400.837	2589.69
401.062	3022.69
401.286	2570.69
401.51	2319.69
401.734	2481.69
401.958	2407.69
402.182	2242.69
402.406	2166.69
402.63	2127.69
402.854	2114.69
403.078	2180.69
403.302	2185.69
403.526	2216.69
403.75	2262.69
403.974	2254.69
404.198	2206.69
404.422	2317.69
404.645	2397.69
404.869	2331.69
405.093	2171.69
405.317	2204.69
405.541	2236.69
405.765	2272.69
405.988	2229.69
406.212	2273.69
406.436	2319.69
406.66	2382.69
406.883	2388.69
407.107	2651.69
407.331	2916.69
407.555	3095.69
407.778	2940.69
408.002	2390.69
408.226	2352.69
408.449	2352.69
408.673	2255.69
408.896	2304.69
409.12	2316.69
409.344	2275.69
409.567	2202.69
409.791	2276.69
410.014	2340.69
410.238	2363.69
410.461	2535.69
410.685	2292.69
410.908	2160.69
411.132	2251.69
411.355	2212.69
411.578	2153.69
411.802	2186.69
412.025	2218.69
412.249	2183.69
412.472	2140.69
412.695	2065.69
412.919	2099.69
413.142	2080.69
413.365	2146.69
413.589	2197.69
413.812	2289.69
414.035	2377.69
414.258	2201.69
414.482	2139.69
414.705	2153.69
414.928	2146.69
415.151	2107.69
415.374	2112.69
415.597	2178.69
415.821	2191.69
416.044	2225.69
416.267	2253.69
416.49	2060.69
416.713	2019.69
416.936	2082.69
417.159	2168.69
417.382	2233.69
417.605	2073.69
417.828	2164.69
418.051	2153.69
418.274	2102.69
418.497	2080.69
418.72	2094.69
418.943	2052.69
419.166	2201.69
419.389	2299.69
419.611	2129.69
419.834	2118.69
420.057	2121.69
420.28	2062.69
420.503	2022.69
420.726	2108.69
420.948	2131.69
421.171	2027.69
421.394	2067.69
421.617	2087.69
421.839	2086.69
422.062	2029.69
422.285	1972.69
422.507	2021.69
422.73	1998.69
422.953	1958.69
423.175	1960.69
423.398	2036.69
423.621	2060.69
423.843	2076.69
424.066	2095.69
424.288	2135.69
424.511	2152.69
424.733	2186.69
424.956	1992.69
425.178	1940.69
425.401	1984.69
425.623	2025.69
425.846	1981.69
426.068	2072.69
426.291	2115.69
426.513	2105.69
426.735	2076.69
426.958	2163.69
427.18	2368.69
427.402	2136.69
427.625	2169.69
427.847	2219.69
428.069	2068.69
428.292	1996.69
428.514	1961.69
428.736	1926.69
428.958	1958.69
429.181	1954.69
429.403	2225.69
429.625	2799.69
429.847	2423.69
430.069	2069.69
430.292	2200.69
430.514	2358.69
430.736	2152.69
430.958	2215.69
431.18	2143.69
431.402	2001.69
431.624	1975.69
431.846	1981.69
432.068	1914.69
432.29	1978.69
432.512	2015.69
432.734	2036.69
432.956	2068.69
433.178	2167.69
433.4	2105.69
433.622	2150.69
433.844	2054.69
434.066	1988.69
434.287	1961.69
434.509	2016.69
434.731	2147.69
434.953	2259.69
435.175	2191.69
435.397	2100.69
435.618	2094.69
435.84	2076.69
436.062	2040.69
436.284	2062.69
436.505	2098.69
436.727	2134.69
436.949	2082.69
437.17	2030.69
437.392	1994.69
437.614	2016.69
437.835	1968.69
438.057	2079.69
438.278	2151.69
438.5	1995.69
438.721	2002.69
438.943	1982.69
439.165	1975.69
439.386	1946.69
439.608	1946.69
439.829	2012.69
440.05	1980.69
440.272	1978.69
440.493	1886.69
440.715	1988.69
440.936	2065.69
441.158	2324.69
441.379	2256.69
441.6	2169.69
441.822	2120.69
442.043	2142.69
442.264	2059.69
442.486	1976.69
442.707	1926.69
442.928	1972.69
443.149	2058.69
443.371	2176.69
443.592	2196.69
443.813	2164.69
444.034	2132.69
444.255	2170.69
444.476	2211.69
444.698	2229.69
444.919	2228.69
445.14	2309.69
445.361	2295.69
445.582	2378.69
445.803	2253.69
446.024	2170.69
446.245	2241.69
446.466	2177.69
446.687	2062.69
446.908	2075.69
447.129	1975.69
447.35	2023.69
447.571	2064.69
447.792	1957.69
448.013	1934.69
448.234	2003.69
448.455	2076.69
448.675	2088.69
448.896	1924.69
449.117	1906.69
449.338	1972.69
449.559	2040.69
449.779	2122.69
450	2362.69
450.221	2502.69
450.442	2437.69
450.662	2088.69
450.883	1932.69
451.104	1882.69
451.324	1916.69
451.545	2000.69
451.766	1959.69
451.986	1848.69
452.207	1788.69
452.428	1778.69
452.648	1733.69
452.869	1823.69
453.089	1903.69
453.31	1920.69
453.53	2009.69
453.751	1909.69
453.971	1807.69
454.192	1825.69
454.412	1939.69
454.633	1928.69
454.853	1861.69
455.073	1753.69
455.294	1692.69
455.514	1654.69
455.734	1718.69
455.955	1777.69
456.175	1752.69
456.395	1760.69
456.616	1848.69
456.836	1868.69
457.056	1797.69
457.276	1795.69
457.497	1775.69
457.717	1708.69
457.937	1770.69
458.157	1793.69
458.377	1780.69
458.598	1796.69
458.818	1791.69
459.038	1896.69
459.258	1990.69
459.478	1972.69
459.698	1981.69
459.918	1980.69
460.138	2116.69
460.358	2128.69
460.578	2104.69
460.798	2229.69
461.018	2349.69
461.238	2241.69
461.458	2114.69
461.678	2093.69
461.898	2109.69
462.118	2016.69
462.338	2176.69
462.558	2125.69
462.777	2118.69
462.997	2240.69
463.217	2377.69
463.437	2336.69
463.657	2148.69
463.876	2158.69
464.096	2108.69
464.316	2133.69
464.536	2254.69
464.755	2190.69
464.975	2234.69
465.195	2174.69
465.414	2250.69
465.634	2260.69
465.854	2095.69
466.073	2286.69
466.293	2191.69
466.512	1956.69
466.732	1945.69
466.951	2041.69
467.171	2016.69
467.391	1930.69
467.61	1862.69
467.829	1946.69
468.049	2074.69
468.268	2295.69
468.488	2152.69
468.707	2032.69
468.927	1981.69
469.146	1922.69
469.365	1919.69
469.585	1938.69
469.804	1921.69
470.023	1933.69
470.243	1994.69
470.462	1964.69
470.681	1860.69
470.901	1923.69
471.12	1946.69
471.339	1868.69
471.558	1886.69
471.777	1850.69
471.997	1890.69
472.216	1896.69
472.435	1832.69
472.654	1845.69
472.873	1952.69
473.092	2073.69
473.311	1992.69
473.53	1858.69
473.749	1812.69
473.968	1927.69
474.187	2024.69
474.406	2073.69
474.625	1975.69
474.844	1969.69
475.063	1961.69
475.282	1989.69
475.501	1977.69
475.72	1985.69
475.939	2077.69
476.158	2001.69
476.377	1909.69
476.596	1968.69
476.814	2084.69
477.033	2047.69
477.252	2099.69
477.471	2181.69
477.69	2067.69
477.908	2065.69
478.127	2175.69
478.346	2329.69
478.564	2329.69
478.783	2326.69
479.002	2391.69
479.22	2276.69
479.439	2417.69
479.658	2728.69
479.876	2708.69
480.095	2354.69
480.313	2264.69
480.532	2152.69
480.751	2169.69
480.969	2274.69
481.188	2163.69
481.406	2185.69
481.624	2127.69
481.843	2158.69
482.061	2148.69
482.28	2239.69
482.498	2284.69
482.717	2263.69
482.935	2173.69
483.153	2153.69
483.372	2151.69
483.59	2145.69
483.808	2170.69
484.027	2204.69
484.245	2341.69
484.463	2694.69
484.681	3077.69
484.9	2412.69
485.118	2245.69
485.336	2237.69
485.554	2268.69
485.772	2393.69
485.99	2365.69
486.209	2329.69
486.427	2333.69
486.645	2349.69
486.863	2304.69
487.081	2324.69
487.299	2412.69
487.517	2390.69
