Data from WStandard_LampEnergy8_LIBS07252019.E.O._I.C._HRD10591_15-57-41-929.txt Node
Date: Thu Jul 25 15:57:41 EDT 2019
User: cochatt
Spectrometer: HR+D1059
Trigger mode: 1
Integration Time (sec): 1.000000E-1
Scans to average: 1
Electric dark correction enabled: true
Nonlinearity correction enabled: false
Boxcar width: 0
XAxis mode: Wavelengths
Number of Pixels in Spectrum: 2048
>>>>>Begin Spectral Data<<<<<
223.165	-10.12
223.4	-10.12
223.635	-10.12
223.869	-21.12
224.104	-14.12
224.338	-18.12
224.573	-9.12
224.808	-6.12
225.042	-13.12
225.277	-10.12
225.511	11.88
225.746	-2.12
225.98	9.88
226.215	21.88
226.449	1.88
226.683	2.88
226.918	27.88
227.152	27.88
227.387	37.88
227.621	52.88
227.856	44.88
228.09	63.88
228.324	55.88
228.559	59.88
228.793	100.88
229.027	219.88
229.262	212.88
229.496	229.88
229.73	245.88
229.964	265.88
230.199	270.88
230.433	292.88
230.667	284.88
230.901	313.88
231.136	267.88
231.37	255.88
231.604	270.88
231.838	282.88
232.072	290.88
232.306	272.88
232.541	286.88
232.775	330.88
233.009	348.88
233.243	330.88
233.477	303.88
233.711	314.88
233.945	328.88
234.179	319.88
234.413	354.88
234.647	366.88
234.881	343.88
235.115	328.88
235.349	338.88
235.583	343.88
235.817	329.88
236.051	323.88
236.285	335.88
236.519	357.88
236.753	381.88
236.987	386.88
237.221	398.88
237.455	403.88
237.689	383.88
237.922	377.88
238.156	365.88
238.39	393.88
238.624	387.88
238.858	412.88
239.091	425.88
239.325	437.88
239.559	505.88
239.793	521.88
240.027	568.88
240.26	548.88
240.494	429.88
240.728	382.88
240.961	405.88
241.195	422.88
241.429	449.88
241.662	451.88
241.896	417.88
242.13	433.88
242.363	468.88
242.597	483.88
242.83	484.88
243.064	490.88
243.298	511.88
243.531	531.88
243.765	519.88
243.998	493.88
244.232	459.88
244.465	427.88
244.699	454.88
244.932	490.88
245.166	572.88
245.399	499.88
245.633	496.88
245.866	493.88
246.099	505.88
246.333	541.88
246.566	521.88
246.8	581.88
247.033	627.88
247.266	571.88
247.5	551.88
247.733	573.88
247.966	622.88
248.2	671.88
248.433	635.88
248.666	690.88
248.899	728.88
249.133	809.88
249.366	899.88
249.599	753.88
249.832	667.88
250.066	680.88
250.299	670.88
250.532	623.88
250.765	559.88
250.998	639.88
251.231	632.88
251.465	660.88
251.698	610.88
251.931	612.88
252.164	639.88
252.397	655.88
252.63	648.88
252.863	582.88
253.096	587.88
253.329	618.88
253.562	665.88
253.795	666.88
254.028	660.88
254.261	605.88
254.494	592.88
254.727	580.88
254.96	645.88
255.193	677.88
255.426	769.88
255.659	844.88
255.892	838.88
256.124	733.88
256.357	709.88
256.59	743.88
256.823	797.88
257.056	782.88
257.289	909.88
257.521	1009.88
257.754	893.88
257.987	844.88
258.22	911.88
258.452	863.88
258.685	744.88
258.918	737.88
259.151	743.88
259.383	717.88
259.616	642.88
259.849	669.88
260.081	767.88
260.314	851.88
260.547	903.88
260.779	903.88
261.012	824.88
261.244	757.88
261.477	737.88
261.71	765.88
261.942	753.88
262.175	741.88
262.407	759.88
262.64	745.88
262.872	689.88
263.105	636.88
263.337	681.88
263.57	697.88
263.802	707.88
264.035	645.88
264.267	615.88
264.499	611.88
264.732	633.88
264.964	694.88
265.197	718.88
265.429	784.88
265.661	847.88
265.894	909.88
266.126	947.88
266.358	867.88
266.591	881.88
266.823	911.88
267.055	862.88
267.287	848.88
267.52	857.88
267.752	807.88
267.984	838.88
268.216	849.88
268.448	866.88
268.681	847.88
268.913	805.88
269.145	765.88
269.377	763.88
269.609	826.88
269.841	955.88
270.073	1128.88
270.306	1193.88
270.538	1210.88
270.77	1047.88
271.002	915.88
271.234	888.88
271.466	889.88
271.698	1029.88
271.93	1161.88
272.162	1125.88
272.394	1053.88
272.626	987.88
272.858	865.88
273.09	754.88
273.322	742.88
273.553	709.88
273.785	746.88
274.017	739.88
274.249	818.88
274.481	823.88
274.713	762.88
274.945	755.88
275.176	749.88
275.408	741.88
275.64	731.88
275.872	745.88
276.104	798.88
276.335	905.88
276.567	1000.88
276.799	960.88
277.031	909.88
277.262	861.88
277.494	926.88
277.726	1015.88
277.957	945.88
278.189	887.88
278.421	832.88
278.652	783.88
278.884	787.88
279.115	759.88
279.347	797.88
279.579	781.88
279.81	818.88
280.042	901.88
280.273	953.88
280.505	952.88
280.736	946.88
280.968	883.88
281.199	760.88
281.431	769.88
281.662	780.88
281.894	783.88
282.125	825.88
282.356	838.88
282.588	834.88
282.819	866.88
283.051	917.88
283.282	950.88
283.513	910.88
283.745	810.88
283.976	759.88
284.207	755.88
284.439	777.88
284.67	801.88
284.901	797.88
285.132	831.88
285.364	840.88
285.595	829.88
285.826	832.88
286.057	800.88
286.288	795.88
286.52	859.88
286.751	945.88
286.982	919.88
287.213	839.88
287.444	785.88
287.675	762.88
287.906	830.88
288.138	884.88
288.369	853.88
288.6	822.88
288.831	780.88
289.062	792.88
289.293	818.88
289.524	827.88
289.755	817.88
289.986	810.88
290.217	797.88
290.448	803.88
290.679	845.88
290.91	853.88
291.141	871.88
291.371	894.88
291.602	887.88
291.833	895.88
292.064	894.88
292.295	871.88
292.526	903.88
292.757	937.88
292.987	886.88
293.218	869.88
293.449	940.88
293.68	1068.88
293.91	1099.88
294.141	1036.88
294.372	983.88
294.603	1006.88
294.833	1041.88
295.064	979.88
295.295	885.88
295.525	855.88
295.756	809.88
295.987	769.88
296.217	799.88
296.448	814.88
296.679	837.88
296.909	825.88
297.14	831.88
297.37	864.88
297.601	885.88
297.831	981.88
298.062	961.88
298.292	850.88
298.523	837.88
298.753	833.88
298.984	817.88
299.214	865.88
299.445	877.88
299.675	883.88
299.905	886.88
300.136	846.88
300.366	811.88
300.597	790.88
300.827	846.88
301.057	858.88
301.288	901.88
301.518	925.88
301.748	918.88
301.979	970.88
302.209	995.88
302.439	1039.88
302.669	1111.88
302.9	1046.88
303.13	922.88
303.36	899.88
303.59	935.88
303.82	918.88
304.051	910.88
304.281	949.88
304.511	950.88
304.741	990.88
304.971	1122.88
305.201	1163.88
305.431	1023.88
305.661	866.88
305.891	801.88
306.121	806.88
306.352	836.88
306.582	888.88
306.812	956.88
307.042	1034.88
307.272	1025.88
307.502	1067.88
307.731	1130.88
307.961	1164.88
308.191	1049.88
308.421	942.88
308.651	894.88
308.881	900.88
309.111	898.88
309.341	880.88
309.571	892.88
309.8	873.88
310.03	869.88
310.26	862.88
310.49	869.88
310.72	913.88
310.949	926.88
311.179	927.88
311.409	894.88
311.639	889.88
311.868	874.88
312.098	909.88
312.328	875.88
312.557	871.88
312.787	887.88
313.017	917.88
313.246	913.88
313.476	909.88
313.706	945.88
313.935	930.88
314.165	944.88
314.394	1010.88
314.624	1065.88
314.853	1124.88
315.083	1140.88
315.312	1127.88
315.542	1054.88
315.771	959.88
316.001	965.88
316.23	1018.88
316.46	978.88
316.689	1005.88
316.919	907.88
317.148	923.88
317.377	945.88
317.607	1043.88
317.836	1139.88
318.065	1134.88
318.295	1134.88
318.524	1062.88
318.753	1034.88
318.983	994.88
319.212	974.88
319.441	969.88
319.67	947.88
319.9	1018.88
320.129	1073.88
320.358	1091.88
320.587	1123.88
320.816	1077.88
321.046	1068.88
321.275	1041.88
321.504	1061.88
321.733	1126.88
321.962	1045.88
322.191	982.88
322.42	981.88
322.649	979.88
322.878	975.88
323.108	998.88
323.337	1047.88
323.566	1033.88
323.795	1037.88
324.024	1023.88
324.253	993.88
324.482	996.88
324.71	965.88
324.939	927.88
325.168	945.88
325.397	989.88
325.626	1011.88
325.855	1000.88
326.084	982.88
326.313	988.88
326.542	1007.88
326.77	1032.88
326.999	996.88
327.228	964.88
327.457	901.88
327.686	937.88
327.914	957.88
328.143	1009.88
328.372	975.88
328.6	985.88
328.829	968.88
329.058	950.88
329.287	957.88
329.515	974.88
329.744	1026.88
329.972	1071.88
330.201	1131.88
330.43	1077.88
330.658	1057.88
330.887	1044.88
331.115	1041.88
331.344	1065.88
331.572	1028.88
331.801	1004.88
332.03	1032.88
332.258	1069.88
332.486	1062.88
332.715	1068.88
332.943	1051.88
333.172	1023.88
333.4	1034.88
333.629	1109.88
333.857	1163.88
334.085	1291.88
334.314	1476.88
334.542	1549.88
334.771	1387.88
334.999	1213.88
335.227	1150.88
335.455	1093.88
335.684	1094.88
335.912	1130.88
336.14	1177.88
336.369	1098.88
336.597	1077.88
336.825	1058.88
337.053	1085.88
337.281	1157.88
337.51	1207.88
337.738	1257.88
337.966	1174.88
338.194	1073.88
338.422	1049.88
338.65	1017.88
338.878	984.88
339.106	989.88
339.334	970.88
339.562	981.88
339.79	1031.88
340.018	1083.88
340.246	1118.88
340.474	1106.88
340.702	1107.88
340.93	1110.88
341.158	1077.88
341.386	1052.88
341.614	1062.88
341.842	1039.88
342.07	1053.88
342.298	1085.88
342.526	1043.88
342.754	1009.88
342.981	1032.88
343.209	1029.88
343.437	1005.88
343.665	1009.88
343.893	1059.88
344.12	1123.88
344.348	1114.88
344.576	1057.88
344.804	1043.88
345.031	1025.88
345.259	1046.88
345.487	982.88
345.714	940.88
345.942	930.88
346.17	945.88
346.397	991.88
346.625	986.88
346.853	922.88
347.08	949.88
347.308	950.88
347.535	996.88
347.763	999.88
347.99	956.88
348.218	929.88
348.445	947.88
348.673	973.88
348.9	998.88
349.128	1047.88
349.355	1066.88
349.583	1018.88
349.81	954.88
350.037	927.88
350.265	909.88
350.492	929.88
350.72	953.88
350.947	994.88
351.174	974.88
351.402	923.88
351.629	887.88
351.856	881.88
352.083	896.88
352.311	890.88
352.538	913.88
352.765	1014.88
352.992	990.88
353.22	957.88
353.447	942.88
353.674	925.88
353.901	955.88
354.128	933.88
354.355	929.88
354.583	998.88
354.81	1022.88
355.037	999.88
355.264	987.88
355.491	974.88
355.718	995.88
355.945	973.88
356.172	942.88
356.399	927.88
356.626	917.88
356.853	986.88
357.08	1083.88
357.307	1203.88
357.534	1162.88
357.761	987.88
357.988	920.88
358.215	895.88
358.441	895.88
358.668	928.88
358.895	935.88
359.122	1007.88
359.349	1099.88
359.576	1049.88
359.802	975.88
360.029	939.88
360.256	925.88
360.483	940.88
360.709	973.88
360.936	1006.88
361.163	1076.88
361.39	1183.88
361.616	1249.88
361.843	1237.88
362.07	1129.88
362.296	974.88
362.523	933.88
362.749	961.88
362.976	1002.88
363.203	996.88
363.429	949.88
363.656	928.88
363.882	995.88
364.109	1098.88
364.335	1175.88
364.562	1055.88
364.788	1034.88
365.015	983.88
365.241	959.88
365.468	970.88
365.694	1021.88
365.92	1068.88
366.147	984.88
366.373	916.88
366.599	962.88
366.826	945.88
367.052	937.88
367.278	963.88
367.505	973.88
367.731	1007.88
367.957	1033.88
368.184	1040.88
368.41	1124.88
368.636	1120.88
368.862	1138.88
369.089	1118.88
369.315	1063.88
369.541	1027.88
369.767	976.88
369.993	975.88
370.219	965.88
370.445	1010.88
370.672	1081.88
370.898	1144.88
371.124	1083.88
371.35	1038.88
371.576	1098.88
371.802	1091.88
372.028	1056.88
372.254	999.88
372.48	957.88
372.706	986.88
372.932	982.88
373.158	994.88
373.384	998.88
373.61	1060.88
373.835	1077.88
374.061	1023.88
374.287	1019.88
374.513	1063.88
374.739	1019.88
374.965	1043.88
375.191	1065.88
375.416	1054.88
375.642	1111.88
375.868	1162.88
376.094	1143.88
376.319	1099.88
376.545	1027.88
376.771	1067.88
376.997	1110.88
377.222	1118.88
377.448	1061.88
377.674	1073.88
377.899	1085.88
378.125	1157.88
378.35	1130.88
378.576	995.88
378.802	969.88
379.027	984.88
379.253	1011.88
379.478	1031.88
379.704	999.88
379.929	1017.88
380.155	1024.88
380.38	1062.88
380.606	1073.88
380.831	1069.88
381.057	1111.88
381.282	1171.88
381.507	1076.88
381.733	1181.88
381.958	1166.88
382.184	1060.88
382.409	1061.88
382.634	1075.88
382.86	1080.88
383.085	1066.88
383.31	1130.88
383.535	1211.88
383.761	1254.88
383.986	1214.88
384.211	1158.88
384.436	1118.88
384.662	1193.88
384.887	1259.88
385.112	1199.88
385.337	1207.88
385.562	1181.88
385.787	1157.88
386.013	1218.88
386.238	1207.88
386.463	1171.88
386.688	1322.88
386.913	1361.88
387.138	1313.88
387.363	1252.88
387.588	1202.88
387.813	1198.88
388.038	1240.88
388.263	1265.88
388.488	1185.88
388.713	1126.88
388.938	1117.88
389.163	1128.88
389.387	1167.88
389.612	1136.88
389.837	1201.88
390.062	1164.88
390.287	1201.88
390.512	1165.88
390.736	1158.88
390.961	1133.88
391.186	1089.88
391.411	1112.88
391.636	1158.88
391.86	1171.88
392.085	1162.88
392.31	1143.88
392.534	1171.88
392.759	1170.88
392.984	1190.88
393.208	1183.88
393.433	1255.88
393.658	1317.88
393.882	1267.88
394.107	1211.88
394.331	1181.88
394.556	1173.88
394.78	1189.88
395.005	1240.88
395.229	1278.88
395.454	1382.88
395.678	1377.88
395.903	1304.88
396.127	1247.88
396.352	1265.88
396.576	1281.88
396.801	1347.88
397.025	1310.88
397.249	1327.88
397.474	1281.88
397.698	1241.88
397.922	1307.88
398.147	1385.88
398.371	1426.88
398.595	1421.88
398.82	1334.88
399.044	1358.88
399.268	1457.88
399.492	1497.88
399.717	1516.88
399.941	1538.88
400.165	1502.88
400.389	1525.88
400.613	1530.88
400.837	1751.88
401.062	1872.88
401.286	1586.88
401.51	1533.88
401.734	1521.88
401.958	1458.88
402.182	1379.88
402.406	1349.88
402.63	1300.88
402.854	1328.88
403.078	1323.88
403.302	1366.88
403.526	1393.88
403.75	1399.88
403.974	1372.88
404.198	1401.88
404.422	1469.88
404.645	1509.88
404.869	1484.88
405.093	1341.88
405.317	1331.88
405.541	1366.88
405.765	1385.88
405.988	1398.88
406.212	1417.88
406.436	1443.88
406.66	1494.88
406.883	1521.88
407.107	1735.88
407.331	1874.88
407.555	2019.88
407.778	1777.88
408.002	1481.88
408.226	1451.88
408.449	1461.88
408.673	1403.88
408.896	1425.88
409.12	1457.88
409.344	1407.88
409.567	1414.88
409.791	1394.88
410.014	1443.88
410.238	1529.88
410.461	1617.88
410.685	1445.88
410.908	1390.88
411.132	1399.88
411.355	1388.88
411.578	1359.88
411.802	1398.88
412.025	1397.88
412.249	1385.88
412.472	1323.88
412.695	1345.88
412.919	1366.88
413.142	1322.88
413.365	1358.88
413.589	1442.88
413.812	1463.88
414.035	1537.88
414.258	1361.88
414.482	1363.88
414.705	1349.88
414.928	1353.88
415.151	1334.88
415.374	1346.88
415.597	1404.88
415.821	1384.88
416.044	1403.88
416.267	1419.88
416.49	1314.88
416.713	1327.88
416.936	1389.88
417.159	1439.88
417.382	1390.88
417.605	1313.88
417.828	1351.88
418.051	1377.88
418.274	1350.88
418.497	1332.88
418.72	1273.88
418.943	1314.88
419.166	1384.88
419.389	1428.88
419.611	1365.88
419.834	1337.88
420.057	1332.88
420.28	1323.88
420.503	1317.88
420.726	1384.88
420.948	1394.88
421.171	1319.88
421.394	1317.88
421.617	1370.88
421.839	1358.88
422.062	1335.88
422.285	1309.88
422.507	1342.88
422.73	1325.88
422.953	1248.88
423.175	1257.88
423.398	1287.88
423.621	1283.88
423.843	1307.88
424.066	1355.88
424.288	1425.88
424.511	1449.88
424.733	1374.88
424.956	1291.88
425.178	1265.88
425.401	1314.88
425.623	1296.88
425.846	1291.88
426.068	1378.88
426.291	1405.88
426.513	1401.88
426.735	1372.88
426.958	1509.88
427.18	1527.88
427.402	1435.88
427.625	1473.88
427.847	1453.88
428.069	1351.88
428.292	1312.88
428.514	1290.88
428.736	1270.88
428.958	1259.88
429.181	1311.88
429.403	1534.88
429.625	1854.88
429.847	1528.88
430.069	1344.88
430.292	1488.88
430.514	1518.88
430.736	1391.88
430.958	1423.88
431.18	1311.88
431.402	1251.88
431.624	1251.88
431.846	1227.88
432.068	1171.88
432.29	1155.88
432.512	1235.88
432.734	1304.88
432.956	1333.88
433.178	1393.88
433.4	1373.88
433.622	1322.88
433.844	1305.88
434.066	1230.88
434.287	1217.88
434.509	1278.88
434.731	1329.88
434.953	1441.88
435.175	1369.88
435.397	1312.88
435.618	1294.88
435.84	1278.88
436.062	1277.88
436.284	1290.88
436.505	1322.88
436.727	1371.88
436.949	1279.88
437.17	1256.88
437.392	1265.88
437.614	1244.88
437.835	1205.88
438.057	1272.88
438.278	1316.88
438.5	1270.88
438.721	1302.88
438.943	1320.88
439.165	1285.88
439.386	1253.88
439.608	1295.88
439.829	1314.88
440.05	1330.88
440.272	1271.88
440.493	1270.88
440.715	1300.88
440.936	1386.88
441.158	1479.88
441.379	1450.88
441.6	1472.88
441.822	1413.88
442.043	1412.88
442.264	1374.88
442.486	1312.88
442.707	1285.88
442.928	1322.88
443.149	1335.88
443.371	1401.88
443.592	1405.88
443.813	1425.88
444.034	1393.88
444.255	1446.88
444.476	1445.88
444.698	1445.88
444.919	1447.88
445.14	1528.88
445.361	1505.88
445.582	1500.88
445.803	1453.88
446.024	1424.88
446.245	1494.88
446.466	1449.88
446.687	1403.88
446.908	1411.88
447.129	1370.88
447.35	1354.88
447.571	1344.88
447.792	1293.88
448.013	1295.88
448.234	1314.88
448.455	1363.88
448.675	1334.88
448.896	1256.88
449.117	1209.88
449.338	1273.88
449.559	1314.88
449.779	1375.88
450	1501.88
450.221	1547.88
450.442	1498.88
450.662	1344.88
450.883	1222.88
451.104	1226.88
451.324	1237.88
451.545	1254.88
451.766	1235.88
451.986	1174.88
452.207	1163.88
452.428	1139.88
452.648	1154.88
452.869	1191.88
453.089	1175.88
453.31	1190.88
453.53	1203.88
453.751	1173.88
453.971	1098.88
454.192	1125.88
454.412	1208.88
454.633	1197.88
454.853	1173.88
455.073	1108.88
455.294	1101.88
455.514	1110.88
455.734	1117.88
455.955	1159.88
456.175	1113.88
456.395	1143.88
456.616	1118.88
456.836	1139.88
457.056	1149.88
457.276	1131.88
457.497	1099.88
457.717	1074.88
457.937	1065.88
458.157	1134.88
458.377	1064.88
458.598	1069.88
458.818	1081.88
459.038	1126.88
459.258	1161.88
459.478	1188.88
459.698	1153.88
459.918	1219.88
460.138	1279.88
460.358	1299.88
460.578	1314.88
460.798	1339.88
461.018	1396.88
461.238	1333.88
461.458	1320.88
461.678	1291.88
461.898	1277.88
462.118	1237.88
462.338	1319.88
462.558	1309.88
462.777	1324.88
462.997	1366.88
463.217	1395.88
463.437	1345.88
463.657	1315.88
463.876	1268.88
464.096	1307.88
464.316	1324.88
464.536	1352.88
464.755	1367.88
464.975	1363.88
465.195	1319.88
465.414	1332.88
465.634	1364.88
465.854	1350.88
466.073	1459.88
466.293	1405.88
466.512	1248.88
466.732	1245.88
466.951	1287.88
467.171	1293.88
467.391	1228.88
467.61	1229.88
467.829	1289.88
468.049	1415.88
468.268	1514.88
468.488	1403.88
468.707	1299.88
468.927	1265.88
469.146	1246.88
469.365	1263.88
469.585	1296.88
469.804	1275.88
470.023	1277.88
470.243	1329.88
470.462	1288.88
470.681	1250.88
470.901	1267.88
471.12	1292.88
471.339	1305.88
471.558	1259.88
471.777	1218.88
471.997	1249.88
472.216	1190.88
472.435	1143.88
472.654	1160.88
472.873	1193.88
473.092	1275.88
473.311	1183.88
473.53	1188.88
473.749	1185.88
473.968	1225.88
474.187	1304.88
474.406	1292.88
474.625	1252.88
474.844	1250.88
475.063	1246.88
475.282	1270.88
475.501	1249.88
475.72	1271.88
475.939	1376.88
476.158	1288.88
476.377	1265.88
476.596	1249.88
476.814	1274.88
477.033	1263.88
477.252	1311.88
477.471	1346.88
477.69	1307.88
477.908	1321.88
478.127	1390.88
478.346	1464.88
478.564	1474.88
478.783	1473.88
479.002	1507.88
479.22	1439.88
479.439	1475.88
479.658	1597.88
479.876	1612.88
480.095	1436.88
480.313	1388.88
480.532	1297.88
480.751	1356.88
480.969	1339.88
481.188	1305.88
481.406	1301.88
481.624	1271.88
481.843	1277.88
482.061	1348.88
482.28	1382.88
482.498	1414.88
482.717	1399.88
482.935	1361.88
483.153	1371.88
483.372	1401.88
483.59	1404.88
483.808	1410.88
484.027	1428.88
484.245	1475.88
484.463	1836.88
484.681	1962.88
484.9	1541.88
485.118	1401.88
485.336	1366.88
485.554	1409.88
485.772	1475.88
485.99	1433.88
486.209	1415.88
486.427	1446.88
486.645	1436.88
486.863	1445.88
487.081	1495.88
487.299	1487.88
487.517	1511.88
487.735	1489.88
487.953	1565.88
488.171	1572.88
488.389	1494.88
488.607	1484.88
488.825	1660.88
489.043	1659.88
489.261	1444.88
489.479	1547.88
489.696	1531.88
489.914	1493.88
490.132	1447.88
490.35	1489.88
490.568	1587.88
490.786	1532.88
491.003	1515.88
491.221	1598.88
491.439	1660.88
491.657	1625.88
491.874	1674.88
492.092	1724.88
492.31	1723.88
492.527	1711.88
