Data from WStandard_LampEnergy10_LIBS07252019.E.O._I.C._HRD10591_15-53-29-927.txt Node
Date: Thu Jul 25 15:53:29 EDT 2019
User: cochatt
Spectrometer: HR+D1059
Trigger mode: 1
Integration Time (sec): 1.000000E-1
Scans to average: 1
Electric dark correction enabled: true
Nonlinearity correction enabled: false
Boxcar width: 0
XAxis mode: Wavelengths
Number of Pixels in Spectrum: 2048
>>>>>Begin Spectral Data<<<<<
223.165	-13.06
223.4	-13.06
223.635	-13.06
223.869	-14.06
224.104	-19.06
224.338	-21.06
224.573	-16.06
224.808	-15.06
225.042	-8.06
225.277	-3.06
225.511	6.94
225.746	2.94
225.98	1.94
226.215	15.94
226.449	3.94
226.683	23.94
226.918	26.94
227.152	26.94
227.387	22.94
227.621	30.94
227.856	37.94
228.09	48.94
228.324	63.94
228.559	56.94
228.793	85.94
229.027	126.94
229.262	128.94
229.496	143.94
229.73	139.94
229.964	151.94
230.199	148.94
230.433	169.94
230.667	169.94
230.901	197.94
231.136	174.94
231.37	174.94
231.604	169.94
231.838	166.94
232.072	169.94
232.306	171.94
232.541	182.94
232.775	204.94
233.009	187.94
233.243	199.94
233.477	212.94
233.711	176.94
233.945	198.94
234.179	194.94
234.413	192.94
234.647	217.94
234.881	195.94
235.115	197.94
235.349	194.94
235.583	190.94
235.817	191.94
236.051	187.94
236.285	192.94
236.519	203.94
236.753	226.94
236.987	228.94
237.221	233.94
237.455	239.94
237.689	223.94
237.922	215.94
238.156	208.94
238.39	217.94
238.624	225.94
238.858	239.94
239.091	240.94
239.325	258.94
239.559	261.94
239.793	294.94
240.027	297.94
240.26	273.94
240.494	234.94
240.728	218.94
240.961	242.94
241.195	238.94
241.429	262.94
241.662	256.94
241.896	242.94
242.13	263.94
242.363	278.94
242.597	258.94
242.83	277.94
243.064	255.94
243.298	278.94
243.531	274.94
243.765	276.94
243.998	245.94
244.232	229.94
244.465	254.94
244.699	259.94
244.932	266.94
245.166	312.94
245.399	297.94
245.633	235.94
245.866	275.94
246.099	273.94
246.333	300.94
246.566	284.94
246.8	309.94
247.033	326.94
247.266	322.94
247.5	306.94
247.733	320.94
247.966	344.94
248.2	347.94
248.433	355.94
248.666	362.94
248.899	390.94
249.133	438.94
249.366	475.94
249.599	376.94
249.832	367.94
250.066	354.94
250.299	338.94
250.532	336.94
250.765	315.94
250.998	322.94
251.231	324.94
251.465	352.94
251.698	341.94
251.931	331.94
252.164	351.94
252.397	362.94
252.63	332.94
252.863	319.94
253.096	322.94
253.329	325.94
253.562	318.94
253.795	353.94
254.028	347.94
254.261	343.94
254.494	331.94
254.727	335.94
254.96	355.94
255.193	372.94
255.426	404.94
255.659	417.94
255.892	452.94
256.124	392.94
256.357	378.94
256.59	402.94
256.823	400.94
257.056	411.94
257.289	472.94
257.521	489.94
257.754	491.94
257.987	429.94
258.22	461.94
258.452	446.94
258.685	383.94
258.918	372.94
259.151	382.94
259.383	363.94
259.616	365.94
259.849	352.94
260.081	401.94
260.314	452.94
260.547	457.94
260.779	445.94
261.012	425.94
261.244	410.94
261.477	373.94
261.71	374.94
261.942	406.94
262.175	396.94
262.407	390.94
262.64	392.94
262.872	359.94
263.105	365.94
263.337	373.94
263.57	365.94
263.802	386.94
264.035	346.94
264.267	327.94
264.499	330.94
264.732	364.94
264.964	392.94
265.197	405.94
265.429	405.94
265.661	474.94
265.894	482.94
266.126	478.94
266.358	448.94
266.591	451.94
266.823	500.94
267.055	469.94
267.287	424.94
267.52	422.94
267.752	452.94
267.984	453.94
268.216	463.94
268.448	460.94
268.681	458.94
268.913	425.94
269.145	424.94
269.377	412.94
269.609	451.94
269.841	493.94
270.073	582.94
270.306	616.94
270.538	631.94
270.77	570.94
271.002	487.94
271.234	454.94
271.466	472.94
271.698	516.94
271.93	602.94
272.162	582.94
272.394	509.94
272.626	497.94
272.858	451.94
273.09	411.94
273.322	404.94
273.553	383.94
273.785	428.94
274.017	409.94
274.249	443.94
274.481	435.94
274.713	417.94
274.945	400.94
275.176	411.94
275.408	410.94
275.64	401.94
275.872	396.94
276.104	434.94
276.335	490.94
276.567	514.94
276.799	512.94
277.031	478.94
277.262	473.94
277.494	486.94
277.726	508.94
277.957	490.94
278.189	454.94
278.421	433.94
278.652	435.94
278.884	426.94
279.115	420.94
279.347	433.94
279.579	404.94
279.81	456.94
280.042	452.94
280.273	477.94
280.505	513.94
280.736	498.94
280.968	471.94
281.199	425.94
281.431	408.94
281.662	417.94
281.894	419.94
282.125	435.94
282.356	442.94
282.588	434.94
282.819	453.94
283.051	484.94
283.282	497.94
283.513	494.94
283.745	440.94
283.976	394.94
284.207	429.94
284.439	437.94
284.67	455.94
284.901	454.94
285.132	459.94
285.364	448.94
285.595	446.94
285.826	449.94
286.057	441.94
286.288	453.94
286.52	464.94
286.751	483.94
286.982	503.94
287.213	452.94
287.444	414.94
287.675	433.94
287.906	459.94
288.138	467.94
288.369	474.94
288.6	459.94
288.831	442.94
289.062	446.94
289.293	440.94
289.524	465.94
289.755	460.94
289.986	475.94
290.217	430.94
290.448	434.94
290.679	455.94
290.91	451.94
291.141	446.94
291.371	485.94
291.602	484.94
291.833	507.94
292.064	484.94
292.295	496.94
292.526	486.94
292.757	496.94
292.987	470.94
293.218	450.94
293.449	516.94
293.68	577.94
293.91	570.94
294.141	532.94
294.372	537.94
294.603	556.94
294.833	572.94
295.064	536.94
295.295	478.94
295.525	482.94
295.756	460.94
295.987	434.94
296.217	452.94
296.448	460.94
296.679	464.94
296.909	472.94
297.14	432.94
297.37	472.94
297.601	505.94
297.831	512.94
298.062	520.94
298.292	476.94
298.523	459.94
298.753	480.94
298.984	453.94
299.214	479.94
299.445	488.94
299.675	500.94
299.905	485.94
300.136	471.94
300.366	479.94
300.597	450.94
300.827	462.94
301.057	474.94
301.288	491.94
301.518	505.94
301.748	519.94
301.979	523.94
302.209	540.94
302.439	576.94
302.669	611.94
302.9	534.94
303.13	536.94
303.36	491.94
303.59	514.94
303.82	502.94
304.051	504.94
304.281	522.94
304.511	532.94
304.741	543.94
304.971	593.94
305.201	603.94
305.431	529.94
305.661	471.94
305.891	428.94
306.121	445.94
306.352	494.94
306.582	482.94
306.812	522.94
307.042	564.94
307.272	582.94
307.502	584.94
307.731	624.94
307.961	624.94
308.191	586.94
308.421	516.94
308.651	518.94
308.881	500.94
309.111	507.94
309.341	485.94
309.571	494.94
309.8	506.94
310.03	460.94
310.26	485.94
310.49	487.94
310.72	516.94
310.949	523.94
311.179	528.94
311.409	507.94
311.639	513.94
311.868	472.94
312.098	500.94
312.328	492.94
312.557	496.94
312.787	513.94
313.017	518.94
313.246	515.94
313.476	522.94
313.706	517.94
313.935	516.94
314.165	528.94
314.394	568.94
314.624	611.94
314.853	624.94
315.083	600.94
315.312	640.94
315.542	576.94
315.771	544.94
316.001	547.94
316.23	564.94
316.46	551.94
316.689	554.94
316.919	526.94
317.148	505.94
317.377	535.94
317.607	566.94
317.836	607.94
318.065	629.94
318.295	602.94
318.524	580.94
318.753	564.94
318.983	542.94
319.212	554.94
319.441	536.94
319.67	541.94
319.9	587.94
320.129	588.94
320.358	606.94
320.587	598.94
320.816	604.94
321.046	589.94
321.275	587.94
321.504	596.94
321.733	609.94
321.962	603.94
322.191	551.94
322.42	545.94
322.649	569.94
322.878	558.94
323.108	585.94
323.337	584.94
323.566	572.94
323.795	560.94
324.024	550.94
324.253	552.94
324.482	550.94
324.71	521.94
324.939	530.94
325.168	529.94
325.397	569.94
325.626	555.94
325.855	571.94
326.084	548.94
326.313	555.94
326.542	589.94
326.77	600.94
326.999	561.94
327.228	524.94
327.457	520.94
327.686	524.94
327.914	555.94
328.143	566.94
328.372	549.94
328.6	551.94
328.829	543.94
329.058	559.94
329.287	558.94
329.515	555.94
329.744	558.94
329.972	601.94
330.201	626.94
330.43	611.94
330.658	592.94
330.887	598.94
331.115	593.94
331.344	588.94
331.572	568.94
331.801	605.94
332.03	600.94
332.258	612.94
332.486	591.94
332.715	588.94
332.943	615.94
333.172	593.94
333.4	622.94
333.629	614.94
333.857	668.94
334.085	747.94
334.314	792.94
334.542	841.94
334.771	752.94
334.999	668.94
335.227	634.94
335.455	612.94
335.684	629.94
335.912	651.94
336.14	673.94
336.369	635.94
336.597	602.94
336.825	581.94
337.053	623.94
337.281	654.94
337.51	687.94
337.738	699.94
337.966	625.94
338.194	594.94
338.422	582.94
338.65	616.94
338.878	583.94
339.106	567.94
339.334	571.94
339.562	548.94
339.79	582.94
340.018	584.94
340.246	625.94
340.474	606.94
340.702	614.94
340.93	611.94
341.158	612.94
341.386	588.94
341.614	580.94
341.842	587.94
342.07	594.94
342.298	602.94
342.526	584.94
342.754	577.94
342.981	577.94
343.209	583.94
343.437	580.94
343.665	592.94
343.893	602.94
344.12	616.94
344.348	623.94
344.576	626.94
344.804	608.94
345.031	602.94
345.259	580.94
345.487	563.94
345.714	529.94
345.942	557.94
346.17	576.94
346.397	574.94
346.625	579.94
346.853	568.94
347.08	543.94
347.308	560.94
347.535	559.94
347.763	578.94
347.99	565.94
348.218	544.94
348.445	550.94
348.673	546.94
348.9	595.94
349.128	616.94
349.355	600.94
349.583	570.94
349.81	558.94
350.037	518.94
350.265	533.94
350.492	538.94
350.72	548.94
350.947	583.94
351.174	570.94
351.402	549.94
351.629	534.94
351.856	522.94
352.083	526.94
352.311	545.94
352.538	535.94
352.765	570.94
352.992	581.94
353.22	539.94
353.447	555.94
353.674	553.94
353.901	541.94
354.128	540.94
354.355	578.94
354.583	596.94
354.81	587.94
355.037	607.94
355.264	574.94
355.491	553.94
355.718	573.94
355.945	558.94
356.172	542.94
356.399	549.94
356.626	564.94
356.853	593.94
357.08	640.94
357.307	656.94
357.534	639.94
357.761	590.94
357.988	526.94
358.215	537.94
358.441	538.94
358.668	529.94
358.895	575.94
359.122	616.94
359.349	634.94
359.576	612.94
359.802	533.94
360.029	542.94
360.256	545.94
360.483	555.94
360.709	586.94
360.936	595.94
361.163	657.94
361.39	687.94
361.616	695.94
361.843	703.94
362.07	648.94
362.296	570.94
362.523	550.94
362.749	565.94
362.976	581.94
363.203	584.94
363.429	565.94
363.656	568.94
363.882	586.94
364.109	650.94
364.335	687.94
364.562	628.94
364.788	593.94
365.015	576.94
365.241	588.94
365.468	567.94
365.694	613.94
365.92	596.94
366.147	552.94
366.373	574.94
366.599	578.94
366.826	565.94
367.052	582.94
367.278	570.94
367.505	572.94
367.731	596.94
367.957	595.94
368.184	624.94
368.41	655.94
368.636	681.94
368.862	658.94
369.089	665.94
369.315	619.94
369.541	611.94
369.767	566.94
369.993	608.94
370.219	586.94
370.445	627.94
370.672	662.94
370.898	668.94
371.124	659.94
371.35	633.94
371.576	646.94
371.802	680.94
372.028	630.94
372.254	610.94
372.48	584.94
372.706	601.94
372.932	582.94
373.158	595.94
373.384	635.94
373.61	654.94
373.835	643.94
374.061	606.94
374.287	618.94
374.513	612.94
374.739	608.94
374.965	630.94
375.191	650.94
375.416	653.94
375.642	644.94
375.868	693.94
376.094	698.94
376.319	666.94
376.545	622.94
376.771	668.94
376.997	690.94
377.222	692.94
377.448	668.94
377.674	682.94
377.899	682.94
378.125	691.94
378.35	676.94
378.576	634.94
378.802	589.94
379.027	625.94
379.253	646.94
379.478	639.94
379.704	629.94
379.929	634.94
380.155	650.94
380.38	652.94
380.606	643.94
380.831	688.94
381.057	686.94
381.282	692.94
381.507	659.94
381.733	723.94
381.958	740.94
382.184	674.94
382.409	672.94
382.634	692.94
382.86	656.94
383.085	691.94
383.31	705.94
383.535	766.94
383.761	788.94
383.986	725.94
384.211	713.94
384.436	732.94
384.662	746.94
384.887	769.94
385.112	724.94
385.337	746.94
385.562	747.94
385.787	709.94
386.013	770.94
386.238	742.94
386.463	758.94
386.688	829.94
386.913	829.94
387.138	801.94
387.363	788.94
387.588	767.94
387.813	739.94
388.038	755.94
388.263	814.94
388.488	757.94
388.713	735.94
388.938	730.94
389.163	712.94
389.387	772.94
389.612	735.94
389.837	772.94
390.062	739.94
390.287	756.94
390.512	729.94
390.736	726.94
390.961	716.94
391.186	720.94
391.411	750.94
391.636	738.94
391.86	736.94
392.085	750.94
392.31	754.94
392.534	744.94
392.759	742.94
392.984	766.94
393.208	771.94
393.433	801.94
393.658	795.94
393.882	816.94
394.107	794.94
394.331	770.94
394.556	754.94
394.78	779.94
395.005	811.94
395.229	822.94
395.454	873.94
395.678	862.94
395.903	825.94
396.127	839.94
396.352	843.94
396.576	840.94
396.801	817.94
397.025	836.94
397.249	842.94
397.474	832.94
397.698	808.94
397.922	850.94
398.147	906.94
398.371	908.94
398.595	881.94
398.82	855.94
399.044	890.94
399.268	926.94
399.492	947.94
399.717	995.94
399.941	985.94
400.165	976.94
400.389	948.94
400.613	980.94
400.837	1108.94
401.062	1182.94
401.286	1012.94
401.51	971.94
401.734	962.94
401.958	916.94
402.182	908.94
402.406	855.94
402.63	882.94
402.854	892.94
403.078	892.94
403.302	908.94
403.526	913.94
403.75	928.94
403.974	920.94
404.198	942.94
404.422	984.94
404.645	1006.94
404.869	964.94
405.093	902.94
405.317	910.94
405.541	935.94
405.765	924.94
405.988	924.94
406.212	954.94
406.436	973.94
406.66	999.94
406.883	1009.94
407.107	1114.94
407.331	1191.94
407.555	1292.94
407.778	1112.94
408.002	988.94
408.226	942.94
408.449	950.94
408.673	949.94
408.896	963.94
409.12	971.94
409.344	951.94
409.567	947.94
409.791	975.94
410.014	966.94
410.238	999.94
410.461	1048.94
410.685	977.94
410.908	906.94
411.132	961.94
411.355	958.94
411.578	928.94
411.802	924.94
412.025	950.94
412.249	934.94
412.472	904.94
412.695	931.94
412.919	900.94
413.142	897.94
413.365	942.94
413.589	920.94
413.812	1001.94
414.035	1005.94
414.258	935.94
414.482	903.94
414.705	943.94
414.928	905.94
415.151	927.94
415.374	920.94
415.597	962.94
415.821	952.94
416.044	935.94
416.267	950.94
416.49	909.94
416.713	897.94
416.936	956.94
417.159	979.94
417.382	969.94
417.605	938.94
417.828	932.94
418.051	927.94
418.274	932.94
418.497	940.94
418.72	928.94
418.943	924.94
419.166	977.94
419.389	964.94
419.611	937.94
419.834	935.94
420.057	926.94
420.28	934.94
420.503	948.94
420.726	940.94
420.948	944.94
421.171	915.94
421.394	936.94
421.617	983.94
421.839	976.94
422.062	962.94
422.285	937.94
422.507	929.94
422.73	873.94
422.953	897.94
423.175	887.94
423.398	891.94
423.621	922.94
423.843	934.94
424.066	1000.94
424.288	1020.94
424.511	1052.94
424.733	1013.94
424.956	898.94
425.178	916.94
425.401	934.94
425.623	942.94
425.846	955.94
426.068	968.94
426.291	988.94
426.513	972.94
426.735	961.94
426.958	1054.94
427.18	1072.94
427.402	1002.94
427.625	1007.94
427.847	963.94
428.069	942.94
428.292	919.94
428.514	907.94
428.736	902.94
428.958	918.94
429.181	929.94
429.403	1068.94
429.625	1218.94
429.847	1028.94
430.069	930.94
430.292	1025.94
430.514	1044.94
430.736	977.94
430.958	980.94
431.18	947.94
431.402	881.94
431.624	862.94
431.846	796.94
432.068	758.94
432.29	760.94
432.512	821.94
432.734	906.94
432.956	927.94
433.178	958.94
433.4	958.94
433.622	918.94
433.844	889.94
434.066	817.94
434.287	803.94
434.509	781.94
434.731	826.94
434.953	897.94
435.175	916.94
435.397	920.94
435.618	884.94
435.84	880.94
436.062	793.94
436.284	912.94
436.505	930.94
436.727	940.94
436.949	910.94
437.17	892.94
437.392	902.94
437.614	866.94
437.835	811.94
438.057	822.94
438.278	860.94
438.5	859.94
438.721	898.94
438.943	916.94
439.165	938.94
439.386	922.94
439.608	927.94
439.829	970.94
440.05	942.94
440.272	966.94
440.493	968.94
440.715	950.94
440.936	1042.94
441.158	1098.94
441.379	1028.94
441.6	1044.94
441.822	1010.94
442.043	1022.94
442.264	1015.94
442.486	954.94
442.707	974.94
442.928	953.94
443.149	965.94
443.371	1035.94
443.592	1040.94
443.813	1040.94
444.034	1002.94
444.255	1011.94
444.476	1017.94
444.698	1013.94
444.919	1035.94
445.14	1136.94
445.361	1105.94
445.582	1070.94
445.803	1063.94
446.024	1062.94
446.245	1082.94
446.466	1033.94
446.687	1048.94
446.908	1036.94
447.129	1026.94
447.35	1009.94
447.571	1011.94
447.792	935.94
448.013	930.94
448.234	945.94
448.455	1001.94
448.675	964.94
448.896	911.94
449.117	896.94
449.338	937.94
449.559	939.94
449.779	980.94
450	998.94
450.221	1060.94
450.442	1014.94
450.662	949.94
450.883	889.94
451.104	875.94
451.324	874.94
451.545	896.94
451.766	858.94
451.986	834.94
452.207	841.94
452.428	802.94
452.648	788.94
452.869	789.94
453.089	788.94
453.31	796.94
453.53	780.94
453.751	741.94
453.971	680.94
454.192	725.94
454.412	792.94
454.633	762.94
454.853	801.94
455.073	742.94
455.294	761.94
455.514	766.94
455.734	762.94
455.955	772.94
456.175	753.94
456.395	738.94
456.616	735.94
456.836	766.94
457.056	725.94
457.276	716.94
457.497	718.94
457.717	696.94
457.937	709.94
458.157	733.94
458.377	700.94
458.598	686.94
458.818	651.94
459.038	708.94
459.258	717.94
459.478	710.94
459.698	697.94
459.918	728.94
460.138	795.94
460.358	827.94
460.578	854.94
460.798	867.94
461.018	851.94
461.238	864.94
461.458	870.94
461.678	828.94
461.898	806.94
462.118	810.94
462.338	863.94
462.558	867.94
462.777	878.94
462.997	864.94
463.217	884.94
463.437	868.94
463.657	827.94
463.876	841.94
464.096	842.94
464.316	862.94
464.536	867.94
464.755	864.94
464.975	894.94
465.195	847.94
465.414	862.94
465.634	869.94
465.854	907.94
466.073	967.94
466.293	918.94
466.512	848.94
466.732	846.94
466.951	909.94
467.171	871.94
467.391	885.94
467.61	882.94
467.829	903.94
468.049	969.94
468.268	1031.94
468.488	991.94
468.707	924.94
468.927	914.94
469.146	889.94
469.365	938.94
469.585	928.94
469.804	926.94
470.023	942.94
470.243	927.94
470.462	930.94
470.681	927.94
470.901	920.94
471.12	937.94
471.339	926.94
471.558	928.94
471.777	902.94
471.997	890.94
472.216	863.94
472.435	780.94
472.654	720.94
472.873	777.94
473.092	842.94
473.311	818.94
473.53	809.94
473.749	819.94
473.968	843.94
474.187	823.94
474.406	849.94
474.625	863.94
474.844	880.94
475.063	872.94
475.282	848.94
475.501	825.94
475.72	848.94
475.939	892.94
476.158	890.94
476.377	871.94
476.596	858.94
476.814	825.94
477.033	800.94
477.252	856.94
477.471	899.94
477.69	905.94
477.908	933.94
478.127	978.94
478.346	986.94
478.564	983.94
478.783	1023.94
479.002	1042.94
479.22	1004.94
479.439	996.94
479.658	1039.94
479.876	984.94
480.095	883.94
480.313	866.94
480.532	890.94
480.751	867.94
480.969	847.94
481.188	801.94
481.406	769.94
481.624	779.94
481.843	787.94
482.061	834.94
482.28	873.94
482.498	895.94
482.717	881.94
482.935	895.94
483.153	974.94
483.372	1035.94
483.59	1005.94
483.808	979.94
484.027	949.94
484.245	1020.94
484.463	1204.94
484.681	1317.94
484.9	1040.94
485.118	947.94
485.336	932.94
485.554	908.94
485.772	870.94
485.99	886.94
486.209	885.94
486.427	898.94
486.645	929.94
486.863	994.94
487.081	1050.94
487.299	1025.94
487.517	1003.94
487.735	1115.94
487.953	1186.94
488.171	1184.94
488.389	1112.94
488.607	1083.94
488.825	1126.94
489.043	1050.94
489.261	982.94
489.479	1044.94
489.696	1050.94
489.914	1047.94
490.132	1005.94
490.35	1100.94
490.568	1183.94
490.786	1182.94
491.003	1184.94
491.221	1256.94
491.439	1330.94
491.657	1305.94
491.874	1350.94
492.092	1481.94
492.31	1498.94
492.527	1443.94
492.745	1398.94
492.963	1319.94
493.18	1362.94
493.398	1363.94
493.615	1369.94
493.833	1272.94
494.05	1206.94
494.268	1221.94
494.485	1228.94
494.703	1243.94
494.92	1243.94
495.138	1219.94
495.355	1224.94
495.573	1264.94
495.79	1281.94
496.008	1282.94
496.225	1278.94
496.442	1264.94
496.66	1248.94
496.877	1226.94
497.094	1234.94
497.312	1226.94
497.529	1218.94
497.746	1203.94
497.963	1280.94
498.181	1310.94
498.398	1260.94
498.615	1208.94
498.832	1152.94
499.049	1163.94
499.267	1163.94
499.484	1275.94
499.701	1346.94
499.918	1366.94
500.135	1470.94
500.352	1594.94
