Data from WStandard_LampEnergy8_LIBS07252019.E.O._I.C._HRD10591_15-58-49-929.txt Node
Date: Thu Jul 25 15:58:49 EDT 2019
User: cochatt
Spectrometer: HR+D1059
Trigger mode: 1
Integration Time (sec): 1.000000E-1
Scans to average: 1
Electric dark correction enabled: true
Nonlinearity correction enabled: false
Boxcar width: 0
XAxis mode: Wavelengths
Number of Pixels in Spectrum: 2048
>>>>>Begin Spectral Data<<<<<
223.165	-24.25
223.4	-24.25
223.635	-24.25
223.869	-17.25
224.104	-13.25
224.338	-15.25
224.573	-18.25
224.808	0.75
225.042	-0.25
225.277	5.75
225.511	-1.25
225.746	1.75
225.98	4.75
226.215	4.75
226.449	13.75
226.683	19.75
226.918	24.75
227.152	13.75
227.387	34.75
227.621	33.75
227.856	41.75
228.09	41.75
228.324	61.75
228.559	54.75
228.793	109.75
229.027	199.75
229.262	196.75
229.496	230.75
229.73	217.75
229.964	241.75
230.199	247.75
230.433	278.75
230.667	276.75
230.901	296.75
231.136	269.75
231.37	246.75
231.604	259.75
231.838	279.75
232.072	270.75
232.306	259.75
232.541	276.75
232.775	311.75
233.009	330.75
233.243	314.75
233.477	306.75
233.711	285.75
233.945	304.75
234.179	314.75
234.413	326.75
234.647	349.75
234.881	314.75
235.115	292.75
235.349	313.75
235.583	308.75
235.817	282.75
236.051	298.75
236.285	302.75
236.519	321.75
236.753	356.75
236.987	357.75
237.221	368.75
237.455	379.75
237.689	375.75
237.922	379.75
238.156	355.75
238.39	354.75
238.624	374.75
238.858	400.75
239.091	405.75
239.325	416.75
239.559	477.75
239.793	487.75
240.027	531.75
240.26	486.75
240.494	393.75
240.728	386.75
240.961	379.75
241.195	402.75
241.429	443.75
241.662	390.75
241.896	398.75
242.13	401.75
242.363	463.75
242.597	467.75
242.83	441.75
243.064	453.75
243.298	494.75
243.531	467.75
243.765	462.75
243.998	466.75
244.232	432.75
244.465	408.75
244.699	427.75
244.932	466.75
245.166	527.75
245.399	501.75
245.633	485.75
245.866	460.75
246.099	479.75
246.333	487.75
246.566	518.75
246.8	516.75
247.033	571.75
247.266	576.75
247.5	539.75
247.733	543.75
247.966	574.75
248.2	622.75
248.433	600.75
248.666	617.75
248.899	688.75
249.133	752.75
249.366	823.75
249.599	682.75
249.832	621.75
250.066	631.75
250.299	614.75
250.532	592.75
250.765	548.75
250.998	568.75
251.231	587.75
251.465	622.75
251.698	594.75
251.931	586.75
252.164	602.75
252.397	616.75
252.63	619.75
252.863	540.75
253.096	558.75
253.329	588.75
253.562	614.75
253.795	634.75
254.028	643.75
254.261	587.75
254.494	581.75
254.727	570.75
254.96	585.75
255.193	657.75
255.426	728.75
255.659	799.75
255.892	794.75
256.124	672.75
256.357	633.75
256.59	692.75
256.823	723.75
257.056	712.75
257.289	856.75
257.521	913.75
257.754	847.75
257.987	793.75
258.22	872.75
258.452	839.75
258.685	714.75
258.918	679.75
259.151	688.75
259.383	651.75
259.616	616.75
259.849	646.75
260.081	704.75
260.314	779.75
260.547	808.75
260.779	797.75
261.012	768.75
261.244	691.75
261.477	678.75
261.71	712.75
261.942	690.75
262.175	679.75
262.407	716.75
262.64	681.75
262.872	627.75
263.105	637.75
263.337	653.75
263.57	638.75
263.802	641.75
264.035	582.75
264.267	581.75
264.499	579.75
264.732	623.75
264.964	660.75
265.197	693.75
265.429	732.75
265.661	788.75
265.894	861.75
266.126	875.75
266.358	784.75
266.591	809.75
266.823	853.75
267.055	790.75
267.287	770.75
267.52	770.75
267.752	772.75
267.984	766.75
268.216	806.75
268.448	815.75
268.681	788.75
268.913	726.75
269.145	703.75
269.377	712.75
269.609	768.75
269.841	908.75
270.073	1035.75
270.306	1106.75
270.538	1111.75
270.77	985.75
271.002	858.75
271.234	816.75
271.466	839.75
271.698	938.75
271.93	1084.75
272.162	1057.75
272.394	944.75
272.626	928.75
272.858	809.75
273.09	728.75
273.322	714.75
273.553	665.75
273.785	664.75
274.017	731.75
274.249	760.75
274.481	777.75
274.713	716.75
274.945	681.75
275.176	698.75
275.408	702.75
275.64	686.75
275.872	703.75
276.104	763.75
276.335	823.75
276.567	968.75
276.799	927.75
277.031	872.75
277.262	824.75
277.494	862.75
277.726	914.75
277.957	912.75
278.189	840.75
278.421	778.75
278.652	752.75
278.884	750.75
279.115	770.75
279.347	768.75
279.579	755.75
279.81	754.75
280.042	821.75
280.273	904.75
280.505	876.75
280.736	873.75
280.968	848.75
281.199	760.75
281.431	723.75
281.662	712.75
281.894	716.75
282.125	745.75
282.356	792.75
282.588	788.75
282.819	788.75
283.051	855.75
283.282	871.75
283.513	866.75
283.745	764.75
283.976	728.75
284.207	714.75
284.439	755.75
284.67	754.75
284.901	772.75
285.132	802.75
285.364	806.75
285.595	788.75
285.826	795.75
286.057	771.75
286.288	773.75
286.52	804.75
286.751	838.75
286.982	848.75
287.213	775.75
287.444	744.75
287.675	738.75
287.906	794.75
288.138	849.75
288.369	776.75
288.6	781.75
288.831	754.75
289.062	761.75
289.293	800.75
289.524	779.75
289.755	816.75
289.986	802.75
290.217	745.75
290.448	755.75
290.679	786.75
290.91	812.75
291.141	814.75
291.371	861.75
291.602	828.75
291.833	800.75
292.064	830.75
292.295	836.75
292.526	857.75
292.757	902.75
292.987	787.75
293.218	819.75
293.449	898.75
293.68	1010.75
293.91	988.75
294.141	957.75
294.372	923.75
294.603	972.75
294.833	985.75
295.064	927.75
295.295	831.75
295.525	804.75
295.756	760.75
295.987	746.75
296.217	766.75
296.448	773.75
296.679	779.75
296.909	784.75
297.14	787.75
297.37	819.75
297.601	848.75
297.831	904.75
298.062	906.75
298.292	827.75
298.523	816.75
298.753	803.75
298.984	809.75
299.214	839.75
299.445	842.75
299.675	848.75
299.905	854.75
300.136	822.75
300.366	769.75
300.597	780.75
300.827	778.75
301.057	808.75
301.288	865.75
301.518	878.75
301.748	883.75
301.979	920.75
302.209	940.75
302.439	997.75
302.669	1014.75
302.9	938.75
303.13	845.75
303.36	857.75
303.59	890.75
303.82	870.75
304.051	905.75
304.281	846.75
304.511	869.75
304.741	940.75
304.971	1032.75
305.201	1099.75
305.431	978.75
305.661	816.75
305.891	734.75
306.121	784.75
306.352	803.75
306.582	844.75
306.812	914.75
307.042	967.75
307.272	963.75
307.502	1016.75
307.731	1099.75
307.961	1138.75
308.191	990.75
308.421	883.75
308.651	884.75
308.881	847.75
309.111	837.75
309.341	860.75
309.571	855.75
309.8	855.75
310.03	840.75
310.26	840.75
310.49	827.75
310.72	873.75
310.949	902.75
311.179	878.75
311.409	860.75
311.639	849.75
311.868	850.75
312.098	873.75
312.328	856.75
312.557	859.75
312.787	853.75
313.017	891.75
313.246	898.75
313.476	874.75
313.706	891.75
313.935	888.75
314.165	890.75
314.394	930.75
314.624	1005.75
314.853	1017.75
315.083	1089.75
315.312	1087.75
315.542	1008.75
315.771	925.75
316.001	960.75
316.23	990.75
316.46	967.75
316.689	945.75
316.919	920.75
317.148	863.75
317.377	924.75
317.607	960.75
317.836	1101.75
318.065	1076.75
318.295	1024.75
318.524	1005.75
318.753	980.75
318.983	950.75
319.212	953.75
319.441	940.75
319.67	949.75
319.9	944.75
320.129	963.75
320.358	1044.75
320.587	1062.75
320.816	1043.75
321.046	988.75
321.275	1008.75
321.504	999.75
321.733	1063.75
321.962	997.75
322.191	922.75
322.42	940.75
322.649	940.75
322.878	914.75
323.108	966.75
323.337	994.75
323.566	979.75
323.795	972.75
324.024	962.75
324.253	966.75
324.482	961.75
324.71	912.75
324.939	902.75
325.168	918.75
325.397	942.75
325.626	976.75
325.855	946.75
326.084	931.75
326.313	932.75
326.542	985.75
326.77	990.75
326.999	994.75
327.228	965.75
327.457	915.75
327.686	907.75
327.914	909.75
328.143	933.75
328.372	950.75
328.6	923.75
328.829	925.75
329.058	939.75
329.287	931.75
329.515	953.75
329.744	988.75
329.972	1023.75
330.201	1063.75
330.43	1033.75
330.658	986.75
330.887	991.75
331.115	983.75
331.344	1009.75
331.572	989.75
331.801	1014.75
332.03	1003.75
332.258	983.75
332.486	1013.75
332.715	1007.75
332.943	1026.75
333.172	1000.75
333.4	1019.75
333.629	1037.75
333.857	1115.75
334.085	1266.75
334.314	1385.75
334.542	1471.75
334.771	1320.75
334.999	1158.75
335.227	1122.75
335.455	1048.75
335.684	1074.75
335.912	1075.75
336.14	1118.75
336.369	1078.75
336.597	1060.75
336.825	1011.75
337.053	1061.75
337.281	1118.75
337.51	1157.75
337.738	1221.75
337.966	1108.75
338.194	1031.75
338.422	991.75
338.65	996.75
338.878	951.75
339.106	979.75
339.334	955.75
339.562	941.75
339.79	980.75
340.018	1033.75
340.246	1052.75
340.474	1056.75
340.702	1038.75
340.93	1063.75
341.158	1022.75
341.386	1011.75
341.614	999.75
341.842	1005.75
342.07	1002.75
342.298	998.75
342.526	1003.75
342.754	1015.75
342.981	991.75
343.209	959.75
343.437	977.75
343.665	970.75
343.893	1015.75
344.12	1076.75
344.348	1084.75
344.576	1033.75
344.804	983.75
345.031	1002.75
345.259	992.75
345.487	975.75
345.714	933.75
345.942	928.75
346.17	920.75
346.397	942.75
346.625	955.75
346.853	920.75
347.08	902.75
347.308	901.75
347.535	937.75
347.763	964.75
347.99	932.75
348.218	890.75
348.445	936.75
348.673	928.75
348.9	986.75
349.128	1004.75
349.355	1001.75
349.583	985.75
349.81	943.75
350.037	898.75
350.265	869.75
350.492	882.75
350.72	914.75
350.947	982.75
351.174	977.75
351.402	911.75
351.629	875.75
351.856	859.75
352.083	888.75
352.311	882.75
352.538	939.75
352.765	969.75
352.992	932.75
353.22	915.75
353.447	875.75
353.674	929.75
353.901	916.75
354.128	870.75
354.355	916.75
354.583	960.75
354.81	991.75
355.037	974.75
355.264	945.75
355.491	940.75
355.718	922.75
355.945	935.75
356.172	901.75
356.399	914.75
356.626	880.75
356.853	959.75
357.08	1037.75
357.307	1123.75
357.534	1072.75
357.761	959.75
357.988	905.75
358.215	872.75
358.441	896.75
358.668	903.75
358.895	950.75
359.122	970.75
359.349	1072.75
359.576	1045.75
359.802	943.75
360.029	900.75
360.256	895.75
360.483	935.75
360.709	968.75
360.936	959.75
361.163	1004.75
361.39	1091.75
361.616	1171.75
361.843	1166.75
362.07	1061.75
362.296	948.75
362.523	937.75
362.749	959.75
362.976	940.75
363.203	959.75
363.429	930.75
363.656	912.75
363.882	970.75
364.109	1097.75
364.335	1106.75
364.562	1028.75
364.788	971.75
365.015	948.75
365.241	900.75
365.468	958.75
365.694	975.75
365.92	1003.75
366.147	979.75
366.373	934.75
366.599	890.75
366.826	892.75
367.052	922.75
367.278	956.75
367.505	957.75
367.731	964.75
367.957	954.75
368.184	999.75
368.41	1067.75
368.636	1097.75
368.862	1102.75
369.089	1076.75
369.315	1033.75
369.541	976.75
369.767	965.75
369.993	928.75
370.219	931.75
370.445	978.75
370.672	1014.75
370.898	1065.75
371.124	1033.75
371.35	1006.75
371.576	1050.75
371.802	1068.75
372.028	1010.75
372.254	975.75
372.48	938.75
372.706	962.75
372.932	977.75
373.158	974.75
373.384	972.75
373.61	1028.75
373.835	1049.75
374.061	966.75
374.287	984.75
374.513	992.75
374.739	984.75
374.965	986.75
375.191	1021.75
375.416	1003.75
375.642	1057.75
375.868	1131.75
376.094	1134.75
376.319	1084.75
376.545	1030.75
376.771	1052.75
376.997	1058.75
377.222	1050.75
377.448	1033.75
377.674	1068.75
377.899	1058.75
378.125	1114.75
378.35	1104.75
378.576	990.75
378.802	950.75
379.027	988.75
379.253	1013.75
379.478	971.75
379.704	1027.75
379.929	1000.75
380.155	990.75
380.38	1028.75
380.606	1009.75
380.831	1003.75
381.057	1100.75
381.282	1088.75
381.507	1046.75
381.733	1108.75
381.958	1143.75
382.184	1093.75
382.409	1022.75
382.634	1056.75
382.86	1064.75
383.085	1043.75
383.31	1084.75
383.535	1222.75
383.761	1225.75
383.986	1169.75
384.211	1114.75
384.436	1151.75
384.662	1206.75
384.887	1231.75
385.112	1159.75
385.337	1172.75
385.562	1115.75
385.787	1150.75
386.013	1170.75
386.238	1174.75
386.463	1195.75
386.688	1271.75
386.913	1350.75
387.138	1274.75
387.363	1201.75
387.588	1183.75
387.813	1142.75
388.038	1198.75
388.263	1237.75
388.488	1159.75
388.713	1070.75
388.938	1083.75
389.163	1096.75
389.387	1142.75
389.612	1130.75
389.837	1161.75
390.062	1168.75
390.287	1139.75
390.512	1142.75
390.736	1134.75
390.961	1110.75
391.186	1083.75
391.411	1116.75
391.636	1122.75
391.86	1127.75
392.085	1110.75
392.31	1146.75
392.534	1142.75
392.759	1142.75
392.984	1139.75
393.208	1156.75
393.433	1217.75
393.658	1247.75
393.882	1223.75
394.107	1195.75
394.331	1154.75
394.556	1114.75
394.78	1179.75
395.005	1224.75
395.229	1258.75
395.454	1322.75
395.678	1292.75
395.903	1259.75
396.127	1194.75
396.352	1235.75
396.576	1260.75
396.801	1273.75
397.025	1254.75
397.249	1245.75
397.474	1232.75
397.698	1245.75
397.922	1282.75
398.147	1360.75
398.371	1394.75
398.595	1356.75
398.82	1298.75
399.044	1362.75
399.268	1399.75
399.492	1451.75
399.717	1520.75
399.941	1476.75
400.165	1479.75
400.389	1412.75
400.613	1474.75
400.837	1643.75
401.062	1822.75
401.286	1558.75
401.51	1482.75
401.734	1487.75
401.958	1417.75
402.182	1355.75
402.406	1299.75
402.63	1322.75
402.854	1334.75
403.078	1333.75
403.302	1332.75
403.526	1364.75
403.75	1388.75
403.974	1401.75
404.198	1372.75
404.422	1453.75
404.645	1512.75
404.869	1470.75
405.093	1338.75
405.317	1316.75
405.541	1352.75
405.765	1358.75
405.988	1390.75
406.212	1402.75
406.436	1416.75
406.66	1436.75
406.883	1520.75
407.107	1674.75
407.331	1820.75
407.555	1968.75
407.778	1716.75
408.002	1436.75
408.226	1447.75
408.449	1411.75
408.673	1381.75
408.896	1397.75
409.12	1444.75
409.344	1416.75
409.567	1371.75
409.791	1381.75
410.014	1406.75
410.238	1526.75
410.461	1555.75
410.685	1387.75
410.908	1339.75
411.132	1400.75
411.355	1356.75
411.578	1320.75
411.802	1367.75
412.025	1354.75
412.249	1356.75
412.472	1311.75
412.695	1323.75
412.919	1307.75
413.142	1303.75
413.365	1352.75
413.589	1366.75
413.812	1463.75
414.035	1463.75
414.258	1355.75
414.482	1315.75
414.705	1330.75
414.928	1315.75
415.151	1298.75
415.374	1329.75
415.597	1333.75
415.821	1346.75
416.044	1349.75
416.267	1346.75
416.49	1311.75
416.713	1283.75
416.936	1352.75
417.159	1412.75
417.382	1392.75
417.605	1310.75
417.828	1315.75
418.051	1328.75
418.274	1318.75
418.497	1306.75
418.72	1322.75
418.943	1322.75
419.166	1334.75
419.389	1392.75
419.611	1329.75
419.834	1288.75
420.057	1335.75
420.28	1303.75
420.503	1311.75
420.726	1326.75
420.948	1301.75
421.171	1308.75
421.394	1281.75
421.617	1380.75
421.839	1312.75
422.062	1322.75
422.285	1304.75
422.507	1295.75
422.73	1257.75
422.953	1206.75
423.175	1249.75
423.398	1273.75
423.621	1294.75
423.843	1310.75
424.066	1338.75
424.288	1394.75
424.511	1444.75
424.733	1385.75
424.956	1271.75
425.178	1211.75
425.401	1283.75
425.623	1294.75
425.846	1244.75
426.068	1311.75
426.291	1382.75
426.513	1314.75
426.735	1364.75
426.958	1443.75
427.18	1528.75
427.402	1401.75
427.625	1429.75
427.847	1412.75
428.069	1274.75
428.292	1275.75
428.514	1241.75
428.736	1232.75
428.958	1252.75
429.181	1290.75
429.403	1508.75
429.625	1804.75
429.847	1502.75
430.069	1310.75
430.292	1436.75
430.514	1470.75
430.736	1356.75
430.958	1448.75
431.18	1332.75
431.402	1241.75
431.624	1218.75
431.846	1176.75
432.068	1171.75
432.29	1171.75
432.512	1205.75
432.734	1253.75
432.956	1299.75
433.178	1320.75
433.4	1351.75
433.622	1308.75
433.844	1264.75
434.066	1215.75
434.287	1203.75
434.509	1215.75
434.731	1279.75
434.953	1378.75
435.175	1353.75
435.397	1283.75
435.618	1306.75
435.84	1257.75
436.062	1247.75
436.284	1280.75
436.505	1303.75
436.727	1304.75
436.949	1271.75
437.17	1248.75
437.392	1234.75
437.614	1231.75
437.835	1208.75
438.057	1243.75
438.278	1258.75
438.5	1237.75
438.721	1233.75
438.943	1255.75
439.165	1225.75
439.386	1241.75
439.608	1257.75
439.829	1247.75
440.05	1257.75
440.272	1255.75
440.493	1260.75
440.715	1280.75
440.936	1363.75
441.158	1479.75
441.379	1448.75
441.6	1395.75
441.822	1395.75
442.043	1377.75
442.264	1347.75
442.486	1251.75
442.707	1248.75
442.928	1248.75
443.149	1288.75
443.371	1392.75
443.592	1366.75
443.813	1355.75
444.034	1410.75
444.255	1389.75
444.476	1379.75
444.698	1412.75
444.919	1439.75
445.14	1510.75
445.361	1484.75
445.582	1471.75
445.803	1391.75
446.024	1392.75
446.245	1436.75
446.466	1393.75
446.687	1366.75
446.908	1354.75
447.129	1356.75
447.35	1343.75
447.571	1304.75
447.792	1238.75
448.013	1259.75
448.234	1275.75
448.455	1337.75
448.675	1329.75
448.896	1222.75
449.117	1191.75
449.338	1234.75
449.559	1284.75
449.779	1307.75
450	1426.75
450.221	1492.75
450.442	1431.75
450.662	1326.75
450.883	1199.75
451.104	1202.75
451.324	1214.75
451.545	1223.75
451.766	1204.75
451.986	1142.75
452.207	1168.75
452.428	1123.75
452.648	1088.75
452.869	1115.75
453.089	1145.75
453.31	1171.75
453.53	1166.75
453.751	1139.75
453.971	1064.75
454.192	1120.75
454.412	1166.75
454.633	1145.75
454.853	1148.75
455.073	1051.75
455.294	1094.75
455.514	1065.75
455.734	1063.75
455.955	1111.75
456.175	1094.75
456.395	1047.75
456.616	1091.75
456.836	1107.75
457.056	1106.75
457.276	1106.75
457.497	1089.75
457.717	1012.75
457.937	1046.75
458.157	1085.75
458.377	1060.75
458.598	1032.75
458.818	1079.75
459.038	1114.75
459.258	1163.75
459.478	1180.75
459.698	1103.75
459.918	1160.75
460.138	1209.75
460.358	1256.75
460.578	1254.75
460.798	1297.75
461.018	1358.75
461.238	1314.75
461.458	1267.75
461.678	1265.75
461.898	1228.75
462.118	1232.75
462.338	1249.75
462.558	1277.75
462.777	1265.75
462.997	1332.75
463.217	1374.75
463.437	1329.75
463.657	1263.75
463.876	1249.75
464.096	1257.75
464.316	1269.75
464.536	1332.75
464.755	1334.75
464.975	1311.75
465.195	1292.75
465.414	1329.75
465.634	1362.75
465.854	1335.75
466.073	1401.75
466.293	1347.75
466.512	1210.75
466.732	1221.75
466.951	1255.75
467.171	1249.75
467.391	1184.75
467.61	1212.75
467.829	1254.75
468.049	1349.75
468.268	1455.75
468.488	1373.75
468.707	1254.75
468.927	1235.75
469.146	1234.75
469.365	1224.75
469.585	1264.75
469.804	1246.75
470.023	1242.75
470.243	1273.75
470.462	1251.75
470.681	1222.75
470.901	1240.75
471.12	1227.75
471.339	1226.75
471.558	1213.75
471.777	1183.75
471.997	1235.75
472.216	1173.75
472.435	1154.75
472.654	1154.75
472.873	1189.75
473.092	1248.75
473.311	1198.75
473.53	1133.75
473.749	1139.75
473.968	1191.75
474.187	1225.75
474.406	1278.75
474.625	1210.75
474.844	1225.75
475.063	1239.75
475.282	1217.75
475.501	1202.75
475.72	1231.75
475.939	1314.75
476.158	1224.75
476.377	1215.75
476.596	1202.75
476.814	1209.75
477.033	1233.75
477.252	1255.75
477.471	1281.75
477.69	1321.75
477.908	1288.75
478.127	1361.75
478.346	1398.75
478.564	1430.75
478.783	1424.75
479.002	1447.75
479.22	1449.75
479.439	1477.75
479.658	1570.75
479.876	1505.75
480.095	1348.75
480.313	1344.75
480.532	1349.75
480.751	1280.75
480.969	1318.75
481.188	1267.75
481.406	1286.75
481.624	1234.75
481.843	1280.75
482.061	1302.75
482.28	1322.75
482.498	1350.75
482.717	1327.75
482.935	1336.75
483.153	1349.75
483.372	1360.75
483.59	1371.75
483.808	1324.75
484.027	1378.75
484.245	1457.75
484.463	1764.75
484.681	1926.75
484.9	1476.75
485.118	1396.75
485.336	1366.75
485.554	1380.75
485.772	1442.75
485.99	1412.75
486.209	1406.75
486.427	1387.75
486.645	1415.75
486.863	1432.75
487.081	1452.75
487.299	1473.75
487.517	1446.75
487.735	1458.75
487.953	1502.75
488.171	1520.75
488.389	1479.75
488.607	1464.75
488.825	1614.75
489.043	1570.75
489.261	1398.75
489.479	1484.75
489.696	1516.75
489.914	1469.75
490.132	1479.75
490.35	1485.75
490.568	1549.75
490.786	1529.75
491.003	1503.75
491.221	1557.75
491.439	1609.75
491.657	1620.75
491.874	1657.75
492.092	1657.75
492.31	1712.75
492.527	1695.75
492.745	1614.75
492.963	1617.75
493.18	1650.75
493.398	1740.75
