Data from WStandard_LampEnergy8_LIBS07252019.E.O._I.C._HRD10591_15-59-41-929.txt Node
Date: Thu Jul 25 15:59:41 EDT 2019
User: cochatt
Spectrometer: HR+D1059
Trigger mode: 1
Integration Time (sec): 1.000000E-1
Scans to average: 1
Electric dark correction enabled: true
Nonlinearity correction enabled: false
Boxcar width: 0
XAxis mode: Wavelengths
Number of Pixels in Spectrum: 2048
>>>>>Begin Spectral Data<<<<<
223.165	-15.88
223.4	-15.88
223.635	-15.88
223.869	-7.88
224.104	-23.88
224.338	-12.88
224.573	-4.88
224.808	-6.88
225.042	-9.88
225.277	-24.88
225.511	-2.88
225.746	-5.88
225.98	17.12
226.215	7.12
226.449	17.12
226.683	10.12
226.918	38.12
227.152	26.12
227.387	36.12
227.621	32.12
227.856	45.12
228.09	44.12
228.324	66.12
228.559	58.12
228.793	73.12
229.027	203.12
229.262	204.12
229.496	224.12
229.73	224.12
229.964	262.12
230.199	244.12
230.433	263.12
230.667	263.12
230.901	264.12
231.136	271.12
231.37	255.12
231.604	261.12
231.838	243.12
232.072	256.12
232.306	254.12
232.541	281.12
232.775	292.12
233.009	301.12
233.243	320.12
233.477	273.12
233.711	290.12
233.945	294.12
234.179	287.12
234.413	315.12
234.647	347.12
234.881	312.12
235.115	299.12
235.349	290.12
235.583	311.12
235.817	303.12
236.051	267.12
236.285	296.12
236.519	313.12
236.753	354.12
236.987	352.12
237.221	337.12
237.455	370.12
237.689	343.12
237.922	339.12
238.156	340.12
238.39	331.12
238.624	348.12
238.858	403.12
239.091	391.12
239.325	419.12
239.559	460.12
239.793	485.12
240.027	511.12
240.26	501.12
240.494	383.12
240.728	360.12
240.961	375.12
241.195	373.12
241.429	402.12
241.662	395.12
241.896	382.12
242.13	388.12
242.363	435.12
242.597	461.12
242.83	426.12
243.064	441.12
243.298	452.12
243.531	456.12
243.765	460.12
243.998	469.12
244.232	429.12
244.465	395.12
244.699	407.12
244.932	455.12
245.166	511.12
245.399	475.12
245.633	444.12
245.866	448.12
246.099	455.12
246.333	453.12
246.566	503.12
246.8	513.12
247.033	554.12
247.266	544.12
247.5	524.12
247.733	513.12
247.966	551.12
248.2	628.12
248.433	581.12
248.666	597.12
248.899	645.12
249.133	728.12
249.366	785.12
249.599	670.12
249.832	623.12
250.066	610.12
250.299	618.12
250.532	555.12
250.765	537.12
250.998	571.12
251.231	570.12
251.465	580.12
251.698	566.12
251.931	555.12
252.164	575.12
252.397	569.12
252.63	610.12
252.863	538.12
253.096	528.12
253.329	560.12
253.562	579.12
253.795	619.12
254.028	598.12
254.261	587.12
254.494	553.12
254.727	547.12
254.96	579.12
255.193	608.12
255.426	680.12
255.659	755.12
255.892	775.12
256.124	640.12
256.357	647.12
256.59	700.12
256.823	684.12
257.056	692.12
257.289	794.12
257.521	868.12
257.754	773.12
257.987	744.12
258.22	831.12
258.452	794.12
258.685	658.12
258.918	677.12
259.151	656.12
259.383	616.12
259.616	572.12
259.849	626.12
260.081	675.12
260.314	738.12
260.547	797.12
260.779	789.12
261.012	744.12
261.244	695.12
261.477	637.12
261.71	685.12
261.942	656.12
262.175	671.12
262.407	681.12
262.64	650.12
262.872	611.12
263.105	612.12
263.337	608.12
263.57	626.12
263.802	625.12
264.035	576.12
264.267	568.12
264.499	585.12
264.732	592.12
264.964	621.12
265.197	651.12
265.429	695.12
265.661	758.12
265.894	843.12
266.126	859.12
266.358	773.12
266.591	802.12
266.823	812.12
267.055	753.12
267.287	759.12
267.52	737.12
267.752	740.12
267.984	730.12
268.216	789.12
268.448	819.12
268.681	760.12
268.913	729.12
269.145	667.12
269.377	676.12
269.609	759.12
269.841	875.12
270.073	999.12
270.306	1071.12
270.538	1060.12
270.77	931.12
271.002	807.12
271.234	796.12
271.466	771.12
271.698	900.12
271.93	1052.12
272.162	999.12
272.394	910.12
272.626	872.12
272.858	780.12
273.09	676.12
273.322	680.12
273.553	669.12
273.785	686.12
274.017	697.12
274.249	738.12
274.481	715.12
274.713	679.12
274.945	667.12
275.176	663.12
275.408	662.12
275.64	672.12
275.872	667.12
276.104	723.12
276.335	796.12
276.567	892.12
276.799	877.12
277.031	829.12
277.262	789.12
277.494	833.12
277.726	873.12
277.957	859.12
278.189	799.12
278.421	761.12
278.652	703.12
278.884	698.12
279.115	722.12
279.347	740.12
279.579	727.12
279.81	703.12
280.042	802.12
280.273	873.12
280.505	870.12
280.736	856.12
280.968	815.12
281.199	701.12
281.431	697.12
281.662	698.12
281.894	687.12
282.125	727.12
282.356	753.12
282.588	764.12
282.819	757.12
283.051	819.12
283.282	835.12
283.513	834.12
283.745	726.12
283.976	682.12
284.207	705.12
284.439	734.12
284.67	736.12
284.901	746.12
285.132	769.12
285.364	743.12
285.595	738.12
285.826	747.12
286.057	737.12
286.288	769.12
286.52	773.12
286.751	834.12
286.982	820.12
287.213	764.12
287.444	705.12
287.675	727.12
287.906	767.12
288.138	802.12
288.369	779.12
288.6	747.12
288.831	723.12
289.062	723.12
289.293	745.12
289.524	779.12
289.755	757.12
289.986	795.12
290.217	744.12
290.448	715.12
290.679	742.12
290.91	779.12
291.141	782.12
291.371	814.12
291.602	787.12
291.833	766.12
292.064	811.12
292.295	811.12
292.526	824.12
292.757	856.12
292.987	826.12
293.218	789.12
293.449	842.12
293.68	939.12
293.91	1011.12
294.141	929.12
294.372	895.12
294.603	948.12
294.833	963.12
295.064	897.12
295.295	819.12
295.525	789.12
295.756	733.12
295.987	703.12
296.217	743.12
296.448	743.12
296.679	787.12
296.909	751.12
297.14	748.12
297.37	776.12
297.601	815.12
297.831	889.12
298.062	872.12
298.292	795.12
298.523	781.12
298.753	757.12
298.984	772.12
299.214	800.12
299.445	836.12
299.675	817.12
299.905	803.12
300.136	800.12
300.366	801.12
300.597	734.12
300.827	743.12
301.057	818.12
301.288	805.12
301.518	825.12
301.748	848.12
301.979	881.12
302.209	900.12
302.439	966.12
302.669	981.12
302.9	923.12
303.13	849.12
303.36	804.12
303.59	844.12
303.82	820.12
304.051	851.12
304.281	858.12
304.511	857.12
304.741	923.12
304.971	1010.12
305.201	1059.12
305.431	947.12
305.661	806.12
305.891	719.12
306.121	757.12
306.352	793.12
306.582	842.12
306.812	898.12
307.042	954.12
307.272	940.12
307.502	965.12
307.731	1055.12
307.961	1084.12
308.191	988.12
308.421	852.12
308.651	846.12
308.881	784.12
309.111	780.12
309.341	779.12
309.571	824.12
309.8	799.12
310.03	840.12
310.26	811.12
310.49	811.12
310.72	861.12
310.949	868.12
311.179	892.12
311.409	857.12
311.639	809.12
311.868	797.12
312.098	858.12
312.328	828.12
312.557	816.12
312.787	853.12
313.017	865.12
313.246	841.12
313.476	865.12
313.706	864.12
313.935	868.12
314.165	883.12
314.394	901.12
314.624	970.12
314.853	989.12
315.083	1023.12
315.312	1029.12
315.542	947.12
315.771	857.12
316.001	902.12
316.23	953.12
316.46	946.12
316.689	877.12
316.919	849.12
317.148	832.12
317.377	860.12
317.607	959.12
317.836	1051.12
318.065	1040.12
318.295	997.12
318.524	955.12
318.753	937.12
318.983	939.12
319.212	916.12
319.441	892.12
319.67	904.12
319.9	902.12
320.129	949.12
320.358	978.12
320.587	1013.12
320.816	987.12
321.046	955.12
321.275	931.12
321.504	964.12
321.733	1001.12
321.962	980.12
322.191	884.12
322.42	907.12
322.649	891.12
322.878	887.12
323.108	911.12
323.337	905.12
323.566	926.12
323.795	920.12
324.024	951.12
324.253	915.12
324.482	911.12
324.71	866.12
324.939	838.12
325.168	865.12
325.397	945.12
325.626	945.12
325.855	947.12
326.084	890.12
326.313	924.12
326.542	924.12
326.77	948.12
326.999	941.12
327.228	878.12
327.457	874.12
327.686	870.12
327.914	869.12
328.143	906.12
328.372	927.12
328.6	899.12
328.829	888.12
329.058	876.12
329.287	842.12
329.515	922.12
329.744	941.12
329.972	981.12
330.201	1003.12
330.43	989.12
330.658	936.12
330.887	931.12
331.115	980.12
331.344	959.12
331.572	934.12
331.801	929.12
332.03	928.12
332.258	974.12
332.486	968.12
332.715	971.12
332.943	987.12
333.172	959.12
333.4	953.12
333.629	978.12
333.857	1088.12
334.085	1185.12
334.314	1347.12
334.542	1395.12
334.771	1235.12
334.999	1107.12
335.227	1093.12
335.455	1029.12
335.684	1045.12
335.912	1077.12
336.14	1077.12
336.369	1054.12
336.597	981.12
336.825	966.12
337.053	1031.12
337.281	1071.12
337.51	1113.12
337.738	1127.12
337.966	1081.12
338.194	977.12
338.422	978.12
338.65	975.12
338.878	955.12
339.106	932.12
339.334	925.12
339.562	899.12
339.79	937.12
340.018	998.12
340.246	1010.12
340.474	996.12
340.702	1008.12
340.93	1008.12
341.158	969.12
341.386	974.12
341.614	959.12
341.842	960.12
342.07	953.12
342.298	982.12
342.526	979.12
342.754	970.12
342.981	972.12
343.209	948.12
343.437	935.12
343.665	945.12
343.893	1001.12
344.12	1020.12
344.348	1035.12
344.576	976.12
344.804	977.12
345.031	965.12
345.259	957.12
345.487	937.12
345.714	879.12
345.942	880.12
346.17	923.12
346.397	886.12
346.625	902.12
346.853	857.12
347.08	865.12
347.308	872.12
347.535	894.12
347.763	935.12
347.99	922.12
348.218	917.12
348.445	882.12
348.673	903.12
348.9	943.12
349.128	969.12
349.355	992.12
349.583	970.12
349.81	928.12
350.037	865.12
350.265	888.12
350.492	878.12
350.72	889.12
350.947	921.12
351.174	925.12
351.402	890.12
351.629	833.12
351.856	839.12
352.083	819.12
352.311	853.12
352.538	895.12
352.765	915.12
352.992	902.12
353.22	903.12
353.447	893.12
353.674	903.12
353.901	911.12
354.128	892.12
354.355	879.12
354.583	935.12
354.81	933.12
355.037	929.12
355.264	938.12
355.491	912.12
355.718	921.12
355.945	916.12
356.172	897.12
356.399	880.12
356.626	860.12
356.853	934.12
357.08	1017.12
357.307	1105.12
357.534	1012.12
357.761	909.12
357.988	847.12
358.215	867.12
358.441	844.12
358.668	874.12
358.895	883.12
359.122	937.12
359.349	1002.12
359.576	969.12
359.802	915.12
360.029	862.12
360.256	899.12
360.483	871.12
360.709	929.12
360.936	943.12
361.163	981.12
361.39	1067.12
361.616	1151.12
361.843	1098.12
362.07	1004.12
362.296	919.12
362.523	873.12
362.749	908.12
362.976	890.12
363.203	900.12
363.429	911.12
363.656	879.12
363.882	904.12
364.109	1033.12
364.335	1073.12
364.562	973.12
364.788	933.12
365.015	926.12
365.241	893.12
365.468	910.12
365.694	939.12
365.92	995.12
366.147	932.12
366.373	860.12
366.599	871.12
366.826	893.12
367.052	883.12
367.278	901.12
367.505	926.12
367.731	926.12
367.957	947.12
368.184	965.12
368.41	1019.12
368.636	1034.12
368.862	1045.12
369.089	1016.12
369.315	971.12
369.541	952.12
369.767	919.12
369.993	905.12
370.219	917.12
370.445	973.12
370.672	1009.12
370.898	1043.12
371.124	994.12
371.35	966.12
371.576	995.12
371.802	1016.12
372.028	1016.12
372.254	928.12
372.48	913.12
372.706	904.12
372.932	930.12
373.158	984.12
373.384	954.12
373.61	966.12
373.835	1001.12
374.061	974.12
374.287	969.12
374.513	947.12
374.739	943.12
374.965	990.12
375.191	992.12
375.416	1001.12
375.642	982.12
375.868	1069.12
376.094	1103.12
376.319	1005.12
376.545	969.12
376.771	1043.12
376.997	1055.12
377.222	1032.12
377.448	1032.12
377.674	1003.12
377.899	1008.12
378.125	1071.12
378.35	1071.12
378.576	940.12
378.802	938.12
379.027	943.12
379.253	928.12
379.478	971.12
379.704	967.12
379.929	964.12
380.155	983.12
380.38	971.12
380.606	986.12
380.831	994.12
381.057	1043.12
381.282	1021.12
381.507	1044.12
381.733	1078.12
381.958	1117.12
382.184	1037.12
382.409	1013.12
382.634	1013.12
382.86	1022.12
383.085	1002.12
383.31	1034.12
383.535	1163.12
383.761	1169.12
383.986	1127.12
384.211	1084.12
384.436	1071.12
384.662	1162.12
384.887	1187.12
385.112	1102.12
385.337	1113.12
385.562	1081.12
385.787	1100.12
386.013	1137.12
386.238	1143.12
386.463	1115.12
386.688	1216.12
386.913	1279.12
387.138	1217.12
387.363	1145.12
387.588	1135.12
387.813	1122.12
388.038	1149.12
388.263	1175.12
388.488	1149.12
388.713	1051.12
388.938	1097.12
389.163	1050.12
389.387	1075.12
389.612	1104.12
389.837	1099.12
390.062	1131.12
390.287	1075.12
390.512	1099.12
390.736	1078.12
390.961	1068.12
391.186	1026.12
391.411	1086.12
391.636	1097.12
391.86	1096.12
392.085	1086.12
392.31	1098.12
392.534	1119.12
392.759	1087.12
392.984	1111.12
393.208	1081.12
393.433	1131.12
393.658	1183.12
393.882	1178.12
394.107	1124.12
394.331	1090.12
394.556	1111.12
394.78	1134.12
395.005	1177.12
395.229	1218.12
395.454	1263.12
395.678	1251.12
395.903	1178.12
396.127	1189.12
396.352	1192.12
396.576	1215.12
396.801	1195.12
397.025	1209.12
397.249	1193.12
397.474	1186.12
397.698	1175.12
397.922	1208.12
398.147	1273.12
398.371	1325.12
398.595	1312.12
398.82	1269.12
399.044	1269.12
399.268	1383.12
399.492	1427.12
399.717	1435.12
399.941	1468.12
400.165	1449.12
400.389	1409.12
400.613	1436.12
400.837	1588.12
401.062	1744.12
401.286	1493.12
401.51	1384.12
401.734	1419.12
401.958	1378.12
402.182	1298.12
402.406	1235.12
402.63	1253.12
402.854	1251.12
403.078	1281.12
403.302	1295.12
403.526	1311.12
403.75	1346.12
403.974	1336.12
404.198	1343.12
404.422	1376.12
404.645	1444.12
404.869	1405.12
405.093	1287.12
405.317	1295.12
405.541	1320.12
405.765	1341.12
405.988	1302.12
406.212	1361.12
406.436	1361.12
406.66	1412.12
406.883	1441.12
407.107	1640.12
407.331	1771.12
407.555	1875.12
407.778	1643.12
408.002	1401.12
408.226	1336.12
408.449	1343.12
408.673	1334.12
408.896	1334.12
409.12	1347.12
409.344	1322.12
409.567	1298.12
409.791	1341.12
410.014	1354.12
410.238	1425.12
410.461	1497.12
410.685	1346.12
410.908	1326.12
411.132	1335.12
411.355	1353.12
411.578	1285.12
411.802	1297.12
412.025	1329.12
412.249	1314.12
412.472	1249.12
412.695	1260.12
412.919	1268.12
413.142	1298.12
413.365	1284.12
413.589	1332.12
413.812	1369.12
414.035	1405.12
414.258	1324.12
414.482	1286.12
414.705	1292.12
414.928	1267.12
415.151	1269.12
415.374	1304.12
415.597	1298.12
415.821	1301.12
416.044	1322.12
416.267	1328.12
416.49	1257.12
416.713	1219.12
416.936	1304.12
417.159	1351.12
417.382	1340.12
417.605	1271.12
417.828	1286.12
418.051	1321.12
418.274	1292.12
418.497	1263.12
418.72	1245.12
418.943	1213.12
419.166	1269.12
419.389	1332.12
419.611	1272.12
419.834	1269.12
420.057	1260.12
420.28	1242.12
420.503	1252.12
420.726	1285.12
420.948	1271.12
421.171	1255.12
421.394	1291.12
421.617	1308.12
421.839	1284.12
422.062	1279.12
422.285	1271.12
422.507	1228.12
422.73	1228.12
422.953	1215.12
423.175	1161.12
423.398	1259.12
423.621	1240.12
423.843	1251.12
424.066	1284.12
424.288	1334.12
424.511	1354.12
424.733	1300.12
424.956	1195.12
425.178	1187.12
425.401	1210.12
425.623	1221.12
425.846	1194.12
426.068	1277.12
426.291	1317.12
426.513	1317.12
426.735	1270.12
426.958	1404.12
427.18	1432.12
427.402	1324.12
427.625	1375.12
427.847	1348.12
428.069	1258.12
428.292	1195.12
428.514	1207.12
428.736	1203.12
428.958	1232.12
429.181	1266.12
429.403	1430.12
429.625	1719.12
429.847	1429.12
430.069	1247.12
430.292	1439.12
430.514	1404.12
430.736	1307.12
430.958	1338.12
431.18	1266.12
431.402	1219.12
431.624	1171.12
431.846	1159.12
432.068	1125.12
432.29	1130.12
432.512	1148.12
432.734	1238.12
432.956	1229.12
433.178	1284.12
433.4	1297.12
433.622	1281.12
433.844	1206.12
434.066	1173.12
434.287	1157.12
434.509	1148.12
434.731	1218.12
434.953	1316.12
435.175	1296.12
435.397	1267.12
435.618	1261.12
435.84	1235.12
436.062	1212.12
436.284	1276.12
436.505	1246.12
436.727	1263.12
436.949	1226.12
437.17	1215.12
437.392	1209.12
437.614	1206.12
437.835	1147.12
438.057	1203.12
438.278	1215.12
438.5	1196.12
438.721	1172.12
438.943	1219.12
439.165	1194.12
439.386	1170.12
439.608	1207.12
439.829	1246.12
440.05	1235.12
440.272	1209.12
440.493	1232.12
440.715	1258.12
440.936	1325.12
441.158	1406.12
441.379	1349.12
441.6	1365.12
441.822	1272.12
442.043	1320.12
442.264	1256.12
442.486	1260.12
442.707	1223.12
442.928	1239.12
443.149	1267.12
443.371	1311.12
443.592	1361.12
443.813	1347.12
444.034	1317.12
444.255	1344.12
444.476	1351.12
444.698	1386.12
444.919	1353.12
445.14	1495.12
445.361	1428.12
445.582	1385.12
445.803	1399.12
446.024	1346.12
446.245	1342.12
446.466	1346.12
446.687	1315.12
446.908	1313.12
447.129	1244.12
447.35	1276.12
447.571	1278.12
447.792	1201.12
448.013	1209.12
448.234	1229.12
448.455	1293.12
448.675	1263.12
448.896	1188.12
449.117	1177.12
449.338	1215.12
449.559	1264.12
449.779	1301.12
450	1388.12
450.221	1457.12
450.442	1392.12
450.662	1254.12
450.883	1155.12
451.104	1141.12
451.324	1156.12
451.545	1193.12
451.766	1151.12
451.986	1143.12
452.207	1123.12
452.428	1065.12
452.648	1072.12
452.869	1114.12
453.089	1125.12
453.31	1148.12
453.53	1140.12
453.751	1088.12
453.971	1007.12
454.192	1085.12
454.412	1117.12
454.633	1112.12
454.853	1105.12
455.073	1027.12
455.294	1060.12
455.514	1061.12
455.734	1035.12
455.955	1046.12
456.175	1075.12
456.395	1044.12
456.616	1058.12
456.836	1076.12
457.056	1055.12
457.276	1036.12
457.497	1054.12
457.717	999.12
457.937	1002.12
458.157	1039.12
458.377	1023.12
458.598	1060.12
458.818	1017.12
459.038	1107.12
459.258	1107.12
459.478	1114.12
459.698	1107.12
459.918	1120.12
460.138	1215.12
460.358	1210.12
460.578	1221.12
460.798	1228.12
461.018	1315.12
461.238	1249.12
461.458	1250.12
461.678	1209.12
461.898	1168.12
462.118	1188.12
462.338	1234.12
462.558	1228.12
462.777	1218.12
462.997	1287.12
463.217	1317.12
463.437	1312.12
463.657	1263.12
463.876	1237.12
464.096	1215.12
464.316	1245.12
464.536	1259.12
464.755	1281.12
464.975	1273.12
465.195	1238.12
465.414	1297.12
465.634	1271.12
465.854	1287.12
466.073	1366.12
466.293	1321.12
466.512	1177.12
466.732	1156.12
466.951	1221.12
467.171	1194.12
467.391	1161.12
467.61	1138.12
467.829	1184.12
468.049	1289.12
468.268	1415.12
468.488	1284.12
468.707	1253.12
468.927	1212.12
469.146	1146.12
469.365	1182.12
469.585	1210.12
469.804	1192.12
470.023	1229.12
470.243	1229.12
470.462	1187.12
470.681	1192.12
470.901	1207.12
471.12	1231.12
471.339	1190.12
471.558	1188.12
471.777	1184.12
471.997	1187.12
472.216	1159.12
472.435	1068.12
472.654	1096.12
472.873	1151.12
473.092	1204.12
473.311	1164.12
473.53	1113.12
473.749	1149.12
473.968	1155.12
474.187	1191.12
474.406	1195.12
474.625	1155.12
474.844	1171.12
475.063	1205.12
475.282	1209.12
475.501	1158.12
475.72	1171.12
475.939	1273.12
476.158	1210.12
476.377	1179.12
476.596	1155.12
476.814	1212.12
477.033	1202.12
477.252	1250.12
477.471	1257.12
477.69	1292.12
477.908	1301.12
478.127	1333.12
478.346	1366.12
478.564	1397.12
478.783	1347.12
479.002	1427.12
479.22	1379.12
479.439	1435.12
479.658	1526.12
479.876	1492.12
480.095	1343.12
480.313	1263.12
480.532	1269.12
480.751	1291.12
480.969	1259.12
481.188	1242.12
481.406	1215.12
481.624	1199.12
481.843	1212.12
482.061	1242.12
482.28	1293.12
482.498	1329.12
482.717	1253.12
482.935	1279.12
483.153	1318.12
483.372	1347.12
483.59	1337.12
483.808	1296.12
484.027	1306.12
484.245	1420.12
484.463	1677.12
484.681	1791.12
484.9	1425.12
485.118	1388.12
485.336	1281.12
485.554	1323.12
485.772	1327.12
485.99	1337.12
486.209	1353.12
486.427	1319.12
486.645	1376.12
486.863	1349.12
487.081	1427.12
487.299	1409.12
487.517	1397.12
487.735	1423.12
487.953	1463.12
488.171	1480.12
488.389	1444.12
488.607	1403.12
488.825	1560.12
489.043	1524.12
489.261	1347.12
489.479	1415.12
489.696	1439.12
489.914	1403.12
490.132	1371.12
490.35	1427.12
490.568	1471.12
490.786	1464.12
491.003	1452.12
491.221	1525.12
491.439	1554.12
491.657	1556.12
491.874	1602.12
492.092	1650.12
492.31	1650.12
492.527	1637.12
492.745	1557.12
492.963	1539.12
493.18	1584.12
493.398	1654.12
493.615	1662.12
493.833	1590.12
494.05	1498.12
