Data from WStandard_LampEnergy10_LIBS07252019.E.O._I.C._HRD10591_15-52-48-928.txt Node
Date: Thu Jul 25 15:52:48 EDT 2019
User: cochatt
Spectrometer: HR+D1059
Trigger mode: 1
Integration Time (sec): 1.000000E-1
Scans to average: 1
Electric dark correction enabled: true
Nonlinearity correction enabled: false
Boxcar width: 0
XAxis mode: Wavelengths
Number of Pixels in Spectrum: 2048
>>>>>Begin Spectral Data<<<<<
223.165	-13.38
223.4	-13.38
223.635	-13.38
223.869	-10.38
224.104	-26.38
224.338	-21.38
224.573	-26.38
224.808	-12.38
225.042	-11.38
225.277	4.62
225.511	8.62
225.746	-0.38
225.98	14.62
226.215	12.62
226.449	0.62
226.683	21.62
226.918	31.62
227.152	27.62
227.387	25.62
227.621	35.62
227.856	37.62
228.09	41.62
228.324	63.62
228.559	60.62
228.793	200.62
229.027	508.62
229.262	540.62
229.496	525.62
229.73	550.62
229.964	629.62
230.199	637.62
230.433	665.62
230.667	713.62
230.901	737.62
231.136	680.62
231.37	675.62
231.604	661.62
231.838	647.62
232.072	669.62
232.306	643.62
232.541	683.62
232.775	783.62
233.009	862.62
233.243	852.62
233.477	768.62
233.711	791.62
233.945	814.62
234.179	782.62
234.413	837.62
234.647	906.62
234.881	825.62
235.115	778.62
235.349	789.62
235.583	814.62
235.817	801.62
236.051	776.62
236.285	772.62
236.519	844.62
236.753	963.62
236.987	977.62
237.221	967.62
237.455	1071.62
237.689	1014.62
237.922	964.62
238.156	930.62
238.39	969.62
238.624	1027.62
238.858	1081.62
239.091	1101.62
239.325	1155.62
239.559	1306.62
239.793	1383.62
240.027	1493.62
240.26	1426.62
240.494	1091.62
240.728	1030.62
240.961	1050.62
241.195	1058.62
241.429	1184.62
241.662	1204.62
241.896	1130.62
242.13	1122.62
242.363	1208.62
242.597	1304.62
242.83	1274.62
243.064	1297.62
243.298	1365.62
243.531	1374.62
243.765	1318.62
243.998	1334.62
244.232	1170.62
244.465	1143.62
244.699	1192.62
244.932	1296.62
245.166	1486.62
245.399	1410.62
245.633	1310.62
245.866	1319.62
246.099	1346.62
246.333	1357.62
246.566	1426.62
246.8	1515.62
247.033	1712.62
247.266	1546.62
247.5	1554.62
247.733	1549.62
247.966	1660.62
248.2	1808.62
248.433	1746.62
248.666	1769.62
248.899	1980.62
249.133	2245.62
249.366	2448.62
249.599	2029.62
249.832	1778.62
250.066	1844.62
250.299	1871.62
250.532	1762.62
250.765	1598.62
250.998	1751.62
251.231	1750.62
251.465	1798.62
251.698	1706.62
251.931	1707.62
252.164	1781.62
252.397	1851.62
252.63	1808.62
252.863	1645.62
253.096	1623.62
253.329	1696.62
253.562	1716.62
253.795	1846.62
254.028	1827.62
254.261	1696.62
254.494	1686.62
254.727	1636.62
254.96	1707.62
255.193	1873.62
255.426	2118.62
255.659	2411.62
255.892	2388.62
256.124	2037.62
256.357	1993.62
256.59	2108.62
256.823	2122.62
257.056	2147.62
257.289	2510.62
257.521	2778.62
257.754	2432.62
257.987	2317.62
258.22	2582.62
258.452	2485.62
258.685	2071.62
258.918	2036.62
259.151	2057.62
259.383	1928.62
259.616	1766.62
259.849	1858.62
260.081	2104.62
260.314	2275.62
260.547	2546.62
260.779	2539.62
261.012	2340.62
261.244	2109.62
261.477	2014.62
261.71	2145.62
261.942	2086.62
262.175	1971.62
262.407	2150.62
262.64	1961.62
262.872	1903.62
263.105	1887.62
263.337	1935.62
263.57	1909.62
263.802	1932.62
264.035	1820.62
264.267	1714.62
264.499	1730.62
264.732	1811.62
264.964	1926.62
265.197	2026.62
265.429	2128.62
265.661	2373.62
265.894	2637.62
266.126	2594.62
266.358	2366.62
266.591	2500.62
266.823	2675.62
267.055	2339.62
267.287	2374.62
267.52	2338.62
267.752	2318.62
267.984	2319.62
268.216	2438.62
268.448	2464.62
268.681	2443.62
268.913	2222.62
269.145	2178.62
269.377	2116.62
269.609	2334.62
269.841	2696.62
270.073	3085.62
270.306	3364.62
270.538	3594.62
270.77	2977.62
271.002	2536.62
271.234	2415.62
271.466	2475.62
271.698	2775.62
271.93	3285.62
272.162	3273.62
272.394	2970.62
272.626	2768.62
272.858	2494.62
273.09	2123.62
273.322	2150.62
273.553	2055.62
273.785	2072.62
274.017	2182.62
274.249	2330.62
274.481	2322.62
274.713	2170.62
274.945	2084.62
275.176	2132.62
275.408	2130.62
275.64	2079.62
275.872	2061.62
276.104	2246.62
276.335	2510.62
276.567	2819.62
276.799	2807.62
277.031	2509.62
277.262	2458.62
277.494	2552.62
277.726	2791.62
277.957	2754.62
278.189	2464.62
278.421	2329.62
278.652	2232.62
278.884	2192.62
279.115	2235.62
279.347	2320.62
279.579	2216.62
279.81	2231.62
280.042	2444.62
280.273	2649.62
280.505	2696.62
280.736	2748.62
280.968	2530.62
281.199	2284.62
281.431	2156.62
281.662	2200.62
281.894	2207.62
282.125	2234.62
282.356	2349.62
282.588	2337.62
282.819	2314.62
283.051	2528.62
283.282	2754.62
283.513	2644.62
283.745	2262.62
283.976	2159.62
284.207	2176.62
284.439	2223.62
284.67	2281.62
284.901	2350.62
285.132	2364.62
285.364	2336.62
285.595	2376.62
285.826	2292.62
286.057	2296.62
286.288	2269.62
286.52	2354.62
286.751	2526.62
286.982	2633.62
287.213	2431.62
287.444	2247.62
287.675	2214.62
287.906	2344.62
288.138	2485.62
288.369	2410.62
288.6	2336.62
288.831	2258.62
289.062	2263.62
289.293	2332.62
289.524	2326.62
289.755	2392.62
289.986	2381.62
290.217	2240.62
290.448	2216.62
290.679	2322.62
290.91	2374.62
291.141	2424.62
291.371	2483.62
291.602	2492.62
291.833	2436.62
292.064	2520.62
292.295	2449.62
292.526	2538.62
292.757	2686.62
292.987	2468.62
293.218	2401.62
293.449	2648.62
293.68	2955.62
293.91	3108.62
294.141	2924.62
294.372	2709.62
294.603	2874.62
294.833	2951.62
295.064	2776.62
295.295	2516.62
295.525	2442.62
295.756	2302.62
295.987	2216.62
296.217	2236.62
296.448	2324.62
296.679	2304.62
296.909	2327.62
297.14	2290.62
297.37	2336.62
297.601	2539.62
297.831	2717.62
298.062	2614.62
298.292	2440.62
298.523	2370.62
298.753	2366.62
298.984	2393.62
299.214	2394.62
299.445	2437.62
299.675	2548.62
299.905	2500.62
300.136	2435.62
300.366	2390.62
300.597	2292.62
300.827	2306.62
301.057	2432.62
301.288	2571.62
301.518	2534.62
301.748	2638.62
301.979	2745.62
302.209	2786.62
302.439	2955.62
302.669	3043.62
302.9	2850.62
303.13	2615.62
303.36	2610.62
303.59	2591.62
303.82	2549.62
304.051	2584.62
304.281	2571.62
304.511	2567.62
304.741	2776.62
304.971	3065.62
305.201	3240.62
305.431	2924.62
305.661	2500.62
305.891	2233.62
306.121	2263.62
306.352	2374.62
306.582	2502.62
306.812	2655.62
307.042	2883.62
307.272	2842.62
307.502	2980.62
307.731	3172.62
307.961	3342.62
308.191	2989.62
308.421	2656.62
308.651	2484.62
308.881	2454.62
309.111	2482.62
309.341	2459.62
309.571	2463.62
309.8	2520.62
310.03	2412.62
310.26	2410.62
310.49	2427.62
310.72	2506.62
310.949	2622.62
311.179	2678.62
311.409	2620.62
311.639	2524.62
311.868	2495.62
312.098	2568.62
312.328	2554.62
312.557	2483.62
312.787	2576.62
313.017	2677.62
313.246	2573.62
313.476	2652.62
313.706	2703.62
313.935	2637.62
314.165	2658.62
314.394	2738.62
314.624	2910.62
314.853	3043.62
315.083	3174.62
315.312	3208.62
315.542	2985.62
315.771	2682.62
316.001	2713.62
316.23	2846.62
316.46	2814.62
316.689	2830.62
316.919	2646.62
317.148	2581.62
317.377	2604.62
317.607	2825.62
317.836	3164.62
318.065	3240.62
318.295	3117.62
318.524	3016.62
318.753	2811.62
318.983	2832.62
319.212	2762.62
319.441	2725.62
319.67	2714.62
319.9	2789.62
320.129	2951.62
320.358	3037.62
320.587	3119.62
320.816	3108.62
321.046	3024.62
321.275	2818.62
321.504	2891.62
321.733	3098.62
321.962	2958.62
322.191	2776.62
322.42	2738.62
322.649	2720.62
322.878	2777.62
323.108	2752.62
323.337	2927.62
323.566	2837.62
323.795	2814.62
324.024	2812.62
324.253	2774.62
324.482	2795.62
324.71	2724.62
324.939	2610.62
325.168	2669.62
325.397	2741.62
325.626	2836.62
325.855	2786.62
326.084	2745.62
326.313	2776.62
326.542	2772.62
326.77	2871.62
326.999	2884.62
327.228	2767.62
327.457	2614.62
327.686	2616.62
327.914	2656.62
328.143	2731.62
328.372	2795.62
328.6	2783.62
328.829	2716.62
329.058	2705.62
329.287	2700.62
329.515	2759.62
329.744	2784.62
329.972	3041.62
330.201	3044.62
330.43	2996.62
330.658	2950.62
330.887	2961.62
331.115	2921.62
331.344	2941.62
331.572	2878.62
331.801	2912.62
332.03	2874.62
332.258	2927.62
332.486	2986.62
332.715	2965.62
332.943	3017.62
333.172	2906.62
333.4	2946.62
333.629	3034.62
333.857	3276.62
334.085	3635.62
334.314	4034.62
334.542	4371.62
334.771	3954.62
334.999	3446.62
335.227	3354.62
335.455	3140.62
335.684	3118.62
335.912	3195.62
336.14	3223.62
336.369	3106.62
336.597	3000.62
336.825	2964.62
337.053	3037.62
337.281	3241.62
337.51	3415.62
337.738	3541.62
337.966	3312.62
338.194	2994.62
338.422	2906.62
338.65	2907.62
338.878	2877.62
339.106	2789.62
339.334	2735.62
339.562	2774.62
339.79	2852.62
340.018	3012.62
340.246	3158.62
340.474	3041.62
340.702	2976.62
340.93	2973.62
341.158	2964.62
341.386	2889.62
341.614	2937.62
341.842	2862.62
342.07	2902.62
342.298	2954.62
342.526	2917.62
342.754	2843.62
342.981	2818.62
343.209	2838.62
343.437	2852.62
343.665	2914.62
343.893	2944.62
344.12	3103.62
344.348	3100.62
344.576	2946.62
344.804	2836.62
345.031	2889.62
345.259	2855.62
345.487	2774.62
345.714	2671.62
345.942	2664.62
346.17	2646.62
346.397	2762.62
346.625	2691.62
346.853	2637.62
347.08	2602.62
347.308	2589.62
347.535	2665.62
347.763	2818.62
347.99	2720.62
348.218	2620.62
348.445	2676.62
348.673	2678.62
348.9	2736.62
349.128	2810.62
349.355	2903.62
349.583	2782.62
349.81	2706.62
350.037	2570.62
350.265	2472.62
350.492	2550.62
350.72	2596.62
350.947	2719.62
351.174	2740.62
351.402	2629.62
351.629	2510.62
351.856	2510.62
352.083	2427.62
352.311	2482.62
352.538	2581.62
352.765	2698.62
352.992	2714.62
353.22	2639.62
353.447	2534.62
353.674	2596.62
353.901	2719.62
354.128	2635.62
354.355	2554.62
354.583	2676.62
354.81	2752.62
355.037	2738.62
355.264	2743.62
355.491	2686.62
355.718	2710.62
355.945	2599.62
356.172	2573.62
356.399	2601.62
356.626	2579.62
356.853	2677.62
357.08	2919.62
357.307	3158.62
357.534	3099.62
357.761	2732.62
357.988	2543.62
358.215	2488.62
358.441	2522.62
358.668	2484.62
358.895	2593.62
359.122	2669.62
359.349	2987.62
359.576	2916.62
359.802	2586.62
360.029	2576.62
360.256	2552.62
360.483	2555.62
360.709	2662.62
360.936	2722.62
361.163	2866.62
361.39	3160.62
361.616	3298.62
361.843	3253.62
362.07	2958.62
362.296	2650.62
362.523	2591.62
362.749	2588.62
362.976	2664.62
363.203	2708.62
363.429	2655.62
363.656	2554.62
363.882	2682.62
364.109	2946.62
364.335	3147.62
364.562	2961.62
364.788	2802.62
365.015	2670.62
365.241	2602.62
365.468	2623.62
365.694	2756.62
365.92	2875.62
366.147	2745.62
366.373	2569.62
366.599	2535.62
366.826	2572.62
367.052	2587.62
367.278	2608.62
367.505	2689.62
367.731	2732.62
367.957	2753.62
368.184	2784.62
368.41	2957.62
368.636	3051.62
368.862	3040.62
369.089	3036.62
369.315	2890.62
369.541	2770.62
369.767	2723.62
369.993	2627.62
370.219	2628.62
370.445	2697.62
370.672	2852.62
370.898	2950.62
371.124	2912.62
371.35	2784.62
371.576	2886.62
371.802	2994.62
372.028	2876.62
372.254	2758.62
372.48	2696.62
372.706	2677.62
372.932	2623.62
373.158	2674.62
373.384	2740.62
373.61	2838.62
373.835	2999.62
374.061	2845.62
374.287	2788.62
374.513	2772.62
374.739	2807.62
374.965	2811.62
375.191	2885.62
375.416	2832.62
375.642	2880.62
375.868	3050.62
376.094	3112.62
376.319	2925.62
376.545	2788.62
376.771	2857.62
376.997	3029.62
377.222	2932.62
377.448	2930.62
377.674	2926.62
377.899	2941.62
378.125	3062.62
378.35	3020.62
378.576	2828.62
378.802	2728.62
379.027	2651.62
379.253	2781.62
379.478	2792.62
379.704	2774.62
379.929	2754.62
380.155	2779.62
380.38	2800.62
380.606	2765.62
380.831	2820.62
381.057	2973.62
381.282	2961.62
381.507	2927.62
381.733	3065.62
381.958	3224.62
382.184	2953.62
382.409	2860.62
382.634	2898.62
382.86	2892.62
383.085	2880.62
383.31	3020.62
383.535	3275.62
383.761	3344.62
383.986	3284.62
384.211	3124.62
384.436	3173.62
384.662	3277.62
384.887	3341.62
385.112	3237.62
385.337	3253.62
385.562	3152.62
385.787	3206.62
386.013	3312.62
386.238	3295.62
386.463	3228.62
386.688	3472.62
386.913	3674.62
387.138	3537.62
387.363	3215.62
387.588	3312.62
387.813	3237.62
388.038	3280.62
388.263	3478.62
388.488	3276.62
388.713	3084.62
388.938	3065.62
389.163	3095.62
389.387	3131.62
389.612	3142.62
389.837	3233.62
390.062	3204.62
390.287	3176.62
390.512	3139.62
390.736	3064.62
390.961	3086.62
391.186	3039.62
391.411	3045.62
391.636	3114.62
391.86	3158.62
392.085	3160.62
392.31	3127.62
392.534	3179.62
392.759	3248.62
392.984	3161.62
393.208	3216.62
393.433	3240.62
393.658	3417.62
393.882	3415.62
394.107	3220.62
394.331	3171.62
394.556	3162.62
394.78	3215.62
395.005	3355.62
395.229	3424.62
395.454	3653.62
395.678	3656.62
395.903	3462.62
396.127	3398.62
396.352	3378.62
396.576	3501.62
396.801	3539.62
397.025	3472.62
397.249	3495.62
397.474	3442.62
397.698	3398.62
397.922	3557.62
398.147	3671.62
398.371	3801.62
398.595	3832.62
398.82	3614.62
399.044	3711.62
399.268	3885.62
399.492	4226.62
399.717	4315.62
399.941	4307.62
400.165	4256.62
400.389	4107.62
400.613	4101.62
400.837	4550.62
401.062	5049.62
401.286	4338.62
401.51	4024.62
401.734	4182.62
401.958	3997.62
402.182	3745.62
402.406	3616.62
402.63	3600.62
402.854	3675.62
403.078	3690.62
403.302	3716.62
403.526	3835.62
403.75	3814.62
403.974	3810.62
404.198	3784.62
404.422	3924.62
404.645	4125.62
404.869	4034.62
405.093	3722.62
405.317	3620.62
405.541	3790.62
405.765	3847.62
405.988	3835.62
406.212	3894.62
406.436	3967.62
406.66	4084.62
406.883	4148.62
407.107	4613.62
407.331	4838.62
407.555	5271.62
407.778	4787.62
408.002	4124.62
408.226	4023.62
408.449	4023.62
408.673	3823.62
408.896	3906.62
409.12	4005.62
409.344	3846.62
409.567	3778.62
409.791	3834.62
410.014	3934.62
410.238	4068.62
410.461	4314.62
410.685	3844.62
410.908	3725.62
411.132	3806.62
411.355	3790.62
411.578	3680.62
411.802	3728.62
412.025	3921.62
412.249	3749.62
412.472	3576.62
412.695	3652.62
412.919	3626.62
413.142	3599.62
413.365	3674.62
413.589	3770.62
413.812	3928.62
414.035	4011.62
414.258	3707.62
414.482	3596.62
414.705	3640.62
414.928	3600.62
415.151	3610.62
415.374	3678.62
415.597	3739.62
415.821	3763.62
416.044	3769.62
416.267	3736.62
416.49	3510.62
416.713	3499.62
416.936	3601.62
417.159	3811.62
417.382	3762.62
417.605	3577.62
417.828	3644.62
418.051	3687.62
418.274	3566.62
418.497	3504.62
418.72	3543.62
418.943	3550.62
419.166	3681.62
419.389	3883.62
419.611	3677.62
419.834	3642.62
420.057	3642.62
420.28	3539.62
420.503	3522.62
420.726	3646.62
420.948	3599.62
421.171	3469.62
421.394	3566.62
421.617	3658.62
421.839	3661.62
422.062	3577.62
422.285	3520.62
422.507	3522.62
422.73	3365.62
422.953	3384.62
423.175	3419.62
423.398	3524.62
423.621	3460.62
423.843	3515.62
424.066	3664.62
424.288	3778.62
424.511	3853.62
424.733	3642.62
424.956	3366.62
425.178	3371.62
425.401	3482.62
425.623	3474.62
425.846	3424.62
426.068	3545.62
426.291	3640.62
426.513	3632.62
426.735	3601.62
426.958	3813.62
427.18	4000.62
427.402	3724.62
427.625	3816.62
427.847	3791.62
428.069	3535.62
428.292	3405.62
428.514	3364.62
428.736	3322.62
428.958	3420.62
429.181	3421.62
429.403	3914.62
429.625	4678.62
429.847	4072.62
430.069	3515.62
430.292	3878.62
430.514	3919.62
430.736	3693.62
430.958	3778.62
431.18	3630.62
431.402	3359.62
431.624	3344.62
431.846	3336.62
432.068	3196.62
432.29	3316.62
432.512	3331.62
432.734	3451.62
432.956	3470.62
433.178	3643.62
433.4	3586.62
433.622	3563.62
433.844	3386.62
434.066	3328.62
434.287	3279.62
434.509	3406.62
434.731	3570.62
434.953	3858.62
435.175	3689.62
435.397	3608.62
435.618	3534.62
435.84	3536.62
436.062	3502.62
436.284	3499.62
436.505	3573.62
436.727	3620.62
436.949	3485.62
437.17	3394.62
437.392	3390.62
437.614	3357.62
437.835	3254.62
438.057	3437.62
438.278	3610.62
438.5	3350.62
438.721	3308.62
438.943	3395.62
439.165	3372.62
439.386	3306.62
439.608	3350.62
439.829	3372.62
440.05	3387.62
440.272	3316.62
440.493	3310.62
440.715	3426.62
440.936	3672.62
441.158	3968.62
441.379	3865.62
441.6	3741.62
441.822	3682.62
442.043	3628.62
442.264	3616.62
442.486	3413.62
442.707	3435.62
442.928	3408.62
443.149	3550.62
443.371	3775.62
443.592	3819.62
443.813	3759.62
444.034	3719.62
444.255	3755.62
444.476	3779.62
444.698	3848.62
444.919	3824.62
445.14	3899.62
445.361	3951.62
445.582	3998.62
445.803	3866.62
446.024	3710.62
446.245	3880.62
446.466	3708.62
446.687	3553.62
446.908	3543.62
447.129	3538.62
447.35	3593.62
447.571	3527.62
447.792	3338.62
448.013	3283.62
448.234	3403.62
448.455	3563.62
448.675	3484.62
448.896	3281.62
449.117	3202.62
449.338	3319.62
449.559	3411.62
449.779	3597.62
450	3912.62
450.221	4121.62
450.442	3988.62
450.662	3508.62
450.883	3238.62
451.104	3164.62
451.324	3222.62
451.545	3293.62
451.766	3264.62
451.986	3080.62
452.207	3109.62
452.428	3005.62
452.648	2962.62
452.869	3049.62
453.089	3239.62
453.31	3203.62
453.53	3275.62
453.751	3112.62
453.971	2996.62
454.192	3053.62
454.412	3186.62
454.633	3134.62
454.853	3024.62
455.073	2917.62
455.294	2907.62
455.514	2897.62
455.734	2902.62
455.955	2989.62
456.175	2914.62
456.395	2904.62
456.616	3046.62
456.836	3074.62
457.056	3028.62
457.276	2982.62
457.497	2909.62
457.717	2821.62
457.937	2902.62
458.157	3010.62
458.377	2900.62
458.598	2905.62
458.818	2883.62
459.038	3106.62
459.258	3285.62
459.478	3299.62
459.698	3228.62
459.918	3280.62
460.138	3459.62
460.358	3512.62
460.578	3490.62
460.798	3666.62
461.018	3851.62
461.238	3629.62
461.458	3508.62
461.678	3544.62
461.898	3472.62
462.118	3390.62
462.338	3578.62
462.558	3529.62
462.777	3536.62
462.997	3732.62
463.217	3925.62
463.437	3795.62
463.657	3619.62
463.876	3527.62
464.096	3514.62
464.316	3536.62
464.536	3734.62
464.755	3630.62
464.975	3738.62
465.195	3602.62
465.414	3720.62
465.634	3678.62
465.854	3552.62
466.073	3779.62
466.293	3677.62
466.512	3287.62
466.732	3266.62
466.951	3440.62
467.171	3294.62
467.391	3244.62
467.61	3211.62
467.829	3255.62
468.049	3570.62
468.268	3876.62
468.488	3677.62
468.707	3422.62
468.927	3360.62
469.146	3200.62
469.365	3231.62
469.585	3255.62
469.804	3343.62
470.023	3340.62
470.243	3386.62
470.462	3370.62
470.681	3317.62
470.901	3391.62
471.12	3326.62
471.339	3306.62
471.558	3234.62
471.777	3166.62
471.997	3260.62
472.216	3192.62
472.435	3087.62
472.654	3136.62
472.873	3229.62
473.092	3459.62
473.311	3288.62
473.53	3136.62
473.749	3178.62
473.968	3263.62
474.187	3396.62
474.406	3495.62
474.625	3304.62
474.844	3239.62
475.063	3316.62
475.282	3382.62
475.501	3245.62
475.72	3271.62
475.939	3490.62
476.158	3389.62
476.377	3350.62
476.596	3373.62
476.814	3376.62
477.033	3419.62
477.252	3593.62
477.471	3656.62
477.69	3534.62
477.908	3549.62
478.127	3670.62
478.346	3932.62
478.564	3940.62
478.783	3877.62
479.002	3966.62
479.22	3968.62
479.439	4114.62
479.658	4486.62
479.876	4394.62
480.095	3935.62
480.313	3741.62
480.532	3628.62
480.751	3710.62
480.969	3691.62
481.188	3650.62
481.406	3540.62
481.624	3467.62
481.843	3642.62
482.061	3684.62
482.28	3762.62
482.498	3789.62
482.717	3782.62
482.935	3594.62
483.153	3594.62
483.372	3718.62
483.59	3659.62
483.808	3678.62
484.027	3766.62
484.245	3932.62
484.463	4650.62
484.681	5099.62
484.9	3992.62
485.118	3720.62
485.336	3710.62
485.554	3805.62
485.772	3929.62
485.99	3883.62
486.209	3908.62
486.427	3937.62
486.645	3870.62
486.863	3940.62
