Data from WStandard_LampEnergy5.5LIBS07252019.E.O._I.C._HRD10591_16-06-27-920.txt Node
Date: Thu Jul 25 16:06:27 EDT 2019
User: cochatt
Spectrometer: HR+D1059
Trigger mode: 1
Integration Time (sec): 1.000000E-1
Scans to average: 1
Electric dark correction enabled: true
Nonlinearity correction enabled: false
Boxcar width: 0
XAxis mode: Wavelengths
Number of Pixels in Spectrum: 2048
>>>>>Begin Spectral Data<<<<<
223.165	-15.38
223.4	-15.38
223.635	-15.38
223.869	-22.38
224.104	-11.38
224.338	-19.38
224.573	-12.38
224.808	-12.38
225.042	-4.38
225.277	-9.38
225.511	-7.38
225.746	0.62
225.98	7.62
226.215	16.62
226.449	11.62
226.683	23.62
226.918	26.62
227.152	27.62
227.387	31.62
227.621	41.62
227.856	43.62
228.09	35.62
228.324	36.62
228.559	44.62
228.793	136.62
229.027	325.62
229.262	327.62
229.496	335.62
229.73	368.62
229.964	397.62
230.199	421.62
230.433	454.62
230.667	459.62
230.901	512.62
231.136	442.62
231.37	440.62
231.604	423.62
231.838	439.62
232.072	439.62
232.306	405.62
232.541	453.62
232.775	517.62
233.009	560.62
233.243	519.62
233.477	489.62
233.711	498.62
233.945	520.62
234.179	497.62
234.413	522.62
234.647	594.62
234.881	564.62
235.115	512.62
235.349	515.62
235.583	533.62
235.817	496.62
236.051	501.62
236.285	489.62
236.519	539.62
236.753	612.62
236.987	633.62
237.221	597.62
237.455	670.62
237.689	642.62
237.922	606.62
238.156	615.62
238.39	641.62
238.624	642.62
238.858	673.62
239.091	721.62
239.325	737.62
239.559	818.62
239.793	877.62
240.027	966.62
240.26	931.62
240.494	684.62
240.728	655.62
240.961	646.62
241.195	646.62
241.429	738.62
241.662	751.62
241.896	689.62
242.13	701.62
242.363	790.62
242.597	858.62
242.83	824.62
243.064	806.62
243.298	863.62
243.531	848.62
243.765	844.62
243.998	833.62
244.232	747.62
244.465	723.62
244.699	735.62
244.932	818.62
245.166	961.62
245.399	880.62
245.633	831.62
245.866	802.62
246.099	851.62
246.333	875.62
246.566	869.62
246.8	922.62
247.033	1040.62
247.266	1020.62
247.5	965.62
247.733	927.62
247.966	1031.62
248.2	1101.62
248.433	1053.62
248.666	1066.62
248.899	1192.62
249.133	1372.62
249.366	1562.62
249.599	1300.62
249.832	1130.62
250.066	1124.62
250.299	1169.62
250.532	1075.62
250.765	1004.62
250.998	1039.62
251.231	1046.62
251.465	1130.62
251.698	1084.62
251.931	1068.62
252.164	1097.62
252.397	1152.62
252.63	1130.62
252.863	1027.62
253.096	1007.62
253.329	1033.62
253.562	1088.62
253.795	1148.62
254.028	1144.62
254.261	1112.62
254.494	1073.62
254.727	996.62
254.96	1045.62
255.193	1164.62
255.426	1282.62
255.659	1477.62
255.892	1511.62
256.124	1219.62
256.357	1178.62
256.59	1317.62
256.823	1293.62
257.056	1267.62
257.289	1549.62
257.521	1721.62
257.754	1545.62
257.987	1421.62
258.22	1595.62
258.452	1545.62
258.685	1266.62
258.918	1214.62
259.151	1283.62
259.383	1205.62
259.616	1051.62
259.849	1130.62
260.081	1297.62
260.314	1383.62
260.547	1514.62
260.779	1523.62
261.012	1439.62
261.244	1294.62
261.477	1232.62
261.71	1230.62
261.942	1270.62
262.175	1225.62
262.407	1327.62
262.64	1227.62
262.872	1122.62
263.105	1132.62
263.337	1157.62
263.57	1177.62
263.802	1147.62
264.035	1108.62
264.267	1049.62
264.499	999.62
264.732	1081.62
264.964	1124.62
265.197	1216.62
265.429	1241.62
265.661	1415.62
265.894	1529.62
266.126	1588.62
266.358	1453.62
266.591	1476.62
266.823	1613.62
267.055	1452.62
267.287	1426.62
267.52	1424.62
267.752	1368.62
267.984	1401.62
268.216	1434.62
268.448	1486.62
268.681	1460.62
268.913	1387.62
269.145	1315.62
269.377	1271.62
269.609	1353.62
269.841	1569.62
270.073	1781.62
270.306	2010.62
270.538	2105.62
270.77	1841.62
271.002	1546.62
271.234	1463.62
271.466	1453.62
271.698	1649.62
271.93	1980.62
272.162	1971.62
272.394	1773.62
272.626	1702.62
272.858	1525.62
273.09	1296.62
273.322	1301.62
273.553	1260.62
273.785	1239.62
274.017	1299.62
274.249	1432.62
274.481	1416.62
274.713	1310.62
274.945	1247.62
275.176	1301.62
275.408	1291.62
275.64	1245.62
275.872	1246.62
276.104	1291.62
276.335	1485.62
276.567	1717.62
276.799	1725.62
277.031	1530.62
277.262	1409.62
277.494	1499.62
277.726	1664.62
277.957	1633.62
278.189	1509.62
278.421	1376.62
278.652	1337.62
278.884	1329.62
279.115	1313.62
279.347	1380.62
279.579	1317.62
279.81	1319.62
280.042	1439.62
280.273	1589.62
280.505	1571.62
280.736	1618.62
280.968	1533.62
281.199	1354.62
281.431	1295.62
281.662	1322.62
281.894	1297.62
282.125	1355.62
282.356	1396.62
282.588	1417.62
282.819	1408.62
283.051	1517.62
283.282	1568.62
283.513	1586.62
283.745	1373.62
283.976	1279.62
284.207	1237.62
284.439	1336.62
284.67	1349.62
284.901	1335.62
285.132	1416.62
285.364	1427.62
285.595	1403.62
285.826	1379.62
286.057	1382.62
286.288	1343.62
286.52	1363.62
286.751	1485.62
286.982	1579.62
287.213	1459.62
287.444	1319.62
287.675	1317.62
287.906	1369.62
288.138	1441.62
288.369	1435.62
288.6	1384.62
288.831	1335.62
289.062	1361.62
289.293	1343.62
289.524	1323.62
289.755	1405.62
289.986	1395.62
290.217	1313.62
290.448	1349.62
290.679	1387.62
290.91	1386.62
291.141	1401.62
291.371	1441.62
291.602	1442.62
291.833	1411.62
292.064	1520.62
292.295	1459.62
292.526	1501.62
292.757	1598.62
292.987	1487.62
293.218	1387.62
293.449	1503.62
293.68	1685.62
293.91	1795.62
294.141	1706.62
294.372	1581.62
294.603	1604.62
294.833	1666.62
295.064	1603.62
295.295	1487.62
295.525	1445.62
295.756	1367.62
295.987	1293.62
296.217	1333.62
296.448	1357.62
296.679	1351.62
296.909	1385.62
297.14	1360.62
297.37	1337.62
297.601	1448.62
297.831	1558.62
298.062	1556.62
298.292	1407.62
298.523	1350.62
298.753	1369.62
298.984	1428.62
299.214	1391.62
299.445	1429.62
299.675	1477.62
299.905	1461.62
300.136	1443.62
300.366	1399.62
300.597	1347.62
300.827	1348.62
301.057	1401.62
301.288	1447.62
301.518	1436.62
301.748	1472.62
301.979	1573.62
302.209	1595.62
302.439	1658.62
302.669	1736.62
302.9	1631.62
303.13	1493.62
303.36	1513.62
303.59	1499.62
303.82	1529.62
304.051	1456.62
304.281	1490.62
304.511	1489.62
304.741	1567.62
304.971	1711.62
305.201	1867.62
305.431	1775.62
305.661	1455.62
305.891	1332.62
306.121	1335.62
306.352	1372.62
306.582	1437.62
306.812	1544.62
307.042	1641.62
307.272	1664.62
307.502	1659.62
307.731	1810.62
307.961	1959.62
308.191	1802.62
308.421	1536.62
308.651	1480.62
308.881	1464.62
309.111	1442.62
309.341	1419.62
309.571	1441.62
309.8	1458.62
310.03	1419.62
310.26	1421.62
310.49	1401.62
310.72	1469.62
310.949	1509.62
311.179	1561.62
311.409	1514.62
311.639	1471.62
311.868	1446.62
312.098	1431.62
312.328	1457.62
312.557	1447.62
312.787	1488.62
313.017	1531.62
313.246	1539.62
313.476	1464.62
313.706	1587.62
313.935	1537.62
314.165	1508.62
314.394	1579.62
314.624	1651.62
314.853	1734.62
315.083	1797.62
315.312	1883.62
315.542	1745.62
315.771	1540.62
316.001	1484.62
316.23	1667.62
316.46	1635.62
316.689	1615.62
316.919	1515.62
317.148	1476.62
317.377	1490.62
317.607	1601.62
317.836	1779.62
318.065	1843.62
318.295	1768.62
318.524	1688.62
318.753	1641.62
318.983	1661.62
319.212	1554.62
319.441	1543.62
319.67	1539.62
319.9	1594.62
320.129	1628.62
320.358	1746.62
320.587	1755.62
320.816	1747.62
321.046	1711.62
321.275	1610.62
321.504	1630.62
321.733	1749.62
321.962	1726.62
322.191	1568.62
322.42	1580.62
322.649	1576.62
322.878	1543.62
323.108	1570.62
323.337	1635.62
323.566	1638.62
323.795	1590.62
324.024	1636.62
324.253	1600.62
324.482	1638.62
324.71	1579.62
324.939	1493.62
325.168	1505.62
325.397	1560.62
325.626	1617.62
325.855	1633.62
326.084	1552.62
326.313	1559.62
326.542	1577.62
326.77	1633.62
326.999	1667.62
327.228	1599.62
327.457	1532.62
327.686	1488.62
327.914	1526.62
328.143	1599.62
328.372	1565.62
328.6	1586.62
328.829	1559.62
329.058	1535.62
329.287	1544.62
329.515	1579.62
329.744	1599.62
329.972	1687.62
330.201	1720.62
330.43	1733.62
330.658	1644.62
330.887	1673.62
331.115	1674.62
331.344	1674.62
331.572	1648.62
331.801	1677.62
332.03	1642.62
332.258	1685.62
332.486	1676.62
332.715	1695.62
332.943	1744.62
333.172	1700.62
333.4	1717.62
333.629	1747.62
333.857	1834.62
334.085	1971.62
334.314	2229.62
334.542	2478.62
334.771	2321.62
334.999	2060.62
335.227	1926.62
335.455	1823.62
335.684	1776.62
335.912	1833.62
336.14	1897.62
336.369	1881.62
336.597	1771.62
336.825	1703.62
337.053	1728.62
337.281	1831.62
337.51	1915.62
337.738	1985.62
337.966	1903.62
338.194	1738.62
338.422	1702.62
338.65	1697.62
338.878	1666.62
339.106	1574.62
339.334	1600.62
339.562	1577.62
339.79	1587.62
340.018	1700.62
340.246	1775.62
340.474	1781.62
340.702	1716.62
340.93	1734.62
341.158	1738.62
341.386	1666.62
341.614	1691.62
341.842	1673.62
342.07	1666.62
342.298	1655.62
342.526	1667.62
342.754	1634.62
342.981	1641.62
343.209	1652.62
343.437	1649.62
343.665	1655.62
343.893	1703.62
344.12	1803.62
344.348	1825.62
344.576	1707.62
344.804	1636.62
345.031	1628.62
345.259	1680.62
345.487	1649.62
345.714	1560.62
345.942	1554.62
346.17	1515.62
346.397	1547.62
346.625	1558.62
346.853	1533.62
347.08	1506.62
347.308	1508.62
347.535	1515.62
347.763	1547.62
347.99	1563.62
348.218	1487.62
348.445	1498.62
348.673	1512.62
348.9	1580.62
349.128	1568.62
349.355	1690.62
349.583	1633.62
349.81	1577.62
350.037	1451.62
350.265	1485.62
350.492	1451.62
350.72	1530.62
350.947	1545.62
351.174	1573.62
351.402	1533.62
351.629	1463.62
351.856	1437.62
352.083	1420.62
352.311	1435.62
352.538	1471.62
352.765	1529.62
352.992	1610.62
353.22	1509.62
353.447	1500.62
353.674	1519.62
353.901	1513.62
354.128	1490.62
354.355	1479.62
354.583	1512.62
354.81	1608.62
355.037	1556.62
355.264	1567.62
355.491	1557.62
355.718	1587.62
355.945	1517.62
356.172	1486.62
356.399	1487.62
356.626	1490.62
356.853	1514.62
357.08	1639.62
357.307	1785.62
357.534	1793.62
357.761	1575.62
357.988	1483.62
358.215	1432.62
358.441	1464.62
358.668	1424.62
358.895	1493.62
359.122	1548.62
359.349	1684.62
359.576	1685.62
359.802	1497.62
360.029	1467.62
360.256	1456.62
360.483	1458.62
360.709	1522.62
360.936	1538.62
361.163	1633.62
361.39	1731.62
361.616	1892.62
361.843	1834.62
362.07	1762.62
362.296	1555.62
362.523	1508.62
362.749	1514.62
362.976	1539.62
363.203	1557.62
363.429	1508.62
363.656	1485.62
363.882	1511.62
364.109	1649.62
364.335	1794.62
364.562	1681.62
364.788	1595.62
365.015	1547.62
365.241	1498.62
365.468	1527.62
365.694	1576.62
365.92	1674.62
366.147	1605.62
366.373	1522.62
366.599	1473.62
366.826	1485.62
367.052	1460.62
367.278	1481.62
367.505	1521.62
367.731	1563.62
367.957	1514.62
368.184	1590.62
368.41	1673.62
368.636	1704.62
368.862	1652.62
369.089	1717.62
369.315	1661.62
369.541	1618.62
369.767	1583.62
369.993	1502.62
370.219	1504.62
370.445	1544.62
370.672	1616.62
370.898	1689.62
371.124	1745.62
371.35	1610.62
371.576	1651.62
371.802	1721.62
372.028	1650.62
372.254	1603.62
372.48	1555.62
372.706	1548.62
372.932	1575.62
373.158	1562.62
373.384	1545.62
373.61	1578.62
373.835	1709.62
374.061	1635.62
374.287	1595.62
374.513	1618.62
374.739	1620.62
374.965	1669.62
375.191	1649.62
375.416	1675.62
375.642	1682.62
375.868	1692.62
376.094	1737.62
376.319	1695.62
376.545	1577.62
376.771	1632.62
376.997	1668.62
377.222	1656.62
377.448	1633.62
377.674	1642.62
377.899	1632.62
378.125	1749.62
378.35	1757.62
378.576	1624.62
378.802	1548.62
379.027	1553.62
379.253	1557.62
379.478	1604.62
379.704	1593.62
379.929	1585.62
380.155	1594.62
380.38	1641.62
380.606	1601.62
380.831	1620.62
381.057	1679.62
381.282	1694.62
381.507	1669.62
381.733	1759.62
381.958	1825.62
382.184	1678.62
382.409	1644.62
382.634	1696.62
382.86	1675.62
383.085	1669.62
383.31	1690.62
383.535	1843.62
383.761	1903.62
383.986	1839.62
384.211	1798.62
384.436	1794.62
384.662	1858.62
384.887	1978.62
385.112	1833.62
385.337	1867.62
385.562	1833.62
385.787	1890.62
386.013	1883.62
386.238	1905.62
386.463	1852.62
386.688	1959.62
386.913	2067.62
387.138	2064.62
387.363	1876.62
387.588	1871.62
387.813	1853.62
388.038	1912.62
388.263	1985.62
388.488	1895.62
388.713	1789.62
388.938	1751.62
389.163	1791.62
389.387	1835.62
389.612	1819.62
389.837	1833.62
390.062	1892.62
390.287	1852.62
390.512	1869.62
390.736	1799.62
390.961	1773.62
391.186	1775.62
391.411	1791.62
391.636	1821.62
391.86	1876.62
392.085	1873.62
392.31	1826.62
392.534	1844.62
392.759	1889.62
392.984	1846.62
393.208	1896.62
393.433	1989.62
393.658	2072.62
393.882	2005.62
394.107	1871.62
394.331	1859.62
394.556	1869.62
394.78	1876.62
395.005	1926.62
395.229	1929.62
395.454	2096.62
395.678	2079.62
395.903	2023.62
396.127	1956.62
396.352	1967.62
396.576	1994.62
396.801	1995.62
397.025	2065.62
397.249	2037.62
397.474	1968.62
397.698	1967.62
397.922	2017.62
398.147	2132.62
398.371	2186.62
398.595	2214.62
398.82	2161.62
399.044	2178.62
399.268	2312.62
399.492	2400.62
399.717	2515.62
399.941	2522.62
400.165	2455.62
400.389	2402.62
400.613	2343.62
400.837	2525.62
401.062	2793.62
401.286	2449.62
401.51	2269.62
401.734	2329.62
401.958	2331.62
402.182	2172.62
402.406	2152.62
402.63	2123.62
402.854	2131.62
403.078	2114.62
403.302	2156.62
403.526	2229.62
403.75	2212.62
403.974	2203.62
404.198	2193.62
404.422	2260.62
404.645	2358.62
404.869	2363.62
405.093	2168.62
405.317	2137.62
405.541	2228.62
405.765	2236.62
405.988	2227.62
406.212	2291.62
406.436	2291.62
406.66	2331.62
406.883	2339.62
407.107	2583.62
407.331	2813.62
407.555	3026.62
407.778	2829.62
408.002	2414.62
408.226	2343.62
408.449	2298.62
408.673	2304.62
408.896	2323.62
409.12	2290.62
409.344	2258.62
409.567	2179.62
409.791	2261.62
410.014	2271.62
410.238	2340.62
410.461	2462.62
410.685	2207.62
410.908	2141.62
411.132	2212.62
411.355	2187.62
411.578	2134.62
411.802	2147.62
412.025	2209.62
412.249	2170.62
412.472	2109.62
412.695	2091.62
412.919	2065.62
413.142	2079.62
413.365	2126.62
413.589	2181.62
413.812	2229.62
414.035	2264.62
414.258	2172.62
414.482	2131.62
414.705	2127.62
414.928	2095.62
415.151	2070.62
415.374	2111.62
415.597	2134.62
415.821	2192.62
416.044	2258.62
416.267	2208.62
416.49	2058.62
416.713	2002.62
416.936	2095.62
417.159	2140.62
417.382	2169.62
417.605	2032.62
417.828	2164.62
418.051	2155.62
418.274	2076.62
418.497	2057.62
418.72	2039.62
418.943	2037.62
419.166	2221.62
419.389	2264.62
419.611	2156.62
419.834	2128.62
420.057	2145.62
420.28	2063.62
420.503	2025.62
420.726	2036.62
420.948	2056.62
421.171	2037.62
421.394	2046.62
421.617	2095.62
421.839	2090.62
422.062	2025.62
422.285	2009.62
422.507	2023.62
422.73	1987.62
422.953	1939.62
423.175	1955.62
423.398	2038.62
423.621	2016.62
423.843	2043.62
424.066	2065.62
424.288	2120.62
424.511	2169.62
424.733	2094.62
424.956	1930.62
425.178	1915.62
425.401	1960.62
425.623	1964.62
425.846	1967.62
426.068	2067.62
426.291	2096.62
426.513	2028.62
426.735	2055.62
426.958	2162.62
427.18	2215.62
427.402	2070.62
427.625	2150.62
427.847	2135.62
428.069	2041.62
428.292	1969.62
428.514	1937.62
428.736	1875.62
428.958	1942.62
429.181	1994.62
429.403	2156.62
429.625	2657.62
429.847	2365.62
430.069	1965.62
430.292	2183.62
430.514	2247.62
430.736	2073.62
430.958	2191.62
431.18	2082.62
431.402	1971.62
431.624	1933.62
431.846	1934.62
432.068	1908.62
432.29	1926.62
432.512	1980.62
432.734	1983.62
432.956	1984.62
433.178	2107.62
433.4	2114.62
433.622	2131.62
433.844	2012.62
434.066	1951.62
434.287	1922.62
434.509	2028.62
434.731	2108.62
434.953	2218.62
435.175	2216.62
435.397	2047.62
435.618	2081.62
435.84	2077.62
436.062	2064.62
436.284	2024.62
436.505	2058.62
436.727	2116.62
436.949	2020.62
437.17	2017.62
437.392	2009.62
437.614	1994.62
437.835	1925.62
438.057	2053.62
438.278	2134.62
438.5	1970.62
438.721	1955.62
438.943	1960.62
439.165	1930.62
439.386	1961.62
439.608	1928.62
439.829	1956.62
440.05	1949.62
440.272	1959.62
440.493	1896.62
440.715	1915.62
440.936	2074.62
441.158	2306.62
441.379	2237.62
441.6	2217.62
441.822	2103.62
442.043	2110.62
442.264	2050.62
442.486	1933.62
442.707	1979.62
442.928	1984.62
443.149	2012.62
443.371	2163.62
443.592	2267.62
443.813	2152.62
444.034	2151.62
444.255	2126.62
444.476	2213.62
444.698	2260.62
444.919	2287.62
445.14	2289.62
445.361	2309.62
445.582	2394.62
445.803	2252.62
446.024	2185.62
446.245	2242.62
446.466	2171.62
446.687	2074.62
446.908	2071.62
447.129	2000.62
447.35	2054.62
447.571	2012.62
447.792	1952.62
448.013	1908.62
448.234	1979.62
448.455	2047.62
448.675	2047.62
448.896	1891.62
449.117	1880.62
449.338	1923.62
449.559	1991.62
449.779	2088.62
450	2302.62
450.221	2443.62
450.442	2377.62
450.662	2109.62
450.883	1891.62
451.104	1832.62
451.324	1910.62
451.545	1980.62
451.766	1911.62
451.986	1828.62
452.207	1802.62
452.428	1782.62
452.648	1761.62
452.869	1823.62
453.089	1926.62
453.31	1896.62
453.53	1974.62
453.751	1881.62
453.971	1768.62
454.192	1797.62
454.412	1957.62
454.633	1836.62
454.853	1816.62
455.073	1747.62
455.294	1670.62
455.514	1744.62
455.734	1771.62
455.955	1776.62
456.175	1785.62
456.395	1737.62
456.616	1791.62
456.836	1830.62
457.056	1807.62
457.276	1801.62
457.497	1700.62
457.717	1678.62
457.937	1729.62
458.157	1802.62
458.377	1785.62
458.598	1730.62
458.818	1733.62
459.038	1895.62
459.258	1992.62
459.478	1971.62
459.698	1907.62
459.918	2006.62
460.138	2020.62
460.358	2065.62
460.578	2099.62
460.798	2180.62
461.018	2340.62
461.238	2190.62
461.458	2093.62
461.678	2111.62
461.898	2152.62
462.118	2021.62
462.338	2146.62
462.558	2150.62
462.777	2100.62
462.997	2235.62
463.217	2364.62
463.437	2328.62
463.657	2187.62
463.876	2144.62
464.096	2127.62
464.316	2128.62
464.536	2160.62
464.755	2210.62
464.975	2279.62
465.195	2154.62
465.414	2209.62
465.634	2217.62
465.854	2112.62
466.073	2227.62
466.293	2185.62
466.512	1937.62
466.732	1932.62
466.951	1996.62
467.171	2002.62
467.391	1874.62
467.61	1820.62
467.829	1903.62
468.049	2020.62
468.268	2265.62
468.488	2127.62
468.707	2015.62
468.927	1981.62
469.146	1917.62
469.365	1861.62
469.585	1911.62
469.804	1905.62
470.023	1911.62
470.243	1955.62
470.462	1916.62
470.681	1894.62
470.901	1911.62
471.12	1942.62
471.339	1930.62
471.558	1835.62
471.777	1857.62
471.997	1895.62
472.216	1882.62
472.435	1815.62
472.654	1848.62
472.873	1931.62
473.092	2032.62
473.311	1967.62
473.53	1830.62
473.749	1855.62
473.968	1908.62
474.187	2007.62
474.406	2090.62
474.625	1967.62
474.844	1924.62
475.063	1935.62
475.282	1995.62
475.501	1948.62
475.72	1907.62
475.939	2088.62
476.158	1960.62
476.377	1952.62
476.596	1983.62
476.814	2013.62
477.033	2022.62
477.252	2095.62
477.471	2134.62
477.69	2048.62
477.908	2049.62
478.127	2153.62
478.346	2305.62
478.564	2352.62
478.783	2279.62
479.002	2344.62
479.22	2314.62
479.439	2369.62
479.658	2691.62
479.876	2682.62
480.095	2342.62
480.313	2263.62
480.532	2110.62
480.751	2162.62
480.969	2227.62
481.188	2175.62
481.406	2161.62
481.624	2083.62
481.843	2082.62
482.061	2185.62
482.28	2214.62
482.498	2280.62
482.717	2259.62
482.935	2150.62
483.153	2159.62
483.372	2154.62
483.59	2112.62
483.808	2163.62
484.027	2159.62
484.245	2302.62
484.463	2634.62
484.681	2925.62
484.9	2388.62
485.118	2213.62
485.336	2190.62
485.554	2249.62
485.772	2369.62
485.99	2298.62
486.209	2317.62
486.427	2311.62
486.645	2286.62
486.863	2239.62
487.081	2354.62
487.299	2400.62
487.517	2340.62
