Data from WStandard_LampEnergy10_LIBS07252019.E.O._I.C._HRD10591_15-55-49-928.txt Node
Date: Thu Jul 25 15:55:49 EDT 2019
User: cochatt
Spectrometer: HR+D1059
Trigger mode: 1
Integration Time (sec): 1.000000E-1
Scans to average: 1
Electric dark correction enabled: true
Nonlinearity correction enabled: false
Boxcar width: 0
XAxis mode: Wavelengths
Number of Pixels in Spectrum: 2048
>>>>>Begin Spectral Data<<<<<
223.165	-9.38
223.4	-9.38
223.635	-9.38
223.869	-14.38
224.104	-11.38
224.338	-12.38
224.573	-23.38
224.808	-28.38
225.042	-8.38
225.277	-2.38
225.511	-4.38
225.746	7.62
225.98	10.62
226.215	13.62
226.449	10.62
226.683	14.62
226.918	28.62
227.152	28.62
227.387	25.62
227.621	42.62
227.856	47.62
228.09	47.62
228.324	52.62
228.559	59.62
228.793	88.62
229.027	140.62
229.262	127.62
229.496	144.62
229.73	138.62
229.964	150.62
230.199	159.62
230.433	173.62
230.667	181.62
230.901	165.62
231.136	177.62
231.37	181.62
231.604	157.62
231.838	170.62
232.072	160.62
232.306	170.62
232.541	163.62
232.775	192.62
233.009	215.62
233.243	207.62
233.477	196.62
233.711	193.62
233.945	205.62
234.179	185.62
234.413	202.62
234.647	231.62
234.881	209.62
235.115	171.62
235.349	190.62
235.583	190.62
235.817	192.62
236.051	177.62
236.285	181.62
236.519	210.62
236.753	210.62
236.987	211.62
237.221	218.62
237.455	219.62
237.689	204.62
237.922	211.62
238.156	203.62
238.39	223.62
238.624	232.62
238.858	225.62
239.091	255.62
239.325	235.62
239.559	248.62
239.793	280.62
240.027	282.62
240.26	279.62
240.494	244.62
240.728	218.62
240.961	210.62
241.195	228.62
241.429	252.62
241.662	259.62
241.896	229.62
242.13	228.62
242.363	256.62
242.597	262.62
242.83	265.62
243.064	256.62
243.298	273.62
243.531	263.62
243.765	278.62
243.998	277.62
244.232	243.62
244.465	248.62
244.699	262.62
244.932	273.62
245.166	307.62
245.399	288.62
245.633	279.62
245.866	259.62
246.099	278.62
246.333	283.62
246.566	288.62
246.8	289.62
247.033	323.62
247.266	310.62
247.5	304.62
247.733	318.62
247.966	327.62
248.2	336.62
248.433	343.62
248.666	363.62
248.899	399.62
249.133	431.62
249.366	457.62
249.599	375.62
249.832	344.62
250.066	356.62
250.299	369.62
250.532	353.62
250.765	321.62
250.998	339.62
251.231	332.62
251.465	357.62
251.698	335.62
251.931	324.62
252.164	337.62
252.397	336.62
252.63	353.62
252.863	311.62
253.096	300.62
253.329	323.62
253.562	342.62
253.795	337.62
254.028	336.62
254.261	334.62
254.494	332.62
254.727	323.62
254.96	328.62
255.193	364.62
255.426	387.62
255.659	442.62
255.892	423.62
256.124	383.62
256.357	384.62
256.59	386.62
256.823	386.62
257.056	412.62
257.289	453.62
257.521	505.62
257.754	443.62
257.987	432.62
258.22	457.62
258.452	424.62
258.685	365.62
258.918	373.62
259.151	354.62
259.383	351.62
259.616	325.62
259.849	354.62
260.081	383.62
260.314	418.62
260.547	453.62
260.779	439.62
261.012	396.62
261.244	400.62
261.477	383.62
261.71	407.62
261.942	369.62
262.175	369.62
262.407	403.62
262.64	366.62
262.872	348.62
263.105	339.62
263.337	357.62
263.57	357.62
263.802	359.62
264.035	347.62
264.267	354.62
264.499	328.62
264.732	360.62
264.964	369.62
265.197	379.62
265.429	383.62
265.661	440.62
265.894	459.62
266.126	493.62
266.358	449.62
266.591	441.62
266.823	433.62
267.055	430.62
267.287	419.62
267.52	433.62
267.752	421.62
267.984	449.62
268.216	448.62
268.448	428.62
268.681	436.62
268.913	408.62
269.145	383.62
269.377	401.62
269.609	419.62
269.841	496.62
270.073	554.62
270.306	573.62
270.538	608.62
270.77	504.62
271.002	474.62
271.234	474.62
271.466	446.62
271.698	523.62
271.93	562.62
272.162	564.62
272.394	530.62
272.626	499.62
272.858	452.62
273.09	413.62
273.322	396.62
273.553	372.62
273.785	383.62
274.017	415.62
274.249	415.62
274.481	427.62
274.713	398.62
274.945	388.62
275.176	403.62
275.408	378.62
275.64	394.62
275.872	380.62
276.104	437.62
276.335	466.62
276.567	515.62
276.799	515.62
277.031	454.62
277.262	449.62
277.494	452.62
277.726	534.62
277.957	479.62
278.189	446.62
278.421	423.62
278.652	419.62
278.884	411.62
279.115	405.62
279.347	416.62
279.579	422.62
279.81	440.62
280.042	463.62
280.273	500.62
280.505	483.62
280.736	465.62
280.968	429.62
281.199	411.62
281.431	391.62
281.662	405.62
281.894	415.62
282.125	443.62
282.356	445.62
282.588	431.62
282.819	437.62
283.051	481.62
283.282	489.62
283.513	462.62
283.745	416.62
283.976	413.62
284.207	428.62
284.439	413.62
284.67	442.62
284.901	448.62
285.132	456.62
285.364	446.62
285.595	440.62
285.826	426.62
286.057	445.62
286.288	453.62
286.52	463.62
286.751	463.62
286.982	450.62
287.213	419.62
287.444	385.62
287.675	448.62
287.906	457.62
288.138	456.62
288.369	453.62
288.6	436.62
288.831	432.62
289.062	412.62
289.293	423.62
289.524	420.62
289.755	429.62
289.986	459.62
290.217	434.62
290.448	437.62
290.679	442.62
290.91	468.62
291.141	487.62
291.371	456.62
291.602	443.62
291.833	474.62
292.064	473.62
292.295	473.62
292.526	475.62
292.757	479.62
292.987	444.62
293.218	466.62
293.449	497.62
293.68	560.62
293.91	573.62
294.141	519.62
294.372	522.62
294.603	513.62
294.833	543.62
295.064	506.62
295.295	472.62
295.525	449.62
295.756	440.62
295.987	427.62
296.217	429.62
296.448	436.62
296.679	435.62
296.909	443.62
297.14	453.62
297.37	460.62
297.601	500.62
297.831	488.62
298.062	507.62
298.292	454.62
298.523	450.62
298.753	461.62
298.984	447.62
299.214	466.62
299.445	446.62
299.675	482.62
299.905	480.62
300.136	466.62
300.366	460.62
300.597	450.62
300.827	454.62
301.057	459.62
301.288	469.62
301.518	495.62
301.748	511.62
301.979	521.62
302.209	554.62
302.439	562.62
302.669	581.62
302.9	526.62
303.13	495.62
303.36	470.62
303.59	484.62
303.82	480.62
304.051	490.62
304.281	484.62
304.511	491.62
304.741	554.62
304.971	573.62
305.201	611.62
305.431	546.62
305.661	453.62
305.891	417.62
306.121	448.62
306.352	477.62
306.582	472.62
306.812	537.62
307.042	557.62
307.272	549.62
307.502	578.62
307.731	598.62
307.961	603.62
308.191	549.62
308.421	503.62
308.651	496.62
308.881	464.62
309.111	449.62
309.341	471.62
309.571	461.62
309.8	477.62
310.03	471.62
310.26	464.62
310.49	470.62
310.72	484.62
310.949	514.62
311.179	508.62
311.409	472.62
311.639	480.62
311.868	484.62
312.098	490.62
312.328	482.62
312.557	488.62
312.787	499.62
313.017	513.62
313.246	493.62
313.476	488.62
313.706	488.62
313.935	514.62
314.165	500.62
314.394	554.62
314.624	565.62
314.853	605.62
315.083	596.62
315.312	602.62
315.542	546.62
315.771	545.62
316.001	522.62
316.23	554.62
316.46	552.62
316.689	533.62
316.919	513.62
317.148	517.62
317.377	517.62
317.607	563.62
317.836	620.62
318.065	623.62
318.295	583.62
318.524	575.62
318.753	544.62
318.983	529.62
319.212	539.62
319.441	522.62
319.67	536.62
319.9	541.62
320.129	555.62
320.358	581.62
320.587	592.62
320.816	607.62
321.046	606.62
321.275	572.62
321.504	584.62
321.733	582.62
321.962	576.62
322.191	538.62
322.42	543.62
322.649	515.62
322.878	549.62
323.108	555.62
323.337	567.62
323.566	538.62
323.795	551.62
324.024	551.62
324.253	557.62
324.482	547.62
324.71	516.62
324.939	517.62
325.168	538.62
325.397	522.62
325.626	551.62
325.855	541.62
326.084	552.62
326.313	554.62
326.542	554.62
326.77	567.62
326.999	559.62
327.228	535.62
327.457	487.62
327.686	496.62
327.914	510.62
328.143	545.62
328.372	550.62
328.6	553.62
328.829	541.62
329.058	521.62
329.287	536.62
329.515	526.62
329.744	561.62
329.972	594.62
330.201	601.62
330.43	567.62
330.658	524.62
330.887	556.62
331.115	579.62
331.344	574.62
331.572	578.62
331.801	553.62
332.03	572.62
332.258	549.62
332.486	590.62
332.715	591.62
332.943	593.62
333.172	569.62
333.4	597.62
333.629	610.62
333.857	658.62
334.085	701.62
334.314	793.62
334.542	793.62
334.771	731.62
334.999	663.62
335.227	618.62
335.455	599.62
335.684	614.62
335.912	609.62
336.14	660.62
336.369	638.62
336.597	575.62
336.825	597.62
337.053	608.62
337.281	634.62
337.51	684.62
337.738	696.62
337.966	617.62
338.194	601.62
338.422	570.62
338.65	580.62
338.878	549.62
339.106	553.62
339.334	542.62
339.562	542.62
339.79	554.62
340.018	598.62
340.246	597.62
340.474	578.62
340.702	588.62
340.93	599.62
341.158	581.62
341.386	564.62
341.614	584.62
341.842	576.62
342.07	609.62
342.298	583.62
342.526	603.62
342.754	579.62
342.981	560.62
343.209	569.62
343.437	543.62
343.665	564.62
343.893	590.62
344.12	619.62
344.348	621.62
344.576	579.62
344.804	594.62
345.031	596.62
345.259	581.62
345.487	550.62
345.714	541.62
345.942	543.62
346.17	538.62
346.397	550.62
346.625	550.62
346.853	522.62
347.08	529.62
347.308	533.62
347.535	572.62
347.763	552.62
347.99	535.62
348.218	537.62
348.445	533.62
348.673	552.62
348.9	563.62
349.128	579.62
349.355	585.62
349.583	563.62
349.81	538.62
350.037	541.62
350.265	522.62
350.492	550.62
350.72	522.62
350.947	550.62
351.174	560.62
351.402	519.62
351.629	518.62
351.856	512.62
352.083	512.62
352.311	518.62
352.538	539.62
352.765	551.62
352.992	551.62
353.22	525.62
353.447	547.62
353.674	553.62
353.901	561.62
354.128	537.62
354.355	530.62
354.583	568.62
354.81	535.62
355.037	558.62
355.264	573.62
355.491	550.62
355.718	567.62
355.945	541.62
356.172	539.62
356.399	529.62
356.626	529.62
356.853	536.62
357.08	598.62
357.307	666.62
357.534	635.62
357.761	570.62
357.988	525.62
358.215	547.62
358.441	550.62
358.668	541.62
358.895	524.62
359.122	580.62
359.349	593.62
359.576	590.62
359.802	532.62
360.029	515.62
360.256	529.62
360.483	550.62
360.709	573.62
360.936	581.62
361.163	592.62
361.39	628.62
361.616	681.62
361.843	662.62
362.07	616.62
362.296	555.62
362.523	554.62
362.749	568.62
362.976	564.62
363.203	552.62
363.429	545.62
363.656	540.62
363.882	601.62
364.109	645.62
364.335	627.62
364.562	594.62
364.788	572.62
365.015	548.62
365.241	553.62
365.468	581.62
365.694	583.62
365.92	584.62
366.147	551.62
366.373	565.62
366.599	561.62
366.826	553.62
367.052	545.62
367.278	546.62
367.505	561.62
367.731	577.62
367.957	580.62
368.184	602.62
368.41	643.62
368.636	641.62
368.862	664.62
369.089	654.62
369.315	608.62
369.541	562.62
369.767	567.62
369.993	551.62
370.219	557.62
370.445	603.62
370.672	615.62
370.898	656.62
371.124	633.62
371.35	609.62
371.576	610.62
371.802	649.62
372.028	611.62
372.254	591.62
372.48	581.62
372.706	575.62
372.932	592.62
373.158	585.62
373.384	617.62
373.61	613.62
373.835	619.62
374.061	604.62
374.287	608.62
374.513	583.62
374.739	579.62
374.965	617.62
375.191	623.62
375.416	620.62
375.642	631.62
375.868	667.62
376.094	677.62
376.319	644.62
376.545	639.62
376.771	642.62
376.997	671.62
377.222	629.62
377.448	630.62
377.674	665.62
377.899	680.62
378.125	696.62
378.35	670.62
378.576	627.62
378.802	589.62
379.027	588.62
379.253	610.62
379.478	617.62
379.704	639.62
379.929	629.62
380.155	624.62
380.38	634.62
380.606	645.62
380.831	647.62
381.057	689.62
381.282	671.62
381.507	677.62
381.733	694.62
381.958	734.62
382.184	662.62
382.409	640.62
382.634	658.62
382.86	675.62
383.085	698.62
383.31	677.62
383.535	771.62
383.761	770.62
383.986	718.62
384.211	707.62
384.436	730.62
384.662	771.62
384.887	756.62
385.112	740.62
385.337	716.62
385.562	733.62
385.787	707.62
386.013	730.62
386.238	737.62
386.463	737.62
386.688	769.62
386.913	824.62
387.138	786.62
387.363	738.62
387.588	727.62
387.813	733.62
388.038	772.62
388.263	767.62
388.488	744.62
388.713	689.62
388.938	698.62
389.163	714.62
389.387	735.62
389.612	692.62
389.837	721.62
390.062	737.62
390.287	732.62
390.512	726.62
390.736	726.62
390.961	698.62
391.186	704.62
391.411	726.62
391.636	725.62
391.86	722.62
392.085	718.62
392.31	723.62
392.534	756.62
392.759	746.62
392.984	761.62
393.208	748.62
393.433	771.62
393.658	800.62
393.882	776.62
394.107	768.62
394.331	747.62
394.556	746.62
394.78	764.62
395.005	795.62
395.229	788.62
395.454	846.62
395.678	812.62
395.903	801.62
396.127	768.62
396.352	785.62
396.576	825.62
396.801	780.62
397.025	831.62
397.249	787.62
397.474	808.62
397.698	799.62
397.922	839.62
398.147	846.62
398.371	888.62
398.595	857.62
398.82	845.62
399.044	859.62
399.268	887.62
399.492	966.62
399.717	949.62
399.941	954.62
400.165	926.62
400.389	943.62
400.613	920.62
400.837	1108.62
401.062	1132.62
401.286	962.62
401.51	933.62
401.734	935.62
401.958	916.62
402.182	855.62
402.406	851.62
402.63	876.62
402.854	852.62
403.078	848.62
403.302	886.62
403.526	887.62
403.75	899.62
403.974	917.62
404.198	901.62
404.422	935.62
404.645	985.62
404.869	928.62
405.093	896.62
405.317	895.62
405.541	889.62
405.765	866.62
405.988	917.62
406.212	928.62
406.436	947.62
406.66	964.62
406.883	982.62
407.107	1127.62
407.331	1170.62
407.555	1267.62
407.778	1087.62
408.002	934.62
408.226	930.62
408.449	945.62
408.673	905.62
408.896	937.62
409.12	936.62
409.344	929.62
409.567	895.62
409.791	923.62
410.014	968.62
410.238	980.62
410.461	1006.62
410.685	945.62
410.908	915.62
411.132	945.62
411.355	895.62
411.578	881.62
411.802	918.62
412.025	923.62
412.249	904.62
412.472	913.62
412.695	897.62
412.919	891.62
413.142	877.62
413.365	886.62
413.589	915.62
413.812	955.62
414.035	967.62
414.258	890.62
414.482	880.62
414.705	915.62
414.928	907.62
415.151	878.62
415.374	877.62
415.597	919.62
415.821	927.62
416.044	906.62
416.267	901.62
416.49	883.62
416.713	881.62
416.936	913.62
417.159	948.62
417.382	933.62
417.605	888.62
417.828	903.62
418.051	912.62
418.274	888.62
418.497	908.62
418.72	915.62
418.943	889.62
419.166	937.62
419.389	939.62
419.611	951.62
419.834	911.62
420.057	915.62
420.28	895.62
420.503	933.62
420.726	924.62
420.948	947.62
421.171	875.62
421.394	884.62
421.617	943.62
421.839	965.62
422.062	962.62
422.285	886.62
422.507	889.62
422.73	880.62
422.953	867.62
423.175	853.62
423.398	915.62
423.621	896.62
423.843	920.62
424.066	925.62
424.288	1001.62
424.511	1014.62
424.733	964.62
424.956	890.62
425.178	869.62
425.401	893.62
425.623	915.62
425.846	894.62
426.068	932.62
426.291	945.62
426.513	947.62
426.735	938.62
426.958	998.62
427.18	1010.62
427.402	969.62
427.625	981.62
427.847	971.62
428.069	885.62
428.292	899.62
428.514	884.62
428.736	861.62
428.958	899.62
429.181	919.62
429.403	1000.62
429.625	1181.62
429.847	1013.62
430.069	921.62
430.292	994.62
430.514	1003.62
430.736	956.62
430.958	968.62
431.18	869.62
431.402	855.62
431.624	785.62
431.846	764.62
432.068	695.62
432.29	723.62
432.512	743.62
432.734	874.62
432.956	890.62
433.178	949.62
433.4	925.62
433.622	941.62
433.844	897.62
434.066	836.62
434.287	781.62
434.509	769.62
434.731	821.62
434.953	879.62
435.175	886.62
435.397	904.62
435.618	849.62
435.84	798.62
436.062	812.62
436.284	876.62
436.505	902.62
436.727	932.62
436.949	895.62
437.17	893.62
437.392	859.62
437.614	828.62
437.835	788.62
438.057	780.62
438.278	805.62
438.5	839.62
438.721	844.62
438.943	893.62
439.165	907.62
439.386	907.62
439.608	922.62
439.829	905.62
440.05	915.62
440.272	921.62
440.493	917.62
440.715	939.62
440.936	990.62
441.158	1016.62
441.379	1008.62
441.6	999.62
441.822	1009.62
442.043	983.62
442.264	959.62
442.486	916.62
442.707	916.62
442.928	943.62
443.149	923.62
443.371	956.62
443.592	988.62
443.813	984.62
444.034	970.62
444.255	1014.62
444.476	1002.62
444.698	992.62
444.919	1008.62
445.14	1077.62
445.361	1023.62
445.582	1058.62
445.803	1009.62
446.024	1027.62
446.245	1041.62
446.466	1025.62
446.687	1018.62
446.908	1009.62
447.129	971.62
447.35	949.62
447.571	979.62
447.792	927.62
448.013	922.62
448.234	931.62
448.455	945.62
448.675	943.62
448.896	888.62
449.117	885.62
449.338	895.62
449.559	917.62
449.779	991.62
450	995.62
450.221	1023.62
450.442	995.62
450.662	903.62
450.883	859.62
451.104	827.62
451.324	896.62
451.545	871.62
451.766	853.62
451.986	832.62
452.207	811.62
452.428	778.62
452.648	759.62
452.869	749.62
453.089	743.62
453.31	727.62
453.53	728.62
453.751	693.62
453.971	677.62
454.192	734.62
454.412	758.62
454.633	767.62
454.853	744.62
455.073	731.62
455.294	737.62
455.514	733.62
455.734	720.62
455.955	735.62
456.175	727.62
456.395	685.62
456.616	727.62
456.836	727.62
457.056	721.62
457.276	711.62
457.497	681.62
457.717	676.62
457.937	677.62
458.157	711.62
458.377	684.62
458.598	654.62
458.818	656.62
459.038	691.62
459.258	700.62
459.478	691.62
459.698	681.62
459.918	731.62
460.138	792.62
460.358	805.62
460.578	837.62
460.798	794.62
461.018	864.62
461.238	837.62
461.458	846.62
461.678	833.62
461.898	770.62
462.118	801.62
462.338	813.62
462.558	810.62
462.777	831.62
462.997	845.62
463.217	863.62
463.437	847.62
463.657	791.62
463.876	805.62
464.096	811.62
464.316	820.62
464.536	829.62
464.755	848.62
464.975	861.62
465.195	841.62
465.414	849.62
465.634	851.62
465.854	854.62
466.073	915.62
466.293	911.62
466.512	850.62
466.732	853.62
466.951	883.62
467.171	871.62
467.391	856.62
467.61	858.62
467.829	890.62
468.049	929.62
468.268	992.62
468.488	921.62
468.707	895.62
468.927	882.62
469.146	884.62
469.365	891.62
469.585	904.62
469.804	879.62
470.023	906.62
470.243	884.62
470.462	933.62
470.681	905.62
470.901	921.62
471.12	899.62
471.339	913.62
471.558	900.62
471.777	859.62
471.997	874.62
472.216	819.62
472.435	735.62
472.654	718.62
472.873	755.62
473.092	776.62
473.311	791.62
473.53	789.62
473.749	792.62
473.968	835.62
474.187	845.62
474.406	837.62
474.625	830.62
474.844	845.62
475.063	863.62
475.282	808.62
475.501	795.62
475.72	803.62
475.939	868.62
476.158	840.62
476.377	820.62
476.596	810.62
476.814	791.62
477.033	768.62
477.252	792.62
477.471	887.62
477.69	895.62
477.908	914.62
478.127	919.62
478.346	981.62
478.564	981.62
478.783	979.62
479.002	1007.62
479.22	1003.62
479.439	986.62
479.658	1029.62
479.876	957.62
480.095	845.62
480.313	871.62
480.532	869.62
480.751	828.62
480.969	828.62
481.188	759.62
481.406	768.62
481.624	760.62
481.843	781.62
482.061	781.62
482.28	869.62
482.498	855.62
482.717	826.62
482.935	884.62
483.153	954.62
483.372	991.62
483.59	982.62
483.808	954.62
484.027	924.62
484.245	959.62
484.463	1150.62
484.681	1263.62
484.9	971.62
485.118	919.62
485.336	895.62
485.554	875.62
485.772	880.62
485.99	857.62
486.209	864.62
486.427	907.62
486.645	940.62
486.863	985.62
487.081	1013.62
487.299	965.62
487.517	963.62
487.735	1109.62
487.953	1144.62
488.171	1140.62
488.389	1104.62
488.607	1066.62
488.825	1114.62
489.043	1003.62
489.261	924.62
489.479	1001.62
489.696	1013.62
489.914	1025.62
490.132	1004.62
490.35	1068.62
490.568	1116.62
490.786	1152.62
491.003	1152.62
491.221	1243.62
491.439	1228.62
491.657	1271.62
491.874	1315.62
492.092	1418.62
492.31	1429.62
492.527	1405.62
492.745	1345.62
492.963	1269.62
493.18	1258.62
493.398	1320.62
493.615	1283.62
493.833	1254.62
494.05	1187.62
494.268	1179.62
494.485	1198.62
494.703	1199.62
494.92	1202.62
495.138	1201.62
495.355	1215.62
495.573	1212.62
495.79	1259.62
496.008	1252.62
496.225	1207.62
496.442	1212.62
496.66	1195.62
496.877	1166.62
497.094	1210.62
497.312	1189.62
497.529	1178.62
497.746	1132.62
497.963	1239.62
498.181	1265.62
498.398	1205.62
498.615	1160.62
498.832	1135.62
499.049	1127.62
499.267	1135.62
499.484	1196.62
499.701	1301.62
499.918	1341.62
500.135	1471.62
500.352	1495.62
500.569	1510.62
500.786	1618.62
