Data from WStandard_LampEnergy8_LIBS07252019.E.O._I.C._HRD10591_16-00-01-929.txt Node
Date: Thu Jul 25 16:00:01 EDT 2019
User: cochatt
Spectrometer: HR+D1059
Trigger mode: 1
Integration Time (sec): 1.000000E-1
Scans to average: 1
Electric dark correction enabled: true
Nonlinearity correction enabled: false
Boxcar width: 0
XAxis mode: Wavelengths
Number of Pixels in Spectrum: 2048
>>>>>Begin Spectral Data<<<<<
223.165	-22.88
223.4	-22.88
223.635	-22.88
223.869	-17.88
224.104	-14.88
224.338	-16.88
224.573	-9.88
224.808	-25.88
225.042	-6.88
225.277	-5.88
225.511	-11.88
225.746	10.12
225.98	3.12
226.215	17.12
226.449	14.12
226.683	27.12
226.918	30.12
227.152	31.12
227.387	30.12
227.621	24.12
227.856	49.12
228.09	34.12
228.324	26.12
228.559	77.12
228.793	102.12
229.027	198.12
229.262	207.12
229.496	212.12
229.73	222.12
229.964	232.12
230.199	250.12
230.433	257.12
230.667	260.12
230.901	272.12
231.136	241.12
231.37	248.12
231.604	257.12
231.838	262.12
232.072	259.12
232.306	251.12
232.541	272.12
232.775	301.12
233.009	322.12
233.243	304.12
233.477	285.12
233.711	278.12
233.945	315.12
234.179	307.12
234.413	315.12
234.647	330.12
234.881	304.12
235.115	281.12
235.349	289.12
235.583	313.12
235.817	285.12
236.051	302.12
236.285	292.12
236.519	316.12
236.753	358.12
236.987	355.12
237.221	331.12
237.455	393.12
237.689	354.12
237.922	370.12
238.156	330.12
238.39	349.12
238.624	355.12
238.858	369.12
239.091	389.12
239.325	387.12
239.559	490.12
239.793	470.12
240.027	474.12
240.26	489.12
240.494	407.12
240.728	385.12
240.961	374.12
241.195	383.12
241.429	397.12
241.662	426.12
241.896	383.12
242.13	384.12
242.363	419.12
242.597	453.12
242.83	444.12
243.064	448.12
243.298	458.12
243.531	463.12
243.765	454.12
243.998	459.12
244.232	406.12
244.465	395.12
244.699	402.12
244.932	445.12
245.166	495.12
245.399	475.12
245.633	442.12
245.866	442.12
246.099	450.12
246.333	479.12
246.566	483.12
246.8	529.12
247.033	576.12
247.266	523.12
247.5	525.12
247.733	551.12
247.966	538.12
248.2	592.12
248.433	601.12
248.666	609.12
248.899	648.12
249.133	726.12
249.366	806.12
249.599	687.12
249.832	583.12
250.066	629.12
250.299	614.12
250.532	545.12
250.765	529.12
250.998	544.12
251.231	583.12
251.465	599.12
251.698	586.12
251.931	553.12
252.164	583.12
252.397	605.12
252.63	602.12
252.863	539.12
253.096	537.12
253.329	575.12
253.562	578.12
253.795	607.12
254.028	600.12
254.261	583.12
254.494	567.12
254.727	553.12
254.96	580.12
255.193	639.12
255.426	699.12
255.659	781.12
255.892	781.12
256.124	652.12
256.357	653.12
256.59	671.12
256.823	710.12
257.056	725.12
257.289	829.12
257.521	893.12
257.754	799.12
257.987	786.12
258.22	818.12
258.452	801.12
258.685	699.12
258.918	666.12
259.151	658.12
259.383	634.12
259.616	581.12
259.849	604.12
260.081	685.12
260.314	758.12
260.547	815.12
260.779	815.12
261.012	723.12
261.244	677.12
261.477	681.12
261.71	719.12
261.942	688.12
262.175	651.12
262.407	657.12
262.64	669.12
262.872	632.12
263.105	601.12
263.337	608.12
263.57	621.12
263.802	619.12
264.035	599.12
264.267	574.12
264.499	578.12
264.732	617.12
264.964	643.12
265.197	650.12
265.429	713.12
265.661	798.12
265.894	841.12
266.126	847.12
266.358	797.12
266.591	823.12
266.823	849.12
267.055	778.12
267.287	776.12
267.52	750.12
267.752	729.12
267.984	757.12
268.216	787.12
268.448	792.12
268.681	768.12
268.913	705.12
269.145	683.12
269.377	689.12
269.609	750.12
269.841	875.12
270.073	977.12
270.306	1078.12
270.538	1108.12
270.77	952.12
271.002	855.12
271.234	805.12
271.466	834.12
271.698	932.12
271.93	1037.12
272.162	1041.12
272.394	924.12
272.626	905.12
272.858	826.12
273.09	707.12
273.322	711.12
273.553	661.12
273.785	686.12
274.017	702.12
274.249	749.12
274.481	748.12
274.713	714.12
274.945	697.12
275.176	688.12
275.408	678.12
275.64	650.12
275.872	698.12
276.104	728.12
276.335	815.12
276.567	905.12
276.799	895.12
277.031	834.12
277.262	789.12
277.494	802.12
277.726	895.12
277.957	871.12
278.189	827.12
278.421	741.12
278.652	732.12
278.884	736.12
279.115	709.12
279.347	745.12
279.579	766.12
279.81	753.12
280.042	822.12
280.273	893.12
280.505	906.12
280.736	878.12
280.968	811.12
281.199	722.12
281.431	711.12
281.662	720.12
281.894	729.12
282.125	750.12
282.356	773.12
282.588	776.12
282.819	752.12
283.051	834.12
283.282	864.12
283.513	841.12
283.745	766.12
283.976	685.12
284.207	722.12
284.439	742.12
284.67	768.12
284.901	760.12
285.132	754.12
285.364	760.12
285.595	776.12
285.826	755.12
286.057	753.12
286.288	758.12
286.52	809.12
286.751	836.12
286.982	841.12
287.213	811.12
287.444	749.12
287.675	742.12
287.906	777.12
288.138	805.12
288.369	813.12
288.6	746.12
288.831	730.12
289.062	750.12
289.293	766.12
289.524	763.12
289.755	788.12
289.986	792.12
290.217	725.12
290.448	766.12
290.679	754.12
290.91	739.12
291.141	779.12
291.371	827.12
291.602	827.12
291.833	791.12
292.064	819.12
292.295	825.12
292.526	851.12
292.757	854.12
292.987	827.12
293.218	801.12
293.449	862.12
293.68	931.12
293.91	995.12
294.141	941.12
294.372	921.12
294.603	943.12
294.833	955.12
295.064	905.12
295.295	807.12
295.525	810.12
295.756	738.12
295.987	730.12
296.217	755.12
296.448	721.12
296.679	767.12
296.909	776.12
297.14	787.12
297.37	791.12
297.601	862.12
297.831	871.12
298.062	903.12
298.292	808.12
298.523	796.12
298.753	768.12
298.984	783.12
299.214	804.12
299.445	811.12
299.675	840.12
299.905	815.12
300.136	813.12
300.366	784.12
300.597	782.12
300.827	793.12
301.057	810.12
301.288	865.12
301.518	866.12
301.748	869.12
301.979	945.12
302.209	943.12
302.439	997.12
302.669	1022.12
302.9	919.12
303.13	833.12
303.36	850.12
303.59	858.12
303.82	826.12
304.051	856.12
304.281	860.12
304.511	870.12
304.741	965.12
304.971	995.12
305.201	1065.12
305.431	957.12
305.661	829.12
305.891	730.12
306.121	763.12
306.352	792.12
306.582	853.12
306.812	887.12
307.042	933.12
307.272	940.12
307.502	982.12
307.731	1050.12
307.961	1095.12
308.191	1012.12
308.421	885.12
308.651	834.12
308.881	841.12
309.111	841.12
309.341	807.12
309.571	819.12
309.8	833.12
310.03	825.12
310.26	801.12
310.49	831.12
310.72	883.12
310.949	886.12
311.179	871.12
311.409	843.12
311.639	853.12
311.868	827.12
312.098	848.12
312.328	819.12
312.557	797.12
312.787	827.12
313.017	884.12
313.246	877.12
313.476	872.12
313.706	885.12
313.935	883.12
314.165	889.12
314.394	949.12
314.624	996.12
314.853	1002.12
315.083	1056.12
315.312	1079.12
315.542	979.12
315.771	892.12
316.001	895.12
316.23	935.12
316.46	925.12
316.689	922.12
316.919	861.12
317.148	862.12
317.377	879.12
317.607	959.12
317.836	1077.12
318.065	1079.12
318.295	1030.12
318.524	998.12
318.753	961.12
318.983	911.12
319.212	939.12
319.441	930.12
319.67	896.12
319.9	913.12
320.129	960.12
320.358	1013.12
320.587	1019.12
320.816	1029.12
321.046	989.12
321.275	962.12
321.504	964.12
321.733	1049.12
321.962	1013.12
322.191	936.12
322.42	902.12
322.649	915.12
322.878	917.12
323.108	925.12
323.337	960.12
323.566	928.12
323.795	970.12
324.024	953.12
324.253	945.12
324.482	919.12
324.71	891.12
324.939	845.12
325.168	902.12
325.397	948.12
325.626	934.12
325.855	945.12
326.084	925.12
326.313	929.12
326.542	945.12
326.77	966.12
326.999	939.12
327.228	908.12
327.457	895.12
327.686	901.12
327.914	890.12
328.143	938.12
328.372	923.12
328.6	923.12
328.829	907.12
329.058	906.12
329.287	927.12
329.515	939.12
329.744	970.12
329.972	993.12
330.201	1041.12
330.43	995.12
330.658	958.12
330.887	976.12
331.115	994.12
331.344	984.12
331.572	976.12
331.801	944.12
332.03	971.12
332.258	1021.12
332.486	996.12
332.715	1001.12
332.943	996.12
333.172	980.12
333.4	1010.12
333.629	1033.12
333.857	1085.12
334.085	1234.12
334.314	1377.12
334.542	1445.12
334.771	1291.12
334.999	1142.12
335.227	1085.12
335.455	1035.12
335.684	1063.12
335.912	1099.12
336.14	1112.12
336.369	1045.12
336.597	1012.12
336.825	997.12
337.053	1027.12
337.281	1099.12
337.51	1134.12
337.738	1194.12
337.966	1099.12
338.194	1023.12
338.422	977.12
338.65	959.12
338.878	966.12
339.106	964.12
339.334	915.12
339.562	938.12
339.79	967.12
340.018	1019.12
340.246	1072.12
340.474	1058.12
340.702	1015.12
340.93	1003.12
341.158	1030.12
341.386	981.12
341.614	991.12
341.842	963.12
342.07	978.12
342.298	982.12
342.526	959.12
342.754	948.12
342.981	955.12
343.209	977.12
343.437	960.12
343.665	954.12
343.893	995.12
344.12	1065.12
344.348	1041.12
344.576	1010.12
344.804	988.12
345.031	980.12
345.259	979.12
345.487	969.12
345.714	879.12
345.942	918.12
346.17	945.12
346.397	932.12
346.625	934.12
346.853	880.12
347.08	905.12
347.308	905.12
347.535	914.12
347.763	955.12
347.99	905.12
348.218	924.12
348.445	917.12
348.673	918.12
348.9	962.12
349.128	1015.12
349.355	1011.12
349.583	979.12
349.81	925.12
350.037	870.12
350.265	869.12
350.492	865.12
350.72	883.12
350.947	947.12
351.174	967.12
351.402	907.12
351.629	844.12
351.856	840.12
352.083	855.12
352.311	877.12
352.538	882.12
352.765	937.12
352.992	919.12
353.22	912.12
353.447	891.12
353.674	938.12
353.901	924.12
354.128	887.12
354.355	876.12
354.583	935.12
354.81	999.12
355.037	963.12
355.264	917.12
355.491	929.12
355.718	941.12
355.945	890.12
356.172	893.12
356.399	877.12
356.626	912.12
356.853	947.12
357.08	1047.12
357.307	1092.12
357.534	1049.12
357.761	953.12
357.988	880.12
358.215	885.12
358.441	883.12
358.668	838.12
358.895	913.12
359.122	979.12
359.349	1048.12
359.576	989.12
359.802	919.12
360.029	893.12
360.256	888.12
360.483	895.12
360.709	936.12
360.936	986.12
361.163	1002.12
361.39	1128.12
361.616	1160.12
361.843	1126.12
362.07	1028.12
362.296	898.12
362.523	930.12
362.749	942.12
362.976	944.12
363.203	965.12
363.429	920.12
363.656	902.12
363.882	964.12
364.109	1035.12
364.335	1070.12
364.562	1005.12
364.788	976.12
365.015	933.12
365.241	881.12
365.468	940.12
365.694	957.12
365.92	976.12
366.147	928.12
366.373	921.12
366.599	907.12
366.826	903.12
367.052	866.12
367.278	901.12
367.505	883.12
367.731	951.12
367.957	945.12
368.184	979.12
368.41	1048.12
368.636	1042.12
368.862	1065.12
369.089	1063.12
369.315	1040.12
369.541	964.12
369.767	909.12
369.993	922.12
370.219	956.12
370.445	961.12
370.672	1025.12
370.898	1024.12
371.124	1021.12
371.35	977.12
371.576	1020.12
371.802	1093.12
372.028	985.12
372.254	960.12
372.48	966.12
372.706	907.12
372.932	938.12
373.158	978.12
373.384	966.12
373.61	1000.12
373.835	1050.12
374.061	966.12
374.287	988.12
374.513	966.12
374.739	1011.12
374.965	979.12
375.191	1025.12
375.416	1032.12
375.642	973.12
375.868	1098.12
376.094	1141.12
376.319	1027.12
376.545	1017.12
376.771	1023.12
376.997	1079.12
377.222	1099.12
377.448	1039.12
377.674	1055.12
377.899	1051.12
378.125	1105.12
378.35	1103.12
378.576	984.12
378.802	955.12
379.027	945.12
379.253	959.12
379.478	1013.12
379.704	990.12
379.929	1011.12
380.155	970.12
380.38	997.12
380.606	1046.12
380.831	1010.12
381.057	1078.12
381.282	1075.12
381.507	1053.12
381.733	1128.12
381.958	1139.12
382.184	1054.12
382.409	1029.12
382.634	1033.12
382.86	1038.12
383.085	1035.12
383.31	1089.12
383.535	1187.12
383.761	1205.12
383.986	1191.12
384.211	1123.12
384.436	1090.12
384.662	1186.12
384.887	1207.12
385.112	1142.12
385.337	1153.12
385.562	1129.12
385.787	1107.12
386.013	1164.12
386.238	1155.12
386.463	1163.12
386.688	1237.12
386.913	1312.12
387.138	1265.12
387.363	1176.12
387.588	1177.12
387.813	1167.12
388.038	1201.12
388.263	1229.12
388.488	1157.12
388.713	1061.12
388.938	1076.12
389.163	1110.12
389.387	1125.12
389.612	1096.12
389.837	1138.12
390.062	1144.12
390.287	1131.12
390.512	1139.12
390.736	1129.12
390.961	1100.12
391.186	1073.12
391.411	1113.12
391.636	1105.12
391.86	1127.12
392.085	1112.12
392.31	1107.12
392.534	1149.12
392.759	1155.12
392.984	1147.12
393.208	1157.12
393.433	1216.12
393.658	1220.12
393.882	1247.12
394.107	1143.12
394.331	1143.12
394.556	1123.12
394.78	1128.12
395.005	1198.12
395.229	1247.12
395.454	1310.12
395.678	1253.12
395.903	1200.12
396.127	1208.12
396.352	1231.12
396.576	1248.12
396.801	1253.12
397.025	1231.12
397.249	1245.12
397.474	1233.12
397.698	1213.12
397.922	1272.12
398.147	1317.12
398.371	1362.12
398.595	1351.12
398.82	1271.12
399.044	1328.12
399.268	1349.12
399.492	1437.12
399.717	1514.12
399.941	1487.12
400.165	1503.12
400.389	1435.12
400.613	1425.12
400.837	1621.12
401.062	1818.12
401.286	1512.12
401.51	1443.12
401.734	1454.12
401.958	1420.12
402.182	1313.12
402.406	1269.12
402.63	1290.12
402.854	1299.12
403.078	1307.12
403.302	1305.12
403.526	1362.12
403.75	1345.12
403.974	1367.12
404.198	1364.12
404.422	1426.12
404.645	1514.12
404.869	1426.12
405.093	1337.12
405.317	1312.12
405.541	1323.12
405.765	1337.12
405.988	1331.12
406.212	1365.12
406.436	1426.12
406.66	1504.12
406.883	1511.12
407.107	1709.12
407.331	1777.12
407.555	1908.12
407.778	1709.12
408.002	1417.12
408.226	1433.12
408.449	1414.12
408.673	1381.12
408.896	1407.12
409.12	1360.12
409.344	1371.12
409.567	1331.12
409.791	1370.12
410.014	1394.12
410.238	1453.12
410.461	1527.12
410.685	1355.12
410.908	1344.12
411.132	1381.12
411.355	1349.12
411.578	1329.12
411.802	1351.12
412.025	1371.12
412.249	1320.12
412.472	1263.12
412.695	1298.12
412.919	1282.12
413.142	1286.12
413.365	1297.12
413.589	1370.12
413.812	1381.12
414.035	1455.12
414.258	1331.12
414.482	1300.12
414.705	1296.12
414.928	1287.12
415.151	1327.12
415.374	1333.12
415.597	1356.12
415.821	1314.12
416.044	1342.12
416.267	1302.12
416.49	1269.12
416.713	1279.12
416.936	1319.12
417.159	1378.12
417.382	1358.12
417.605	1337.12
417.828	1320.12
418.051	1322.12
418.274	1330.12
418.497	1249.12
418.72	1291.12
418.943	1247.12
419.166	1320.12
419.389	1380.12
419.611	1304.12
419.834	1274.12
420.057	1306.12
420.28	1284.12
420.503	1283.12
420.726	1286.12
420.948	1317.12
421.171	1218.12
421.394	1275.12
421.617	1355.12
421.839	1343.12
422.062	1305.12
422.285	1243.12
422.507	1294.12
422.73	1248.12
422.953	1223.12
423.175	1246.12
423.398	1279.12
423.621	1276.12
423.843	1270.12
424.066	1323.12
424.288	1409.12
424.511	1392.12
424.733	1401.12
424.956	1233.12
425.178	1240.12
425.401	1271.12
425.623	1280.12
425.846	1265.12
426.068	1337.12
426.291	1351.12
426.513	1308.12
426.735	1292.12
426.958	1419.12
427.18	1491.12
427.402	1359.12
427.625	1405.12
427.847	1375.12
428.069	1281.12
428.292	1239.12
428.514	1210.12
428.736	1271.12
428.958	1254.12
429.181	1293.12
429.403	1463.12
429.625	1773.12
429.847	1460.12
430.069	1316.12
430.292	1441.12
430.514	1409.12
430.736	1324.12
430.958	1370.12
431.18	1295.12
431.402	1195.12
431.624	1199.12
431.846	1189.12
432.068	1135.12
432.29	1129.12
432.512	1188.12
432.734	1225.12
432.956	1275.12
433.178	1319.12
433.4	1317.12
433.622	1336.12
433.844	1282.12
434.066	1185.12
434.287	1214.12
434.509	1225.12
434.731	1273.12
434.953	1364.12
435.175	1312.12
435.397	1227.12
435.618	1229.12
435.84	1228.12
436.062	1245.12
436.284	1242.12
436.505	1301.12
436.727	1346.12
436.949	1275.12
437.17	1237.12
437.392	1209.12
437.614	1207.12
437.835	1167.12
438.057	1233.12
438.278	1285.12
438.5	1214.12
438.721	1231.12
438.943	1247.12
439.165	1229.12
439.386	1229.12
439.608	1265.12
439.829	1263.12
440.05	1225.12
440.272	1284.12
440.493	1255.12
440.715	1257.12
440.936	1350.12
441.158	1429.12
441.379	1391.12
441.6	1358.12
441.822	1349.12
442.043	1332.12
442.264	1304.12
442.486	1246.12
442.707	1287.12
442.928	1299.12
443.149	1298.12
443.371	1361.12
443.592	1389.12
443.813	1382.12
444.034	1362.12
444.255	1344.12
444.476	1401.12
444.698	1386.12
444.919	1405.12
445.14	1492.12
445.361	1473.12
445.582	1468.12
445.803	1405.12
446.024	1379.12
446.245	1426.12
446.466	1381.12
446.687	1314.12
446.908	1353.12
447.129	1287.12
447.35	1311.12
447.571	1308.12
447.792	1236.12
448.013	1231.12
448.234	1265.12
448.455	1292.12
448.675	1317.12
448.896	1210.12
449.117	1143.12
449.338	1220.12
449.559	1286.12
449.779	1297.12
450	1381.12
450.221	1481.12
450.442	1416.12
450.662	1292.12
450.883	1163.12
451.104	1166.12
451.324	1178.12
451.545	1191.12
451.766	1165.12
451.986	1107.12
452.207	1128.12
452.428	1113.12
452.648	1071.12
452.869	1080.12
453.089	1153.12
453.31	1161.12
453.53	1175.12
453.751	1117.12
453.971	1074.12
454.192	1085.12
454.412	1159.12
454.633	1128.12
454.853	1133.12
455.073	1061.12
455.294	1075.12
455.514	1081.12
455.734	1074.12
455.955	1058.12
456.175	1052.12
456.395	1072.12
456.616	1098.12
456.836	1086.12
457.056	1077.12
457.276	1078.12
457.497	1083.12
457.717	1029.12
457.937	1041.12
458.157	1066.12
458.377	1045.12
458.598	1034.12
458.818	1071.12
459.038	1096.12
459.258	1168.12
459.478	1150.12
459.698	1101.12
459.918	1162.12
460.138	1205.12
460.358	1243.12
460.578	1263.12
460.798	1298.12
461.018	1358.12
461.238	1315.12
461.458	1283.12
461.678	1270.12
461.898	1259.12
462.118	1193.12
462.338	1254.12
462.558	1244.12
462.777	1268.12
462.997	1359.12
463.217	1386.12
463.437	1348.12
463.657	1313.12
463.876	1245.12
464.096	1220.12
464.316	1235.12
464.536	1291.12
464.755	1315.12
464.975	1306.12
465.195	1247.12
465.414	1320.12
465.634	1295.12
465.854	1280.12
466.073	1372.12
466.293	1372.12
466.512	1184.12
466.732	1194.12
466.951	1250.12
467.171	1250.12
467.391	1193.12
467.61	1170.12
467.829	1210.12
468.049	1326.12
468.268	1438.12
468.488	1337.12
468.707	1223.12
468.927	1214.12
469.146	1190.12
469.365	1193.12
469.585	1240.12
469.804	1222.12
470.023	1223.12
470.243	1252.12
470.462	1234.12
470.681	1216.12
470.901	1257.12
471.12	1258.12
471.339	1204.12
471.558	1218.12
471.777	1185.12
471.997	1225.12
472.216	1154.12
472.435	1124.12
472.654	1103.12
472.873	1166.12
473.092	1239.12
473.311	1167.12
473.53	1123.12
473.749	1135.12
473.968	1179.12
474.187	1213.12
474.406	1239.12
474.625	1201.12
474.844	1189.12
475.063	1218.12
475.282	1236.12
475.501	1189.12
475.72	1201.12
475.939	1269.12
476.158	1250.12
476.377	1189.12
476.596	1203.12
476.814	1250.12
477.033	1213.12
477.252	1287.12
477.471	1266.12
477.69	1285.12
477.908	1277.12
478.127	1355.12
478.346	1450.12
478.564	1445.12
478.783	1361.12
479.002	1449.12
479.22	1425.12
479.439	1476.12
479.658	1581.12
479.876	1541.12
480.095	1398.12
480.313	1331.12
480.532	1277.12
480.751	1322.12
480.969	1288.12
481.188	1265.12
481.406	1229.12
481.624	1205.12
481.843	1248.12
482.061	1299.12
482.28	1300.12
482.498	1320.12
482.717	1317.12
482.935	1317.12
483.153	1351.12
483.372	1359.12
483.59	1337.12
483.808	1336.12
484.027	1332.12
484.245	1453.12
484.463	1739.12
484.681	1863.12
484.9	1453.12
485.118	1376.12
485.336	1325.12
485.554	1371.12
485.772	1411.12
485.99	1373.12
486.209	1400.12
486.427	1359.12
486.645	1382.12
486.863	1387.12
487.081	1423.12
487.299	1449.12
487.517	1476.12
487.735	1440.12
487.953	1503.12
488.171	1480.12
488.389	1471.12
488.607	1462.12
488.825	1601.12
489.043	1566.12
489.261	1391.12
489.479	1463.12
489.696	1493.12
489.914	1473.12
490.132	1442.12
490.35	1453.12
490.568	1514.12
490.786	1501.12
491.003	1465.12
491.221	1561.12
491.439	1609.12
491.657	1573.12
491.874	1650.12
492.092	1653.12
492.31	1697.12
492.527	1664.12
492.745	1563.12
492.963	1601.12
493.18	1603.12
493.398	1759.12
493.615	1680.12
